Dividing Wavelength (nm)	Counts (n)	Blue Motor Position (mm): 32.700000	Red Motor Position (mm): 0.000000	
326.493990	2223.063147
326.888308	2223.063147
327.282561	2223.063147
327.676750	2180.707372
328.070874	2179.134532
328.464933	2177.105468
328.858929	2184.410099
329.252859	2187.333969
329.646726	2195.944259
330.040528	2208.121167
330.434265	2222.874103
330.827938	2240.387072
331.221547	2254.658578
331.615091	2271.206166
332.008571	2289.929011
332.401986	2311.381641
332.795338	2328.057778
333.188625	2350.543845
333.581847	2368.112266
333.975006	2385.267313
334.368100	2405.626012
334.761129	2423.489341
335.154095	2438.796805
335.546996	2464.741103
335.939833	2506.479336
336.332606	2519.099865
336.725315	2533.419263
337.117960	2547.272353
337.510540	2557.117727
337.903056	2568.530899
338.295508	2579.034143
338.687896	2588.599732
339.080220	2594.197934
339.472480	2599.738162
339.864676	2605.432145
340.256807	2611.955398
340.648875	2617.430091
341.040879	2618.788682
341.432818	2619.038219
341.824694	2623.174486
342.216506	2622.587192
342.608253	2623.897892
342.999937	2627.073819
343.391557	2626.950310
343.783113	2624.361678
344.174605	2625.364867
344.566033	2623.862604
344.957397	2623.585340
345.348697	2619.663322
345.739934	2619.791872
346.131106	2617.782972
346.522215	2613.878598
346.913260	2612.197374
347.304241	2612.179730
347.695159	2610.135542
348.086012	2610.425408
348.476802	2609.215531
348.867528	2602.760334
349.258191	2598.712287
349.648789	2599.342431
350.039324	2596.012749
350.429796	2599.851588
350.820203	2598.344283
351.210548	2598.624067
351.600828	2594.709611
351.991045	2592.975454
352.381198	2591.818509
352.771288	2592.851946
353.161314	2592.093252
353.551276	2592.599888
353.941175	2588.299784
354.331010	2589.854980
354.720782	2588.990422
355.110490	2590.903540
355.500135	2589.456729
355.889717	2590.661564
356.279235	2590.011256
356.668689	2590.091914
357.058080	2589.862542
357.447408	2593.577872
357.836672	2590.364136
358.225873	2592.874631
358.615010	2593.963520
359.004084	2595.977461
359.393095	2593.058633
359.782043	2595.095259
360.170927	2595.054930
360.559748	2593.895465
360.948505	2596.960486
361.337199	2597.436875
361.725830	2597.474684
362.114398	2595.448140
362.502903	2597.373861
362.891344	2598.619026
363.279722	2598.230857
363.668037	2600.557349
364.056289	2599.647421
364.444478	2600.501897
364.832603	2601.744541
365.220665	2600.897627
365.608665	2601.651280
365.996601	2603.955087
366.384474	2602.520879
366.772284	2603.546754
367.160031	2605.653956
367.547715	2604.902824
367.935336	2604.449120
368.322893	2598.929057
368.710388	2600.701022
369.097820	2600.086002
369.485189	2602.798142
369.872495	2606.329471
370.259738	2603.952567
370.646918	2604.350818
371.034035	2608.295521
371.421090	2607.052876
371.808081	2604.663369
372.195010	2608.749224
372.581875	2607.708226
372.968678	2611.174019
373.355418	2606.737804
373.742096	2608.061107
374.128710	2609.492795
374.515262	2609.454986
374.901751	2610.919441
375.288177	2611.005141
375.674540	2609.986828
376.060841	2611.073196
376.447079	2613.530759
376.833254	2611.549585
377.219367	2611.965481
377.605417	2612.424226
377.991404	2611.088320
378.377329	2610.871550
378.763191	2613.843310
379.148991	2615.083434
379.534727	2611.700820
379.920402	2612.477158
380.306013	2613.923969
380.691563	2617.402365
381.077049	2614.075203
381.462474	2613.588732
381.847835	2615.290122
382.233134	2615.285080
382.618371	2614.259206
383.003545	2614.967488
383.388657	2617.911522
383.773706	2617.452777
384.158693	2617.258692
384.543618	2616.079062
384.928480	2616.419340
385.313280	2620.527880
385.698017	2617.266254
386.082692	2620.026286
386.467305	2619.980915
386.851856	2622.730865
387.236344	2620.172479
387.620770	2619.950668
388.005133	2618.886985
388.389435	2621.616770
388.773674	2619.917901
389.157851	2620.537963
389.541965	2625.740433
389.926018	2622.672891
390.310008	2623.698766
390.693936	2624.596092
391.077802	2623.502161
391.461606	2623.976030
391.845348	2623.865124
392.229027	2626.993160
392.612645	2627.915691
392.996200	2627.537605
393.379694	2628.371916
393.763125	2625.289250
394.146494	2628.676906
394.529801	2631.767133
394.913047	2630.532050
395.296230	2629.944756
395.679351	2631.109262
396.062410	2632.959366
396.445408	2631.177318
396.828343	2633.486166
397.211217	2629.100362
397.594028	2633.914664
397.976778	2634.270066
398.359466	2637.781229
398.742092	2635.555560
399.124656	2635.313585
399.507158	2637.080509
399.889598	2638.408853
400.271977	2636.936836
400.654294	2640.327012
401.036549	2638.628143
401.418742	2639.117135
401.800874	2640.725263
402.182944	2639.321302
402.564952	2641.267187
402.946898	2643.008906
403.328783	2645.073258
403.710606	2645.005203
404.092367	2646.557878
404.474067	2643.331540
404.855705	2646.240286
405.237282	2647.046870
405.618797	2647.061994
406.000250	2651.833446
406.381642	2650.036274
406.762972	2648.602066
407.144240	2647.435039
407.525447	2649.393527
407.906593	2646.888074
408.287677	2656.627583
408.668700	2654.051553
409.049661	2655.024496
409.430560	2655.435350
409.811399	2659.548932
410.192176	2659.949703
410.572891	2663.823830
410.953545	2666.450271
411.334138	2669.084274
411.714669	2673.147444
412.095139	2677.707168
412.475547	2684.827798
412.855894	2691.892975
413.236180	2702.350848
413.616405	2710.865357
413.996568	2726.800445
414.376670	2743.005234
414.756711	2757.732965
415.136691	2778.222734
415.516609	2804.119142
415.896466	2829.501351
416.276262	2864.665920
416.655997	2905.723598
417.035670	2953.415433
417.415283	3013.279135
417.794834	3062.039696
418.174324	3104.829010
418.553753	3156.432781
418.933121	3244.345463
419.312428	3318.768017
419.691674	3360.216384
420.070859	3496.566993
420.449983	3531.882796
420.829045	3668.155267
421.208047	3711.773851
421.586988	3862.761449
421.965867	3955.107826
422.344686	4071.742482
422.723444	4178.095705
423.102141	4105.505610
423.480777	4402.371598
423.859352	4367.796845
424.237866	4658.729395
424.616319	4715.850709
424.994712	4961.231393
425.373044	4928.355508
425.751314	5205.737437
426.129524	5263.554430
426.507673	5437.804434
426.885762	5613.430672
427.263789	5691.923958
427.641756	5765.590339
428.019662	5940.495692
428.397508	6171.085631
428.775292	6124.669207
429.153016	6459.164888
429.530679	6483.498538
429.908282	6621.059023
430.285824	6561.495270
430.663305	7076.857469
431.040726	6861.252360
431.418086	6955.854653
431.795385	7267.786130
432.172624	7430.023063
432.549802	7487.083884
432.926920	7650.641600
433.303977	7656.811972
433.680974	7902.255670
434.057910	8073.440652
434.434786	8198.927574
434.811601	8197.354734
435.188355	8715.640802
435.565050	8593.289478
435.941683	8623.296946
436.318257	9113.312223
436.694770	9287.126167
437.071222	9446.933264
437.447614	9396.993074
437.823946	9377.768634
438.200218	9587.460469
438.576429	9478.740425
438.952580	9751.905428
439.328670	9877.427638
439.704700	9727.803672
440.080670	9775.487946
440.456580	10352.390030
440.832429	10161.274847
441.208218	9839.218213
441.583947	10200.500065
441.959616	10357.063180
442.335224	10212.593793
442.710773	10394.087934
443.086261	10615.334094
443.461689	9968.848963
443.837057	10600.172824
444.212365	10910.231512
444.587612	10577.797663
444.962800	10844.729279
445.337927	10650.095371
445.712995	10228.581812
446.088002	11323.618730
446.462949	10984.971659
446.837837	10977.535957
447.212664	11004.846408
447.587431	11489.157620
447.962139	12198.140455
448.336786	14421.032203
448.711374	15010.443910
449.085901	12905.074062
449.460369	12517.074095
449.834776	11984.269503
450.209124	12820.183552
450.583412	13231.186304
450.957640	14192.962841
451.331808	13388.611457
451.705917	12353.806245
452.079965	11688.840244
452.453954	12572.012589
452.827883	12206.869213
453.201752	12499.278822
453.575562	12010.738082
453.949311	12429.181577
454.323001	12382.147612
454.696632	12608.210594
455.070202	12894.475036
455.443713	13151.841063
455.817164	13599.702212
456.190556	13610.848203
456.563888	13968.616371
456.937160	14151.269978
457.310373	13485.038648
457.683526	13559.630080
458.056619	13124.361734
458.429653	13247.247421
458.802628	12711.342520
459.175542	13067.152199
459.548398	14011.486344
459.921194	14343.355584
460.293930	14399.198965
460.666607	15299.722962
461.039224	16323.596432
461.411782	17008.986667
461.784280	16927.844255
462.156719	16958.635623
462.529099	16658.613872
462.901419	15575.789150
463.273680	15369.621081
463.645882	15229.643362
464.018024	14965.010511
464.390106	15183.138718
464.762130	15915.061324
465.134094	16661.134449
465.505999	18626.849213
465.877845	21883.328733
466.249631	24722.403235
466.621358	24444.343272
466.993026	22992.725377
467.364634	22441.964196
467.736184	20973.554219
468.107674	20174.823721
468.479105	20311.088630
468.850477	19772.983266
469.221790	19349.017186
469.593043	18675.506429
469.964238	18124.026884
470.335373	17793.861554
470.706449	18213.600626
471.077467	17750.706756
471.448425	19569.504652
471.819324	23563.956164
472.190164	25662.449878
472.560945	22140.369606
472.931667	19739.915817
473.302330	19102.018292
473.672934	18596.249409
474.043479	18960.596282
474.413965	18774.108878
474.784393	18402.361591
475.154761	19075.403520
475.525070	19081.979705
475.895321	18735.201253
476.265513	19308.624941
476.635645	19891.813344
477.005719	19677.876857
477.375734	19876.483195
477.745691	20355.518840
478.115588	20867.664782
478.485427	21381.680993
478.855207	22442.395215
479.224928	24177.845194
479.594591	26415.910814
479.964194	26475.824928
480.333739	26674.085947
480.703226	26239.989669
481.072653	25913.544710
481.442022	26481.105537
481.811333	27386.519453
482.180584	27318.726016
482.549777	26365.015325
482.918912	26004.852609
483.287988	26120.718489
483.657005	25803.818956
484.025964	25537.676279
484.394864	25465.108870
484.763706	25159.584700
485.132489	24584.371402
485.501213	24752.471197
485.869879	24665.851572
486.238487	24480.760567
486.607036	24630.099708
486.975527	24321.288706
487.343959	24642.342151
487.712333	24591.950777
488.080648	24258.276804
488.448905	24729.594441
488.817104	24481.516740
489.185244	25146.661702
489.553326	25117.125582
489.921350	26107.319102
490.289315	28373.090904
490.657222	30178.582675
491.025070	30668.602993
491.392861	30469.784927
491.760593	29615.619381
492.128267	28721.961436
492.495883	27683.796295
492.863440	26805.957490
493.230939	25927.039879
493.598380	25785.486800
493.965763	25376.702155
494.333088	24933.582211
494.700354	24854.952814
495.067563	24730.922785
495.434713	24501.038608
495.801805	24637.598425
496.168839	24443.589619
496.535815	24280.530977
496.902733	24489.297761
497.269593	24164.748276
497.636395	24360.970149
498.003139	24338.594987
498.369825	24071.272681
498.736453	24263.322999
499.103023	24146.816892
499.469535	24175.208671
499.835989	24382.415217
500.202385	24399.633278
500.568723	23904.299583
500.935003	24166.217773
501.301226	23758.292645
501.667390	24609.418375
502.033497	24852.144891
502.399546	24557.176897
502.765537	24127.630261
503.131470	24523.683471
503.497345	24664.160264
503.863163	23869.762638
504.228923	24487.472863
504.594625	24680.503685
504.960269	24202.801426
505.325856	24699.395409
505.691385	24111.548980
506.056856	24706.142994
506.422270	24670.507077
506.787625	24268.482620
507.152924	24659.618185
507.518164	24687.919223
507.883347	24497.809749
508.248472	24187.483880
508.613540	24968.116636
508.978550	24759.261632
509.343503	24749.257462
509.708398	25013.144222
510.073236	25162.140565
510.438016	25371.761824
510.802738	25042.032554
511.167403	25309.107843
511.532010	24998.633260
511.896561	25780.443125
512.261053	25745.515491
512.625488	25574.796816
512.989866	25482.216025
513.354186	25319.122096
513.718449	25426.854074
514.082655	25803.834079
514.446803	25543.100561
514.810894	26004.895459
515.174927	25493.896379
515.538904	25515.038978
515.902822	26016.422057
516.266684	25772.112618
516.630488	25667.246536
516.994235	25640.455324
517.357925	25945.036798
517.721558	26133.588555
518.085133	26215.673663
518.448651	26144.943754
518.812112	25873.593566
519.175516	26080.351450
519.538863	26236.748207
519.902152	26020.810382
520.265385	26299.180377
520.628560	26079.703662
520.991678	26093.332421
521.354739	26172.564236
521.717743	26228.185807
522.080690	26027.938573
522.443580	26362.189758
522.806413	26353.274478
523.169189	26449.726874
523.531908	26493.685736
523.894569	26091.063902
524.257174	26174.956263
524.619722	26362.033483
524.982213	26052.615021
525.344647	26117.469466
525.707025	26249.787151
526.069345	26234.005819
526.431608	26171.190522
526.793815	26372.400616
527.155964	25836.218451
527.518057	26010.155903
527.880093	25921.799600
528.242072	26157.491186
528.603995	25862.931526
528.965860	25660.264538
529.327669	25715.220677
529.689421	25694.519178
530.051117	25540.632916
530.412755	25717.176644
530.774337	25512.188206
531.135862	25382.920418
531.497331	25581.766211
531.858743	25144.070549
532.220098	25629.848736
532.581396	25294.823734
532.942638	25230.687654
533.303824	25339.473234
533.664953	25346.447670
534.026025	25013.912998
534.387040	25249.029893
534.747999	25309.664891
535.108902	25473.247813
535.469748	24964.010616
535.830537	25149.653627
536.191270	25259.150009
536.551947	25131.233251
536.912567	24790.020232
537.273131	25141.837318
537.633638	24844.240362
537.994089	25057.040069
538.354483	24585.656896
538.714821	25088.070891
539.075103	25134.638550
539.435328	24918.635190
539.795497	24481.468849
540.155609	24860.976993
540.515665	25160.126624
540.875665	24402.763835
541.235609	24688.506517
541.595496	24655.181969
541.955328	25016.221846
542.315102	24926.050727
542.674821	24485.179138
543.034483	24371.160841
543.394090	24533.604462
543.753640	24313.827798
544.113134	24956.942918
544.472571	24550.910743
544.831953	24840.615772
545.191278	24467.502332
545.550548	24388.754468
545.909761	24588.439613
546.268918	24824.678165
546.628019	24788.704491
546.987064	24487.702236
547.346053	24242.601336
547.704986	24356.728018
548.063863	24511.075546
548.422684	24523.302864
548.781449	24065.553492
549.140158	24456.903306
549.498811	24041.018196
549.857408	23778.487507
550.215949	24211.089083
550.574434	23909.093721
550.932864	24106.343988
551.291237	24271.353557
551.649555	24135.983453
552.007817	24181.502551
552.366022	24045.860225
552.724173	24092.574077
553.082267	24033.262381
553.440305	24507.425750
553.798288	23764.425208
554.156215	24282.809579
554.514086	24381.470001
554.871902	23748.074226
555.229661	24034.588205
555.587365	23897.846907
555.945014	23762.786833
556.302606	24007.189533
556.660143	23958.388644
557.017625	24208.417272
557.375050	23731.067893
557.732421	24131.179233
558.089735	23937.261168
558.446994	23999.847093
558.804197	24038.510222
559.161345	23969.050684
559.518437	23728.280135
559.875474	23929.243213
560.232455	24098.280663
560.589381	23928.502163
560.946251	23917.295678
561.303065	24240.970522
561.659825	24319.236957
562.016528	23916.680657
562.373177	23654.533096
562.729770	24015.716645
563.086307	23876.195151
563.442789	24045.638414
563.799216	23865.419684
564.155587	23888.409867
564.511904	23865.374314
564.868164	23804.623369
565.224370	23775.566158
565.580520	23694.708571
565.936615	23822.055679
566.292654	23513.272403
566.648638	23803.852072
567.004567	23640.959789
567.360441	23578.676333
567.716260	23309.327483
568.072023	23646.626046
568.427732	23401.386514
568.783385	23175.016021
569.138982	23416.779677
569.494525	23446.114152
569.850013	23197.323127
570.205445	23296.679228
570.560823	23098.014917
570.916145	22859.520449
571.271412	23039.295557
571.626625	22785.803656
571.981782	22907.436616
572.336884	22714.226833
572.691931	22846.020239
573.046923	22585.944591
573.401860	22462.637968
573.756743	22471.613743
574.111570	22379.020349
574.466342	22299.929687
574.821059	22386.330023
575.175722	22092.846648
575.530330	22084.990010
575.884882	22112.416408
576.239380	22015.774968
576.593823	21908.894945
576.948211	21884.233620
577.302544	21731.579920
577.656823	21598.329621
578.011047	21697.862162
578.365216	21569.738717
578.719330	21448.072989
579.073389	21337.170125
579.427394	21486.781489
579.781344	21268.612953
580.135239	21148.285652
580.489080	21112.790888
580.842866	20885.765045
581.196597	21071.413097
581.550273	21051.475334
581.903895	20939.470978
582.257463	21255.294225
582.610975	20779.326123
582.964434	21087.562434
583.317837	20797.527209
583.671186	20884.832432
584.024481	20857.322855
584.377721	20623.181424
584.730906	20693.815551
585.084037	20707.971111
585.437113	20619.816453
585.790135	20822.869089
586.143103	20285.966040
586.496016	20303.509255
586.848874	20545.386338
587.201679	20462.416507
587.554428	20148.156017
587.907124	20484.413582
588.259765	20255.237687
588.612352	20331.520427
588.964884	19894.545650
589.317362	20064.961855
589.669786	20118.919846
590.022155	20167.146044
590.374470	20363.073009
590.726731	20145.017899
591.078937	19918.198743
591.431090	20006.912969
591.783188	19762.830382
592.135232	19726.506348
592.487222	19829.335804
592.839157	19847.458752
593.191038	19733.296782
593.542866	19610.854717
593.894639	19328.726542
594.246358	19551.066632
594.598022	19453.285892
594.949633	19203.524445
595.301190	19174.789868
595.652692	19340.840435
596.004141	19571.475744
596.355535	18912.370084
596.706876	18919.861239
597.058162	18812.242686
597.409395	19042.454538
597.760573	19118.681826
598.111698	18896.187980
598.462768	18833.029884
598.813785	18788.390467
599.164748	18603.750646
599.515657	18648.092635
599.866511	18442.569834
600.217312	18806.808323
600.568060	18325.741093
600.918753	18625.576321
601.269392	18530.714409
601.619978	18319.908478
601.970510	18532.236837
602.320988	18456.029714
602.671412	18674.011727
603.021783	18592.017360
603.372100	18316.062078
603.722363	18453.176421
604.072572	18393.549654
604.422728	18542.833343
604.772830	18291.786402
605.122878	18247.013394
605.472872	18228.204849
605.822813	18221.532882
606.172701	18193.070527
606.522534	18383.268220
606.872314	18419.161236
607.222041	18243.524915
607.571714	18459.482905
607.921333	18296.414181
608.270899	18368.825315
608.620411	18545.454742
608.969870	18313.065112
609.319276	18309.178382
609.668627	18347.060133
610.017926	18481.172469
610.367171	18595.720087
610.716362	18635.792219
611.065500	18463.659501
611.414585	18596.824100
611.763616	18578.368436
612.112594	18513.365278
612.461518	18487.592379
612.810389	18674.813271
613.159207	18538.142549
613.507971	18448.102500
613.856682	18712.664774
614.205340	18645.652716
614.553945	18797.424215
614.902496	18541.749494
615.250994	18775.895967
615.599439	18718.646103
615.947830	18690.594603
616.296169	18754.024921
616.644454	18722.699191
616.992686	18690.072843
617.340864	18911.051822
617.688990	18665.668618
618.037063	18833.677673
618.385082	18681.835598
618.733048	18965.309761
619.080961	18835.863013
619.428821	18872.698724
619.776628	18761.148072
620.124382	18686.165949
620.472083	18722.711794
620.819731	18742.309280
621.167326	18427.164067
621.514868	18466.162434
621.862357	18255.830372
622.209793	18256.699971
622.557176	18080.395697
622.904506	17909.001508
623.251783	17838.662288
623.599007	17583.237105
623.946179	17534.985701
624.293297	17465.480792
624.640363	17222.615644
624.987376	17246.593892
625.334336	17040.163683
625.681243	16884.394550
626.028097	16892.881333
626.374899	16813.740258
626.721647	16686.977924
627.068343	16506.970923
627.414987	16446.582942
627.761577	16418.609579
628.108115	16472.033207
628.454600	16186.126687
628.801032	16286.700227
629.147412	16219.826800
629.493739	16228.424488
629.840014	16042.582352
630.186236	16138.187834
630.532405	15912.591159
630.878521	16101.687360
631.224585	15999.513254
631.570597	15820.080944
631.916556	15850.451376
632.262462	15840.270766
632.608316	15747.710140
632.954117	15692.743919
633.299866	15690.147725
633.645562	15608.828872
633.991206	15358.706983
634.336797	15225.897785
634.682336	15193.427713
635.027823	15084.206073
635.373257	14965.423886
635.718639	14858.480848
636.063968	14808.777592
636.409245	14560.886413
636.754470	14584.726030
637.099642	14433.783801
637.444762	14200.668245
637.789829	14252.050205
638.134845	14089.309156
638.479808	14121.590185
638.824719	14057.970823
639.169577	13924.564248
639.514383	13964.666627
639.859137	13777.481023
640.203839	13867.831103
640.548489	13700.731977
640.893086	13698.163509
641.237632	13561.608733
641.582125	13715.588257
641.926566	13550.828226
642.270955	13560.628229
642.615292	13517.042413
642.959576	13528.528682
643.303809	13566.261718
643.647990	13490.354544
643.992118	13556.212178
644.336195	13326.154081
644.680219	13534.462120
645.024192	13453.859111
645.368112	13706.569633
645.711981	13754.992436
646.055797	13936.287452
646.399562	13906.552206
646.743274	14173.708154
647.086935	14448.967757
647.430544	14409.850923
647.774101	14442.915852
648.117606	14593.782463
648.461059	14563.142330
648.804460	14550.763776
649.147810	14273.573412
649.491108	14176.261498
649.834354	14189.862531
650.177548	13886.034710
650.520690	13695.022870
650.863781	13614.495478
651.206820	13662.514989
651.549807	13494.460564
651.892742	13295.773568
652.235626	13232.401223
652.578458	13228.610275
652.921238	12927.761775
653.263967	13125.022125
653.606644	12955.352010
653.949269	12927.998709
654.291843	12727.388513
654.634365	12886.827606
654.976836	12733.647105
655.319255	12733.284142
655.661622	12705.318341
656.003938	12619.424641
656.346203	12552.097511
656.688416	12630.787402
657.030577	12590.490939
657.372687	12497.912669
657.714746	12472.056591
658.056753	12662.466013
658.398708	12471.849903
658.740612	12481.307108
659.082465	12584.882655
659.424266	12553.844271
659.766016	12578.866038
660.107715	12483.429434
660.449362	12564.957494
660.790958	12518.286492
661.132503	12453.210237
661.473996	12520.905372
661.815438	12541.435471
662.156829	12557.443655
662.498168	12544.437478
662.839456	12533.838452
663.180693	12553.952656
663.521879	12647.781132
663.863013	12628.229016
664.204097	12602.962753
664.545129	12726.773492
664.886110	12691.465250
665.227040	12792.860498
665.567918	12786.778346
665.908746	12809.980257
666.249522	12805.518835
666.590248	12852.341072
666.930922	12963.518679
667.271545	12948.523767
667.612118	13031.664997
667.952639	12930.703288
668.293109	12946.040999
668.633528	12904.186819
668.973896	12880.518602
669.314213	12955.462915
669.654480	12698.996734
669.994695	12759.871187
670.334859	12782.425310
670.674973	12733.896642
671.015035	12774.611521
671.355047	12715.756050
671.695008	12684.027028
672.034918	12692.609592
672.374777	12724.890621
672.714585	12649.084270
673.054342	12683.941328
673.394049	12633.421405
673.733705	12727.239798
674.073310	12636.708237
674.412864	12651.350268
674.752368	12523.287317
675.091820	12539.945810
675.431223	12521.170032
675.770574	12387.307233
676.109875	12311.679843
676.449125	12268.691403
676.788324	12214.655275
677.127473	12045.756457
677.466571	12038.222452
677.805619	11934.084817
678.144616	11859.667304
678.483562	11829.324599
678.822458	11696.681759
679.161303	11681.112155
679.500098	11665.051039
679.838842	11614.556322
680.177535	11652.004533
680.516179	11701.155783
680.854771	11654.580563
681.193314	11866.571164
681.531805	12023.900534
681.870247	12451.657562
682.208638	12868.954195
682.546978	13165.076613
682.885268	13214.399262
683.223508	12908.756625
683.561697	12747.991708
683.899836	12654.271617
684.237925	12451.410545
684.575963	12371.916590
684.913951	12294.797019
685.251889	12242.043864
685.589776	12341.773011
685.927614	12259.473654
686.265401	12230.308058
686.603137	12278.483845
686.940824	12431.981938
687.278460	12559.661762
687.616046	12598.992845
687.953582	12766.117177
688.291068	12696.178729
688.628504	12928.457454
688.965889	12939.245523
689.303224	12899.032239
689.640510	12792.679017
689.977745	12483.384063
690.314930	12255.292017
690.652065	12171.349243
690.989150	11873.777493
691.326185	11655.198104
691.663170	11445.811258
692.000105	11200.410410
692.336990	11088.380848
692.673825	10836.401293
693.010610	10713.442510
693.347345	10509.237970
693.684030	10308.731117
694.020665	10250.503270
694.357251	10053.815091
694.693786	9990.896450
695.030272	9830.665895
695.366707	9705.438592
695.703093	9648.287031
696.039429	9647.956836
696.375716	9565.876769
696.711952	9435.076471
697.048139	9476.179518
697.384276	9428.893495
697.720363	9448.543913
698.056400	9381.327688
698.392388	9326.739554
698.728326	9293.200757
699.064214	9231.028207
699.400053	9268.413404
699.735842	9091.846990
700.071581	9050.393582
700.407270	8978.090833
700.742910	8892.771825
701.078501	8804.705388
701.414042	8671.424842
701.749533	8613.113815
702.084974	8475.848237
702.420366	8589.269158
702.755709	8474.303124
703.091002	8332.278696
703.426246	8366.624078
703.761440	8318.541552
704.096584	8275.664018
704.431679	8204.765230
704.766725	8193.634363
705.101721	8147.580902
705.436668	8190.667644
705.771565	8082.668484
706.106413	8162.011205
706.441212	8200.754992
706.775961	8162.197727
707.110661	8202.395888
707.445311	8338.481836
707.779913	8244.577743
708.114465	8373.669090
708.448967	8401.196311
708.783421	8552.521667
709.117825	8738.210048
709.452180	8774.720605
709.786485	8862.313173
710.120742	9141.525041
710.454949	9141.772058
710.789107	9243.996575
711.123216	9461.383732
711.457275	9632.180545
711.791286	9781.852403
712.125247	9780.466085
712.459159	9762.948076
712.793023	10010.070478
713.126837	9586.626158
713.460602	9741.321526
713.794318	9562.206809
714.127985	9595.967416
714.461602	9272.219475
714.795171	9221.820539
715.128691	8970.745872
715.462162	8723.903253
715.795584	8664.258842
716.128957	8515.834670
716.462281	8347.792847
716.795556	8395.830002
717.128782	8192.951286
717.461960	7926.390194
717.795088	8003.492122
718.128167	7911.508708
718.461198	7737.684683
718.794180	7678.867020
719.127113	7672.837800
719.459997	7515.087493
719.792833	7284.774818
720.125619	7349.634303
720.458357	7205.207766
720.791046	7199.649894
721.123686	7191.581527
721.456278	7029.904162
721.788821	7048.952162
722.121315	6945.351409
722.453761	7016.502254
722.786158	6957.503110
723.118506	6974.517005
723.450805	6936.534431
723.783056	6998.472568
724.115259	6912.503251
724.447412	6906.514360
724.779518	6958.433203
725.111574	6955.305167
725.443582	7036.482868
725.775542	7024.106835
726.107453	7209.449897
726.439315	7120.667616
726.771129	7180.957296
727.102895	7354.312494
727.434612	7466.452962
727.766281	7495.545460
728.097901	7574.973880
728.429473	7568.206131
728.760996	7541.457769
729.092471	7523.314656
729.423897	7467.985472
729.755276	7480.263203
730.086606	7406.077583
730.417887	7504.264136
730.749120	7704.234106
731.080305	7901.832213
731.411442	8013.808843
731.742530	8009.430601
732.073570	8119.194164
732.404562	8204.571146
732.735506	8050.579019
733.066401	8195.270217
733.397249	8128.663972
733.728048	7884.709934
734.058798	7547.176958
734.389501	7318.091804
734.720156	7142.218549
735.050762	6910.499392
735.381320	6820.131668
735.711831	6765.170488
736.042293	6655.096894
736.372707	6674.964081
736.703073	6538.061466
737.033391	6577.556386
737.363661	6592.236226
737.693883	6619.914681
738.024056	6704.389296
738.354182	6743.927066
738.684260	6778.859742
739.014290	6897.624285
739.344272	7008.537231
739.674207	7036.477827
740.004093	7108.755370
740.333931	7121.038141
740.663722	7127.397557
740.993464	7211.748663
741.323159	7192.786363
741.652806	6938.961747
741.982405	6960.467309
742.311956	7012.083683
742.641460	6845.982705
742.970915	6652.699825
743.300323	6644.359236
743.629683	6595.384427
743.958996	6458.993489
744.288260	6368.371187
744.617477	6320.172715
744.946647	6320.432334
745.275768	6151.258773
745.604842	6111.610098
745.933869	6090.422128
746.262847	6051.257404
746.591778	6038.178130
746.920662	6000.999621
747.249498	5992.810266
747.578286	6039.219129
747.907027	6113.354337
748.235720	6173.641496
748.564365	6145.340458
748.892963	6182.024935
749.221514	6327.505073
749.550017	6151.702394
749.878473	6033.817532
750.206881	6094.548313
750.535242	6032.705958
750.863555	5960.501511
751.191821	5979.882227
751.520039	5980.048585
751.848210	5888.143310
752.176334	5914.311939
752.504411	5957.675945
752.832440	5883.182814
753.160421	5812.780580
753.488356	5864.434763
753.816243	5893.560029
754.144082	5745.818934
754.471875	5716.880190
754.799620	5764.501450
755.127318	5774.432523
755.454969	5725.379575
755.782572	5690.081416
756.110129	5735.739147
756.437638	5722.306992
756.765100	5660.449514
757.092515	5658.385161
757.419882	5710.084715
757.747203	5694.104257
758.074477	5751.535602
758.401703	5742.509416
758.728882	5688.969842
759.056014	5749.781281
759.383099	5874.759046
759.710138	5883.581065
760.037129	5871.900712
760.364073	5880.447988
760.690970	5958.512776
761.017820	5940.528460
761.344623	5897.953395
761.671379	5996.437377
761.998088	6118.171160
762.324751	6366.463110
762.651366	6979.497665
762.977935	8304.522103
763.304456	9942.831568
763.630931	10836.144194
763.957359	10424.833932
764.283740	9474.306730
764.610074	8635.821693
764.936362	7633.431100
765.262602	7035.635954
765.588796	6497.220558
765.914943	6164.315361
766.241044	6003.500033
766.567097	5796.182581
766.893104	5536.772366
767.219064	5360.624368
767.544978	5296.616838
767.870845	5222.312751
768.196665	5112.997850
768.522438	5044.463364
768.848165	5008.003218
769.173846	4946.181028
769.499479	4900.556065
769.825066	4845.864587
770.150607	4785.095998
770.476101	4758.554323
770.801548	4755.569960
771.126949	4680.658414
771.452303	4626.816370
771.777611	4585.504115
772.102872	4603.112865
772.428087	4566.067946
772.753256	4525.673180
773.078378	4483.211541
773.403453	4410.591200
773.728482	4396.763315
774.053465	4350.949308
774.378401	4340.824151
774.703291	4336.776104
775.028135	4264.178448
775.352932	4214.626426
775.677683	4203.702246
776.002388	4224.985997
776.327046	4233.702152
776.651658	4158.757839
776.976224	4099.698201
777.300743	4102.012090
777.625216	4127.089310
777.949643	4118.428608
778.274024	4076.448399
778.598359	4030.465514
778.922647	4054.894946
779.246889	4048.689286
779.571086	4041.006567
779.895236	4024.476624
780.219339	4011.399871
780.543397	4005.632791
780.867409	4055.429308
781.191374	4072.937236
781.515294	4008.178573
781.839167	4002.431658
782.162995	4024.950492
782.486776	4010.401722
782.810511	4022.026623
783.134201	4014.943802
783.457844	3968.209785
783.781441	3915.653236
784.104993	3922.753701
784.428498	3939.369344
784.751958	3937.620063
785.075372	3915.668359
785.398739	3876.067575
785.722061	3888.756159
786.045337	3933.556893
786.368568	3961.144608
786.691752	3875.200497
787.014891	3929.518929
787.337983	4054.625244
787.661030	4215.443093
787.984031	4382.143968
788.306987	4549.958939
788.629897	4630.007421
788.952760	4584.974793
789.275579	4518.280328
789.598351	4452.553764
789.921078	4307.978513
790.243759	4108.384109
790.566395	4092.824587
790.888984	4091.798713
791.211529	3977.523317
791.534027	3918.201539
791.856480	3907.526896
792.178888	3845.349304
792.501249	3799.668888
792.823566	3806.560146
793.145836	3834.949404
793.468062	3785.561219
793.790241	3736.704877
794.112375	3766.830812
794.434464	3835.473684
794.756507	3859.391438
795.078505	3838.899148
795.400457	3873.380640
795.722364	4015.717619
796.044226	4118.274853
796.366042	4189.939896
796.687812	4170.193696
797.009538	4173.470446
797.331218	4131.538128
797.652852	4105.518213
797.974442	4088.285028
798.295986	4087.097837
798.617484	4006.298223
798.938938	3913.919079
799.260346	3957.809885
799.581709	3954.185295
799.903026	3880.980179
800.224299	3841.102132
800.545526	3835.705577
800.866708	3800.863642
801.187845	3737.745875
801.508936	3775.234416
801.829983	3769.386677
802.150984	3692.630069
802.471940	3682.661187
802.792851	3690.875747
803.113717	3694.777600
803.434538	3693.119061
803.755314	3636.965648
804.076045	3611.664097
804.396731	3632.418527
804.717372	3657.485665
805.037967	3640.580155
805.358518	3632.355513
805.679024	3660.447343
805.999485	3673.904703
806.319901	3676.294210
806.640272	3693.565203
806.960598	3703.413097
807.280879	3681.468954
807.601115	3692.541849
807.921306	3706.853684
808.241453	3749.516969
808.561554	3720.006055
808.881611	3658.577075
809.201623	3695.606870
809.521590	3705.285886
809.841513	3678.257739
810.161390	3709.064230
810.481223	3685.302752
810.801011	3632.892396
811.120755	3622.452166
811.440453	3663.129237
811.760107	3659.950789
812.079716	3617.970580
812.399281	3590.171137
812.718801	3610.426494
813.038276	3587.988318
813.357707	3580.121597
813.677093	3599.214967
813.996434	3545.758572
814.315731	3554.182340
814.634983	3559.195768
814.954191	3575.002306
815.273354	3601.765791
815.592473	3597.085080
815.911547	3605.158488
816.230577	3643.519148
816.549562	3695.649720
816.868502	3738.010536
817.187399	3762.508023
817.506250	3759.294287
817.825058	3733.281933
818.143821	3827.612004
818.462539	3930.358281
818.781213	3970.904282
819.099843	4031.239332
819.418429	4280.683186
819.736970	4524.375083
820.055466	4772.135192
820.373919	5135.350326
820.692327	5547.542791
821.010691	6002.486761
821.329011	7401.006182
821.647286	10185.658908
821.965517	14781.651143
822.283704	18815.647986
822.601847	20939.476019
822.919945	19099.424618
823.237999	16487.812018
823.556010	13996.773736
823.873976	11884.613454
824.191897	9782.749728
824.509775	8438.987320
824.827609	7314.764642
825.145398	6769.662156
825.463144	6654.512120
825.780845	6766.385406
826.098502	6971.144473
826.416116	7859.713373
826.733685	9197.738948
827.051210	10308.789091
827.368692	10325.976905
827.686129	9054.895333
828.003522	7538.498612
828.320872	6517.727972
828.638177	5813.078008
828.955439	5253.734263
829.272656	4751.743724
829.589830	4474.349193
829.906960	4298.284374
830.224046	4112.424594
830.541088	3988.097137
830.858086	3937.582255
831.175041	3864.583827
831.491952	3849.641847
831.808819	3863.315976
832.125642	3932.367181
832.442421	4082.465016
832.759157	4362.475907
833.075849	4919.790588
833.392497	5794.153517
833.709101	6573.367187
834.025662	6901.327013
834.342179	6526.650815
834.658653	5857.732549
834.975083	5207.219536
835.291469	4628.399293
835.607811	4224.781831
835.924110	4079.218513
836.240366	3885.214749
836.556578	3677.113397
836.872746	3567.075091
837.188871	3526.962630
837.504952	3460.558031
837.820990	3378.104919
838.136984	3333.077333
838.452935	3360.302084
838.768842	3351.913604
839.084706	3379.962584
839.400526	3539.613406
839.716303	3881.602762
840.032037	4417.041356
840.347727	4670.084594
840.663373	4384.304103
840.978977	3996.898992
841.294537	3691.780634
841.610054	3463.602888
841.925527	3357.799151
842.240957	3289.957823
842.556344	3235.795666
842.871687	3174.114628
843.186987	3126.248872
843.502244	3088.752770
843.817458	3056.575085
844.132629	3024.286495
844.447756	3030.421579
844.762840	3016.124867
845.077881	2984.673108
845.392879	2966.449337
845.707833	2967.613843
846.022745	2961.856846
846.337613	2961.166208
846.652438	2952.523149
846.967221	2948.422171
847.281960	2934.740479
847.596656	2930.994902
847.911309	2929.805189
848.225919	2923.226484
848.540485	2918.288673
848.855009	2920.685742
849.169490	2907.165368
849.483928	2901.700757
849.798323	2899.202865
850.112675	2895.374109
850.426984	2908.193763
850.741251	2907.782909
851.055474	2891.454612
851.369654	2886.398334
851.683792	2893.637431
851.997887	2902.444327
852.311938	2902.277969
852.625947	2888.510578
852.939914	2895.941238
853.253837	2901.627660
853.567718	2885.427912
853.881555	2884.991852
854.195350	2899.752351
854.509103	2896.498286
854.822812	2887.083931
855.136479	2883.333313
855.450103	2884.061759
855.763685	2880.732077
856.077224	2878.912221
856.390720	2889.712893
856.704173	2900.203534
857.017584	2891.626011
857.330953	2887.235166
857.644278	2899.732186
857.957561	2909.443969
858.270802	2911.243661
858.584000	2910.369021
858.897155	2897.403173
859.210268	2896.808317
859.523339	2893.224057
859.836367	2894.101217
860.149352	2891.489900
860.462295	2880.870709
860.775195	2890.058212
861.088054	2891.096690
861.400869	2874.909545
861.713642	2871.935264
862.026373	2887.315824
862.339062	2888.344220
862.651708	2893.103069
862.964312	2898.209758
863.276873	2890.557286
863.589392	2901.136147
863.901869	2913.998652
864.214303	2935.249636
864.526696	2949.823611
864.839045	2946.476285
865.151353	2945.815894
865.463619	2943.565019
865.775842	2947.781944
866.088023	2965.491518
866.400162	2972.687765
866.712258	2942.904628
867.024313	2931.335180
867.336325	2941.707354
867.648296	2962.257617
867.960224	2951.570371
868.272110	2940.063938
868.583954	2944.850513
868.895755	2958.436423
869.207515	2946.065431
869.519233	2948.696913
869.830909	2962.686115
870.142542	2971.976962
870.454134	2969.539564
870.765684	2972.965028
871.077191	2971.732466
871.388657	2980.451142
871.700081	2994.589058
872.011463	3006.181191
872.322803	3008.815194
872.634101	3007.486850
872.945357	3023.250538
873.256571	3048.229455
873.567744	3040.095553
873.878874	3031.661703
874.189963	3055.834036
874.501010	3057.701783
874.812015	3050.276163
875.122979	3051.475958
875.433900	3047.962274
875.744780	3052.458983
876.055618	3058.329407
876.366415	3057.419478
876.677169	3066.911971
876.987882	3062.450550
877.298554	3059.463666
877.609183	3078.904876
877.919771	3104.108125
878.230317	3129.016466
878.540822	3182.447656
878.851285	3224.238821
879.161707	3262.203751
879.472087	3368.612426
879.782425	3603.114300
880.092722	4042.866753
880.402977	4576.407353
880.713191	5219.986258
881.023363	6392.588890
881.333494	7678.612442
881.643583	8223.067139
881.953631	7918.561282
882.263637	7271.486337
882.573602	6677.719072
882.883526	6096.209373
883.193408	5518.273852
883.503248	5061.026075
883.813048	4755.988376
884.122806	4445.135706
884.432522	4127.101913
884.742197	3891.430491
885.051831	3698.906305
885.361424	3563.952096
885.670975	3493.176817
885.980485	3403.358579
886.289954	3326.239007
886.599382	3284.541103
886.908768	3245.837645
887.218113	3198.637321
887.527417	3141.009371
887.836680	3091.064139
888.145901	3088.125147
888.455082	3078.259608
888.764221	3027.777494
889.073319	2996.550066
889.382376	2995.703153
889.691392	2999.017711
890.000366	2998.261538
890.309300	2984.514312
890.618193	2997.586023
890.927044	3017.057480
891.235855	3016.313910
891.544625	3000.136847
891.853353	3013.291738
892.162041	3030.487114
892.470687	3070.876839
892.779293	3120.322996
893.087858	3170.353927
893.396381	3241.620719
893.704864	3368.589741
894.013306	3611.699385
894.321707	3915.081065
894.630068	4121.349957
894.938387	4115.855099
895.246665	4071.268614
895.554903	3944.546609
895.863100	3744.566556
896.171256	3576.645722
896.479371	3433.902930
896.787446	3311.869198
897.095480	3205.662169
897.403473	3143.945843
897.711425	3106.769854
898.019336	3098.756940
898.327207	3066.866601
898.635038	3034.351158
898.942827	3017.213756
899.250576	3006.208917
899.558284	2973.416211
899.865952	2951.978705
900.173579	2935.095880
900.481165	2926.117585
900.788711	2913.048394
901.096216	2889.284395
901.403681	2876.936088
901.711105	2885.178375
902.018489	2880.840462
902.325832	2884.674260
902.633135	2894.970816
902.940397	2926.994746
903.247619	3009.861233
903.554800	3205.735266
903.861941	3554.946075
904.169041	3992.704752
904.476101	4289.336326
904.783121	4237.863625
905.090100	3989.095285
905.397039	3709.989282
905.703938	3460.759677
906.010796	3273.914351
906.317614	3166.225222
906.624391	3068.063875
906.931129	2994.977226
907.237826	2932.189655
907.544483	2887.479662
907.851099	2855.241483
908.157675	2833.380519
908.464211	2817.105154
908.770707	2800.834830
909.077163	2787.299332
909.383578	2771.936416
909.689954	2764.651948
909.996289	2762.486773
910.302584	2762.262441
910.608839	2763.706732
910.915054	2756.502923
911.221229	2749.762900
911.527363	2752.689290
911.833458	2758.554673
912.139513	2763.749582
912.445527	2768.006836
912.751502	2776.024791
913.057436	2784.153652
913.363331	2800.018163
913.669186	2822.083293
913.975000	2853.862727
914.280775	2916.347829
914.586510	2987.362563
914.892205	3068.381467
915.197859	3196.595654
915.503475	3394.100500
915.809050	3611.815332
916.114585	3755.483175
916.420081	3775.488994
916.725536	3712.910631
917.030952	3593.284050
917.336328	3465.306798
917.641665	3333.251252
917.946961	3229.955489
918.252218	3160.740447
918.557435	3078.340267
918.862612	3019.174765
919.167750	2971.455203
919.472848	2933.853236
919.777906	2904.468350
920.082925	2879.688558
920.387904	2846.656398
920.692843	2831.303564
920.997743	2822.209322
921.302603	2806.405305
921.607423	2797.162349
921.912204	2784.738426
922.216946	2773.231992
922.521647	2763.053902
922.826310	2755.167017
923.130932	2749.047057
923.435516	2740.154461
923.740059	2731.639952
924.044564	2723.044785
924.349028	2718.175030
924.653454	2715.803167
924.957840	2705.204142
925.262186	2702.507124
925.566493	2695.484797
925.870761	2693.942204
926.174989	2690.209229
926.479178	2683.078517
926.783328	2677.515604
927.087438	2677.407219
927.391509	2675.302537
927.695541	2673.112156
927.999533	2670.881446
928.303486	2669.343894
928.607400	2668.655776
928.911275	2667.307267
929.215110	2665.373985
929.518906	2663.191165
929.822663	2664.378357
930.126381	2664.161587
930.430060	2666.533450
930.733699	2664.199396
931.037299	2665.898265
931.340861	2669.848009
931.644383	2666.563697
931.947866	2666.200734
932.251309	2666.293996
932.554714	2663.428100
932.858080	2661.247801
933.161407	2661.109169
933.464694	2659.291833
933.767943	2654.326296
934.071153	2660.849549
934.374323	2657.729075
934.677455	2653.751605
934.980548	2657.766884
935.283602	2657.383756
935.586617	2654.222953
935.889593	2655.027017
936.192530	2657.837460
936.495428	2655.846204
936.798287	2655.400062
937.101108	2662.243428
937.403890	2665.603358
937.706632	2669.737104
938.009336	2675.705830
938.312002	2686.773683
938.614628	2697.304653
938.917216	2701.387988
939.219765	2700.445292
939.522275	2700.649459
939.824747	2697.372709
940.127179	2696.651824
940.429573	2692.671833
940.731929	2689.377439
941.034246	2687.252593
941.336524	2683.693538
941.638763	2679.708506
941.940964	2679.567354
942.243126	2676.250274
942.545250	2674.828669
942.847335	2673.621313
943.149381	2666.755261
943.451389	2662.671927
943.753359	2664.249808
944.055290	2662.250990
944.357182	2660.292502
944.659036	2659.927018
944.960851	2659.760660
945.262628	2655.596667
945.564367	2656.841832
945.866067	2660.252173
946.167729	2658.359219
946.469352	2660.723521
946.770937	2658.848211
947.072484	2658.041627
947.373992	2658.659168
947.675462	2655.142963
947.976893	2650.089207
948.278286	2648.702889
948.579641	2649.698517
948.880958	2646.487302
949.182236	2652.992911
949.483476	2648.796151
949.784678	2650.747077
950.085841	2649.517036
950.386967	2647.926552
950.688054	2648.811274
950.989103	2649.539721
951.290114	2650.656336
951.591087	2654.026348
951.892021	2654.502737
952.192917	2657.313180
952.493776	2661.711587
952.794596	2660.937770
953.095378	2659.798469
953.396122	2660.093376
953.696828	2660.136226
953.997496	2656.922491
954.298126	2655.604229
954.598718	2653.590288
954.899272	2649.948054
955.199788	2649.716161
955.500266	2644.743063
955.800706	2643.757517
956.101108	2640.001858
956.401472	2639.144862
956.701798	2638.159316
957.002087	2635.638739
957.302337	2635.888276
957.602550	2634.227216
957.902724	2629.962400
958.202861	2629.886782
958.502960	2628.334107
958.803022	2627.058695
959.103045	2627.255300
959.403031	2626.272275
959.702979	2626.557100
960.002889	2626.284878
960.302762	2626.395783
960.602596	2624.220526
960.902393	2623.963427
961.202153	2623.660957
961.501875	2622.763632
961.801559	2624.233128
962.101205	2621.752881
962.400814	2625.034672
962.700385	2623.194651
962.999918	2620.298508
963.299414	2616.195009
963.598873	2620.036368
963.898293	2618.007303
964.197677	2622.075515
964.497022	2621.510905
964.796331	2623.040896
965.095601	2619.786831
965.394835	2621.238683
965.694030	2623.149280
965.993189	2619.630555
966.292309	2619.542335
966.591393	2620.772376
966.890439	2619.471759
967.189447	2622.662809
967.488419	2619.461676
967.787353	2618.221552
968.086249	2622.781276
968.385108	2619.648199
968.683930	2622.763632
968.982714	2620.520319
969.281462	2621.147942
969.580172	2621.634414
969.878844	2619.940586
970.177480	2620.338837
970.476078	2621.427726
970.774639	2623.076184
971.073162	2621.825977
971.371649	2620.192644
971.670098	2621.389918
971.968510	2623.789507
972.266885	2620.525360
972.565223	2623.552573
972.863524	2619.799434
973.161788	2622.970319
973.460014	2623.459311
973.758204	2620.729527
974.056356	2621.198354
974.354471	2620.764815
974.652550	2622.965278
974.950591	2620.658950
975.248595	2622.105762
975.546563	2621.362191
975.844493	2619.839763
976.142386	2621.405041
976.440243	2617.966974
976.738062	2621.241204
977.035845	2617.392283
977.333590	2619.378497
977.631299	2620.865638
977.928971	2618.153497
978.226606	2614.838938
978.524204	2616.623507
978.821765	2612.880450
979.119290	2619.121398
979.416777	2618.816409
979.714228	2618.294649
980.011642	2618.629886
980.309020	2619.456635
980.606360	2618.750874
980.903664	2616.976388
981.200931	2619.229783
981.498162	2619.993518
981.795356	2622.100720
982.092513	2622.740947
982.389633	2623.877727
982.686717	2626.950310
982.983764	2632.019191
983.280775	2633.045065
983.577749	2638.308030
983.874686	2635.797535
984.171587	2633.108080
984.468451	2631.719242
984.765279	2630.637914
985.062070	2625.460649
985.358824	2624.782614
985.655543	2623.086266
985.952224	2620.714403
986.248869	2621.364712
986.545478	2620.802623
986.842050	2619.232304
987.138586	2619.713734
987.435086	2619.938065
987.731549	2616.232817
988.027975	2616.598301
988.324366	2617.571244
988.620719	2614.838938
988.917037	2614.551592
989.213318	2613.954216
989.509563	2613.301386
989.805772	2613.054370
990.101944	2615.794237
990.398080	2614.632251
990.694180	2614.178547
990.990244	2613.520677
991.286271	2615.695934
991.582262	2614.523866
991.878217	2613.984463
992.174136	2612.356170
992.470019	2614.193671
992.765865	2614.085286
993.061676	2612.603187
993.357450	2615.501850
993.653188	2609.696961
993.948890	2616.966305
994.244556	2618.219032
994.540186	2614.332302
994.835780	2616.613424
995.131337	2615.131325
995.426859	2617.135184
995.722345	2617.147787
996.017795	2618.944958
996.313208	2621.435288
996.608586	2620.064094
996.903928	2621.712552
997.199234	2619.559979
997.494504	2620.124588
997.789738	2617.331789
998.084936	2619.638117
998.380099	2617.558641
998.675225	2616.663836
998.970316	2615.065790
999.265371	2617.745163
999.560390	2618.738271
999.855373	2616.447066
1000.150320	2613.558485
1000.445232	2615.993362
1000.740108	2612.744339
1001.034948	2614.894391
1001.329752	2616.711727
1001.624521	2613.059411
1001.919254	2615.184257
1002.213951	2614.377673
1002.508613	2612.489761
1002.803239	2613.525718
1003.097829	2613.936572
1003.392384	2614.735595
1003.686903	2614.312138
1003.981386	2614.775924
1004.275834	2615.481685
1004.570246	2613.447580
1004.864623	2613.384565
1005.158964	2614.027312
1005.453270	2612.497322
1005.747540	2615.395986
1006.041775	2612.751901
1006.335974	2615.506891
1006.630138	2614.975049
1006.924266	2613.442539
1007.218359	2613.160234
1007.512416	2612.441870
1007.806438	2607.413319
1008.100425	2611.239554
1008.394376	2610.584204
1008.688292	2612.250306
1008.982172	2615.254833
1009.276017	2616.651233
1009.569827	2610.614451
1009.863602	2611.874740
1010.157341	2611.726026
1010.451045	2614.223917
1010.744714	2612.003289
1011.038347	2612.656119
1011.331945	2614.554113
1011.625508	2614.032354
1011.919036	2611.133690
1012.212528	2613.117384
1012.505986	2613.082096
1012.799408	2612.401540
1013.092795	2612.368773
1013.386147	2612.693927
1013.679464	2613.971860
1013.972745	2610.342229
1014.265992	2611.327775
1014.559204	2611.539503
1014.852380	2611.002620
1015.145521	2611.879781
1015.438628	2614.072683
1015.731699	2610.528752
1016.024736	2612.625872
1016.317737	2614.642333
1016.610703	2610.637137
1016.903635	2613.087137
1017.196531	2611.385748
1017.489393	2610.362394
1017.782219	2610.518669
1018.075011	2612.479678
1018.367768	2613.934051
1018.660490	2611.237034
1018.953177	2611.237034
1019.245829	2611.237034
