Dividing Wavelength (nm)	Counts (n)	Blue Motor Position (mm): 35.600000	Red Motor Position (mm): 0.000000	
326.493990	2230.420711
326.888308	2230.420711
327.282561	2230.420711
327.676750	2190.305729
328.070874	2188.629545
328.464933	2188.349761
328.858929	2189.496624
329.252859	2196.569363
329.646726	2207.319623
330.040528	2216.577702
330.434265	2229.160422
330.827938	2250.207239
331.221547	2264.619898
331.615091	2281.512805
332.008571	2301.344704
332.401986	2320.019658
332.795338	2339.506239
333.188625	2359.267562
333.581847	2377.095602
333.975006	2396.514127
334.368100	2418.690163
334.761129	2432.936463
335.154095	2451.765173
335.546996	2475.619913
335.939833	2519.291429
336.332606	2531.453213
336.725315	2546.001982
337.117960	2556.253169
337.510540	2567.139541
337.903056	2579.150090
338.295508	2588.002356
338.687896	2598.709767
339.080220	2604.643205
339.472480	2610.871550
339.864676	2616.817591
340.256807	2621.031996
340.648875	2625.039713
341.040879	2628.026597
341.432818	2631.804942
341.824694	2634.824593
342.216506	2634.673358
342.608253	2635.704274
342.999937	2636.742752
343.391557	2635.353914
343.783113	2634.164202
344.174605	2633.997843
344.566033	2634.925416
344.957397	2632.518265
345.348697	2631.802421
345.739934	2630.973151
346.131106	2628.276134
346.522215	2625.405197
346.913260	2626.123561
347.304241	2624.129785
347.695159	2621.566358
348.086012	2623.721451
348.476802	2619.549897
348.867528	2615.154010
349.258191	2609.555809
349.648789	2610.085130
350.039324	2604.567587
350.429796	2612.441870
350.820203	2609.444904
351.210548	2605.296034
351.600828	2606.783174
351.991045	2603.634974
352.381198	2604.313009
352.771288	2604.660849
353.161314	2602.954418
353.551276	2602.558687
353.941175	2602.876280
354.331010	2601.991558
354.720782	2602.992227
355.110490	2603.932402
355.500135	2603.166147
355.889717	2603.662700
356.279235	2601.520210
356.668689	2603.380396
357.058080	2602.664552
357.447408	2602.641867
357.836672	2604.330653
358.225873	2601.253029
358.615010	2603.418204
359.004084	2602.432659
359.393095	2604.179418
359.782043	2606.006837
360.170927	2607.105808
360.559748	2605.427104
360.948505	2607.662856
361.337199	2610.622013
361.725830	2607.446086
362.114398	2606.977259
362.502903	2607.924996
362.891344	2609.835593
363.279722	2609.795264
363.668037	2609.495315
364.056289	2608.177053
364.444478	2610.445573
364.832603	2610.755604
365.220665	2614.929679
365.608665	2613.903804
365.996601	2614.193671
366.384474	2615.116202
366.772284	2615.073352
367.160031	2614.796088
367.547715	2615.685852
367.935336	2614.758280
368.322893	2613.044287
368.710388	2613.828187
369.097820	2614.859103
369.485189	2612.489761
369.872495	2616.603342
370.259738	2618.438322
370.646918	2617.669546
371.034035	2619.237345
371.421090	2619.197016
371.808081	2618.496295
372.195010	2618.035030
372.581875	2618.329937
372.968678	2618.914711
373.355418	2620.119547
373.742096	2622.163735
374.128710	2624.172635
374.515262	2620.074177
374.901751	2623.194651
375.288177	2621.213477
375.674540	2624.195320
376.060841	2625.226236
376.447079	2623.071142
376.833254	2625.067439
377.219367	2623.303036
377.605417	2624.923767
377.991404	2624.349075
378.377329	2625.269086
378.763191	2625.175824
379.148991	2626.342851
379.534727	2624.628859
379.920402	2624.921246
380.306013	2625.064919
380.691563	2630.532050
381.077049	2629.672533
381.462474	2630.171608
381.847835	2628.445012
382.233134	2628.913840
382.618371	2626.788993
383.003545	2626.864611
383.388657	2631.263017
383.773706	2634.663276
384.158693	2633.657566
384.543618	2634.678399
384.928480	2632.881228
385.313280	2635.772330
385.698017	2633.183697
386.082692	2635.255611
386.467305	2635.810138
386.851856	2636.205869
387.236344	2637.536733
387.620770	2632.941722
388.005133	2635.137144
388.389435	2636.178142
388.773674	2637.887094
389.157851	2641.786426
389.541965	2641.310037
389.926018	2642.451858
390.310008	2642.567805
390.693936	2641.990593
391.077802	2644.594349
391.461606	2644.037301
391.845348	2645.476551
392.229027	2644.624596
392.612645	2646.310862
392.996200	2647.984525
393.379694	2648.160965
393.763125	2647.969401
394.146494	2647.692138
394.529801	2649.983342
394.913047	2653.197078
395.296230	2650.726912
395.679351	2651.820843
396.062410	2652.186327
396.445408	2650.552993
396.828343	2653.171872
397.211217	2653.471821
397.594028	2651.334372
397.976778	2657.827378
398.359466	2657.235042
398.742092	2658.754950
399.124656	2659.127995
399.507158	2660.766370
399.889598	2663.929694
400.271977	2662.936587
400.654294	2666.230981
401.036549	2668.197031
401.418742	2672.061076
401.800874	2678.962415
402.182944	2684.605987
402.564952	2695.767102
402.946898	2706.527444
403.328783	2714.651264
403.710606	2728.690877
404.092367	2752.825401
404.474067	2773.211827
404.855705	2798.715025
405.237282	2824.271154
405.618797	2864.494521
406.000250	2903.129924
406.381642	2962.073615
406.762972	3014.678056
407.144240	3065.510530
407.525447	3124.229890
407.906593	3186.470496
408.287677	3276.742438
408.668700	3328.298319
409.049661	3423.235848
409.430560	3498.724607
409.811399	3536.192983
410.192176	3681.133717
410.572891	3758.654061
410.953545	3906.145619
411.334138	3909.591248
411.714669	4049.211045
412.095139	4062.413827
412.475547	4232.794745
412.855894	4346.364379
413.236180	4512.399822
413.616405	4474.510510
413.996568	4657.685876
414.376670	4756.522738
414.756711	4799.216270
415.136691	4932.277526
415.516609	5131.909739
415.896466	5220.092123
416.276262	5419.880611
416.655997	5495.313917
417.035670	5707.117996
417.415283	6012.506054
417.794834	6135.225383
418.174324	6143.818030
418.553753	6181.606519
418.933121	6498.236351
419.312428	6653.997922
419.691674	6579.161994
420.070859	7015.617532
420.449983	6868.887188
420.829045	7224.170067
421.208047	7128.536857
421.586988	7446.769776
421.965867	7529.636263
422.344686	7697.161367
422.723444	7792.257693
423.102141	7317.965775
423.480777	8026.046244
423.859352	7653.472208
424.237866	8274.796940
424.616319	8203.693985
424.994712	8622.230742
425.373044	8284.465873
425.751314	8745.144155
426.129524	8650.723344
426.507673	8824.554931
426.885762	9002.583279
427.263789	8947.264177
427.641756	8894.148060
428.019662	9022.788224
428.397508	9266.979196
428.775292	9005.744083
429.153016	9390.719358
429.530679	9245.493798
429.908282	9307.144589
430.285824	9041.150627
430.663305	9721.872754
431.040726	9191.351806
431.418086	9200.067961
431.795385	9518.515128
432.172624	9602.130227
432.549802	9536.507007
432.926920	9625.692580
433.303977	9517.890025
433.680974	9720.846879
434.057910	9807.968100
434.434786	9868.310712
434.811601	9724.824350
435.188355	10293.559765
435.565050	10019.963743
435.941683	9957.337488
436.318257	10451.945257
436.694770	10565.608153
437.071222	10647.794084
437.447614	10496.274643
437.823946	10382.145441
438.200218	10533.042299
438.576429	10339.436785
438.952580	10586.806205
439.328670	10646.884156
439.704700	10423.508108
440.080670	10419.528117
440.456580	10992.745118
440.832429	10729.957330
441.208218	10333.374798
441.583947	10675.129741
441.959616	10802.587754
442.335224	10611.258321
442.710773	10766.563668
443.086261	10959.871754
443.461689	10248.930430
443.837057	10883.064734
444.212365	11180.160095
444.587612	10820.899745
444.962800	11058.491847
445.337927	10833.827784
445.712995	10406.864739
446.088002	11500.686738
446.462949	11143.813375
446.837837	11123.328647
447.212664	11114.332708
447.587431	11626.929834
447.962139	12330.022081
448.336786	14591.188789
448.711374	15148.276618
449.085901	13007.948889
449.460369	12614.932973
449.834776	12060.020402
450.209124	12921.412442
450.583412	13331.013753
450.957640	14293.312049
451.331808	13441.258747
451.705917	12420.127665
452.079965	11738.634241
452.453954	12638.354174
452.827883	12265.611258
453.201752	12555.165053
453.575562	12068.562637
453.949311	12495.755055
454.323001	12445.519957
454.696632	12670.395748
455.070202	12954.217750
455.443713	13208.407851
455.817164	13658.212364
456.190556	13654.174400
456.563888	14023.690977
456.937160	14190.762377
457.310373	13533.146379
457.683526	13611.990025
458.056619	13160.063185
458.429653	13307.184219
458.802628	12746.219743
459.175542	13107.725926
459.548398	14064.201689
459.921194	14390.780238
460.293930	14451.115288
460.666607	15341.073027
461.039224	16376.425203
461.411782	17069.508240
461.784280	16954.388451
462.156719	17012.104621
462.529099	16700.793207
462.901419	15624.673218
463.273680	15410.363686
463.645882	15268.364465
464.018024	15018.844993
464.390106	15230.144957
464.762130	15962.710310
465.134094	16714.507666
465.505999	18703.472230
465.877845	21960.526442
466.249631	24800.087416
466.621358	24483.888603
466.993026	23028.351212
467.364634	22479.528354
467.736184	21017.560971
468.107674	20209.970646
468.479105	20337.504276
468.850477	19799.592996
469.221790	19390.813393
469.593043	18714.469507
469.964238	18144.670409
470.335373	17807.734809
470.706449	18253.130834
471.077467	17806.237587
471.448425	19635.107708
471.819324	23664.839735
472.190164	25687.085997
472.560945	22138.995891
472.931667	19765.272821
473.302330	19134.077510
473.672934	18659.818359
474.043479	18994.550974
474.413965	18798.192991
474.784393	18419.567049
475.154761	19111.556155
475.525070	19099.989227
475.895321	18766.688300
476.265513	19356.878866
476.635645	19933.112997
477.005719	19723.655575
477.375734	19909.512835
477.745691	20386.915146
478.115588	20902.078219
478.485427	21434.048499
478.855207	22494.714830
479.224928	24252.119034
479.594591	26477.969939
479.964194	26514.896391
480.333739	26716.066156
480.703226	26273.084844
481.072653	25949.770442
481.442022	26528.121858
481.811333	27442.433410
482.180584	27366.372481
482.549777	26417.584478
482.918912	26065.164974
483.287988	26183.798447
483.657005	25861.091504
484.025964	25597.469405
484.394864	25519.918815
484.763706	25207.072369
485.132489	24637.636233
485.501213	24811.039323
485.869879	24732.120059
486.238487	24539.048908
486.607036	24691.052300
486.975527	24390.738162
487.343959	24713.518202
487.712333	24654.403111
488.080648	24313.013652
488.448905	24805.599918
488.817104	24542.663416
489.185244	25218.571241
489.553326	25191.875811
489.921350	26184.239548
490.289315	28468.915677
490.657222	30251.661762
491.025070	30748.845560
491.392861	30540.005679
491.760593	29678.285964
492.128267	28777.837585
492.495883	27727.898829
492.863440	26865.811110
493.230939	25990.145043
493.598380	25837.357752
493.965763	25440.656753
494.333088	24981.687422
494.700354	24920.487814
495.067563	24796.649349
495.434713	24553.267483
495.801805	24694.016498
496.168839	24497.477033
496.535815	24345.672767
496.902733	24558.099429
497.269593	24228.607093
497.636395	24414.260186
498.003139	24380.250042
498.369825	24127.325271
498.736453	24321.818027
499.103023	24199.360839
499.469535	24214.020514
499.835989	24429.991107
500.202385	24448.005670
500.568723	23964.057421
500.935003	24209.027251
501.301226	23821.942253
501.667390	24659.300592
502.033497	24899.483847
502.399546	24620.365240
502.765537	24188.781977
503.131470	24576.708848
503.497345	24705.573343
503.863163	23935.239665
504.228923	24525.052145
504.594625	24734.703651
504.960269	24265.677218
505.325856	24754.293575
505.691385	24154.696216
506.056856	24769.464927
506.422270	24732.344391
506.787625	24310.845956
507.152924	24717.294026
507.518164	24748.917184
507.883347	24560.375510
508.248472	24237.872733
508.613540	25018.356775
508.978550	24808.012110
509.343503	24804.082531
509.708398	25052.787856
510.073236	25216.164090
510.438016	25414.881333
510.802738	25094.800832
511.167403	25353.268351
511.532010	25057.193824
511.896561	25823.867624
512.261053	25789.731451
512.625488	25628.326308
512.989866	25518.754308
513.354186	25363.854774
513.718449	25483.907333
514.082655	25862.187955
514.446803	25585.499185
514.810894	26059.871762
515.174927	25540.980756
515.538904	25580.531128
515.902822	26060.539715
516.266684	25814.223897
516.630488	25732.322791
516.994235	25689.034403
517.357925	25996.305333
517.721558	26182.467583
518.085133	26282.801668
518.448651	26186.230804
518.812112	25919.611739
519.175516	26140.061397
519.538863	26286.806864
519.902152	26072.202425
520.265385	26354.547369
520.628560	26146.020040
520.991678	26150.146225
521.354739	26207.018002
521.717743	26299.225747
522.080690	26081.246255
522.443580	26413.584322
522.806413	26407.083754
523.169189	26504.108322
523.531908	26547.036267
523.894569	26160.359603
524.257174	26222.920322
524.619722	26413.561637
524.982213	26098.287875
525.344647	26156.399776
525.707025	26302.900748
526.069345	26281.395186
526.431608	26244.292293
526.793815	26427.538236
527.155964	25892.016463
527.518057	26058.198099
527.880093	25978.971325
528.242072	26215.129218
528.603995	25923.082573
528.965860	25716.778393
529.327669	25761.213644
529.689421	25752.215184
530.051117	25588.954896
530.412755	25760.709528
530.774337	25551.635234
531.135862	25429.772902
531.497331	25632.298737
531.858743	25202.563057
532.220098	25659.379816
532.581396	25351.448495
532.942638	25288.822240
533.303824	25379.429419
533.664953	25395.974486
534.026025	25064.155658
534.387040	25289.109586
534.747999	25355.884710
535.108902	25519.313877
535.469748	25014.104562
535.830537	25184.218298
536.191270	25315.177393
536.551947	25181.291908
536.912567	24821.711446
537.273131	25190.842374
537.633638	24889.545212
537.994089	25102.803663
538.354483	24629.963597
538.714821	25129.922551
539.075103	25175.857544
539.435328	24955.140706
539.795497	24528.497773
540.155609	24902.329578
540.515665	25213.182248
540.875665	24446.500885
541.235609	24747.089766
541.595496	24709.767583
541.955328	25061.917385
542.315102	24986.950386
542.674821	24519.554766
543.034483	24398.526745
543.394090	24562.729728
543.753640	24364.506518
544.113134	24998.885318
544.472571	24579.010135
544.831953	24892.332970
545.191278	24512.963458
545.550548	24428.080509
545.909761	24615.472801
546.268918	24862.017991
546.628019	24824.688247
546.987064	24517.356823
547.346053	24272.422281
547.704986	24389.989551
548.063863	24548.730444
548.422684	24562.911210
548.781449	24081.085287
549.140158	24501.008361
549.498811	24066.176075
549.857408	23820.356810
550.215949	24247.776080
550.574434	23919.811214
550.932864	24141.863958
551.291237	24291.250991
551.649555	24151.938704
552.007817	24219.918664
552.366022	24071.940634
552.724173	24111.755667
553.082267	24056.975969
553.440305	24543.409506
553.798288	23797.250682
554.156215	24312.260000
554.514086	24408.717437
554.871902	23783.105204
555.229661	24071.859976
555.587365	23912.889710
555.945014	23792.685917
556.302606	24028.188460
556.660143	23999.015302
557.017625	24243.783486
557.375050	23766.837400
557.732421	24162.532689
558.089735	23983.123065
558.446994	24035.873699
558.804197	24064.948554
559.161345	24007.572661
559.518437	23765.574591
559.875474	23952.424959
560.232455	24128.111691
560.589381	23951.585607
560.946251	23939.600263
561.303065	24255.088274
561.659825	24336.379400
562.016528	23941.745274
562.373177	23685.410163
562.729770	24049.252921
563.086307	23904.695314
563.442789	24070.113216
563.799216	23903.833277
564.155587	23916.826851
564.511904	23897.869592
564.868164	23834.393903
565.224370	23810.612260
565.580520	23730.745259
565.936615	23848.304967
566.292654	23542.102762
566.648638	23821.400329
567.004567	23660.448890
567.360441	23604.247586
567.716260	23331.967305
568.072023	23646.782322
568.427732	23421.979627
568.783385	23188.798536
569.138982	23429.831225
569.494525	23460.811636
569.850013	23219.602506
570.205445	23323.036901
570.560823	23126.527683
570.916145	22882.581207
571.271412	23066.149783
571.626625	22824.965860
571.981782	22942.949024
572.336884	22739.896389
572.691931	22883.044993
573.046923	22615.268983
573.401860	22484.942553
573.756743	22499.362774
574.111570	22413.143920
574.466342	22327.784582
574.821059	22417.822111
575.175722	22130.360395
575.530330	22109.414401
575.884882	22127.348305
576.239380	22038.366899
576.593823	21936.465015
576.948211	21913.880646
577.302544	21755.936255
577.656823	21626.975977
578.011047	21730.939693
578.365216	21591.226635
578.719330	21468.429168
579.073389	21368.468129
579.427394	21506.368892
579.781344	21280.177360
580.135239	21162.899957
580.489080	21118.653750
580.842866	20892.547918
581.196597	21101.244125
581.550273	21079.156310
581.903895	20954.649892
582.257463	21276.376330
582.610975	20806.858385
582.964434	21123.740274
583.317837	20811.589508
583.671186	20898.740975
584.024481	20874.568642
584.377721	20642.221862
584.730906	20723.926363
585.084037	20732.198896
585.437113	20637.941922
585.790135	20842.229641
586.143103	20297.500200
586.496016	20320.278654
586.848874	20568.883156
587.201679	20484.622790
587.554428	20164.761578
587.907124	20498.254070
588.259765	20285.300608
588.612352	20349.303097
588.964884	19919.602705
589.317362	20084.264433
589.669786	20142.625872
590.022155	20181.823363
590.374470	20373.198166
590.726731	20157.366205
591.078937	19935.063924
591.431090	20031.627226
591.783188	19790.337438
592.135232	19752.511140
592.487222	19840.693524
592.839157	19870.038080
593.191038	19745.272043
593.542866	19633.648294
593.894639	19344.071814
594.246358	19559.979392
594.598022	19465.765268
594.949633	19222.070850
595.301190	19197.926244
595.652692	19351.313432
596.004141	19594.329815
596.355535	18912.801103
596.706876	18947.481721
597.058162	18832.041818
597.409395	19062.634277
597.760573	19133.926275
598.111698	18909.322707
598.462768	18839.981635
598.813785	18806.704979
599.164748	18628.270818
599.515657	18657.408687
599.866511	18462.033729
600.217312	18819.000353
600.568060	18337.429008
600.918753	18657.653183
601.269392	18546.631852
601.619978	18329.854675
601.970510	18526.502525
602.320988	18482.919229
602.671412	18696.495273
603.021783	18613.192727
603.372100	18328.322164
603.722363	18467.294173
604.072572	18404.851921
604.422728	18558.690292
604.772830	18317.743303
605.122878	18272.751005
605.472872	18259.812883
605.822813	18244.167662
606.172701	18218.049444
606.522534	18406.800327
606.872314	18429.961908
607.222041	18265.332947
607.571714	18491.095981
607.921333	18306.463721
608.270899	18386.723931
608.620411	18570.262261
608.969870	18328.874170
609.319276	18334.835335
609.668627	18365.140231
610.017926	18493.082195
610.367171	18616.615670
610.716362	18663.896652
611.065500	18474.830698
611.414585	18622.682699
611.763616	18612.544938
612.112594	18540.469041
612.461518	18503.756838
612.810389	18695.439152
613.159207	18556.797339
613.507971	18469.829873
613.856682	18736.975739
614.205340	18659.964552
614.553945	18820.157298
614.902496	18554.317091
615.250994	18793.459347
615.599439	18741.316172
615.947830	18712.072439
616.296169	18777.809085
616.644454	18742.079907
616.992686	18707.782417
617.340864	18924.070602
617.688990	18680.361061
618.037063	18851.621660
618.385082	18708.021872
618.733048	18990.114759
619.080961	18859.427886
619.428821	18894.942815
619.776628	18773.219114
620.124382	18708.094968
620.472083	18747.801617
620.819731	18771.270708
621.167326	18467.591601
621.514868	18499.202156
621.862357	18269.847300
622.209793	18280.950441
622.557176	18113.342158
622.904506	17948.821582
623.251783	17860.901338
623.599007	17613.975541
623.946179	17546.464408
624.293297	17489.675810
624.640363	17244.945435
624.987376	17266.892098
625.334336	17061.225624
625.681243	16904.062612
626.028097	16920.814366
626.374899	16841.164135
626.721647	16709.814351
627.068343	16540.484514
627.414987	16475.660317
627.761577	16447.840709
628.108115	16485.167933
628.454600	16204.111003
628.801032	16312.463043
629.147412	16243.530306
629.493739	16260.836587
629.840014	16069.602936
630.186236	16161.490568
630.532405	15925.811585
630.878521	16125.688293
631.224585	16019.708116
631.570597	15842.473750
631.916556	15875.616816
632.262462	15853.861716
632.608316	15773.140240
632.954117	15715.996241
633.299866	15704.071392
633.645562	15626.757736
633.991206	15374.581576
634.336797	15251.756383
634.682336	15223.528442
635.027823	15098.633856
635.373257	14981.714375
635.718639	14893.756322
636.063968	14840.529299
636.409245	14585.814919
636.754470	14618.579898
637.099642	14458.707266
637.444762	14233.937339
637.789829	14273.049132
638.134845	14116.365029
638.479808	14144.240089
638.824719	14068.872318
639.169577	13938.051856
639.514383	13984.165810
639.859137	13802.248212
640.203839	13894.768509
640.548489	13731.112490
640.893086	13713.987691
641.237632	13597.300103
641.582125	13743.942227
641.926566	13565.873549
642.270955	13580.936517
642.615292	13544.567113
642.959576	13553.885686
643.303809	13587.921036
643.647990	13511.252648
643.992118	13577.498450
644.336195	13346.686701
644.680219	13562.594279
645.024192	13475.387358
645.368112	13727.056882
645.711981	13771.950878
646.055797	13954.685143
646.399562	13927.180607
646.743274	14201.215210
647.086935	14479.471779
647.430544	14436.001909
647.774101	14467.436024
648.117606	14616.066883
648.461059	14588.332975
648.804460	14572.508793
649.147810	14298.723728
649.491108	14203.692937
649.834354	14216.643661
650.177548	13901.231268
650.520690	13711.509963
650.863781	13638.249395
651.206820	13691.524309
651.549807	13519.633566
651.892742	13305.686997
652.235626	13252.686826
652.578458	13255.151950
652.921238	12943.102006
653.263967	13141.892346
653.606644	12968.731232
653.949269	12947.356740
654.291843	12743.986512
654.634365	12908.159248
654.976836	12765.907969
655.319255	12758.835230
655.661622	12719.365516
656.003938	12650.616781
656.346203	12569.744070
656.688416	12643.095379
657.030577	12607.522477
657.372687	12522.074919
657.714746	12493.917554
658.056753	12687.576000
658.398708	12497.537103
658.740612	12500.730674
659.082465	12601.775562
659.424266	12573.330851
659.766016	12596.295827
660.107715	12504.786282
660.449362	12595.438831
660.790958	12547.184907
661.132503	12474.226808
661.473996	12552.830999
661.815438	12567.785582
662.156829	12596.646187
662.498168	12568.123339
662.839456	12559.185373
663.180693	12579.874269
663.521879	12675.961182
663.863013	12650.823468
664.204097	12622.391360
664.545129	12748.566400
664.886110	12720.530023
665.227040	12806.254844
665.567918	12815.646513
665.908746	12847.060464
666.249522	12831.140500
666.590248	12883.238304
666.930922	12990.357782
667.271545	12970.011685
667.612118	13054.493862
667.952639	12950.661216
668.293109	12976.792037
668.633528	12932.520624
668.973896	12900.151375
669.314213	12986.276968
669.654480	12714.863766
669.994695	12795.519707
670.334859	12818.575424
670.674973	12768.108433
671.015035	12789.535857
671.355047	12741.259247
671.695008	12709.590719
672.034918	12713.888303
672.374777	12761.149120
672.714585	12677.128209
673.054342	12709.482334
673.394049	12660.809994
673.733705	12757.821958
674.073310	12658.150785
674.412864	12682.068539
674.752368	12540.790203
675.091820	12564.458420
675.431223	12545.604505
675.770574	12417.682705
676.109875	12335.085920
676.449125	12289.019856
676.788324	12238.184861
677.127473	12068.592884
677.466571	12065.353943
677.805619	11957.513579
678.144616	11889.561346
678.483562	11857.746624
678.822458	11725.587735
679.161303	11709.445960
679.500098	11693.289062
679.838842	11652.533854
680.177535	11673.525219
680.516179	11731.748025
680.854771	11678.034531
681.193314	11899.084086
681.531805	12058.150134
681.870247	12490.134168
682.208638	12897.993762
682.546978	13207.019013
682.885268	13246.786155
683.223508	12946.174589
683.561697	12787.985702
683.899836	12688.725383
684.237925	12482.393477
684.575963	12408.747260
684.913951	12324.925475
685.251889	12272.951178
685.589776	12378.069318
685.927614	12297.524283
686.265401	12262.367276
686.603137	12309.529791
686.940824	12458.390023
687.278460	12587.249477
687.616046	12638.034061
687.953582	12797.069862
688.291068	12731.905386
688.628504	12962.558339
688.965889	12975.604846
689.303224	12942.174434
689.640510	12826.101867
689.977745	12511.100327
690.314930	12290.943057
690.652065	12190.127541
690.989150	11901.723130
691.326185	11674.546052
691.663170	11472.244548
692.000105	11234.879299
692.336990	11118.905034
692.673825	10856.848213
693.010610	10743.245811
693.347345	10538.464060
693.684030	10337.528709
694.020665	10274.577300
694.357251	10078.917516
694.693786	10017.049956
695.030272	9858.669505
695.366707	9738.001926
695.703093	9671.090691
696.039429	9672.386267
696.375716	9590.228062
696.711952	9455.427609
697.048139	9496.134926
697.384276	9449.373183
697.720363	9472.514600
698.056400	9408.186956
698.392388	9356.505047
698.728326	9319.893667
699.064214	9256.105427
699.400053	9302.108476
699.735842	9116.997307
700.071581	9070.858146
700.407270	8996.725458
700.742910	8919.396679
701.078501	8822.296494
701.414042	8702.248977
701.749533	8639.111046
702.084974	8495.168459
702.420366	8616.408209
702.755709	8489.033375
703.091002	8361.348510
703.426246	8393.982419
703.761440	8343.066766
704.096584	8293.930639
704.431679	8231.596772
704.766725	8212.095068
705.101721	8164.993047
705.436668	8216.072538
705.771565	8105.106660
706.106413	8189.379629
706.441212	8225.040751
706.775961	8183.005090
707.110661	8230.364210
707.445311	8366.808080
707.779913	8260.389322
708.114465	8396.457626
708.448967	8432.275024
708.783421	8578.544103
709.117825	8759.410621
709.452180	8789.914642
709.786485	8882.170278
710.120742	9168.696860
710.454949	9166.423300
710.789107	9273.832644
711.123216	9484.673863
711.457275	9655.944544
711.791286	9815.928082
712.125247	9811.474222
712.459159	9798.344537
712.793023	10040.287154
713.126837	9617.498184
713.460602	9766.658365
713.794318	9596.678219
714.127985	9630.905133
714.461602	9295.847363
714.795171	9249.216690
715.128691	8993.108431
715.462162	8747.649609
715.795584	8696.391156
716.128957	8538.855099
716.462281	8374.833597
716.795556	8424.680526
717.128782	8211.648926
717.461960	7951.754760
717.795088	8027.326697
718.128167	7933.178108
718.461198	7765.985720
718.794180	7708.226700
719.127113	7693.345214
719.459997	7535.030298
719.792833	7309.660474
720.125619	7377.237141
720.458357	7232.097281
720.791046	7218.965075
721.123686	7214.670012
721.456278	7052.223871
721.788821	7069.691469
722.121315	6970.055583
722.453761	7040.682149
722.786158	6982.696277
723.118506	6990.550394
723.450805	6955.663089
723.783056	7021.709766
724.115259	6936.413443
724.447412	6934.223062
724.779518	6976.987170
725.111574	6981.423385
725.443582	7059.513379
725.775542	7046.063581
726.107453	7236.379741
726.439315	7136.877447
726.771129	7207.448559
727.102895	7375.820577
727.434612	7485.697566
727.766281	7522.540839
728.097901	7605.190557
728.429473	7603.158972
728.760996	7578.598470
729.092471	7550.080663
729.423897	7496.984710
729.755276	7505.569795
730.086606	7429.854185
730.417887	7530.054679
730.749120	7736.416832
731.080305	7925.177797
731.411442	8043.493678
731.742530	8033.683592
732.073570	8144.949419
732.404562	8233.376299
732.735506	8077.750839
733.066401	8215.076911
733.397249	8146.867578
733.728048	7902.747183
734.058798	7574.421874
734.389501	7342.150711
734.720156	7161.102711
735.050762	6931.853720
735.381320	6847.951276
735.711831	6785.617408
736.042293	6679.937180
736.372707	6696.547782
736.703073	6559.193983
737.033391	6602.351301
737.363661	6612.738599
737.693883	6649.377705
738.024056	6732.549182
738.354182	6766.498832
738.684260	6804.879657
739.014290	6923.036742
739.344272	7033.274173
739.674207	7059.931795
740.004093	7132.282435
740.333931	7145.255844
740.663722	7149.170300
740.993464	7229.221303
741.323159	7215.731175
741.652806	6963.403781
741.982405	6985.572255
742.311956	7038.239710
742.641460	6866.666559
742.970915	6675.974833
743.300323	6662.736763
743.629683	6613.618280
743.958996	6481.678681
744.288260	6391.444548
744.617477	6340.481003
744.946647	6336.692576
745.275768	6173.845663
745.604842	6130.763962
745.933869	6111.116065
746.262847	6074.245066
746.591778	6061.984979
746.920662	6019.803125
747.249498	6011.875910
747.578286	6065.191153
747.907027	6135.427029
748.235720	6193.357449
748.564365	6166.001627
748.892963	6203.901022
749.221514	6354.500452
749.550017	6177.109810
749.878473	6057.538682
750.206881	6115.247290
750.535242	6059.444238
750.863555	5985.384647
751.191821	6004.452811
751.520039	6001.929714
751.848210	5910.367236
752.176334	5933.123005
752.504411	5980.303164
752.832440	5904.582512
753.160421	5837.469631
753.488356	5886.567949
753.816243	5920.031128
754.144082	5766.966574
754.471875	5739.257872
754.799620	5785.087002
755.127318	5797.720133
755.454969	5745.982771
755.782572	5714.664603
756.110129	5759.422487
756.437638	5735.630762
756.765100	5682.688564
757.092515	5683.676630
757.419882	5737.070011
757.747203	5715.403132
758.074477	5777.762205
758.401703	5761.650677
758.728882	5714.117638
759.056014	5779.975272
759.383099	5899.821143
759.710138	5909.991670
760.037129	5900.229476
760.364073	5901.343571
760.690970	5983.814327
761.017820	5966.450073
761.344623	5921.195635
761.671379	6023.843609
761.998088	6144.266692
762.324751	6398.350929
762.651366	7016.691298
762.977935	8354.852983
763.304456	9998.392645
763.630931	10882.427028
763.957359	10456.522625
764.283740	9505.627419
764.610074	8661.319849
764.936362	7655.816344
765.262602	7060.839203
765.588796	6522.330546
765.914943	6194.993303
766.241044	6026.180184
766.567097	5820.206200
766.893104	5560.614503
767.219064	5384.216968
767.544978	5319.037370
767.870845	5240.637345
768.196665	5133.845542
768.522438	5064.791817
768.848165	5033.019944
769.173846	4962.098472
769.499479	4920.266977
769.825066	4868.501889
770.150607	4803.478566
770.476101	4785.882418
770.801548	4775.578300
771.126949	4699.371177
771.452303	4643.777332
771.777611	4604.443730
772.102872	4623.774034
772.428087	4585.453703
772.753256	4542.596334
773.078378	4501.400024
773.403453	4428.872944
773.728482	4418.382303
774.053465	4370.135940
774.378401	4358.367366
774.703291	4352.817056
775.028135	4280.176550
775.352932	4236.578131
775.677683	4221.749577
776.002388	4242.763626
776.327046	4249.798557
776.651658	4175.653266
776.976224	4114.191518
777.300743	4121.743167
777.625216	4142.903410
777.949643	4135.984426
778.274024	4091.226542
778.598359	4050.970408
778.922647	4074.459664
779.246889	4065.317532
779.571086	4055.348650
779.895236	4037.291237
780.219339	4025.532745
780.543397	4023.977549
780.867409	4079.064758
781.191374	4089.638578
781.515294	4027.372767
781.839167	4016.196528
782.162995	4043.499418
782.486776	4026.732540
782.810511	4036.782080
783.134201	4030.964589
783.457844	3983.804594
783.781441	3931.268210
784.104993	3934.895320
784.428498	3954.260912
784.751958	3953.290490
785.075372	3930.098662
785.398739	3891.672467
785.722061	3902.294178
786.045337	3951.102629
786.368568	3980.996672
786.691752	3889.298083
787.014891	3946.542906
787.337983	4075.646856
787.661030	4239.817072
787.984031	4397.516967
788.306987	4568.427206
788.629897	4654.338550
788.952760	4607.755768
789.275579	4540.080798
789.598351	4472.350375
789.921078	4322.847396
790.243759	4128.979743
790.566395	4113.926858
790.888984	4105.256073
791.211529	4000.211030
791.534027	3937.678037
791.856480	3923.608176
792.178888	3857.538814
792.501249	3812.919561
792.823566	3826.195440
793.145836	3853.364739
793.468062	3798.383394
793.790241	3758.094493
794.112375	3784.356384
794.434464	3850.113194
794.756507	3876.816186
795.078505	3853.223586
795.400457	3889.645923
795.722364	4034.674878
796.044226	4136.511227
796.366042	4208.990416
796.687812	4189.861758
797.009538	4192.997356
797.331218	4150.281138
797.652852	4126.837253
797.974442	4106.004684
798.295986	4100.340948
798.617484	4018.112167
798.938938	3934.383643
799.260346	3973.934015
799.581709	3969.807831
799.903026	3893.819998
800.224299	3860.606356
800.545526	3851.822146
800.866708	3812.075168
801.187845	3753.789347
801.508936	3791.439205
801.829983	3781.286321
802.150984	3707.330073
802.471940	3698.624001
802.792851	3705.328735
803.113717	3709.825445
803.434538	3709.328891
803.755314	3648.212462
804.076045	3630.190337
804.396731	3653.238493
804.717372	3674.607944
805.037967	3654.808812
805.358518	3648.260353
805.679024	3677.100794
805.999485	3689.217208
806.319901	3695.564020
806.640272	3706.563818
806.960598	3720.726940
807.280879	3694.190306
807.601115	3707.347718
807.921306	3724.351529
808.241453	3765.973816
808.561554	3737.314857
808.881611	3676.889066
809.201623	3713.712174
809.521590	3719.592680
809.841513	3692.229297
810.161390	3721.278946
810.481223	3702.230946
810.801011	3647.436125
811.120755	3642.702481
811.440453	3673.934950
811.760107	3674.295392
812.079716	3636.050679
812.399281	3601.422993
812.718801	3623.941827
813.038276	3598.665482
813.357707	3598.796552
813.677093	3616.017133
813.996434	3558.416909
814.315731	3571.594486
814.634983	3576.005495
814.954191	3590.899584
815.273354	3617.277422
815.592473	3615.618882
815.911547	3622.210191
816.230577	3662.700738
816.549562	3717.188050
816.868502	3755.367228
817.187399	3779.015281
817.506250	3775.854478
817.825058	3752.501332
818.143821	3848.351311
818.462539	3946.729428
818.781213	3992.482941
819.099843	4056.301428
819.418429	4308.603616
819.736970	4547.950039
820.055466	4804.002846
820.373919	5172.143188
820.692327	5579.750723
821.010691	6041.505292
821.329011	7464.300389
821.647286	10281.256829
821.965517	14915.592080
822.283704	18944.383932
822.601847	21044.226155
822.919945	19187.720428
823.237999	16554.637554
823.556010	14047.573443
823.873976	11920.166191
824.191897	9815.625613
824.509775	8476.243968
824.827609	7351.824685
825.145398	6811.864176
825.463144	6692.227513
825.780845	6803.458052
826.098502	7012.378591
826.416116	7913.648678
826.733685	9257.416127
827.051210	10368.874603
827.368692	10379.357683
827.686129	9079.554137
828.003522	7567.059269
828.320872	6543.231170
828.638177	5842.173028
828.955439	5274.445843
829.272656	4771.477321
829.589830	4494.667563
829.906960	4313.637208
830.224046	4126.554948
830.541088	4007.263604
830.858086	3958.777786
831.175041	3876.312071
831.491952	3866.184393
831.808819	3877.461454
832.125642	3954.780151
832.442421	4106.390333
832.759157	4388.793250
833.075849	4949.614054
833.392497	5830.054094
833.709101	6613.812365
834.025662	6938.886129
834.342179	6555.662655
834.658653	5879.538060
834.975083	5227.038833
835.291469	4643.633660
835.607811	4241.639449
835.924110	4098.606791
836.240366	3897.633631
836.556578	3693.008155
836.872746	3587.285077
837.188871	3542.098694
837.504952	3476.173005
837.820990	3392.522619
838.136984	3351.061649
838.452935	3373.764485
838.768842	3371.042262
839.084706	3392.240314
839.400526	3553.640416
839.716303	3904.527409
840.032037	4437.906692
840.347727	4692.772307
840.663373	4402.611053
840.978977	4015.851209
841.294537	3705.772357
841.610054	3479.374138
841.925527	3372.383209
842.240957	3303.624391
842.556344	3247.821339
842.871687	3188.585260
843.186987	3137.941829
843.502244	3101.098556
843.817458	3066.879204
844.132629	3037.217054
844.447756	3044.443548
844.762840	3027.311187
845.077881	2999.030314
845.392879	2977.156748
845.707833	2975.783033
846.022745	2974.555512
846.337613	2971.772795
846.652438	2961.350210
846.967221	2962.302988
847.281960	2945.780606
847.596656	2941.556119
847.911309	2947.814712
848.225919	2935.849533
848.540485	2930.584048
848.855009	2932.020777
849.169490	2918.757501
849.483928	2910.764751
849.798323	2911.183167
850.112675	2909.144020
850.426984	2919.972419
850.741251	2914.374218
851.055474	2905.970614
851.369654	2899.432238
851.683792	2906.235275
851.997887	2911.881367
852.311938	2917.126688
852.625947	2902.537588
852.939914	2907.460275
853.253837	2913.197108
853.567718	2897.665313
853.881555	2893.271948
854.195350	2913.055956
854.509103	2907.901376
854.822812	2900.745458
855.136479	2895.820251
855.450103	2899.805283
855.763685	2893.314797
856.077224	2885.795916
856.390720	2901.791498
856.704173	2908.954977
857.017584	2902.595562
857.330953	2901.620098
857.644278	2909.572518
857.957561	2919.153231
858.270802	2921.804878
858.584000	2920.055598
858.897155	2907.684606
859.210268	2907.853485
859.523339	2905.088412
859.836367	2908.690317
860.149352	2897.985426
860.462295	2897.587175
860.775195	2902.441806
861.088054	2902.156981
861.400869	2887.595608
861.713642	2885.831204
862.026373	2897.025087
862.339062	2900.896693
862.651708	2909.118815
862.964312	2911.097468
863.276873	2902.318298
863.589392	2914.787592
863.901869	2927.279571
864.214303	2949.125412
864.526696	2963.343986
864.839045	2957.168573
865.151353	2957.876855
865.463619	2956.800568
865.775842	2956.974488
866.088023	2974.293372
866.400162	2985.572954
866.712258	2952.964250
867.024313	2944.091819
867.336325	2954.837039
867.648296	2974.515183
867.960224	2966.918164
868.272110	2950.874692
868.583954	2959.202678
868.895755	2973.111222
869.207515	2958.781742
869.519233	2961.952628
869.830909	2973.879997
870.142542	2984.811740
870.454134	2982.863334
870.765684	2987.085300
871.077191	2987.841473
871.388657	2994.611743
871.700081	3006.720594
872.011463	3015.996317
872.322803	3019.636030
872.634101	3016.860875
872.945357	3035.987013
873.256571	3061.268399
873.567744	3054.427554
873.878874	3049.565361
874.189963	3069.563618
874.501010	3070.481108
874.812015	3061.371743
875.122979	3061.578430
875.433900	3060.517268
875.744780	3064.751837
876.055618	3071.648135
876.366415	3069.813155
876.677169	3079.623241
876.987882	3076.079309
877.298554	3071.161664
877.609183	3094.721496
877.919771	3118.442646
878.230317	3146.015237
878.540822	3200.537836
878.851285	3234.802559
879.161707	3280.888787
879.472087	3386.659757
879.782425	3624.818988
880.092722	4067.482707
880.402977	4606.717290
880.713191	5252.496659
881.023363	6438.876764
881.333494	7737.467913
881.643583	8273.410622
881.953631	7960.833878
882.263637	7307.331461
882.573602	6713.004628
882.883526	6128.140041
883.193408	5548.349376
883.503248	5087.976083
883.813048	4776.548722
884.122806	4466.968944
884.432522	4144.347700
884.742197	3911.716094
885.051831	3712.328378
885.361424	3580.456834
885.670975	3507.065196
885.980485	3418.867689
886.289954	3345.614682
886.599382	3301.549956
886.908768	3257.167638
887.218113	3214.942933
887.527417	3157.138543
887.836680	3106.853033
888.145901	3103.664503
888.455082	3090.577668
888.764221	3040.619833
889.073319	3011.030781
889.382376	3010.549351
889.691392	3012.843076
890.000366	3010.992972
890.309300	2996.454284
890.618193	3010.816532
890.927044	3025.788759
891.235855	3026.860004
891.544625	3014.844414
891.853353	3026.562576
892.162041	3043.669731
892.470687	3083.373859
892.779293	3137.024339
893.087858	3184.083510
893.396381	3259.244593
893.704864	3383.138511
894.013306	3629.368629
894.321707	3936.649641
894.630068	4136.854025
894.938387	4133.635248
895.246665	4089.073969
895.554903	3965.676605
895.863100	3760.320162
896.171256	3589.951847
896.479371	3448.416412
896.787446	3324.542659
897.095480	3222.860065
897.403473	3155.631238
897.711425	3119.511370
898.019336	3111.342181
898.327207	3081.052408
898.635038	3040.443393
898.942827	3030.098945
899.250576	3018.763911
899.558284	2988.138901
899.865952	2966.207361
900.173579	2946.075513
900.481165	2940.464709
900.788711	2926.137750
901.096216	2902.797208
901.403681	2889.304559
901.711105	2898.169428
902.018489	2895.618605
902.325832	2892.457801
902.633135	2903.500449
902.940397	2939.524534
903.247619	3026.373533
903.554800	3222.406362
903.861941	3578.800815
904.169041	4015.011857
904.476101	4313.551509
904.783121	4255.754680
905.090100	4003.699508
905.397039	3728.364288
905.703938	3472.528251
906.010796	3284.437760
906.317614	3176.947757
906.624391	3078.995617
906.931129	3009.326871
907.237826	2945.919238
907.544483	2898.071126
907.851099	2866.495859
908.157675	2847.074814
908.464211	2828.505723
908.770707	2810.735656
909.077163	2800.847433
909.383578	2784.993004
909.689954	2774.456992
909.996289	2772.949687
910.302584	2772.551436
910.608839	2772.042280
910.915054	2767.883328
911.221229	2760.876124
911.527363	2763.870569
911.833458	2770.240067
912.139513	2776.143258
912.445527	2776.836417
912.751502	2788.146246
913.057436	2793.469704
913.363331	2808.935964
913.669186	2831.671568
913.975000	2867.783874
914.280775	2930.994902
914.586510	3001.235819
914.892205	3080.097109
915.197859	3211.721636
915.503475	3411.762182
915.809050	3631.047333
916.114585	3778.614509
916.420081	3794.116057
916.725536	3733.337386
917.030952	3610.187039
917.336328	3481.057883
917.641665	3348.500743
917.946961	3245.036101
918.252218	3171.591531
918.557435	3094.292998
918.862612	3036.007178
919.167750	2981.847541
919.472848	2944.976542
919.777906	2917.653488
920.082925	2891.144581
920.387904	2862.694829
920.692843	2840.233968
920.997743	2831.669047
921.302603	2818.640185
921.607423	2806.783392
921.912204	2793.797379
922.216946	2781.990997
922.521647	2774.315840
922.826310	2763.303440
923.130932	2759.550301
923.435516	2750.287180
923.740059	2743.398444
924.044564	2736.577762
924.349028	2728.332955
924.653454	2720.751060
924.957840	2714.273177
925.262186	2714.341233
925.566493	2708.054914
925.870761	2701.670293
926.174989	2698.406146
926.479178	2691.459436
926.783328	2688.359126
927.087438	2689.964733
927.391509	2688.102027
927.695541	2683.103723
927.999533	2678.228927
928.303486	2676.250274
928.607400	2676.119204
928.911275	2675.229441
929.215110	2674.032167
929.518906	2674.584173
929.822663	2676.572908
930.126381	2673.538134
930.430060	2674.712722
930.733699	2674.871519
931.037299	2677.896211
931.340861	2676.789678
931.644383	2681.205729
931.947866	2676.582991
932.251309	2675.458813
932.554714	2674.775737
932.858080	2670.556291
933.161407	2668.766682
933.464694	2669.797597
933.767943	2665.931032
934.071153	2668.973369
934.374323	2667.559325
934.677455	2667.546722
934.980548	2667.768533
935.283602	2666.808193
935.586617	2666.770385
935.889593	2666.488080
936.192530	2664.247287
936.495428	2664.832061
936.798287	2669.109480
937.101108	2673.003771
937.403890	2673.880932
937.706632	2677.934020
938.009336	2685.750329
938.312002	2696.732482
938.614628	2705.937629
938.917216	2712.690255
939.219765	2710.857796
939.522275	2709.526931
939.824747	2706.976107
940.127179	2705.574666
940.429573	2703.427135
940.731929	2698.398584
941.034246	2697.869263
941.336524	2694.595033
941.638763	2691.633355
941.940964	2690.312573
942.243126	2688.906091
942.545250	2685.261337
942.847335	2683.713703
943.149381	2679.789164
943.451389	2672.991168
943.753359	2673.197856
944.055290	2672.144255
944.357182	2671.909841
944.659036	2671.945129
944.960851	2668.741476
945.262628	2668.343225
945.564367	2667.052689
945.866067	2667.329953
946.167729	2669.401867
946.469352	2667.342556
946.770937	2669.674089
947.072484	2667.798780
947.373992	2665.835251
947.675462	2665.164777
947.976893	2661.819972
948.278286	2661.013387
948.579641	2661.663696
948.880958	2659.533808
949.182236	2661.058757
949.483476	2658.951555
949.784678	2656.428457
950.085841	2660.534477
950.386967	2660.368119
950.688054	2658.979281
950.989103	2660.622697
951.290114	2661.661175
951.591087	2661.749395
951.892021	2666.520847
952.192917	2668.587721
952.493776	2671.468740
952.794596	2670.152999
953.095378	2670.810869
953.396122	2672.179543
953.696828	2668.287772
953.997496	2666.059582
954.298126	2666.127637
954.598718	2663.725528
954.899272	2662.760147
955.199788	2657.598005
955.500266	2658.490289
955.800706	2653.597850
956.101108	2651.843528
956.401472	2647.452683
956.701798	2649.585091
957.002087	2646.525111
957.302337	2643.984369
957.602550	2644.934627
957.902724	2641.184008
958.202861	2641.874646
958.502960	2639.381796
958.803022	2640.823566
959.103045	2637.919861
959.403031	2635.795015
959.702979	2637.133441
960.002889	2635.777371
960.302762	2634.824593
960.602596	2635.245529
960.902393	2633.395426
961.202153	2635.076650
961.501875	2635.023718
961.801559	2634.310395
962.101205	2632.719911
962.400814	2634.161681
962.700385	2633.839047
962.999918	2631.620939
963.299414	2629.067595
963.598873	2629.637245
963.898293	2625.861421
964.197677	2633.027421
964.497022	2632.916516
964.796331	2629.382667
965.095601	2633.022380
965.394835	2630.703449
965.694030	2630.895013
965.993189	2632.936681
966.292309	2630.716052
966.591393	2630.952987
966.890439	2631.000877
967.189447	2632.246042
967.488419	2630.703449
967.787353	2633.075312
968.086249	2627.242697
968.385108	2634.680920
968.683930	2634.534726
968.982714	2630.983233
969.281462	2631.802421
969.580172	2629.062554
969.878844	2630.950466
970.177480	2631.565487
970.476078	2628.283696
970.774639	2632.845940
971.073162	2633.602113
971.371649	2632.397277
971.670098	2633.231588
971.968510	2630.040538
972.266885	2632.198152
972.565223	2632.445168
972.863524	2631.555404
973.161788	2630.824437
973.460014	2633.246712
973.758204	2632.543471
974.056356	2632.936681
974.354471	2632.543471
974.652550	2631.464664
974.950591	2632.470374
975.248595	2629.518778
975.546563	2631.295785
975.844493	2629.551546
976.142386	2630.350569
976.440243	2632.114972
976.738062	2629.778398
977.035845	2629.080198
977.333590	2630.186731
977.631299	2627.530043
977.928971	2627.272944
978.226606	2624.361678
978.524204	2625.737913
978.821765	2625.117851
979.119290	2627.565331
979.416777	2628.918881
979.714228	2628.883593
980.011642	2626.274796
980.309020	2629.072636
980.606360	2629.788480
980.903664	2630.668161
981.200931	2626.673047
981.498162	2629.770836
981.795356	2629.904427
982.092513	2632.407359
982.389633	2634.194448
982.686717	2639.492701
982.983764	2643.276087
983.280775	2645.572333
983.577749	2645.169040
983.874686	2646.320944
984.171587	2642.466982
984.468451	2641.138638
984.765279	2637.624954
985.062070	2639.898514
985.358824	2634.176804
985.655543	2633.506331
985.952224	2630.605147
986.248869	2632.087246
986.545478	2631.835188
986.842050	2629.065074
987.138586	2628.097173
987.435086	2625.909312
987.731549	2624.611215
988.027975	2627.593057
988.324366	2625.334621
988.620719	2624.976699
988.917037	2625.379991
989.213318	2624.243211
989.509563	2625.901750
989.805772	2625.478293
990.101944	2626.138685
990.398080	2624.767491
990.694180	2624.142388
990.990244	2624.901081
991.286271	2627.938377
991.582262	2624.744806
991.878217	2625.140536
992.174136	2625.175824
992.470019	2624.946452
992.765865	2619.940586
993.061676	2621.095010
993.357450	2623.701287
993.653188	2620.177520
993.948890	2628.792852
994.244556	2624.099538
994.540186	2626.799076
994.835780	2627.025928
995.131337	2625.400156
995.426859	2628.271093
995.722345	2629.932153
996.017795	2629.251597
996.313208	2631.041207
996.608586	2630.736217
996.903928	2629.959879
997.199234	2629.727986
997.494504	2632.830816
997.789738	2628.074488
998.084936	2628.540794
998.380099	2627.774539
998.675225	2627.645990
998.970316	2629.859056
999.265371	2624.467542
999.560390	2624.709517
999.855373	2624.878396
1000.150320	2623.487038
1000.445232	2626.168932
1000.740108	2626.597430
1001.034948	2625.899230
1001.329752	2623.640793
1001.624521	2626.688170
1001.919254	2624.948972
1002.213951	2623.807151
1002.508613	2625.911833
1002.803239	2624.427213
1003.097829	2621.881430
1003.392384	2623.605505
1003.686903	2623.459311
1003.981386	2622.924949
1004.275834	2623.214815
1004.570246	2623.550052
1004.864623	2623.184568
1005.158964	2622.650206
1005.453270	2620.747171
1005.747540	2622.665330
1006.041775	2622.365381
1006.335974	2621.647017
1006.630138	2621.861266
1006.924266	2623.671040
1007.218359	2623.754219
1007.512416	2621.609208
1007.806438	2617.036881
1008.100425	2616.933538
1008.394376	2616.840276
1008.688292	2623.643313
1008.982172	2622.478807
1009.276017	2620.863117
1009.569827	2622.892182
1009.863602	2622.032665
1010.157341	2621.062243
1010.451045	2622.730865
1010.744714	2622.929990
1011.038347	2623.229939
1011.331945	2624.235649
1011.625508	2622.987963
1011.919036	2623.285392
1012.212528	2620.890843
1012.505986	2622.592233
1012.799408	2621.775566
1013.092795	2622.435957
1013.386147	2622.453601
1013.679464	2622.332613
1013.972745	2622.191461
1014.265992	2621.914198
1014.559204	2622.700618
1014.852380	2624.686832
1015.145521	2622.173817
1015.438628	2622.075515
1015.731699	2621.672222
1016.024736	2621.072325
1016.317737	2623.716410
1016.610703	2620.389249
1016.903635	2625.337141
1017.196531	2620.275823
1017.489393	2620.351440
1017.782219	2618.881944
1018.075011	2622.859414
1018.367768	2622.861935
1018.660490	2619.708693
1018.953177	2619.708693
1019.245829	2619.708693
