Dividing Wavelength (nm)	Counts (n)	Blue Motor Position (mm): 0.000000	Red Motor Position (mm): 14.500000	
326.493990	2145.835190
326.888308	2145.835190
327.282561	2145.835190
327.676750	2118.428957
328.070874	2121.229318
328.464933	2126.005812
328.858929	2136.254477
329.252859	2147.670170
329.646726	2162.851605
330.040528	2176.934068
330.434265	2195.561132
330.827938	2213.341281
331.221547	2232.169991
331.615091	2252.536253
332.008571	2273.777154
332.401986	2294.924795
332.795338	2314.575212
333.188625	2334.139930
333.581847	2354.322190
333.975006	2372.919006
334.368100	2387.666902
334.761129	2408.582649
335.154095	2426.871955
335.546996	2444.105140
335.939833	2454.547890
336.332606	2470.097329
336.725315	2480.275419
337.117960	2488.908395
337.510540	2497.458192
337.903056	2508.760458
338.295508	2510.247599
338.687896	2518.124402
339.080220	2525.970958
339.472480	2532.653007
339.864676	2538.215920
340.256807	2540.746580
340.648875	2538.228523
341.040879	2541.117104
341.432818	2546.788403
341.824694	2545.888557
342.216506	2545.482744
342.608253	2546.203629
342.999937	2544.446787
343.391557	2543.410829
343.783113	2541.475026
344.174605	2540.708771
344.566033	2539.214069
344.957397	2538.142824
345.348697	2533.482277
345.739934	2535.594520
346.131106	2532.920188
346.522215	2532.461443
346.913260	2526.646472
347.304241	2526.769981
347.695159	2525.582789
348.086012	2523.402490
348.476802	2520.826460
348.867528	2520.425688
349.258191	2521.867458
349.648789	2520.987777
350.039324	2519.268744
350.429796	2517.579957
350.820203	2516.392765
351.210548	2515.510563
351.600828	2514.265398
351.991045	2513.993176
352.381198	2513.176509
352.771288	2514.635923
353.161314	2512.316993
353.551276	2513.645337
353.941175	2513.194153
354.331010	2512.813546
354.720782	2513.252127
355.110490	2515.286232
355.500135	2515.223218
355.889717	2512.969822
356.279235	2514.600635
356.668689	2514.782117
357.058080	2515.500481
357.447408	2512.309431
357.836672	2512.100223
358.225873	2512.803464
358.615010	2512.246416
359.004084	2518.835204
359.393095	2519.914011
359.782043	2518.855369
360.170927	2518.265554
360.559748	2521.272602
360.948505	2522.366533
361.337199	2520.730678
361.725830	2521.653209
362.114398	2522.699249
362.502903	2521.176820
362.891344	2522.207736
363.279722	2522.537932
363.668037	2522.674043
364.056289	2522.936183
364.444478	2524.912315
364.832603	2524.655217
365.220665	2524.420803
365.608665	2524.302336
365.996601	2527.591689
366.384474	2527.095135
366.772284	2525.567665
367.160031	2527.727800
367.547715	2528.814168
367.935336	2525.484486
368.322893	2526.107069
368.710388	2528.829292
369.097820	2529.804755
369.485189	2528.519261
369.872495	2528.607481
370.259738	2530.439941
370.646918	2527.931967
371.034035	2532.093439
371.421090	2530.760054
371.808081	2530.558408
372.195010	2531.879190
372.581875	2533.459592
372.968678	2533.623429
373.355418	2532.353058
373.742096	2536.322967
374.128710	2538.664583
374.515262	2537.921013
374.901751	2536.524613
375.288177	2540.040818
375.674540	2538.231044
376.060841	2541.936292
376.447079	2544.615665
376.833254	2545.215563
377.219367	2541.946374
377.605417	2545.707075
377.991404	2546.077600
378.377329	2553.919115
378.763191	2552.799978
379.148991	2557.611760
379.534727	2562.047975
379.920402	2565.208779
380.306013	2571.558112
380.691563	2576.868967
381.077049	2579.581108
381.462474	2583.056984
381.847835	2587.079825
382.233134	2591.994950
382.618371	2595.216247
383.003545	2604.050869
383.388657	2612.910697
383.773706	2617.588888
384.158693	2624.739764
384.543618	2626.489045
384.928480	2634.328039
385.313280	2644.904380
385.698017	2652.322438
386.082692	2660.632780
386.467305	2665.666372
386.851856	2676.121725
387.236344	2686.148580
387.620770	2690.680577
388.005133	2698.890096
388.389435	2710.923331
388.773674	2717.960781
389.157851	2725.731720
389.541965	2737.820407
389.926018	2739.529358
390.310008	2754.065525
390.693936	2764.097421
391.077802	2771.676796
391.461606	2781.242386
391.845348	2786.709517
392.229027	2798.697381
392.612645	2814.894608
392.996200	2823.845177
393.379694	2832.400015
393.763125	2852.068077
394.146494	2860.363295
394.529801	2868.613143
394.913047	2889.123078
395.296230	2888.681977
395.679351	2892.581309
396.062410	2914.638878
396.445408	2910.381624
396.828343	2917.615679
397.211217	2928.721341
397.594028	2922.676998
397.976778	2934.795932
398.359466	2948.109619
398.742092	2945.190791
399.124656	2961.312401
399.507158	2972.269349
399.889598	2978.898466
400.271977	2989.265599
400.654294	2999.012670
401.036549	3010.670338
401.418742	3012.384331
401.800874	3036.869215
402.182944	3040.950029
402.564952	3067.158988
402.946898	3055.037533
403.328783	3065.220664
403.710606	3077.258939
404.092367	3095.341558
404.474067	3120.214611
404.855705	3108.806480
405.237282	3104.135851
405.618797	3130.886734
406.000250	3146.723519
406.381642	3170.159843
406.762972	3169.756551
407.144240	3155.081752
407.525447	3170.865605
407.906593	3167.021725
408.287677	3177.981193
408.668700	3189.149870
409.049661	3179.954805
409.430560	3185.789941
409.811399	3180.227027
410.192176	3188.860003
410.572891	3187.438398
410.953545	3212.775237
411.334138	3176.254598
411.714669	3205.636963
412.095139	3153.324910
412.475547	3184.572502
412.855894	3166.620953
413.236180	3179.743077
413.616405	3153.148469
413.996568	3158.282885
414.376670	3147.976246
414.756711	3132.149543
415.136691	3136.290851
415.516609	3137.664565
415.896466	3124.860035
416.276262	3131.375726
416.655997	3131.849594
417.035670	3121.512708
417.415283	3147.492295
417.794834	3142.509114
418.174324	3114.092130
418.553753	3102.631067
418.933121	3109.429063
419.312428	3088.838470
419.691674	3072.116963
420.070859	3067.789132
420.449983	3041.892725
420.829045	3047.977397
421.208047	3022.930424
421.586988	3023.757174
421.965867	3020.898839
422.344686	3005.273783
422.723444	3002.337311
423.102141	2947.585339
423.480777	2967.235757
423.859352	2941.898918
424.237866	2952.205557
424.616319	2929.853080
424.994712	2930.263934
425.373044	2911.271387
425.751314	2907.984555
426.129524	2874.912065
426.507673	2879.028167
426.885762	2861.772298
427.263789	2848.594722
427.641756	2833.347752
428.019662	2823.378870
428.397508	2810.201294
428.775292	2800.665951
429.153016	2785.729012
429.530679	2776.705347
429.908282	2761.929725
430.285824	2748.782396
430.663305	2744.089082
431.040726	2724.748695
431.418086	2714.384083
431.795385	2711.356870
432.172624	2704.009388
432.549802	2691.373736
432.926920	2682.133301
433.303977	2675.607527
433.680974	2669.936229
434.057910	2662.011535
434.434786	2653.270175
434.811601	2647.538383
435.188355	2642.880357
435.565050	2636.752834
435.941683	2631.469705
436.318257	2624.616256
436.694770	2618.708024
437.071222	2616.686521
437.447614	2607.473812
437.823946	2604.307968
438.200218	2605.172526
438.576429	2598.775302
438.952580	2597.968717
439.328670	2592.909919
439.704700	2591.750454
440.080670	2591.652151
440.456580	2590.165011
440.832429	2587.586461
441.208218	2583.430029
441.583947	2584.523960
441.959616	2583.503126
442.335224	2578.240161
442.710773	2579.492888
443.086261	2580.395255
443.461689	2577.017682
443.837057	2576.057342
444.212365	2573.698082
444.587612	2574.824780
444.962800	2575.170099
445.337927	2575.578432
445.712995	2573.682958
446.088002	2575.185222
446.462949	2572.929306
446.837837	2575.144893
447.212664	2572.906621
447.587431	2574.489543
447.962139	2573.980386
448.336786	2578.605645
448.711374	2575.296127
449.085901	2576.977352
449.460369	2577.405850
449.834776	2574.466858
450.209124	2572.490725
450.583412	2574.378638
450.957640	2575.626323
451.331808	2574.560119
451.705917	2572.558781
452.079965	2574.605489
452.453954	2574.671024
452.827883	2573.821590
453.201752	2573.998030
453.575562	2573.443503
453.949311	2570.950653
454.323001	2573.781261
454.696632	2572.735221
455.070202	2576.463155
455.443713	2575.293607
455.817164	2572.478122
456.190556	2572.894018
456.563888	2571.490056
456.937160	2571.548030
457.310373	2576.576581
457.683526	2576.493402
458.056619	2572.049624
458.429653	2574.764286
458.802628	2576.132959
459.175542	2577.642785
459.548398	2574.766806
459.921194	2579.785275
460.293930	2576.561457
460.666607	2576.901735
461.039224	2577.967939
461.411782	2582.389031
461.784280	2579.999524
462.156719	2576.919379
462.529099	2577.980542
462.901419	2578.280491
463.273680	2579.550861
463.645882	2577.652867
464.018024	2577.511715
464.390106	2578.958526
464.762130	2580.559092
465.134094	2581.496747
465.505999	2583.689649
465.877845	2584.904567
466.249631	2588.786255
466.621358	2588.367839
466.993026	2588.453539
467.364634	2587.223497
467.736184	2584.476069
468.107674	2584.128229
468.479105	2583.971953
468.850477	2582.061356
469.221790	2588.261975
469.593043	2583.031778
469.964238	2584.274423
470.335373	2584.700400
470.706449	2578.567836
471.077467	2583.692169
471.448425	2586.762232
471.819324	2588.627459
472.190164	2587.838518
472.560945	2586.452201
472.931667	2585.191913
473.302330	2585.005390
473.672934	2583.982036
474.043479	2582.033630
474.413965	2584.715523
474.784393	2579.563464
475.154761	2579.966757
475.525070	2580.738053
475.895321	2581.181675
476.265513	2580.496078
476.635645	2585.174268
477.005719	2583.591346
477.375734	2588.390525
477.745691	2585.983374
478.115588	2588.158632
478.485427	2587.233580
478.855207	2590.091914
479.224928	2589.517222
479.594591	2589.887747
479.964194	2590.722058
480.333739	2591.790783
480.703226	2593.414034
481.072653	2591.453026
481.442022	2592.710793
481.811333	2591.793303
482.180584	2591.931935
482.549777	2588.856831
482.918912	2590.233066
483.287988	2592.604929
483.657005	2593.739189
484.025964	2588.652665
484.394864	2590.018817
484.763706	2591.405135
485.132489	2587.745257
485.501213	2590.986719
485.869879	2589.754157
486.238487	2586.666450
486.607036	2587.863724
486.975527	2587.568817
487.343959	2586.593353
487.712333	2589.330700
488.080648	2585.693507
488.448905	2587.543611
488.817104	2589.668457
489.185244	2590.003694
489.553326	2588.166193
489.921350	2590.903540
490.289315	2590.865731
490.657222	2591.911771
491.025070	2591.851277
491.392861	2591.074939
491.760593	2590.787593
492.128267	2591.069898
492.495883	2592.307501
492.863440	2589.534867
493.230939	2587.397417
493.598380	2589.459249
493.965763	2582.822570
494.333088	2585.133939
494.700354	2585.065884
495.067563	2585.726275
495.434713	2585.297777
495.801805	2584.342478
496.168839	2588.511512
496.535815	2589.028231
496.902733	2588.098138
497.269593	2588.017479
497.636395	2584.803744
498.003139	2586.832808
498.369825	2588.002356
498.736453	2587.866245
499.103023	2588.587130
499.469535	2584.924731
499.835989	2586.575709
500.202385	2586.691656
500.568723	2588.503951
500.935003	2587.596543
501.301226	2588.014959
501.667390	2588.713158
502.033497	2587.102510
502.399546	2587.941862
502.765537	2587.067222
503.131470	2586.878178
503.497345	2590.162490
503.863163	2586.527818
504.228923	2587.667119
504.594625	2589.706266
504.960269	2587.215936
505.325856	2589.534867
505.691385	2584.649988
506.056856	2588.687953
506.422270	2587.347006
506.787625	2586.497571
507.152924	2586.374063
507.518164	2586.739547
507.883347	2587.130236
508.248472	2587.054619
508.613540	2586.273240
508.978550	2589.728951
509.343503	2585.625452
509.708398	2585.922880
510.073236	2584.700400
510.438016	2588.312387
510.802738	2586.472366
511.167403	2591.190886
511.532010	2584.854155
511.896561	2586.883220
512.261053	2589.628128
512.625488	2582.288208
512.989866	2583.740060
513.354186	2581.945409
513.718449	2581.005234
514.082655	2585.960688
514.446803	2585.063363
514.810894	2585.927921
515.174927	2584.544124
515.538904	2586.225349
515.902822	2585.852304
516.266684	2584.231573
516.630488	2585.368353
516.994235	2587.621749
517.357925	2584.077818
517.721558	2585.685946
518.085133	2586.931111
518.448651	2589.277768
518.812112	2586.585792
519.175516	2589.048395
519.538863	2588.395566
519.902152	2587.536049
520.265385	2587.004207
520.628560	2586.590833
520.991678	2586.774835
521.354739	2589.146698
521.717743	2587.697366
522.080690	2588.337592
522.443580	2589.068560
522.806413	2589.507140
523.169189	2586.923549
523.531908	2588.241811
523.894569	2585.421285
524.257174	2589.988570
524.619722	2587.725092
524.982213	2588.572006
525.344647	2586.114444
525.707025	2586.661409
526.069345	2586.691656
526.431608	2585.912797
526.793815	2586.603436
527.155964	2587.347006
527.518057	2587.135277
527.880093	2588.705597
528.242072	2586.603436
528.603995	2585.854824
528.965860	2587.130236
529.327669	2586.167376
529.689421	2586.921028
530.051117	2588.324990
530.412755	2586.260637
530.774337	2587.498240
531.135862	2587.163004
531.497331	2585.053281
531.858743	2585.801892
532.220098	2583.520770
532.581396	2584.254258
532.942638	2583.082190
533.303824	2585.317941
533.664953	2588.193920
534.026025	2587.352047
534.387040	2587.886409
534.747999	2585.388517
535.108902	2587.125195
535.469748	2585.000349
535.830537	2586.363981
536.191270	2585.912797
536.551947	2588.536718
536.912567	2587.818354
537.273131	2586.260637
537.633638	2585.559917
537.994089	2588.002356
538.354483	2585.539752
538.714821	2586.941193
539.075103	2587.102510
539.435328	2586.089238
539.795497	2586.356419
540.155609	2587.888930
540.515665	2585.953127
540.875665	2587.576378
541.235609	2585.751481
541.595496	2584.833991
541.955328	2585.995977
542.315102	2585.449011
542.674821	2584.072776
543.034483	2587.180648
543.394090	2585.706110
543.753640	2584.995307
544.113134	2587.193251
544.472571	2583.619073
544.831953	2586.205184
545.191278	2584.478589
545.550548	2586.588312
545.909761	2586.406831
546.268918	2585.345668
546.628019	2586.242993
546.987064	2586.573189
547.346053	2585.194433
547.704986	2587.306677
548.063863	2588.753488
548.422684	2585.385997
548.781449	2587.357088
549.140158	2586.006059
549.498811	2585.925400
549.857408	2584.551686
550.215949	2581.247210
550.574434	2583.762745
550.932864	2583.808116
551.291237	2581.383321
551.649555	2586.898343
552.007817	2586.835329
552.366022	2586.283322
552.724173	2584.866758
553.082267	2586.089238
553.440305	2587.145360
553.798288	2584.811305
554.156215	2584.226532
554.514086	2585.242324
554.871902	2586.227870
555.229661	2583.984556
555.587365	2582.527663
555.945014	2585.378435
556.302606	2584.554207
556.660143	2587.720051
557.017625	2584.972622
557.375050	2586.540421
557.732421	2587.198292
558.089735	2585.769125
558.446994	2584.438260
558.804197	2586.169896
559.161345	2584.745770
559.518437	2586.772314
559.875474	2583.679566
560.232455	2587.558734
560.589381	2586.565627
560.946251	2586.636203
561.303065	2588.561924
561.659825	2586.469845
562.016528	2585.534711
562.373177	2584.965061
562.729770	2583.571182
563.086307	2587.815833
563.442789	2587.339444
563.799216	2587.031934
564.155587	2585.809454
564.511904	2585.663260
564.868164	2584.602097
565.224370	2588.420772
565.580520	2585.832139
565.936615	2586.505133
566.292654	2587.654516
566.648638	2585.804413
567.004567	2587.372212
567.360441	2587.190730
567.716260	2587.452870
568.072023	2586.817685
568.427732	2582.673856
568.783385	2583.296439
569.138982	2581.665625
569.494525	2580.990111
569.850013	2579.933989
570.205445	2585.943044
570.560823	2585.461614
570.916145	2585.322983
571.271412	2585.406162
571.626625	2584.324834
571.981782	2586.172417
572.336884	2586.426995
572.691931	2584.468507
573.046923	2585.360791
573.401860	2584.491192
573.756743	2587.319279
574.111570	2585.829618
574.466342	2584.783579
574.821059	2586.369022
575.175722	2582.043712
575.530330	2584.095462
575.884882	2585.658219
576.239380	2584.140832
576.593823	2585.504464
576.948211	2584.917170
577.302544	2584.090420
577.656823	2586.253075
578.011047	2587.979671
578.365216	2583.762745
578.719330	2586.157293
579.073389	2584.612180
579.427394	2585.141501
579.781344	2584.239134
580.135239	2584.965061
580.489080	2583.477920
580.842866	2585.925400
581.196597	2586.490010
581.550273	2585.358271
581.903895	2585.385997
582.257463	2584.196285
582.610975	2585.025554
582.964434	2583.767787
583.317837	2586.053950
583.671186	2584.160997
584.024481	2585.486820
584.377721	2584.581933
584.730906	2583.732498
585.084037	2583.520770
585.437113	2582.036150
585.790135	2585.126377
586.143103	2583.838363
586.496016	2584.090420
586.848874	2581.524473
587.201679	2582.590677
587.554428	2579.954154
587.907124	2581.650502
588.259765	2581.887436
588.612352	2584.586974
588.964884	2584.783579
589.317362	2583.102354
589.669786	2585.229721
590.022155	2586.278281
590.374470	2582.991449
590.726731	2582.789803
591.078937	2583.664443
591.431090	2582.076479
591.783188	2583.581264
592.135232	2582.694021
592.487222	2583.808116
592.839157	2583.445153
593.191038	2585.819536
593.542866	2584.481110
593.894639	2583.591346
594.246358	2585.418764
594.598022	2582.837694
594.949633	2583.881212
595.301190	2581.653023
595.652692	2584.503795
596.004141	2580.513722
596.355535	2584.322313
596.706876	2582.091603
597.058162	2582.890626
597.409395	2582.973805
597.760573	2582.872982
598.111698	2582.472210
598.462768	2583.263671
598.813785	2583.024216
599.164748	2581.002714
599.515657	2583.152766
599.866511	2584.284505
600.217312	2580.458269
600.568060	2583.672005
600.918753	2584.287025
601.269392	2582.197467
601.619978	2584.720565
601.970510	2581.617734
602.320988	2583.137642
602.671412	2583.422467
603.021783	2582.447004
603.372100	2581.290059
603.722363	2583.440112
604.072572	2582.988928
604.422728	2583.387179
604.772830	2579.722261
605.122878	2576.153124
605.472872	2579.044225
605.822813	2578.066242
606.172701	2578.794688
606.522534	2581.892477
606.872314	2581.486664
607.222041	2581.156469
607.571714	2581.655543
607.921333	2582.678897
608.270899	2583.021696
608.620411	2582.656212
608.969870	2584.060173
609.319276	2584.912128
609.668627	2582.872982
610.017926	2582.731829
610.367171	2583.573702
610.716362	2582.162179
611.065500	2582.096644
611.414585	2582.585636
611.763616	2583.856007
612.112594	2582.421798
612.461518	2583.563620
612.810389	2581.645461
613.159207	2583.800554
613.507971	2580.765779
613.856682	2585.043198
614.205340	2582.386510
614.553945	2582.409196
614.902496	2582.071438
615.250994	2582.603280
615.599439	2586.885740
615.947830	2584.095462
616.296169	2584.052612
616.644454	2585.839701
616.992686	2586.041347
617.340864	2584.534042
617.688990	2582.147056
618.037063	2584.143353
618.385082	2581.937848
618.733048	2584.846593
619.080961	2584.155955
619.428821	2582.028588
619.776628	2582.883064
620.124382	2583.041860
620.472083	2585.998497
620.819731	2583.840883
621.167326	2582.305852
621.514868	2584.937334
621.862357	2582.908270
622.209793	2585.199474
622.557176	2586.185020
622.904506	2582.386510
623.251783	2578.025912
623.599007	2581.290059
623.946179	2581.526994
624.293297	2578.018351
624.640363	2584.377766
624.987376	2581.249730
625.334336	2581.799216
625.681243	2582.167220
626.028097	2581.287539
626.374899	2581.214442
626.721647	2582.182344
627.068343	2582.774679
627.414987	2583.669484
627.761577	2579.210583
628.108115	2581.169072
628.454600	2580.077662
628.801032	2579.891139
629.147412	2582.963722
629.493739	2580.359967
629.840014	2581.564802
630.186236	2581.406006
630.532405	2580.932137
630.878521	2580.264185
631.224585	2581.952971
631.570597	2581.728640
631.916556	2581.718557
632.262462	2582.817529
632.608316	2581.741243
632.954117	2580.359967
633.299866	2580.796026
633.645562	2581.063207
633.991206	2581.837025
634.336797	2578.519945
634.682336	2581.726119
635.027823	2580.581777
635.373257	2580.846438
635.718639	2580.448187
636.063968	2581.279977
636.409245	2579.689493
636.754470	2579.316448
637.099642	2581.705955
637.444762	2580.682600
637.789829	2580.415419
638.134845	2579.344174
638.479808	2580.168403
638.824719	2580.145717
639.169577	2580.097827
639.514383	2577.741087
639.859137	2578.764441
640.203839	2582.126891
640.548489	2581.043043
640.893086	2578.434246
641.237632	2576.112794
641.582125	2577.410892
641.926566	2575.931313
642.270955	2581.269895
642.615292	2580.107909
642.959576	2580.710327
643.303809	2578.391396
643.647990	2579.576067
643.992118	2579.097158
644.336195	2579.465162
644.680219	2579.117322
645.024192	2578.464493
645.368112	2577.814184
645.711981	2581.532035
646.055797	2580.002045
646.399562	2581.809298
646.743274	2582.121850
647.086935	2579.162692
647.430544	2580.702765
647.774101	2582.504977
648.117606	2581.363156
648.461059	2581.385841
648.804460	2583.293918
649.147810	2580.281829
649.491108	2577.247054
649.834354	2581.090934
650.177548	2578.076324
650.520690	2576.831159
650.863781	2580.092785
651.206820	2582.212591
651.549807	2575.404512
651.892742	2578.580439
652.235626	2579.739905
652.578458	2580.599421
652.921238	2578.492219
653.263967	2580.727971
653.606644	2575.878381
653.949269	2581.032961
654.291843	2578.887950
654.634365	2578.739236
654.976836	2578.255285
655.319255	2579.170254
655.661622	2577.504153
656.003938	2577.660429
656.346203	2577.922569
656.688416	2578.230079
657.030577	2575.611200
657.372687	2580.254102
657.714746	2579.984401
658.056753	2579.414750
658.398708	2572.430232
658.740612	2575.144893
659.082465	2573.443503
659.424266	2574.930644
659.766016	2570.658266
660.107715	2578.708989
660.449362	2579.757549
660.790958	2578.948443
661.132503	2579.066911
661.473996	2578.469534
661.815438	2579.437435
662.156829	2579.253433
662.498168	2575.621282
662.839456	2578.116653
663.180693	2577.637743
663.521879	2576.533731
663.863013	2578.361149
664.204097	2578.530028
664.545129	2576.833679
664.886110	2577.302507
665.227040	2579.150090
665.567918	2580.881726
665.908746	2579.951633
666.249522	2578.464493
666.590248	2577.690676
666.930922	2579.140007
667.271545	2578.837538
667.612118	2581.017837
667.952639	2576.344687
668.293109	2577.373083
668.633528	2579.412230
668.973896	2573.869481
669.314213	2576.755542
669.654480	2577.446180
669.994695	2577.572208
670.334859	2578.671180
670.674973	2577.448700
671.015035	2579.820563
671.355047	2581.249730
671.695008	2579.921386
672.034918	2578.633371
672.374777	2578.429205
672.714585	2577.350398
673.054342	2577.501632
673.394049	2579.424832
673.733705	2577.577250
674.073310	2579.916345
674.412864	2579.316448
674.752368	2578.530028
675.091820	2579.397106
675.431223	2577.584811
675.770574	2580.730491
676.109875	2573.299831
676.449125	2577.783937
676.788324	2573.178843
677.127473	2576.488360
677.466571	2573.229254
677.805619	2579.825604
678.144616	2578.421643
678.483562	2578.005748
678.822458	2578.255285
679.161303	2581.032961
679.500098	2574.287897
679.838842	2579.586149
680.177535	2577.400809
680.516179	2579.147569
680.854771	2576.637074
681.193314	2579.291242
681.531805	2579.790316
681.870247	2578.472054
682.208638	2575.374265
682.546978	2576.599266
682.885268	2577.206725
683.223508	2577.423494
683.561697	2575.608679
683.899836	2579.127404
684.237925	2577.758731
684.575963	2579.742425
684.913951	2575.961560
685.251889	2579.540779
685.589776	2578.456931
685.927614	2578.310737
686.265401	2578.204873
686.603137	2575.545665
686.940824	2579.833166
687.278460	2578.519945
687.616046	2576.243864
687.953582	2578.222517
688.291068	2577.773855
688.628504	2578.207394
688.965889	2576.309399
689.303224	2578.489698
689.640510	2576.810994
689.977745	2575.152455
690.314930	2579.205542
690.652065	2577.277301
690.989150	2578.678742
691.326185	2577.148752
691.663170	2577.594894
692.000105	2575.374265
692.336990	2576.523648
692.673825	2574.928123
693.010610	2577.093299
693.347345	2572.425190
693.684030	2574.723957
694.020665	2574.524831
694.357251	2572.974676
694.693786	2574.504666
695.030272	2573.753534
695.366707	2575.764955
695.703093	2575.777558
696.039429	2578.714030
696.375716	2576.193453
696.711952	2574.688668
697.048139	2576.901735
697.384276	2576.657239
697.720363	2573.478792
698.056400	2577.983062
698.392388	2576.712692
698.728326	2580.501119
699.064214	2574.890315
699.400053	2574.222362
699.735842	2576.463155
700.071581	2579.225707
700.407270	2572.596590
700.742910	2572.601631
701.078501	2575.865778
701.414042	2573.929975
701.749533	2575.923751
702.084974	2574.676066
702.420366	2571.573235
702.755709	2574.464337
703.091002	2574.721436
703.426246	2576.538772
703.761440	2573.962742
704.096584	2575.591035
704.431679	2574.202197
704.766725	2575.520459
705.101721	2573.156158
705.436668	2572.836044
705.771565	2575.223031
706.106413	2571.205231
706.441212	2577.544482
706.775961	2577.078175
707.110661	2574.900397
707.445311	2575.913669
707.779913	2576.238823
708.114465	2574.698751
708.448967	2572.014336
708.783421	2575.911148
709.117825	2573.877043
709.452180	2576.064903
709.786485	2574.716395
710.120742	2571.984089
710.454949	2574.865109
710.789107	2573.488874
711.123216	2572.972156
711.457275	2573.405695
711.791286	2570.955694
712.125247	2571.240519
712.459159	2578.403999
712.793023	2579.069431
713.126837	2573.902248
713.460602	2575.611200
713.794318	2578.030953
714.127985	2574.955850
714.461602	2577.017682
714.795171	2572.609192
715.128691	2573.824111
715.462162	2576.962229
715.795584	2575.275963
716.128957	2575.384348
716.462281	2578.076324
716.795556	2578.325861
717.128782	2573.932495
717.461960	2574.383679
717.795088	2575.480130
718.128167	2574.237485
718.461198	2574.406364
718.794180	2575.180181
719.127113	2575.810325
719.459997	2574.817218
719.792833	2573.824111
720.125619	2574.998699
720.458357	2571.290931
720.791046	2573.630026
721.123686	2571.830334
721.456278	2573.272104
721.788821	2571.401836
722.121315	2575.018864
722.453761	2572.725139
722.786158	2570.887638
723.118506	2575.465006
723.450805	2573.687999
723.783056	2575.908628
724.115259	2572.682289
724.447412	2572.793195
724.779518	2574.741601
725.111574	2573.980386
725.443582	2573.148596
725.775542	2574.499625
726.107453	2575.190263
726.439315	2573.861919
726.771129	2573.884604
727.102895	2574.295458
727.434612	2574.658422
727.766281	2574.111456
728.097901	2569.811352
728.429473	2569.035014
728.760996	2569.128276
729.092471	2570.529717
729.423897	2574.247568
729.755276	2573.047773
730.086606	2575.495253
730.417887	2571.832855
730.749120	2573.488874
731.080305	2575.303689
731.411442	2575.671693
731.742530	2574.822259
732.073570	2573.768658
732.404562	2572.760427
732.735506	2575.366704
733.066401	2574.774368
733.397249	2573.942578
733.728048	2574.292938
734.058798	2572.959553
734.389501	2574.802094
734.720156	2572.929306
735.050762	2573.463668
735.381320	2572.634398
735.711831	2573.935016
736.042293	2572.916703
736.372707	2574.197156
736.703073	2571.578277
737.033391	2573.980386
737.363661	2573.196487
737.693883	2572.294120
738.024056	2579.843248
738.354182	2573.322516
738.684260	2572.866291
739.014290	2572.810839
739.344272	2572.921744
739.674207	2571.817731
740.004093	2572.783112
740.333931	2576.067424
740.663722	2575.094481
740.993464	2574.744121
741.323159	2572.652042
741.652806	2570.875036
741.982405	2574.590366
742.311956	2575.631364
742.641460	2573.816549
742.970915	2573.027608
743.300323	2573.708164
743.629683	2572.268915
743.958996	2574.550037
744.288260	2574.184553
744.617477	2574.111456
744.946647	2568.578790
745.275768	2568.009140
745.604842	2568.064592
745.933869	2570.869994
746.262847	2568.362020
746.591778	2570.814542
746.920662	2571.064079
747.249498	2569.982751
747.578286	2573.196487
747.907027	2572.924265
748.235720	2573.856878
748.564365	2574.449214
748.892963	2571.759758
749.221514	2571.127093
749.550017	2575.223031
749.878473	2575.275963
750.206881	2572.132803
750.535242	2573.627506
750.863555	2573.594738
751.191821	2572.551219
751.520039	2573.874522
751.848210	2572.805797
752.176334	2571.616085
752.504411	2568.730025
752.832440	2568.727504
753.160421	2574.000551
753.488356	2570.716239
753.816243	2571.570715
754.144082	2570.869994
754.471875	2573.057855
754.799620	2570.063410
755.127318	2571.109449
755.454969	2571.081723
755.782572	2571.066599
756.110129	2572.021898
756.437638	2569.866805
756.765100	2573.264542
757.092515	2573.531724
757.419882	2569.675241
757.747203	2571.530386
758.074477	2570.542319
758.401703	2573.801425
758.728882	2572.727660
759.056014	2574.418967
759.383099	2571.928637
759.710138	2574.227403
760.037129	2571.638770
760.364073	2570.756568
760.690970	2569.042576
761.017820	2572.087433
761.344623	2572.319326
761.671379	2574.056004
761.998088	2570.418811
762.324751	2568.793039
762.651366	2571.764799
762.977935	2572.369738
763.304456	2570.685992
763.630931	2578.434246
763.957359	2578.444328
764.283740	2575.160016
764.610074	2574.728998
764.936362	2573.594738
765.262602	2573.957701
765.588796	2572.276476
765.914943	2571.530386
766.241044	2571.351425
766.567097	2573.602300
766.893104	2574.056004
767.219064	2572.009295
767.544978	2571.147258
767.870845	2572.815880
768.196665	2570.806980
768.522438	2573.529203
768.848165	2571.414439
769.173846	2570.575087
769.499479	2571.409398
769.825066	2568.677092
770.150607	2570.307906
770.476101	2572.084912
770.801548	2573.579615
771.126949	2572.863771
771.452303	2571.595921
771.777611	2568.256156
772.102872	2571.376630
772.428087	2571.404357
772.753256	2569.397978
773.078378	2570.814542
773.403453	2570.328070
773.728482	2573.730849
774.053465	2571.558112
774.378401	2570.537278
774.703291	2568.684654
775.028135	2568.800601
775.352932	2571.248081
775.677683	2570.310426
776.002388	2568.629202
776.327046	2572.147927
776.651658	2570.199521
776.976224	2570.842268
777.300743	2568.417473
777.625216	2569.571897
777.949643	2570.633060
778.274024	2570.882597
778.598359	2564.233315
778.922647	2568.387226
779.246889	2566.078378
779.571086	2565.407904
779.895236	2569.261866
780.219339	2568.873697
780.543397	2570.794377
780.867409	2568.949315
781.191374	2570.053328
781.515294	2570.355797
781.839167	2568.009140
782.162995	2571.149778
782.486776	2567.464695
782.810511	2567.240364
783.134201	2567.358831
783.457844	2569.156002
783.781441	2571.174984
784.104993	2568.997206
784.428498	2569.939902
784.751958	2569.871846
785.075372	2571.066599
785.398739	2569.007288
785.722061	2571.326219
786.045337	2570.290262
786.368568	2569.708008
786.691752	2570.116342
787.014891	2567.326063
787.337983	2569.448389
787.661030	2571.943760
787.984031	2571.845458
788.306987	2570.716239
788.629897	2571.048955
788.952760	2570.950653
789.275579	2568.707339
789.598351	2570.209603
789.921078	2571.560632
790.243759	2569.224058
790.566395	2569.332442
790.888984	2569.307237
791.211529	2570.247412
791.534027	2569.977710
791.856480	2567.749520
792.178888	2569.690364
792.501249	2570.817062
792.823566	2567.139541
793.145836	2570.096177
793.468062	2568.629202
793.790241	2569.168605
794.112375	2569.450910
794.434464	2567.936043
794.756507	2568.959397
795.078505	2570.764130
795.400457	2567.628532
795.722364	2566.176680
796.044226	2564.820610
796.366042	2565.969993
796.687812	2566.690878
797.009538	2570.247412
797.331218	2570.491908
797.652852	2570.544840
797.974442	2571.981569
798.295986	2571.240519
798.617484	2571.578277
798.938938	2568.694737
799.260346	2569.468554
799.581709	2567.835220
799.903026	2568.573749
800.224299	2566.413614
800.545526	2573.342680
800.866708	2570.920406
801.187845	2568.815724
801.508936	2567.719273
801.829983	2570.174315
802.150984	2568.702298
802.471940	2568.130127
802.792851	2570.317988
803.113717	2568.064592
803.434538	2567.237843
803.755314	2567.978893
804.076045	2565.183573
804.396731	2569.511403
804.717372	2567.583162
805.037967	2568.528378
805.358518	2566.595096
805.679024	2570.822103
805.999485	2567.510065
806.319901	2571.616085
806.640272	2567.936043
806.960598	2570.121383
807.280879	2566.335477
807.601115	2568.692216
807.921306	2569.150961
808.241453	2568.233471
808.561554	2567.457133
808.881611	2567.595765
809.201623	2566.625343
809.521590	2569.513924
809.841513	2568.258677
810.161390	2569.589541
810.481223	2570.126424
810.801011	2568.926630
811.120755	2568.021742
811.440453	2567.827658
811.760107	2570.461661
812.079716	2566.181721
812.399281	2567.310940
812.718801	2565.854046
813.038276	2565.952349
813.357707	2566.577452
813.677093	2567.391598
813.996434	2569.929819
814.315731	2569.342525
814.634983	2569.123235
814.954191	2570.330591
815.273354	2567.668862
815.592473	2567.938563
815.911547	2568.314129
816.230577	2569.536609
816.549562	2570.156671
816.868502	2569.942422
817.187399	2568.044428
817.506250	2570.880077
817.825058	2570.174315
818.143821	2569.975190
818.462539	2569.460992
818.781213	2568.929150
819.099843	2568.225909
819.418429	2570.905282
819.736970	2568.810683
820.055466	2572.447876
820.373919	2573.874522
820.692327	2571.926116
821.010691	2575.258319
821.329011	2574.368555
821.647286	2586.497571
821.965517	2589.547469
822.283704	2597.898141
822.601847	2600.630446
822.919945	2597.489807
823.237999	2596.952924
823.556010	2595.775815
823.873976	2590.412027
824.191897	2586.953796
824.509775	2582.711665
824.827609	2580.395255
825.145398	2578.575398
825.463144	2580.065059
825.780845	2576.916858
826.098502	2575.606158
826.416116	2579.092116
826.733685	2580.095306
827.051210	2582.545307
827.368692	2580.566654
827.686129	2577.788978
828.003522	2579.550861
828.320872	2573.413257
828.638177	2571.560632
828.955439	2570.592731
829.272656	2570.436455
829.589830	2568.777916
829.906960	2568.283882
830.224046	2569.937381
830.541088	2570.474264
830.858086	2569.521486
831.175041	2571.268246
831.491952	2568.051989
831.808819	2568.170457
832.125642	2566.874880
832.442421	2571.855540
832.759157	2571.462330
833.075849	2572.460478
833.392497	2570.489387
833.709101	2576.949626
834.025662	2574.141703
834.342179	2572.634398
834.658653	2572.977197
834.975083	2572.455437
835.291469	2574.335788
835.607811	2570.078533
835.924110	2570.202042
836.240366	2570.481826
836.556578	2569.284552
836.872746	2567.041238
837.188871	2567.807493
837.504952	2568.682134
837.820990	2570.219686
838.136984	2566.345559
838.452935	2565.349931
838.768842	2570.237330
839.084706	2566.559808
839.400526	2568.616599
839.716303	2571.593400
840.032037	2568.735066
840.347727	2569.334963
840.663373	2567.310940
840.978977	2570.512072
841.294537	2567.613409
841.610054	2570.827145
841.925527	2566.685837
842.240957	2567.789849
842.556344	2569.158523
842.871687	2567.247925
843.186987	2567.583162
843.502244	2567.507545
843.817458	2565.453275
844.132629	2567.028635
844.447756	2566.494273
844.762840	2564.714746
845.077881	2566.461505
845.392879	2563.406566
845.707833	2563.640980
846.022745	2561.866494
846.337613	2567.772205
846.652438	2566.703481
846.967221	2565.450754
847.281960	2565.188614
847.596656	2569.428224
847.911309	2564.911351
848.225919	2565.022256
848.540485	2565.894376
848.855009	2565.533933
849.169490	2564.480332
849.483928	2567.227761
849.798323	2565.657441
850.112675	2564.954200
850.426984	2567.174829
850.741251	2564.838254
851.055474	2565.160888
851.369654	2566.648028
851.683792	2567.714232
851.997887	2568.324212
852.311938	2564.724828
852.625947	2567.147102
852.939914	2567.079047
853.253837	2565.745662
853.567718	2565.919581
853.881555	2567.247925
854.195350	2565.596947
854.509103	2566.867318
854.822812	2565.861608
855.136479	2567.631053
855.450103	2563.285578
855.763685	2565.773388
856.077224	2566.746331
856.390720	2565.712894
856.704173	2566.302709
857.017584	2564.364385
857.330953	2564.649211
857.644278	2565.420507
857.957561	2565.105435
858.270802	2563.036041
858.584000	2568.288924
858.897155	2566.136351
859.210268	2564.936556
859.523339	2565.289437
859.836367	2566.375806
860.149352	2566.514438
860.462295	2566.801783
860.775195	2562.733572
861.088054	2562.899930
861.400869	2560.588561
861.713642	2561.531257
862.026373	2565.546536
862.339062	2565.843964
862.651708	2566.322874
862.964312	2567.346228
863.276873	2566.811866
863.589392	2565.649880
863.901869	2562.486556
864.214303	2568.664490
864.526696	2567.051320
864.839045	2566.426217
865.151353	2568.019222
865.463619	2565.861608
865.775842	2567.568039
866.088023	2562.690722
866.400162	2565.080229
866.712258	2564.457647
867.024313	2566.607699
867.336325	2565.518810
867.648296	2568.062072
867.960224	2563.961093
868.272110	2569.513924
868.583954	2565.617112
868.895755	2565.947308
869.207515	2568.782957
869.519233	2564.931515
869.830909	2565.019735
870.142542	2564.601320
870.454134	2566.353121
870.765684	2568.891342
871.077191	2566.166598
871.388657	2566.834551
871.700081	2568.450241
872.011463	2566.738769
872.322803	2566.451423
872.634101	2567.467216
872.945357	2566.395970
873.256571	2566.360682
873.567744	2565.387740
873.878874	2566.758933
874.189963	2565.044941
874.501010	2567.933522
874.812015	2567.338666
875.122979	2565.828841
875.433900	2564.974365
875.744780	2566.123748
876.055618	2563.915723
876.366415	2566.738769
876.677169	2564.666855
876.987882	2564.629046
877.298554	2562.529405
877.609183	2564.268603
877.919771	2564.351782
878.230317	2563.399004
878.540822	2568.344376
878.851285	2568.243553
879.161707	2563.799776
879.472087	2570.862433
879.782425	2566.970662
880.092722	2572.057186
880.402977	2571.621126
880.713191	2576.069945
881.023363	2577.426015
881.333494	2584.150914
881.643583	2584.644947
881.953631	2582.787282
882.263637	2580.964905
882.573602	2580.788465
882.883526	2580.720409
883.193408	2579.669328
883.503248	2578.938361
883.813048	2577.902404
884.122806	2576.629513
884.432522	2574.003072
884.742197	2573.383010
885.051831	2571.671538
885.361424	2570.754048
885.670975	2570.388564
885.980485	2572.503328
886.289954	2566.625343
886.599382	2569.619788
886.908768	2568.790518
887.218113	2566.438820
887.527417	2569.607185
887.836680	2568.034345
888.145901	2566.761454
888.455082	2566.683316
888.764221	2570.582649
889.073319	2564.808007
889.382376	2567.409242
889.691392	2566.103583
890.000366	2566.995868
890.309300	2566.859757
890.618193	2568.241033
890.927044	2565.710373
891.235855	2567.187432
891.544625	2564.099725
891.853353	2567.638615
892.162041	2567.179870
892.470687	2567.318502
892.779293	2566.607699
893.087858	2564.203068
893.396381	2563.525033
893.704864	2562.320197
894.013306	2563.068809
894.321707	2569.251784
894.630068	2566.995868
894.938387	2571.573235
895.246665	2571.497618
895.554903	2571.545509
895.863100	2570.754048
896.171256	2568.402350
896.479371	2570.133986
896.787446	2568.276321
897.095480	2569.506362
897.403473	2568.155333
897.711425	2568.246074
898.019336	2568.997206
898.327207	2570.582649
898.635038	2567.588203
898.942827	2566.590055
899.250576	2565.037379
899.558284	2565.632236
899.865952	2565.087791
900.173579	2565.360013
900.481165	2564.175342
900.788711	2563.890517
901.096216	2566.133830
901.403681	2564.024108
901.711105	2567.041238
902.018489	2565.662483
902.325832	2568.132648
902.633135	2565.289437
902.940397	2566.416135
903.247619	2564.006463
903.554800	2566.217009
903.861941	2568.694737
904.169041	2568.641804
904.476101	2571.064079
904.783121	2572.858730
905.090100	2569.080385
905.397039	2570.285221
905.703938	2572.548699
906.010796	2570.076013
906.317614	2567.762123
906.624391	2571.230437
906.931129	2567.842782
907.237826	2564.767678
907.544483	2564.699622
907.851099	2566.746331
908.157675	2566.335477
908.464211	2564.510579
908.770707	2560.560835
909.077163	2561.571586
909.383578	2561.478325
909.689954	2562.390774
909.996289	2558.367933
910.302584	2567.202555
910.608839	2563.411607
910.915054	2561.614436
911.221229	2564.911351
911.527363	2563.401525
911.833458	2562.872204
912.139513	2565.692729
912.445527	2563.600651
912.751502	2564.901268
913.057436	2564.235836
913.363331	2565.667524
913.669186	2566.451423
913.975000	2563.562842
914.280775	2564.220713
914.586510	2566.141392
914.892205	2567.626012
915.197859	2566.756413
915.503475	2566.274983
915.809050	2568.835889
916.114585	2572.679769
916.420081	2569.944943
916.725536	2569.811352
917.030952	2570.834706
917.336328	2569.982751
917.641665	2566.839592
917.946961	2568.999726
918.252218	2568.987123
918.557435	2571.691703
918.862612	2570.559963
919.167750	2570.461661
919.472848	2567.981413
919.777906	2570.388564
920.082925	2566.108625
920.387904	2566.726166
920.692843	2563.711556
920.997743	2565.821279
921.302603	2564.412276
921.607423	2566.728687
921.912204	2564.782801
922.216946	2563.958572
922.521647	2562.257183
922.826310	2567.252967
923.130932	2567.202555
923.435516	2564.059396
923.740059	2563.351113
924.044564	2566.942936
924.349028	2565.052503
924.653454	2560.800290
924.957840	2561.468242
925.262186	2562.335321
925.566493	2561.306926
925.870761	2559.260217
926.174989	2562.186607
926.479178	2561.349775
926.783328	2565.864129
927.087438	2565.614592
927.391509	2565.445713
927.695541	2565.508727
927.999533	2564.187945
928.303486	2560.429765
928.607400	2564.399673
928.911275	2562.836916
929.215110	2566.965621
929.518906	2565.145764
929.822663	2566.635425
930.126381	2563.540157
930.430060	2564.908830
930.733699	2562.617626
931.037299	2562.342883
931.340861	2563.729200
931.644383	2564.676937
931.947866	2562.978068
932.251309	2562.758778
932.554714	2563.109138
932.858080	2564.019066
933.161407	2559.799621
933.464694	2564.888665
933.767943	2564.268603
934.071153	2563.247770
934.374323	2562.728531
934.677455	2562.736093
934.980548	2563.996381
935.283602	2565.236505
935.586617	2561.995043
935.889593	2563.041082
936.192530	2561.233829
936.495428	2561.997564
936.798287	2563.469581
937.101108	2563.658624
937.403890	2563.341031
937.706632	2564.760116
938.009336	2563.421690
938.312002	2566.267421
938.614628	2562.574776
938.917216	2564.573593
939.219765	2564.172822
939.522275	2564.548387
939.824747	2561.889179
940.127179	2562.015208
940.429573	2560.081925
940.731929	2563.865311
941.034246	2557.586554
941.336524	2563.356155
941.638763	2563.267934
941.940964	2562.264745
942.243126	2564.823130
942.545250	2565.077709
942.847335	2563.809858
943.149381	2564.336659
943.451389	2563.900599
943.753359	2562.297512
944.055290	2562.572255
944.357182	2566.441341
944.659036	2564.545867
944.960851	2564.583676
945.262628	2565.239026
945.564367	2563.076371
945.866067	2560.883469
946.167729	2564.734910
946.469352	2562.552091
946.770937	2561.758109
947.072484	2561.233829
947.373992	2563.159550
947.675462	2565.082750
947.976893	2562.375650
948.278286	2563.545198
948.579641	2562.589899
948.880958	2564.586196
949.182236	2560.538150
949.483476	2563.051165
949.784678	2563.550239
950.085841	2564.084601
950.386967	2566.511917
950.688054	2562.564693
950.989103	2565.181052
951.290114	2562.191648
951.591087	2563.083932
951.892021	2563.797256
952.192917	2564.508058
952.493776	2564.061916
952.794596	2561.274158
953.095378	2563.467060
953.396122	2564.649211
953.696828	2562.199210
953.997496	2564.624005
954.298126	2562.113510
954.598718	2564.765157
954.899272	2564.049313
955.199788	2563.424210
955.500266	2565.753223
955.800706	2559.108982
956.101108	2558.872048
956.401472	2559.063612
956.701798	2557.636966
957.002087	2558.609908
957.302337	2562.829354
957.602550	2561.826164
957.902724	2563.537636
958.202861	2562.347924
958.502960	2560.848181
958.803022	2565.612071
959.103045	2564.147616
959.403031	2565.077709
959.702979	2562.799107
960.002889	2564.205589
960.302762	2562.758778
960.602596	2562.950342
960.902393	2563.356155
961.202153	2562.201730
961.501875	2562.670558
961.801559	2560.144940
962.101205	2563.240208
962.400814	2560.825495
962.700385	2560.775084
962.999918	2563.482183
963.299414	2563.058727
963.598873	2561.939590
963.898293	2560.563355
964.197677	2564.692060
964.497022	2563.499827
964.796331	2560.611246
965.095601	2562.267265
965.394835	2560.873386
965.694030	2559.459343
965.993189	2563.804817
966.292309	2562.292471
966.591393	2562.773901
966.890439	2560.780125
967.189447	2560.573438
967.488419	2560.933880
967.787353	2564.694581
968.086249	2559.592933
968.385108	2563.668706
968.683930	2560.084446
968.982714	2562.151319
969.281462	2560.654096
969.580172	2560.800290
969.878844	2562.126113
970.177480	2562.559652
970.476078	2562.242060
970.774639	2562.433623
971.073162	2561.609395
971.371649	2558.372974
971.670098	2559.650907
971.968510	2557.130330
972.266885	2558.569579
972.565223	2563.961093
972.863524	2559.875238
973.161788	2560.162584
973.460014	2562.564693
973.758204	2563.154508
974.056356	2561.168294
974.354471	2563.978737
974.652550	2562.637790
974.950591	2561.362378
975.248595	2563.051165
975.546563	2560.979251
975.844493	2561.284240
976.142386	2560.225598
976.440243	2561.485887
976.738062	2560.452450
977.035845	2565.634756
977.333590	2559.988664
977.631299	2559.774415
977.928971	2563.061247
978.226606	2564.787842
978.524204	2564.881104
978.821765	2561.722821
979.119290	2561.672409
979.416777	2563.721638
979.714228	2562.378171
980.011642	2561.924467
980.309020	2564.245918
980.606360	2560.938921
980.903664	2563.777091
981.200931	2561.039744
981.498162	2559.713921
981.795356	2564.293809
982.092513	2564.646690
982.389633	2562.320198
982.686717	2563.187276
982.983764	2562.088304
983.280775	2560.134857
983.577749	2562.660475
983.874686	2560.936401
984.171587	2562.521844
984.468451	2560.933880
984.765279	2561.138047
985.062070	2561.858932
985.358824	2563.015877
985.655543	2563.351113
985.952224	2561.949673
986.248869	2560.951524
986.545478	2558.335165
986.842050	2559.595454
987.138586	2559.986143
987.435086	2555.912891
987.731549	2556.565720
988.027975	2560.981771
988.324366	2561.357337
988.620719	2560.520506
988.917037	2562.025290
989.213318	2561.201061
989.509563	2557.909188
989.805772	2561.483366
990.101944	2561.942111
990.398080	2560.465053
990.694180	2560.883469
990.990244	2561.130485
991.286271	2561.001936
991.582262	2561.236349
991.878217	2558.642676
992.174136	2563.789694
992.470019	2561.264076
992.765865	2560.374312
993.061676	2562.196689
993.357450	2559.681153
993.653188	2559.905485
993.948890	2561.952193
994.244556	2559.383725
994.540186	2562.899930
994.835780	2558.340207
995.131337	2564.558470
995.426859	2561.546380
995.722345	2560.497820
996.017795	2562.221895
996.313208	2563.025959
996.608586	2563.502348
996.903928	2563.774570
997.199234	2562.872204
997.494504	2561.248952
997.789738	2558.776266
998.084936	2560.749878
998.380099	2561.942111
998.675225	2560.875907
998.970316	2560.686864
999.265371	2560.984292
999.560390	2562.599982
999.855373	2562.846998
1000.150320	2560.921277
1000.445232	2565.813717
1000.740108	2561.737944
1001.034948	2563.184755
1001.329752	2559.582851
1001.624521	2560.061761
1001.919254	2557.460525
1002.213951	2558.526729
1002.508613	2557.515978
1002.803239	2559.416493
1003.097829	2553.072201
1003.392384	2560.734755
1003.686903	2562.330280
1003.981386	2561.364899
1004.275834	2558.544373
1004.570246	2561.692574
1004.864623	2560.747358
1005.158964	2558.932542
1005.453270	2561.130485
1005.747540	2559.766853
1006.041775	2560.517985
1006.335974	2559.960938
1006.630138	2559.860114
1006.924266	2556.593447
1007.218359	2560.054199
1007.512416	2561.914385
1007.806438	2559.837429
1008.100425	2560.454971
1008.394376	2557.178221
1008.688292	2559.426575
1008.982172	2560.311298
1009.276017	2559.449260
1009.569827	2560.028993
1009.863602	2560.359189
1010.157341	2560.765002
1010.451045	2561.117882
1010.744714	2558.599826
1011.038347	2560.616288
1011.331945	2560.308777
1011.625508	2557.896585
1011.919036	2560.510423
1012.212528	2556.679146
1012.505986	2560.722152
1012.799408	2560.074363
1013.092795	2562.234498
1013.386147	2561.115362
1013.679464	2558.867007
1013.972745	2558.055381
1014.265992	2560.001267
1014.559204	2561.095197
1014.852380	2560.011349
1015.145521	2562.461350
1015.438628	2559.794579
1015.731699	2559.688715
1016.024736	2559.280382
1016.317737	2559.381205
1016.610703	2561.904302
1016.903635	2559.091338
1017.196531	2556.822819
1017.489393	2559.164435
1017.782219	2556.311142
1018.075011	2559.557645
1018.367768	2561.516133
1018.660490	2560.578479
1018.953177	2560.578479
1019.245829	2560.578479
