Dividing Wavelength (nm)	Counts (n)	Blue Motor Position (mm): 0.000000	Red Motor Position (mm): 41.300000	
326.493990	2127.692078
326.888308	2127.692078
327.282561	2127.692078
327.676750	2095.269897
328.070874	2093.197982
328.464933	2097.361975
328.858929	2101.430187
329.252859	2113.407968
329.646726	2122.562703
330.040528	2134.968983
330.434265	2152.827271
330.827938	2167.943170
331.221547	2188.261541
331.615091	2206.749973
332.008571	2225.810575
332.401986	2247.217835
332.795338	2267.460588
333.188625	2285.873403
333.581847	2302.249591
333.975006	2323.714824
334.368100	2340.549758
334.761129	2357.639269
335.154095	2376.520911
335.546996	2394.926163
335.939833	2417.928948
336.332606	2433.004519
336.725315	2445.665377
337.117960	2454.406738
337.510540	2463.092646
337.903056	2473.235447
338.295508	2480.494709
338.687896	2488.973930
339.080220	2498.156391
339.472480	2503.825169
339.864676	2508.510921
340.256807	2512.674914
340.648875	2515.616428
341.040879	2519.064577
341.432818	2520.511388
341.824694	2519.924094
342.216506	2522.122037
342.608253	2521.701100
342.999937	2521.963240
343.391557	2521.436440
343.783113	2519.125071
344.174605	2518.784793
344.566033	2517.736233
344.957397	2519.596419
345.348697	2513.791530
345.739934	2515.495440
346.131106	2513.854544
346.522215	2511.099554
346.913260	2507.222907
347.304241	2504.727535
347.695159	2505.546723
348.086012	2503.487412
348.476802	2501.196207
348.867528	2500.462719
349.258191	2499.338542
349.648789	2498.705877
350.039324	2492.379229
350.429796	2498.554642
350.820203	2491.875114
351.210548	2494.670433
351.600828	2492.364106
351.991045	2491.302943
352.381198	2491.353354
352.771288	2490.433344
353.161314	2490.536687
353.551276	2493.367295
353.941175	2485.699700
354.331010	2491.078611
354.720782	2487.693477
355.110490	2490.546770
355.500135	2489.160452
355.889717	2491.159270
356.279235	2488.749598
356.668689	2494.352841
357.058080	2492.243118
357.447408	2490.488796
357.836672	2488.842860
358.225873	2491.933087
358.615010	2488.724392
359.004084	2495.086329
359.393095	2493.465598
359.782043	2496.018942
360.170927	2494.922491
360.559748	2498.700836
360.948505	2497.125475
361.337199	2498.784015
361.725830	2499.726711
362.114398	2498.151350
362.502903	2501.561691
362.891344	2504.588904
363.279722	2500.666886
363.668037	2503.283245
364.056289	2503.258039
364.444478	2503.938595
364.832603	2502.597648
365.220665	2503.855416
365.608665	2503.275683
365.996601	2504.712412
366.384474	2505.856754
366.772284	2508.026971
367.160031	2508.468072
367.547715	2511.344050
367.935336	2513.166427
368.322893	2515.934020
368.710388	2521.461646
369.097820	2526.926256
369.485189	2529.078829
369.872495	2533.784746
370.259738	2541.157434
370.646918	2547.927703
371.034035	2557.180741
371.421090	2567.840261
371.808081	2579.003896
372.195010	2586.426995
372.581875	2599.491145
372.968678	2612.280553
373.355418	2625.140536
373.742096	2641.088226
374.128710	2656.120947
374.515262	2669.716939
374.901751	2684.424505
375.288177	2700.064685
375.674540	2724.446226
376.060841	2739.834348
376.447079	2757.896802
376.833254	2782.157355
377.219367	2792.511885
377.605417	2832.435303
377.991404	2840.465861
378.377329	2861.265662
378.763191	2876.411808
379.148991	2917.693817
379.534727	2939.174174
379.920402	2969.274903
380.306013	2983.579178
380.691563	3032.790921
381.077049	3053.988973
381.462474	3067.703432
381.847835	3110.066769
382.233134	3134.264307
382.618371	3131.259779
383.003545	3198.599512
383.388657	3207.285421
383.773706	3237.650811
384.158693	3253.457349
384.543618	3282.771658
384.928480	3318.006803
385.313280	3362.247969
385.698017	3360.465921
386.082692	3415.911052
386.467305	3422.250303
386.851856	3453.016465
387.236344	3477.723160
387.620770	3509.366482
388.005133	3533.468239
388.389435	3558.666447
388.773674	3571.513827
389.157851	3615.381948
389.541965	3627.828557
389.926018	3593.543669
390.310008	3665.145698
390.693936	3685.527083
391.077802	3727.396386
391.461606	3715.728636
391.845348	3778.082668
392.229027	3777.137451
392.612645	3791.431643
392.996200	3869.549363
393.379694	3908.159560
393.763125	3972.502327
394.146494	3941.673151
394.529801	4000.064836
394.913047	4050.030232
395.296230	4015.475643
395.679351	4070.139395
396.062410	4094.183178
396.445408	4075.092329
396.828343	4109.475519
397.211217	4132.475783
397.594028	4053.425450
397.976778	4118.514308
398.359466	4149.035973
398.742092	4171.643028
399.124656	4097.245679
399.507158	4177.871373
399.889598	4206.086712
400.271977	4265.990743
400.654294	4234.579313
401.036549	4243.275303
401.418742	4214.162640
401.800874	4314.257270
402.182944	4340.239377
402.564952	4397.201895
402.946898	4384.856109
403.328783	4384.110018
403.710606	4299.867297
404.092367	4492.608252
404.474067	4454.194660
404.855705	4462.197492
405.237282	4388.158065
405.618797	4500.661495
406.000250	4532.440929
406.381642	4616.159371
406.762972	4578.844750
407.144240	4588.264146
407.525447	4587.243313
407.906593	4649.370493
408.287677	4689.147717
408.668700	4616.726501
409.049661	4672.751364
409.430560	4711.301068
409.811399	4634.080673
410.192176	4797.552689
410.572891	4734.770159
410.953545	4839.996684
411.334138	4717.352973
411.714669	4788.730670
412.095139	4686.433056
412.475547	4824.018747
412.855894	4806.510820
413.236180	4819.338036
413.616405	4771.484883
413.996568	4854.578222
414.376670	4799.647289
414.756711	4750.813632
415.136691	4790.129590
415.516609	4865.522567
415.896466	4903.283330
416.276262	4932.673257
416.655997	4913.602572
417.035670	5099.956385
417.415283	5191.581877
417.794834	5136.978619
418.174324	5086.733439
418.553753	4998.810674
418.933121	5177.791801
419.312428	5245.648252
419.691674	5187.982493
420.070859	5315.856402
420.449983	5217.639601
420.829045	5341.878838
421.208047	5245.456688
421.586988	5315.805990
421.965867	5326.452907
422.344686	5458.369821
422.723444	5314.999405
423.102141	5135.098269
423.480777	5430.852682
423.859352	5200.618145
424.237866	5462.191015
424.616319	5453.293379
424.994712	5561.529472
425.373044	5436.866779
425.751314	5580.648048
426.129524	5381.237646
426.507673	5581.878090
426.885762	5658.516231
427.263789	5593.528197
427.641756	5475.688705
428.019662	5596.041212
428.397508	5605.327017
428.775292	5550.053286
429.153016	5651.360313
429.530679	5575.001956
429.908282	5660.439432
430.285824	5531.335482
430.663305	5804.878572
431.040726	5541.316966
431.418086	5535.577612
431.795385	5647.365199
432.172624	5660.678886
432.549802	5652.860057
432.926920	5665.402448
433.303977	5674.978119
433.680974	5710.046906
434.057910	5731.262602
434.434786	5732.442232
434.811601	5706.039189
435.188355	5941.541732
435.565050	5815.386857
435.941683	5794.995389
436.318257	6011.490262
436.694770	5992.235575
437.071222	6027.261512
437.447614	5959.427746
437.823946	5868.243355
438.200218	6026.462489
438.576429	5894.061624
438.952580	5988.633670
439.328670	6034.795516
439.704700	5945.584737
440.080670	5933.107881
440.456580	6197.259302
440.832429	6084.637404
441.208218	5929.117808
441.583947	6086.883238
441.959616	6092.259629
442.335224	6016.715418
442.710773	6150.369009
443.086261	6177.475293
443.461689	5972.418799
443.837057	6122.559484
444.212365	6275.893740
444.587612	6171.120919
444.962800	6325.730587
445.337927	6300.837369
445.712995	5913.023924
446.088002	6491.781153
446.462949	6322.224464
446.837837	6250.735862
447.212664	6426.324291
447.587431	6570.816363
447.962139	7109.249403
448.336786	8039.947226
448.711374	7777.106506
449.085901	6854.151895
449.460369	6771.320696
449.834776	6709.604370
450.209124	7097.556447
450.583412	7248.672595
450.957640	7396.857312
451.331808	7159.355952
451.705917	6712.261058
452.079965	6635.315406
452.453954	6847.621080
452.827883	6725.872173
453.201752	6819.655279
453.575562	6619.186235
453.949311	6823.352965
454.323001	6711.454473
454.696632	6783.485000
455.070202	6920.949704
455.443713	7072.322951
455.817164	7175.656522
456.190556	7258.465036
456.563888	7334.505801
456.937160	7380.912143
457.310373	7034.002620
457.683526	7058.699233
458.056619	6951.224353
458.429653	6931.210972
458.802628	6871.803495
459.175542	6981.824157
459.548398	7334.485636
459.921194	7495.774833
460.293930	7501.660380
460.666607	8031.510855
461.039224	8337.730704
461.411782	8464.152760
461.784280	8484.166141
462.156719	8375.861992
462.529099	8254.700380
462.901419	7848.942948
463.273680	7736.134528
463.645882	7746.476455
464.018024	7616.976774
464.390106	7785.300901
464.762130	8173.431939
465.134094	8634.306826
465.505999	9663.145832
465.877845	10881.990968
466.249631	11531.896522
466.621358	11146.548201
466.993026	10526.090548
467.364634	10261.722358
467.736184	9898.131657
468.107674	9570.265093
468.479105	9597.946069
468.850477	9368.747489
469.221790	9138.465061
469.593043	8802.661200
469.964238	8671.545830
470.335373	8681.098816
470.706449	8736.538906
471.077467	8714.987973
471.448425	10029.451194
471.819324	11108.026224
472.190164	11123.777309
472.560945	9885.183453
472.931667	9087.834232
473.302330	8953.028737
473.672934	8598.620498
474.043479	8957.805230
474.413965	8901.316581
474.784393	8781.843755
475.154761	8939.876367
475.525070	9018.528449
475.895321	8850.063170
476.265513	9026.652268
476.635645	9194.109317
477.005719	9192.168473
477.375734	9308.616606
477.745691	9541.959014
478.115588	9678.188635
478.485427	9918.926417
478.855207	10458.521442
479.224928	11273.842377
479.594591	11909.428533
479.964194	11723.956922
480.333739	11655.097281
480.703226	11575.179869
481.072653	11665.935762
481.442022	11903.341340
481.811333	12092.971904
482.180584	11896.858416
482.549777	11609.323604
482.918912	11430.486151
483.287988	11449.456012
483.657005	11466.951337
484.025964	11141.759105
484.394864	11276.236925
484.763706	11240.601009
485.132489	11001.932621
485.501213	10960.146497
485.869879	11044.810155
486.238487	10886.364169
486.607036	10994.970787
486.975527	10773.167580
487.343959	10960.267484
487.712333	11007.049392
488.080648	10940.478435
488.448905	10984.586011
488.817104	10925.722978
489.185244	11189.035046
489.553326	11345.940959
489.921350	11875.410827
490.289315	12948.453191
490.657222	13287.501034
491.025070	13196.402343
491.392861	13067.734453
491.760593	12695.445241
492.128267	12341.934328
492.495883	12011.552228
492.863440	11677.467401
493.230939	11336.602222
493.598380	11282.147678
493.965763	11146.442337
494.333088	11044.416945
494.700354	10956.005189
495.067563	11025.058914
495.434713	10850.251863
495.801805	10986.000054
496.168839	10909.369475
496.535815	10842.478404
496.902733	10833.104379
497.269593	10780.177304
497.636395	10872.826150
498.003139	10862.542197
498.369825	10724.752338
498.736453	10881.340659
499.103023	10813.428755
499.469535	10843.584938
499.835989	10828.174130
500.202385	10797.629779
500.568723	10641.467436
500.935003	10869.067970
501.301226	10674.179483
501.667390	10928.929152
502.033497	11029.631241
502.399546	10882.127079
502.765537	10797.123143
503.131470	10868.110151
503.497345	11046.665300
503.863163	10650.163426
504.228923	10958.334202
504.594625	11027.398010
504.960269	10777.228229
505.325856	10987.519962
505.691385	10790.650302
506.056856	10943.455236
506.422270	10968.419030
506.787625	10860.561023
507.152924	10976.494959
507.518164	10958.306476
507.883347	10876.619619
508.248472	10792.051742
508.613540	11029.331292
508.978550	10915.156719
509.343503	10882.527851
509.708398	11006.179793
510.073236	11116.825558
510.438016	11120.513162
510.802738	11074.003477
511.167403	11121.034922
511.532010	11026.470437
511.896561	11250.126269
512.261053	11328.296921
512.625488	11195.056704
512.989866	11172.162304
513.354186	11172.121975
513.718449	11066.577857
514.082655	11258.610531
514.446803	11161.961529
514.810894	11275.120310
515.174927	11150.442493
515.538904	11172.426965
515.902822	11322.766775
516.266684	11206.487521
516.630488	11152.549695
516.994235	11206.568179
517.357925	11269.023034
517.721558	11356.154337
518.085133	11367.527180
518.448651	11380.971937
518.812112	11256.876374
519.175516	11282.127513
519.538863	11397.423743
519.902152	11312.661782
520.265385	11468.171296
520.628560	11390.144317
520.991678	11367.552386
521.354739	11429.656881
521.717743	11357.820438
522.080690	11337.789414
522.443580	11462.008486
522.806413	11427.176633
523.169189	11459.006478
523.531908	11512.518327
523.894569	11331.407313
524.257174	11337.718838
524.619722	11449.231681
524.982213	11401.996070
525.344647	11451.081785
525.707025	11409.071329
526.069345	11498.796306
526.431608	11417.321177
526.793815	11530.028774
527.155964	11313.697739
527.518057	11368.696728
527.880093	11320.404995
528.242072	11382.955632
528.603995	11287.793770
528.965860	11211.831144
529.327669	11257.955181
529.689421	11209.998684
530.051117	11181.496000
530.412755	11284.554829
530.774337	11171.695997
531.135862	11153.545323
531.497331	11180.959117
531.858743	11032.028309
532.220098	11191.842969
532.581396	11073.922818
532.942638	11050.791484
533.303824	11008.314722
533.664953	11030.137877
534.026025	10934.701273
534.387040	11036.996367
534.747999	11044.860567
535.108902	11106.733168
535.469748	10857.911897
535.830537	10961.089193
536.191270	10941.302664
536.551947	10963.735798
536.912567	10959.405447
537.273131	10884.798891
537.633638	10866.428926
537.994089	10848.323622
538.354483	10799.752105
538.714821	10946.613519
539.075103	10951.778181
539.435328	10913.220916
539.795497	10742.978630
540.155609	10900.290357
540.515665	10989.223872
540.875665	10730.751312
541.235609	10790.282297
541.595496	10791.782041
541.955328	10947.467995
542.315102	10831.823926
542.674821	10778.483477
543.034483	10785.808273
543.394090	10789.347163
543.753640	10712.666172
544.113134	10937.025245
544.472571	10790.700713
544.831953	10934.136663
545.191278	10737.352703
545.550548	10770.064750
545.909761	10906.349823
546.268918	10879.845957
546.628019	10964.232352
546.987064	10825.822432
547.346053	10750.968859
547.704986	10848.711791
548.063863	10835.156128
548.422684	10826.208080
548.781449	10742.066181
549.140158	10846.405463
549.498811	10724.817873
549.857408	10576.539895
550.215949	10803.069184
550.574434	10654.302213
550.932864	10750.462223
551.291237	10815.104939
551.649555	10760.544531
552.007817	10772.086253
552.366022	10738.592826
552.724173	10725.521114
553.082267	10720.605989
553.440305	10847.895124
553.798288	10648.278035
554.156215	10807.548249
554.514086	10780.242839
554.871902	10632.186672
555.229661	10663.804788
555.587365	10649.722325
555.945014	10537.445747
556.302606	10664.535756
556.660143	10557.088603
557.017625	10711.340349
557.375050	10611.409556
557.732421	10744.261604
558.089735	10660.389407
558.446994	10663.668677
558.804197	10697.593122
559.161345	10699.171003
559.518437	10545.710718
559.875474	10633.202464
560.232455	10668.767804
560.589381	10616.445669
560.946251	10613.322674
561.303065	10717.125073
561.659825	10654.718109
562.016528	10586.672614
562.373177	10460.888264
562.729770	10580.983672
563.086307	10494.169962
563.442789	10587.854765
563.799216	10463.668460
564.155587	10514.379947
564.511904	10467.575354
564.868164	10455.443818
565.224370	10469.783380
565.580520	10390.659950
565.936615	10389.984435
566.292654	10268.737123
566.648638	10403.814841
567.004567	10352.311892
567.360441	10338.801600
567.716260	10250.662066
568.072023	10349.297282
568.427732	10293.000197
568.783385	10205.193379
569.138982	10268.994222
569.494525	10289.937696
569.850013	10166.603346
570.205445	10246.044369
570.560823	10145.823710
570.916145	10069.934180
571.271412	10137.931784
571.626625	10076.996837
571.981782	10056.093692
572.336884	10023.979022
572.691931	10035.215754
573.046923	9975.841044
573.401860	9936.081463
573.756743	9871.189210
574.111570	9911.689840
574.466342	9895.963961
574.821059	9925.406820
575.175722	9811.408687
575.530330	9821.324637
575.884882	9819.436725
576.239380	9740.373789
576.593823	9720.355367
576.948211	9730.725020
577.302544	9616.053894
577.656823	9633.372778
578.011047	9629.281881
578.365216	9599.927242
578.719330	9524.625007
579.073389	9538.079847
579.427394	9475.372934
579.781344	9465.288106
580.135239	9410.334488
580.489080	9425.359647
580.842866	9314.481988
581.196597	9319.097165
581.550273	9363.834884
581.903895	9326.409358
582.257463	9395.823526
582.610975	9259.959389
582.964434	9295.617991
583.317837	9215.148572
583.671186	9196.909678
584.024481	9192.090335
584.377721	9113.206359
584.730906	9084.469262
585.084037	9114.910269
585.437113	9049.569354
585.790135	9068.622395
586.143103	8974.120925
586.496016	8941.645812
586.848874	8992.921908
587.201679	8982.138880
587.554428	8870.633598
587.907124	8911.204804
588.259765	8883.778407
588.612352	8885.240341
588.964884	8763.927494
589.317362	8775.673383
589.669786	8772.278166
590.022155	8818.596287
590.374470	8830.833688
590.726731	8768.840099
591.078937	8620.136143
591.431090	8729.241835
591.783188	8596.959438
592.135232	8593.105476
592.487222	8592.089683
592.839157	8639.862178
593.191038	8573.578566
593.542866	8511.683279
593.894639	8415.762725
594.246358	8463.192421
594.598022	8471.701888
594.949633	8372.068524
595.301190	8340.052156
595.652692	8364.852112
596.004141	8474.121642
596.355535	8254.690297
596.706876	8222.741985
597.058162	8155.934094
597.409395	8234.634067
597.760573	8288.541646
598.111698	8201.972431
598.462768	8182.836211
598.813785	8149.730954
599.164748	8109.550437
599.515657	8096.035104
599.866511	7995.300247
600.217312	8130.269579
600.568060	7987.176427
600.918753	8081.985408
601.269392	8054.574134
601.619978	7960.869166
601.970510	8015.197681
602.320988	8011.754573
602.671412	8057.661841
603.021783	7991.443764
603.372100	7960.236501
603.722363	7961.166594
604.072572	7931.111235
604.422728	7939.126670
604.772830	7867.290227
605.122878	7866.385340
605.472872	7860.023404
605.822813	7880.747587
606.172701	7824.228691
606.522534	7887.180100
606.872314	7884.548617
607.222041	7843.957247
607.571714	7895.939105
607.921333	7850.094852
608.270899	7846.031682
608.620411	7930.357582
608.969870	7830.628436
609.319276	7814.406003
609.668627	7825.738517
610.017926	7850.190633
610.367171	7882.073411
610.716362	7855.272117
611.065500	7842.092020
611.414585	7856.545008
611.763616	7836.014909
612.112594	7814.103534
612.461518	7810.113460
612.810389	7866.546657
613.159207	7795.370606
613.507971	7738.627378
613.856682	7837.444076
614.205340	7790.019421
614.553945	7848.582505
614.902496	7745.805981
615.250994	7788.081097
615.599439	7763.550843
615.947830	7766.136955
616.296169	7725.086839
616.644454	7718.140129
616.992686	7707.921710
617.340864	7747.920745
617.688990	7648.864593
618.037063	7718.848411
618.385082	7657.379102
618.733048	7718.472845
619.080961	7652.809296
619.428821	7661.384298
619.776628	7646.013820
620.124382	7597.717046
620.472083	7568.090185
620.819731	7581.779438
621.167326	7477.667008
621.514868	7476.343705
621.862357	7364.563681
622.209793	7373.093313
622.557176	7294.801673
622.904506	7258.855726
623.251783	7197.802311
623.599007	7142.442880
623.946179	7141.989177
624.293297	7088.996567
624.640363	7013.066708
624.987376	6984.233829
625.334336	6933.033350
625.681243	6871.438011
626.028097	6851.908581
626.374899	6825.061917
626.721647	6802.104502
627.068343	6731.737556
627.414987	6696.348656
627.761577	6645.533825
628.108115	6662.588049
628.454600	6558.238685
628.801032	6583.953610
629.147412	6545.295522
629.493739	6515.779566
629.840014	6461.680424
630.186236	6488.065823
630.532405	6381.591613
630.878521	6404.770838
631.224585	6351.914340
631.570597	6284.062930
631.916556	6290.490401
632.262462	6278.399193
632.608316	6232.063428
632.954117	6199.217790
633.299866	6184.661458
633.645562	6155.722715
633.991206	6087.273928
634.336797	6026.429721
634.682336	5986.778526
635.027823	5939.736999
635.373257	5929.367345
635.718639	5856.837744
636.063968	5859.915369
636.409245	5770.147542
636.754470	5754.028453
637.099642	5707.188572
637.444762	5654.480788
637.789829	5648.761599
638.134845	5590.773206
638.479808	5576.594961
638.824719	5563.624072
639.169577	5494.199822
639.514383	5498.555379
639.859137	5434.545328
640.203839	5428.284215
640.548489	5408.555659
640.893086	5380.305033
641.237632	5341.367161
641.582125	5352.450137
641.926566	5316.466381
642.270955	5310.628725
642.615292	5299.187826
642.959576	5288.074603
643.303809	5273.666985
643.647990	5266.458135
643.992118	5250.150002
644.336195	5199.052867
644.680219	5197.807702
645.024192	5189.109191
645.368112	5234.237600
645.711981	5239.861007
646.055797	5278.758550
646.399562	5237.010235
646.743274	5309.000432
647.086935	5333.770142
647.430544	5315.553932
647.774101	5309.854908
648.117606	5313.794570
648.461059	5290.965704
648.804460	5253.393985
649.147810	5187.067524
649.491108	5150.766175
649.834354	5118.114621
650.177548	5054.162544
650.520690	4986.810208
650.863781	4963.404130
651.206820	4962.479079
651.549807	4897.954830
651.892742	4847.850802
652.235626	4842.174463
652.578458	4819.557326
652.921238	4749.298765
653.263967	4764.918780
653.606644	4719.203076
653.949269	4704.989543
654.291843	4663.999921
654.634365	4681.374258
654.976836	4636.810458
655.319255	4632.389366
655.661622	4604.970530
656.003938	4586.993776
656.346203	4563.423861
656.688416	4563.375970
657.030577	4530.313562
657.372687	4497.646885
657.714746	4484.121470
658.056753	4497.815764
658.398708	4446.184266
658.740612	4442.617650
659.082465	4447.018577
659.424266	4434.617339
659.766016	4425.016461
660.107715	4395.268613
660.449362	4399.987133
660.790958	4385.607241
661.132503	4361.787789
661.473996	4373.037124
661.815438	4356.030792
662.156829	4344.279862
662.498168	4325.594825
662.839456	4309.463133
663.180693	4312.172753
663.521879	4306.440961
663.863013	4288.859937
664.204097	4282.046818
664.545129	4298.004590
664.886110	4279.964821
665.227040	4288.007982
665.567918	4265.413531
665.908746	4264.838839
666.249522	4260.672325
666.590248	4245.364862
666.930922	4248.697064
667.271545	4243.328236
667.612118	4233.775249
667.952639	4216.020305
668.293109	4211.468143
668.633528	4181.871529
668.973896	4176.858102
669.314213	4162.495854
669.654480	4142.522803
669.994695	4132.001915
670.334859	4116.467599
670.674973	4096.860031
671.015035	4089.855348
671.355047	4080.103236
671.695008	4061.914753
672.034918	4048.951426
672.374777	4041.641752
672.714585	4026.220863
673.054342	4018.822970
673.394049	4009.277545
673.733705	4009.201927
674.073310	3989.438084
674.412864	3974.017194
674.752368	3954.868371
675.091820	3946.043832
675.431223	3912.752052
675.770574	3900.718817
676.109875	3871.812841
676.449125	3862.257334
676.788324	3841.951566
677.127473	3811.487874
677.466571	3794.763846
677.805619	3782.788585
678.144616	3765.676388
678.483562	3749.874891
678.822458	3728.616346
679.161303	3718.642423
679.500098	3705.479970
679.838842	3696.020245
680.177535	3687.687218
680.516179	3687.833411
680.854771	3684.014737
681.193314	3705.565670
681.531805	3743.107142
681.870247	3792.951551
682.208638	3827.117971
682.546978	3823.054801
682.885268	3804.185762
683.223508	3761.464504
683.561697	3733.055082
683.899836	3713.331567
684.237925	3688.841642
684.575963	3673.415711
684.913951	3651.910149
685.251889	3661.521108
685.589776	3654.203874
685.927614	3638.959424
686.265401	3650.370076
686.603137	3641.099394
686.940824	3659.325686
687.278460	3664.752488
687.616046	3665.919515
687.953582	3686.457176
688.291068	3676.556350
688.628504	3681.668080
688.965889	3669.634846
689.303224	3645.643994
689.640510	3614.759365
689.977745	3582.687545
690.314930	3535.872869
690.652065	3512.814632
690.989150	3477.544199
691.326185	3438.240843
691.663170	3409.165988
692.000105	3377.792367
692.336990	3346.852285
692.673825	3324.361178
693.010610	3303.397539
693.347345	3279.331071
693.684030	3258.324583
694.020665	3243.838827
694.357251	3213.448231
694.693786	3212.107284
695.030272	3197.394677
695.366707	3185.605938
695.703093	3169.128927
696.039429	3169.242353
696.375716	3158.585354
696.711952	3146.456338
697.048139	3141.780667
697.384276	3133.775315
697.720363	3128.590488
698.056400	3124.529839
698.392388	3110.744804
698.728326	3104.029987
699.064214	3090.053388
699.400053	3083.903180
699.735842	3068.683937
700.071581	3055.587019
700.407270	3046.059238
700.742910	3036.483567
701.078501	3019.880526
701.414042	3013.387520
701.749533	2998.982423
702.084974	2985.683859
702.420366	2988.053202
702.755709	2971.719863
703.091002	2959.306022
703.426246	2959.200158
703.761440	2951.298149
704.096584	2939.171653
704.431679	2936.787188
704.766725	2932.184614
705.101721	2922.624066
705.436668	2926.440219
705.771565	2913.476892
706.106413	2917.240113
706.441212	2919.140628
706.775961	2915.886564
707.110661	2910.966398
707.445311	2919.034764
707.779913	2914.099475
708.114465	2919.349836
708.448967	2923.541556
708.783421	2931.819130
709.117825	2938.720470
709.452180	2939.292641
709.786485	2947.756738
710.120742	2964.934470
710.454949	2967.623926
710.789107	2976.072899
711.123216	2990.447750
711.457275	2989.862976
711.791286	3004.134482
712.125247	3004.565501
712.459159	2991.317349
712.793023	3001.107269
713.126837	2980.189002
713.460602	2977.149186
713.794318	2961.022535
714.127985	2953.939713
714.461602	2923.483583
714.795171	2918.041657
715.128691	2896.589027
715.462162	2880.222921
715.795584	2868.779502
716.128957	2859.216433
716.462281	2847.210925
716.795556	2838.822445
717.128782	2828.336845
717.461960	2811.456541
717.795088	2811.330512
718.128167	2803.804070
718.461198	2791.675053
718.794180	2787.039712
719.127113	2781.751542
719.459997	2771.901127
719.792833	2768.911723
720.125619	2765.256887
720.458357	2756.102151
720.791046	2752.583426
721.123686	2747.169227
721.456278	2745.135121
721.788821	2742.365007
722.121315	2739.307547
722.453761	2733.099366
722.786158	2733.462329
723.118506	2733.207751
723.450805	2727.483521
723.783056	2728.229612
724.115259	2728.380846
724.447412	2729.641135
724.779518	2727.549056
725.111574	2726.243397
725.443582	2727.549056
725.775542	2724.370608
726.107453	2733.144737
726.439315	2730.578789
726.771129	2737.833010
727.102895	2739.680593
727.434612	2745.387179
727.766281	2744.575553
728.097901	2746.864237
728.429473	2741.954153
728.760996	2740.141858
729.092471	2734.251270
729.423897	2733.321177
729.755276	2735.458626
730.086606	2731.035014
730.417887	2735.708163
730.749120	2744.086561
731.080305	2746.309710
731.411442	2749.442787
731.742530	2744.439442
732.073570	2740.179667
732.404562	2744.389030
732.735506	2742.125552
733.066401	2736.391240
733.397249	2726.800445
733.728048	2713.340564
734.058798	2701.405632
734.389501	2690.763756
734.720156	2683.746470
735.050762	2678.049966
735.381320	2671.821621
735.711831	2669.689213
736.042293	2663.854077
736.372707	2666.992195
736.703073	2662.573624
737.033391	2660.317708
737.363661	2660.902482
737.693883	2664.146464
738.024056	2666.747699
738.354182	2664.229643
738.684260	2669.399346
739.014290	2673.671724
739.344272	2676.348577
739.674207	2678.120542
740.004093	2680.915862
740.333931	2675.831859
740.663722	2676.409071
740.993464	2674.770696
741.323159	2671.100736
741.652806	2666.157884
741.982405	2663.022287
742.311956	2656.627583
742.641460	2656.151194
742.970915	2650.459731
743.300323	2643.898670
743.629683	2643.041673
743.958996	2638.572691
744.288260	2634.136475
744.617477	2630.312760
744.946647	2625.080042
745.275768	2625.087604
745.604842	2621.692387
745.933869	2618.269443
746.262847	2617.485544
746.591778	2620.008642
746.920662	2618.622324
747.249498	2616.691562
747.578286	2621.402521
747.907027	2620.590895
748.235720	2622.332613
748.564365	2622.768673
748.892963	2620.328755
749.221514	2620.202726
749.550017	2617.845987
749.878473	2617.205760
750.206881	2614.423043
750.535242	2612.487240
750.863555	2610.367435
751.191821	2613.339195
751.520039	2608.920624
751.848210	2610.551437
752.176334	2609.021447
752.504411	2608.797115
752.832440	2605.480036
753.160421	2606.281580
753.488356	2605.883328
753.816243	2607.889708
754.144082	2603.292175
754.471875	2605.538009
754.799620	2599.085332
755.127318	2602.780498
755.454969	2599.007195
755.782572	2601.391660
756.110129	2601.452154
756.437638	2596.499221
756.765100	2597.477204
757.092515	2599.614654
757.419882	2599.841506
757.747203	2599.203800
758.074477	2597.875456
758.401703	2601.658842
758.728882	2602.165477
759.056014	2601.495004
759.383099	2601.449634
759.710138	2601.923502
760.037129	2603.640015
760.364073	2606.611775
760.690970	2599.980137
761.017820	2602.994747
761.344623	2601.270673
761.671379	2603.088009
761.998088	2601.197576
762.324751	2610.276694
762.651366	2625.253962
762.977935	2663.813748
763.304456	2686.367870
763.630931	2690.889785
763.957359	2667.599654
764.283740	2645.584936
764.610074	2631.830147
764.936362	2617.919083
765.262602	2609.175202
765.588796	2604.509614
765.914943	2598.803028
766.241044	2593.073757
766.567097	2589.522264
766.893104	2587.820874
767.219064	2584.597056
767.544978	2582.860379
767.870845	2581.814339
768.196665	2581.035481
768.522438	2577.791499
768.848165	2575.558268
769.173846	2574.308061
769.499479	2574.665983
769.825066	2570.111301
770.150607	2571.119532
770.476101	2571.235478
770.801548	2573.186405
771.126949	2570.030642
771.452303	2568.856053
771.777611	2568.601475
772.102872	2569.319840
772.428087	2566.156516
772.753256	2568.712381
773.078378	2566.642987
773.403453	2563.003274
773.728482	2562.095866
774.053465	2563.792214
774.378401	2563.146947
774.703291	2562.819272
775.028135	2562.385732
775.352932	2557.747871
775.677683	2562.390774
776.002388	2562.206772
776.327046	2561.130485
776.651658	2562.499158
776.976224	2557.571431
777.300743	2559.119065
777.625216	2557.505896
777.949643	2558.703170
778.274024	2559.943293
778.598359	2555.033210
778.922647	2553.281409
779.246889	2556.333827
779.571086	2553.397355
779.895236	2558.224260
780.219339	2556.469938
780.543397	2559.078736
780.867409	2560.293654
781.191374	2558.584703
781.515294	2555.852397
781.839167	2559.930691
782.162995	2555.466749
782.486776	2558.067984
782.810511	2558.763663
783.134201	2557.480690
783.457844	2556.152346
783.781441	2556.260731
784.104993	2555.675957
784.428498	2556.409445
784.751958	2557.435319
785.075372	2555.423899
785.398739	2553.866183
785.722061	2554.844166
786.045337	2555.444064
786.368568	2556.212840
786.691752	2554.546738
787.014891	2558.176369
787.337983	2557.518498
787.661030	2563.729200
787.984031	2561.382543
788.306987	2564.124931
788.629897	2562.857080
788.952760	2562.020249
789.275579	2559.940773
789.598351	2562.189127
789.921078	2558.892213
790.243759	2556.911039
790.566395	2553.535987
790.888984	2557.016904
791.211529	2552.144628
791.534027	2553.495658
791.856480	2551.126315
792.178888	2553.868703
792.501249	2551.441387
792.823566	2551.811912
793.145836	2550.748229
793.468062	2552.268137
793.790241	2552.477345
794.112375	2551.161603
794.434464	2551.348126
794.756507	2550.347457
795.078505	2551.378373
795.400457	2553.593960
795.722364	2548.968702
796.044226	2553.931717
796.366042	2553.440205
796.687812	2554.380380
797.009538	2556.517829
797.331218	2554.710576
797.652852	2556.563200
797.974442	2553.611604
798.295986	2556.467418
798.617484	2553.314176
798.938938	2555.756615
799.260346	2554.806358
799.581709	2552.580688
799.903026	2551.302756
800.224299	2552.043805
800.545526	2552.583209
800.866708	2549.850903
801.187845	2550.697817
801.508936	2549.818136
801.829983	2550.201264
802.150984	2550.778476
802.471940	2549.974412
802.792851	2547.927703
803.113717	2549.641696
803.434538	2548.401572
803.755314	2548.572971
804.076045	2547.809236
804.396731	2547.884853
804.717372	2546.034750
805.037967	2549.031716
805.358518	2548.189843
805.679024	2551.441388
805.999485	2550.549103
806.319901	2552.268137
806.640272	2551.209494
806.960598	2550.327292
807.280879	2547.179092
807.601115	2550.786038
807.921306	2550.264278
808.241453	2549.447611
808.561554	2549.460214
808.881611	2548.764535
809.201623	2550.586912
809.521590	2547.577343
809.841513	2545.767569
810.161390	2551.567416
810.481223	2549.613969
810.801011	2551.312838
811.120755	2550.821326
811.440453	2550.055070
811.760107	2547.116078
812.079716	2546.828732
812.399281	2545.754966
812.718801	2544.000644
813.038276	2545.031560
813.357707	2545.334030
813.677093	2550.203784
813.996434	2547.421067
814.315731	2548.245296
814.634983	2547.814277
814.954191	2548.184802
815.273354	2548.000800
815.592473	2548.429298
815.911547	2547.852086
816.230577	2546.957281
816.549562	2550.423074
816.868502	2550.549103
817.187399	2549.924000
817.506250	2549.588763
817.825058	2551.580019
818.143821	2551.322920
818.462539	2552.938610
818.781213	2554.405586
819.099843	2555.849877
819.418429	2556.853066
819.736970	2561.385063
820.055466	2564.992009
820.373919	2568.787998
820.692327	2575.875860
821.010691	2586.948755
821.329011	2611.441201
821.647286	2666.840961
821.965517	2736.381157
822.283704	2773.776437
822.601847	2781.194495
822.919945	2748.764752
823.237999	2709.836962
823.556010	2677.450069
823.873976	2650.805050
824.191897	2629.004581
824.509775	2613.387086
824.827609	2598.228336
825.145398	2593.207347
825.463144	2591.412696
825.780845	2595.097780
826.098502	2601.875611
826.416116	2612.782147
826.733685	2630.567338
827.051210	2636.646970
827.368692	2630.607667
827.686129	2616.215173
828.003522	2597.346134
828.320872	2580.390213
828.638177	2575.865778
828.955439	2566.569890
829.272656	2564.238357
829.589830	2554.786193
829.906960	2559.043447
830.224046	2557.253838
830.541088	2554.874413
830.858086	2555.386090
831.175041	2551.764021
831.491952	2550.743188
831.808819	2553.629248
832.125642	2554.125802
832.442421	2556.706873
832.759157	2562.952862
833.075849	2573.451065
833.392497	2584.977663
833.709101	2589.292891
834.025662	2592.168869
834.342179	2584.942375
834.658653	2579.714699
834.975083	2565.927143
835.291469	2571.984089
835.607811	2560.155022
835.924110	2555.582695
836.240366	2554.095555
836.556578	2552.333672
836.872746	2549.371994
837.188871	2548.613300
837.504952	2547.267312
837.820990	2543.783875
838.136984	2547.274874
838.452935	2544.308155
838.768842	2546.027188
839.084706	2547.962991
839.400526	2550.183620
839.716303	2558.201575
840.032037	2563.509910
840.347727	2563.920764
840.663373	2557.311811
840.978977	2554.060267
841.294537	2550.138249
841.610054	2546.488454
841.925527	2547.252189
842.240957	2546.561551
842.556344	2545.782692
842.871687	2542.581560
843.186987	2543.683052
843.502244	2541.812784
843.817458	2541.275901
844.132629	2543.259595
844.447756	2540.418905
844.762840	2535.995292
845.077881	2538.097453
845.392879	2536.007895
845.707833	2541.865716
846.022745	2534.447658
846.337613	2538.011754
846.652438	2540.333205
846.967221	2539.007382
847.281960	2539.788760
847.596656	2541.449821
847.911309	2539.277083
848.225919	2537.439583
848.540485	2542.561395
848.855009	2540.250026
849.169490	2539.236754
849.483928	2539.269522
849.798323	2540.507125
850.112675	2543.035263
850.426984	2541.293545
850.741251	2537.978986
851.055474	2541.845551
851.369654	2538.757844
851.683792	2539.982845
851.997887	2536.753986
852.311938	2539.864378
852.625947	2538.011754
852.939914	2539.753472
853.253837	2539.609799
853.567718	2538.881353
853.881555	2541.202804
854.195350	2538.868750
854.509103	2542.826056
854.822812	2540.149203
855.136479	2540.736497
855.450103	2540.371014
855.763685	2539.793802
856.077224	2536.474202
856.390720	2538.170550
856.704173	2541.003678
857.017584	2536.897659
857.330953	2538.112577
857.644278	2537.517721
857.957561	2545.092054
858.270802	2536.748945
858.584000	2540.335726
858.897155	2541.351518
859.210268	2540.854964
859.523339	2539.234233
859.836367	2540.781868
860.149352	2539.468647
860.462295	2539.665252
860.775195	2536.791794
861.088054	2536.557381
861.400869	2538.878832
861.713642	2535.397915
862.026373	2537.915972
862.339062	2541.215407
862.651708	2539.952598
862.964312	2539.992927
863.276873	2538.808256
863.589392	2543.448638
863.901869	2541.921168
864.214303	2541.222969
864.526696	2541.298586
864.839045	2538.687268
865.151353	2542.689944
865.463619	2540.771785
865.775842	2542.510983
866.088023	2541.348997
866.400162	2541.722043
866.712258	2541.951415
867.024313	2544.290511
867.336325	2543.007537
867.648296	2540.986034
867.960224	2540.829759
868.272110	2542.042156
868.583954	2538.692309
868.895755	2540.139121
869.207515	2538.425128
869.519233	2542.926879
869.830909	2541.780016
870.142542	2542.977290
870.454134	2542.831097
870.765684	2544.338402
871.077191	2541.986703
871.388657	2542.306817
871.700081	2540.829759
872.011463	2540.615510
872.322803	2541.127187
872.634101	2542.231199
872.945357	2543.277239
873.256571	2544.172044
873.567744	2542.561395
873.878874	2541.424615
874.189963	2545.389482
874.501010	2542.468134
874.812015	2545.356715
875.122979	2544.333361
875.433900	2543.675490
875.744780	2544.013247
876.055618	2544.308155
876.366415	2545.490305
876.677169	2546.380069
876.987882	2543.246992
877.298554	2544.426622
877.609183	2544.938299
877.919771	2543.022661
878.230317	2542.329502
878.540822	2547.642878
878.851285	2551.282591
879.161707	2551.428785
879.472087	2553.863662
879.782425	2557.931873
880.092722	2566.980744
880.402977	2583.719896
880.713191	2604.257556
881.023363	2632.775364
881.333494	2648.594504
881.643583	2653.073570
881.953631	2650.368991
882.263637	2643.397075
882.573602	2633.148409
882.883526	2621.052160
883.193408	2609.099585
883.503248	2595.717842
883.813048	2590.515371
884.122806	2581.494226
884.432522	2575.359142
884.742197	2567.663821
885.051831	2562.630228
885.361424	2562.506720
885.670975	2557.349620
885.980485	2554.337530
886.289954	2556.212840
886.599382	2549.689587
886.908768	2552.270657
887.218113	2548.512477
887.527417	2549.868547
887.836680	2549.883671
888.145901	2549.608928
888.455082	2547.252189
888.764221	2544.613145
889.073319	2545.243289
889.382376	2544.953422
889.691392	2545.649102
890.000366	2547.337888
890.309300	2543.972918
890.618193	2546.314534
890.927044	2544.477033
891.235855	2545.795295
891.544625	2543.494008
891.853353	2544.058618
892.162041	2548.512477
892.470687	2546.937117
892.779293	2549.180430
893.087858	2545.230686
893.396381	2550.140770
893.704864	2556.293498
894.013306	2561.306926
894.321707	2570.491908
894.630068	2578.628330
894.938387	2580.014647
895.246665	2578.429205
895.554903	2572.271435
895.863100	2568.709860
896.171256	2564.954200
896.479371	2559.476987
896.787446	2557.591595
897.095480	2555.554969
897.403473	2553.520863
897.711425	2550.281922
898.019336	2551.189330
898.327207	2546.077600
898.635038	2550.012220
898.942827	2546.453166
899.250576	2547.370656
899.558284	2549.140101
899.865952	2544.971067
900.173579	2544.287990
900.481165	2545.853268
900.788711	2540.101312
901.096216	2547.436191
901.403681	2543.693134
901.711105	2544.764379
902.018489	2545.291180
902.325832	2545.560882
902.633135	2545.608772
902.940397	2546.821170
903.247619	2549.538352
903.554800	2556.341389
903.861941	2568.949315
904.169041	2584.612180
904.476101	2591.304312
904.783121	2590.588468
905.090100	2586.432036
905.397039	2577.846951
905.703938	2566.539643
906.010796	2563.620815
906.317614	2558.103272
906.624391	2553.551110
906.931129	2551.930379
907.237826	2549.003990
907.544483	2546.569112
907.851099	2544.701365
908.157675	2543.451159
908.464211	2543.589790
908.770707	2536.091074
909.077163	2538.757844
909.383578	2536.786753
909.689954	2535.934798
909.996289	2537.278266
910.302584	2540.242464
910.608839	2541.575849
910.915054	2541.464944
911.221229	2539.060314
911.527363	2541.469985
911.833458	2540.696168
912.139513	2540.844882
912.445527	2542.936961
912.751502	2541.069213
913.057436	2542.241282
913.363331	2544.953423
913.669186	2542.289173
913.975000	2541.623740
914.280775	2546.967363
914.586510	2550.733105
914.892205	2556.185113
915.197859	2560.830537
915.503475	2570.106260
915.809050	2577.552044
916.114585	2584.007241
916.420081	2586.711820
916.725536	2584.960019
917.030952	2581.985739
917.336328	2571.875705
917.641665	2572.528534
917.946961	2568.682134
918.252218	2563.976217
918.557435	2559.572769
918.862612	2555.854918
919.167750	2553.092365
919.472848	2550.506253
919.777906	2550.334854
920.082925	2546.831252
920.387904	2544.310675
920.692843	2547.105995
920.997743	2541.782537
921.302603	2544.280428
921.607423	2544.519883
921.912204	2542.652136
922.216946	2543.851930
922.521647	2540.481919
922.826310	2539.403112
923.130932	2542.238761
923.435516	2540.688606
923.740059	2539.385468
924.044564	2540.156765
924.349028	2535.508821
924.653454	2535.402957
924.957840	2534.959335
925.262186	2535.327339
925.566493	2535.471012
925.870761	2531.657379
926.174989	2537.386651
926.479178	2536.496887
926.783328	2537.555529
927.087438	2535.735673
927.391509	2537.426980
927.695541	2537.668955
927.999533	2534.263656
928.303486	2533.391536
928.607400	2535.471012
928.911275	2533.699047
929.215110	2537.066537
929.518906	2534.361958
929.822663	2534.707277
930.126381	2534.898841
930.430060	2535.712988
930.733699	2535.110570
931.037299	2536.917823
931.340861	2536.890097
931.644383	2536.108718
931.947866	2535.534027
932.251309	2536.151568
932.554714	2535.317257
932.858080	2536.247350
933.161407	2535.289531
933.464694	2536.930426
933.767943	2534.669469
934.071153	2537.734490
934.374323	2535.229037
934.677455	2536.219623
934.980548	2532.416073
935.283602	2535.594520
935.586617	2533.527647
935.889593	2533.194931
936.192530	2535.534027
936.495428	2532.690816
936.798287	2535.327339
937.101108	2536.764068
937.403890	2536.960673
937.706632	2539.488812
938.009336	2539.428318
938.312002	2538.291538
938.614628	2538.919161
938.917216	2539.327495
939.219765	2537.908410
939.522275	2537.416898
939.824747	2538.956970
940.127179	2536.844727
940.429573	2534.606454
940.731929	2536.643080
941.034246	2534.724921
941.336524	2534.392205
941.638763	2539.214069
941.940964	2537.976466
942.243126	2536.748945
942.545250	2537.845396
942.847335	2536.330529
943.149381	2536.073430
943.451389	2535.317257
943.753359	2536.627957
944.055290	2534.354397
944.357182	2538.334388
944.659036	2533.988913
944.960851	2538.276414
945.262628	2532.781557
945.564367	2534.934129
945.866067	2535.609644
946.167729	2536.759027
946.469352	2533.605785
946.770937	2534.535878
947.072484	2534.624098
947.373992	2535.967566
947.675462	2534.220806
947.976893	2536.171732
948.278286	2535.201310
948.579641	2535.720549
948.880958	2533.736855
949.182236	2534.145189
949.483476	2533.827596
949.784678	2536.068389
950.085841	2532.567308
950.386967	2534.959335
950.688054	2535.402957
950.989103	2537.558050
951.290114	2532.763913
951.591087	2534.666948
951.892021	2533.938501
952.192917	2536.524613
952.493776	2535.312216
952.794596	2536.668286
953.095378	2534.039324
953.396122	2535.831455
953.696828	2534.553522
953.997496	2537.558050
954.298126	2534.729962
954.598718	2534.606454
954.899272	2533.084026
955.199788	2532.532019
955.500266	2532.211906
955.800706	2530.868439
956.101108	2531.377595
956.401472	2530.182842
956.701798	2532.716022
957.002087	2529.598068
957.302337	2532.237112
957.602550	2533.638553
957.902724	2533.348686
958.202861	2532.176618
958.502960	2530.492873
958.803022	2532.857174
959.103045	2532.932791
959.403031	2530.500434
959.702979	2532.721063
960.002889	2532.821886
960.302762	2532.133768
960.602596	2531.889272
960.902393	2530.576052
961.202153	2531.589324
961.501875	2532.637884
961.801559	2529.822399
962.101205	2530.976823
962.400814	2529.850126
962.700385	2530.175280
962.999918	2529.104035
963.299414	2529.285516
963.598873	2531.117976
963.898293	2530.465146
964.197677	2533.789787
964.497022	2528.914992
964.796331	2532.509334
965.095601	2530.659231
965.394835	2532.390867
965.694030	2529.918181
965.993189	2532.653007
966.292309	2531.052441
966.591393	2533.411701
966.890439	2532.736186
967.189447	2531.138140
967.488419	2531.221319
967.787353	2532.584952
968.086249	2530.651669
968.385108	2531.271731
968.683930	2532.970600
968.982714	2525.255114
969.281462	2531.415404
969.580172	2530.576052
969.878844	2530.744930
970.177480	2530.104704
970.476078	2530.235774
970.774639	2532.995806
971.073162	2529.151926
971.371649	2526.331400
971.670098	2525.139167
971.968510	2527.420289
972.266885	2525.295443
972.565223	2531.710311
972.863524	2532.350538
973.161788	2531.354910
973.460014	2531.135620
973.758204	2529.005732
974.056356	2530.288706
974.354471	2531.586803
974.652550	2528.816689
974.950591	2531.032276
975.248595	2528.539426
975.546563	2530.097142
975.844493	2529.381298
976.142386	2530.291227
976.440243	2527.463139
976.738062	2532.514375
977.035845	2530.717204
977.333590	2530.213089
977.631299	2529.620753
977.928971	2528.967924
978.226606	2530.097142
978.524204	2532.027904
978.821765	2528.368026
979.119290	2528.695701
979.416777	2529.993798
979.714228	2531.783408
980.011642	2528.431041
980.309020	2532.839530
980.606360	2531.831299
980.903664	2527.702594
981.200931	2530.742410
981.498162	2528.151257
981.795356	2532.572349
982.092513	2528.456247
982.389633	2529.744261
982.686717	2534.210724
982.983764	2530.954138
983.280775	2532.521937
983.577749	2531.629653
983.874686	2531.886752
984.171587	2531.848943
984.468451	2533.230219
984.765279	2531.067564
985.062070	2530.429858
985.358824	2528.667975
985.655543	2530.694519
985.952224	2530.006401
986.248869	2530.606299
986.545478	2525.751667
986.842050	2526.361647
987.138586	2524.768642
987.435086	2526.512882
987.731549	2523.399969
988.027975	2531.364992
988.324366	2526.686802
988.620719	2529.048582
988.917037	2527.810979
989.213318	2528.783922
989.509563	2526.936339
989.805772	2526.933818
990.101944	2525.809641
990.398080	2527.574045
990.694180	2528.549508
990.990244	2530.495393
991.286271	2529.300640
991.582262	2527.778211
991.878217	2529.822399
992.174136	2526.036493
992.470019	2527.785773
992.765865	2528.126051
993.061676	2526.659075
993.357450	2529.393901
993.653188	2528.274765
993.948890	2530.195445
994.244556	2529.678726
994.540186	2531.548994
994.835780	2529.199817
995.131337	2529.890455
995.426859	2527.120341
995.722345	2528.622605
996.017795	2526.429703
996.313208	2532.963038
996.608586	2529.570342
996.903928	2527.783253
997.199234	2528.413397
997.494504	2530.964221
997.789738	2528.221833
998.084936	2530.845753
998.380099	2526.003725
998.675225	2527.178314
998.970316	2529.633356
999.265371	2530.203006
999.560390	2529.114117
999.855373	2529.570342
1000.150320	2528.912471
1000.445232	2530.288706
1000.740108	2528.070598
1001.034948	2529.608150
1001.329752	2528.141174
1001.624521	2529.898017
1001.919254	2525.781914
1002.213951	2524.239321
1002.508613	2523.775535
1002.803239	2527.407687
1003.097829	2523.631862
1003.392384	2527.465660
1003.686903	2524.672861
1003.981386	2528.680578
1004.275834	2527.654703
1004.570246	2529.603109
1004.864623	2527.246370
1005.158964	2528.783922
1005.453270	2526.079343
1005.747540	2527.674868
1006.041775	2523.273940
1006.335974	2529.628315
1006.630138	2525.910464
1006.924266	2528.536905
1007.218359	2527.450536
1007.512416	2524.761081
1007.806438	2527.816020
1008.100425	2527.087573
1008.394376	2526.742254
1008.688292	2528.501617
1008.982172	2526.346524
1009.276017	2527.657224
1009.569827	2526.643952
1009.863602	2529.262831
1010.157341	2526.709487
1010.451045	2524.224198
1010.744714	2527.042203
1011.038347	2524.826616
1011.331945	2522.530370
1011.625508	2525.325690
1011.919036	2521.983405
1012.212528	2525.663447
1012.505986	2527.049765
1012.799408	2526.389373
1013.092795	2526.747295
1013.386147	2527.523633
1013.679464	2528.088242
1013.972745	2526.636390
1014.265992	2526.086904
1014.559204	2525.784435
1014.852380	2526.253262
1015.145521	2529.227543
1015.438628	2527.614374
1015.731699	2525.171935
1016.024736	2525.665968
1016.317737	2524.758560
1016.610703	2529.015815
1016.903635	2522.769825
1017.196531	2523.100021
1017.489393	2522.202695
1017.782219	2522.406862
1018.075011	2529.088911
1018.367768	2526.359127
1018.660490	2526.578417
1018.953177	2526.578417
1019.245829	2526.578417
