Dividing Wavelength (nm)	Counts (n)	Blue Motor Position (mm): 10.900000	Red Motor Position (mm): 0.000000	
326.493990	2162.791111
326.888308	2162.791111
327.282561	2162.791111
327.676750	2122.061109
328.070874	2117.531632
328.464933	2117.995418
328.858929	2121.388115
329.252859	2125.108486
329.646726	2132.657614
330.040528	2149.311066
330.434265	2161.982006
330.827938	2179.527742
331.221547	2194.822603
331.615091	2212.867413
332.008571	2230.183776
332.401986	2251.165059
332.795338	2270.744900
333.188625	2287.531943
333.581847	2307.414253
333.975006	2324.261789
334.368100	2340.600169
334.761129	2362.511544
335.154095	2375.742053
335.546996	2399.339694
335.939833	2419.756367
336.332606	2435.046186
336.725315	2450.101592
337.117960	2462.575928
337.510540	2472.038173
337.903056	2484.401603
338.295508	2492.343941
338.687896	2501.642349
339.080220	2509.322547
339.472480	2514.877899
339.864676	2518.323527
340.256807	2527.180835
340.648875	2530.399611
341.040879	2531.559077
341.432818	2538.014274
341.824694	2538.140303
342.216506	2542.072403
342.608253	2539.859337
342.999937	2536.859850
343.391557	2540.975952
343.783113	2538.281455
344.174605	2538.372196
344.566033	2538.596528
344.957397	2537.963863
345.348697	2535.415559
345.739934	2532.872297
346.131106	2531.405322
346.522215	2531.879190
346.913260	2529.928263
347.304241	2528.615043
347.695159	2525.847449
348.086012	2522.381656
348.476802	2521.065915
348.867528	2515.119874
349.258191	2513.630213
349.648789	2514.303207
350.039324	2510.348422
350.429796	2511.712054
350.820203	2512.805984
351.210548	2509.153668
351.600828	2509.012516
351.991045	2510.093844
352.381198	2505.317350
352.771288	2506.628050
353.161314	2504.193173
353.551276	2506.804491
353.941175	2503.731908
354.331010	2503.389109
354.720782	2503.265601
355.110490	2507.285921
355.500135	2505.428256
355.889717	2507.885818
356.279235	2502.950529
356.668689	2506.335663
357.058080	2501.760816
357.447408	2503.910868
357.836672	2504.178050
358.225873	2505.440859
358.615010	2506.398678
359.004084	2505.007319
359.393095	2509.062928
359.782043	2508.185767
360.170927	2508.858761
360.559748	2509.193998
360.948505	2508.891528
361.337199	2511.578463
361.725830	2508.480674
362.114398	2513.670542
362.502903	2516.228928
362.891344	2510.855058
363.279722	2510.529903
363.668037	2513.821777
364.056289	2514.595594
364.444478	2513.491581
364.832603	2517.436284
365.220665	2514.058711
365.608665	2515.162724
365.996601	2515.810512
366.384474	2517.027951
366.772284	2518.444515
367.160031	2516.894360
367.547715	2516.233969
367.935336	2517.267406
368.322893	2515.855883
368.710388	2513.514267
369.097820	2517.325379
369.485189	2512.490912
369.872495	2518.053826
370.259738	2519.853518
370.646918	2520.062725
371.034035	2517.398476
371.421090	2520.642458
371.808081	2521.428878
372.195010	2519.525842
372.581875	2520.057684
372.968678	2520.297139
373.355418	2518.827643
373.742096	2521.643127
374.128710	2521.234794
374.515262	2522.883251
374.901751	2522.532891
375.288177	2521.257479
375.674540	2520.375277
376.060841	2523.457943
376.447079	2524.304856
376.833254	2524.393077
377.219367	2526.255783
377.605417	2525.781914
377.991404	2523.130267
378.377329	2523.825947
378.763191	2525.323169
379.148991	2525.391225
379.534727	2526.243180
379.920402	2527.349713
380.306013	2524.317459
380.691563	2525.950793
381.077049	2524.892151
381.462474	2527.173273
381.847835	2523.659589
382.233134	2527.415248
382.618371	2525.638242
383.003545	2524.592202
383.388657	2525.091276
383.773706	2529.593027
384.158693	2527.117820
384.543618	2530.389529
384.928480	2529.053623
385.313280	2528.244518
385.698017	2529.076308
386.082692	2527.442975
386.467305	2526.875845
386.851856	2528.763757
387.236344	2529.449354
387.620770	2526.275948
388.005133	2525.232429
388.389435	2528.057995
388.773674	2523.641945
389.157851	2529.156967
389.541965	2528.509179
389.926018	2530.812986
390.310008	2530.172759
390.693936	2530.182842
391.077802	2531.312060
391.461606	2530.603778
391.845348	2528.667975
392.229027	2530.460105
392.612645	2530.069416
392.996200	2532.282482
393.379694	2531.496062
393.763125	2532.486649
394.146494	2531.609488
394.529801	2531.145702
394.913047	2532.743748
395.296230	2534.182997
395.679351	2533.426824
396.062410	2535.024870
396.445408	2533.625950
396.828343	2533.789787
397.211217	2530.656710
397.594028	2534.346835
397.976778	2535.244160
398.359466	2533.802390
398.742092	2535.491177
399.124656	2532.650487
399.507158	2533.094108
399.889598	2535.667617
400.271977	2534.906403
400.654294	2535.513862
401.036549	2534.954294
401.418742	2536.264994
401.800874	2538.132741
402.182944	2537.185004
402.564952	2535.440765
402.946898	2538.198276
403.328783	2538.271373
403.710606	2537.129552
404.092367	2535.597041
404.474067	2537.724408
404.855705	2535.879346
405.237282	2537.016126
405.618797	2537.976466
406.000250	2539.027546
406.381642	2535.027391
406.762972	2537.242978
407.144240	2533.260466
407.525447	2535.435724
407.906593	2534.951773
408.287677	2536.542257
408.668700	2538.848585
409.049661	2539.435880
409.430560	2537.144675
409.811399	2541.303627
410.192176	2540.134079
410.572891	2539.428318
410.953545	2536.534696
411.334138	2537.686599
411.714669	2538.399922
412.095139	2542.279090
412.475547	2540.086188
412.855894	2541.671631
413.236180	2541.598535
413.616405	2540.134079
413.996568	2541.427135
414.376670	2540.754141
414.756711	2540.991076
415.136691	2539.216589
415.516609	2539.546785
415.896466	2544.119112
416.276262	2539.897145
416.655997	2542.687424
417.035670	2541.482588
417.415283	2543.738504
417.794834	2542.095088
418.174324	2543.398227
418.553753	2541.671631
418.933121	2544.073741
419.312428	2542.909235
419.691674	2545.034081
420.070859	2544.224976
420.449983	2541.772454
420.829045	2538.362114
421.208047	2545.550799
421.586988	2540.343287
421.965867	2542.226158
422.344686	2543.062990
422.723444	2542.866385
423.102141	2539.829090
423.480777	2542.916796
423.859352	2545.018957
424.237866	2545.392003
424.616319	2544.103988
424.994712	2544.340922
425.373044	2543.010058
425.751314	2541.427135
426.129524	2542.059800
426.507673	2543.115922
426.885762	2540.439069
427.263789	2544.146838
427.641756	2545.071890
428.019662	2547.037940
428.397508	2547.421067
428.775292	2543.652805
429.153016	2542.407640
429.530679	2546.054915
429.908282	2547.373176
430.285824	2546.617003
430.663305	2546.102806
431.040726	2545.371838
431.418086	2547.247147
431.795385	2544.643392
432.172624	2546.831252
432.549802	2545.654143
432.926920	2549.772766
433.303977	2544.348484
433.680974	2545.331509
434.057910	2549.437529
434.434786	2546.904349
434.811601	2546.483413
435.188355	2548.746891
435.565050	2546.911911
435.941683	2548.222611
436.318257	2547.441232
436.694770	2546.284287
437.071222	2546.566592
437.447614	2545.084493
437.823946	2548.651109
438.200218	2545.843186
438.576429	2548.893084
438.952580	2547.998279
439.328670	2547.683207
439.704700	2549.916438
440.080670	2545.381921
440.456580	2548.487271
440.832429	2548.333516
441.208218	2551.174206
441.583947	2551.572457
441.959616	2547.426108
442.335224	2549.969371
442.710773	2548.726726
443.086261	2549.692107
443.461689	2549.563558
443.837057	2550.453321
444.212365	2550.531459
444.587612	2547.930224
444.962800	2544.872764
445.337927	2546.390151
445.712995	2547.090872
446.088002	2552.101779
446.462949	2549.682025
446.837837	2549.606408
447.212664	2550.256716
447.587431	2550.838970
447.962139	2550.944834
448.336786	2552.845349
448.711374	2550.513815
449.085901	2550.884340
449.460369	2551.161603
449.834776	2552.426933
450.209124	2551.721172
450.583412	2552.361398
450.957640	2551.350647
451.331808	2552.071532
451.705917	2549.641696
452.079965	2549.167827
452.453954	2551.118754
452.827883	2553.808209
453.201752	2549.704710
453.575562	2551.809392
453.949311	2549.797971
454.323001	2551.166645
454.696632	2551.494320
455.070202	2553.717468
455.443713	2553.813250
455.817164	2551.365770
456.190556	2552.716799
456.563888	2555.267623
456.937160	2550.518856
457.310373	2551.146480
457.683526	2550.743188
458.056619	2554.027499
458.429653	2555.224773
458.802628	2551.892571
459.175542	2552.701676
459.548398	2556.401883
459.921194	2553.256203
460.293930	2552.275698
460.666607	2552.447098
461.039224	2552.615976
461.411782	2551.900132
461.784280	2552.810061
462.156719	2552.560524
462.529099	2556.328786
462.901419	2551.461552
463.273680	2552.706717
463.645882	2549.704710
464.018024	2551.663198
464.390106	2551.053219
464.762130	2555.423899
465.134094	2555.194527
465.505999	2554.072870
465.877845	2552.258054
466.249631	2556.293498
466.621358	2556.464897
466.993026	2554.791234
467.364634	2560.276010
467.736184	2555.867521
468.107674	2556.527912
468.479105	2555.207129
468.850477	2555.933056
469.221790	2556.031358
469.593043	2555.318035
469.964238	2557.417675
470.335373	2556.520350
470.706449	2555.796944
471.077467	2554.511450
471.448425	2555.416337
471.819324	2557.095042
472.190164	2556.787531
472.560945	2557.105124
472.931667	2555.423899
473.302330	2554.687891
473.672934	2556.192675
474.043479	2555.683518
474.413965	2559.061092
474.784393	2558.468756
475.154761	2558.740978
475.525070	2557.810885
475.895321	2558.206616
476.265513	2557.430278
476.635645	2556.679146
477.005719	2556.661502
477.375734	2558.347768
477.745691	2561.697615
478.115588	2559.371122
478.485427	2559.676112
478.855207	2560.684343
479.224928	2561.730383
479.594591	2560.880948
479.964194	2560.959086
480.333739	2561.745506
480.703226	2560.018911
481.072653	2562.068140
481.442022	2559.381205
481.811333	2557.165618
482.180584	2557.662171
482.549777	2559.784497
482.918912	2554.667726
483.287988	2562.829354
483.657005	2562.720969
484.025964	2562.206772
484.394864	2559.781977
484.763706	2562.163922
485.132489	2560.676781
485.501213	2564.581155
485.869879	2562.617626
486.238487	2563.444375
486.607036	2564.150136
486.975527	2562.912533
487.343959	2562.443706
487.712333	2560.447409
488.080648	2561.755588
488.448905	2564.631567
488.817104	2562.776422
489.185244	2562.685681
489.553326	2563.769529
489.921350	2562.967986
490.289315	2563.663665
490.657222	2565.549057
491.025070	2562.839436
491.392861	2565.307081
491.760593	2564.452606
492.128267	2564.281206
492.495883	2563.968655
492.863440	2564.780281
493.230939	2562.965465
493.598380	2563.840105
493.965763	2562.322718
494.333088	2563.976217
494.700354	2562.768860
495.067563	2566.206927
495.434713	2565.279355
495.801805	2564.225754
496.168839	2563.595609
496.535815	2565.791032
496.902733	2564.923953
497.269593	2564.261042
497.636395	2565.937225
498.003139	2564.928995
498.369825	2562.574776
498.736453	2564.969324
499.103023	2561.760629
499.469535	2564.752554
499.835989	2564.477811
500.202385	2563.900599
500.568723	2560.893551
500.935003	2561.843808
501.301226	2560.341545
501.667390	2567.154664
502.033497	2565.148285
502.399546	2565.314643
502.765537	2562.970506
503.131470	2566.832030
503.497345	2568.455282
503.863163	2566.622822
504.228923	2563.945970
504.594625	2566.816907
504.960269	2565.859087
505.325856	2564.500497
505.691385	2567.227761
506.056856	2567.273131
506.422270	2566.065775
506.787625	2563.542677
507.152924	2568.208265
507.518164	2567.323543
507.883347	2565.047462
508.248472	2569.009809
508.613540	2564.845816
508.978550	2568.193142
509.343503	2563.335990
509.708398	2567.429407
510.073236	2569.836558
510.438016	2566.852195
510.802738	2566.027966
511.167403	2566.995868
511.532010	2564.021587
511.896561	2568.062072
512.261053	2568.687175
512.625488	2569.027453
512.989866	2568.127607
513.354186	2569.375292
513.718449	2570.088616
514.082655	2568.606516
514.446803	2569.156002
514.810894	2570.806980
515.174927	2568.752710
515.538904	2569.317319
515.902822	2569.992834
516.266684	2568.034345
516.630488	2571.732032
516.994235	2569.455951
517.357925	2571.611044
517.721558	2573.062896
518.085133	2572.183215
518.448651	2572.004254
518.812112	2569.899572
519.175516	2572.931826
519.538863	2566.166598
519.902152	2577.322671
520.265385	2574.509708
520.628560	2576.528690
520.991678	2576.120356
521.354739	2576.193453
521.717743	2578.799729
522.080690	2578.580439
522.443580	2578.754359
522.806413	2581.048084
523.169189	2580.682600
523.531908	2583.077148
523.894569	2580.100347
524.257174	2582.686459
524.619722	2583.520770
524.982213	2581.693352
525.344647	2581.617734
525.707025	2585.769125
526.069345	2587.316759
526.431608	2586.384145
526.793815	2585.111254
527.155964	2585.907756
527.518057	2587.533528
527.880093	2590.444795
528.242072	2588.924887
528.603995	2589.164342
528.965860	2592.688108
529.327669	2589.237438
529.689421	2592.093252
530.051117	2592.196596
530.412755	2593.093921
530.774337	2595.876638
531.135862	2595.352358
531.497331	2595.743047
531.858743	2596.284972
532.220098	2596.862184
532.581396	2598.145157
532.942638	2599.733121
533.303824	2599.229005
533.664953	2600.443923
534.026025	2598.515682
534.387040	2601.363934
534.747999	2601.242946
535.108902	2602.432659
535.469748	2600.504417
535.830537	2602.576332
536.191270	2606.067331
536.551947	2603.037597
536.912567	2601.779829
537.273131	2603.937443
537.633638	2602.213368
537.994089	2608.744183
538.354483	2605.449789
538.714821	2611.355501
539.075103	2609.654112
539.435328	2610.080089
539.795497	2610.012033
540.155609	2610.690069
540.515665	2610.765686
540.875665	2611.892384
541.235609	2611.990686
541.595496	2611.736108
541.955328	2613.200563
542.315102	2616.502519
542.674821	2616.588219
543.034483	2613.228290
543.394090	2618.483692
543.753640	2617.636779
544.113134	2621.309259
544.472571	2618.745832
544.831953	2619.610390
545.191278	2620.328755
545.550548	2620.308590
545.909761	2617.450256
546.268918	2620.663992
546.628019	2623.595422
546.987064	2623.111472
547.346053	2624.341513
547.704986	2621.578961
548.063863	2625.984929
548.422684	2623.698766
548.781449	2625.710187
549.140158	2625.039713
549.498811	2626.514251
549.857408	2625.163221
550.215949	2626.451236
550.574434	2624.366719
550.932864	2628.616412
551.291237	2624.338993
551.649555	2628.976854
552.007817	2627.590537
552.366022	2626.547018
552.724173	2630.723614
553.082267	2629.110445
553.440305	2631.280662
553.798288	2627.784621
554.156215	2632.482977
554.514086	2628.477780
554.871902	2623.804630
555.229661	2625.677419
555.587365	2626.017697
555.945014	2630.262348
556.302606	2630.592544
556.660143	2627.593058
557.017625	2634.081022
557.375050	2632.205713
557.732421	2632.714870
558.089735	2633.730662
558.446994	2632.208234
558.804197	2633.942391
559.161345	2632.561115
559.518437	2629.175980
559.875474	2634.151599
560.232455	2631.401649
560.589381	2632.876187
560.946251	2632.316619
561.303065	2632.036835
561.659825	2632.924078
562.016528	2633.942391
562.373177	2633.725621
562.729770	2631.298306
563.086307	2632.157822
563.442789	2636.725108
563.799216	2636.110087
564.155587	2635.439613
564.511904	2636.929274
564.868164	2636.490694
565.224370	2636.266363
565.580520	2633.796197
565.936615	2641.103350
566.292654	2635.356434
566.648638	2636.949439
567.004567	2636.558750
567.360441	2636.168060
567.716260	2631.499952
568.072023	2638.040849
568.427732	2637.778709
568.783385	2637.148565
569.138982	2635.157309
569.494525	2639.233082
569.850013	2640.604276
570.205445	2637.400622
570.560823	2636.178142
570.916145	2634.441465
571.271412	2638.817187
571.626625	2639.253246
571.981782	2638.953298
572.336884	2635.371558
572.691931	2637.534213
573.046923	2634.103708
573.401860	2635.159829
573.756743	2641.181488
574.111570	2640.931951
574.466342	2637.836682
574.821059	2639.525469
575.175722	2637.057824
575.530330	2644.811118
575.884882	2643.031591
576.239380	2641.647794
576.593823	2641.804070
576.948211	2643.883546
577.302544	2644.153248
577.656823	2643.598721
578.011047	2643.248361
578.365216	2644.392703
578.719330	2644.143166
579.073389	2643.828093
579.427394	2649.146511
579.781344	2646.257930
580.135239	2645.181643
580.489080	2645.491674
580.842866	2645.789102
581.196597	2655.810916
581.550273	2646.820018
581.903895	2653.504588
582.257463	2653.834784
582.610975	2650.721871
582.964434	2655.919301
583.317837	2654.674136
583.671186	2656.065494
584.024481	2660.194199
584.377721	2658.344096
584.730906	2660.584889
585.084037	2660.957934
585.437113	2662.641680
585.790135	2661.749395
586.143103	2662.613953
586.496016	2663.816268
586.848874	2669.043945
587.201679	2668.741476
587.554428	2665.835251
587.907124	2671.889676
588.259765	2672.532423
588.612352	2674.024605
588.964884	2673.694409
589.317362	2676.154492
589.669786	2678.438135
590.022155	2678.642302
590.374470	2681.137673
590.726731	2683.945596
591.078937	2680.016016
591.431090	2688.306194
591.783188	2687.610515
592.135232	2689.420289
592.487222	2692.941535
592.839157	2693.249045
593.191038	2697.720549
593.542866	2698.383460
593.894639	2700.674665
594.246358	2703.318750
594.598022	2705.194059
594.949633	2706.199769
595.301190	2706.976107
595.652692	2710.444421
596.004141	2715.135215
596.355535	2713.106150
596.706876	2716.138404
597.058162	2718.227962
597.409395	2720.753581
597.760573	2723.027141
598.111698	2725.870352
598.462768	2727.286916
598.813785	2728.743809
599.164748	2730.117524
599.515657	2735.577093
599.866511	2736.451734
600.217312	2742.612024
600.568060	2740.882908
600.918753	2748.827766
601.269392	2750.874475
601.619978	2748.900863
601.970510	2760.170362
602.320988	2762.179262
602.671412	2769.292330
603.021783	2770.625716
603.372100	2770.061106
603.722363	2776.544030
604.072572	2785.045936
604.422728	2785.708848
604.772830	2790.896195
605.122878	2790.828140
605.472872	2799.239305
605.822813	2804.409008
606.172701	2807.645429
606.522534	2817.576502
606.872314	2822.685711
607.222041	2821.904332
607.571714	2829.947493
607.921333	2835.757423
608.270899	2846.716892
608.620411	2853.197295
608.969870	2856.393387
609.319276	2867.597351
609.668627	2878.171171
610.017926	2891.305898
610.367171	2904.980027
610.716362	2914.714495
611.065500	2910.860533
611.414585	2924.532143
611.763616	2931.801486
612.112594	2940.641150
612.461518	2941.956891
612.810389	2960.800724
613.159207	2958.517081
613.507971	2965.395736
613.856682	2989.857935
614.205340	2997.190293
614.553945	3019.371370
614.902496	3014.879702
615.250994	3037.804349
615.599439	3045.446738
615.947830	3056.285219
616.296169	3068.263000
616.644454	3079.633323
616.992686	3090.963316
617.340864	3116.189250
617.688990	3125.437247
618.037063	3153.239210
618.385082	3164.438133
618.733048	3187.763552
619.080961	3199.900130
619.428821	3223.996846
619.776628	3240.854464
620.124382	3248.254878
620.472083	3264.200047
620.819731	3284.810805
621.167326	3281.173613
621.514868	3290.315745
621.862357	3296.463432
622.209793	3304.052889
622.557176	3309.832572
622.904506	3307.075061
623.251783	3317.449756
623.599007	3323.736074
623.946179	3333.957014
624.293297	3344.868591
624.640363	3349.347657
624.987376	3355.850745
625.334336	3358.956096
625.681243	3366.706870
626.028097	3377.074003
626.374899	3408.175401
626.721647	3403.086357
627.068343	3415.323758
627.414987	3431.818413
627.761577	3454.738019
628.108115	3476.979590
628.454600	3473.302068
628.801032	3489.532063
629.147412	3506.820700
629.493739	3528.628731
629.840014	3542.854867
630.186236	3565.348496
630.532405	3575.282090
630.878521	3612.684931
631.224585	3622.830253
631.570597	3644.519817
631.916556	3654.145900
632.262462	3673.324970
632.608316	3702.329249
632.954117	3715.116136
633.299866	3740.765526
633.645562	3758.018875
633.991206	3748.039911
634.336797	3746.643512
634.682336	3769.479939
635.027823	3769.885752
635.373257	3790.458700
635.718639	3788.278401
636.063968	3801.105617
636.409245	3797.430616
636.754470	3813.660611
637.099642	3822.182682
637.444762	3815.339315
637.789829	3843.305116
638.134845	3844.951053
638.479808	3864.563662
638.824719	3878.716701
639.169577	3881.690982
639.514383	3904.295516
639.859137	3910.118049
640.203839	3938.257769
640.548489	3931.356430
640.893086	3967.730875
641.237632	3954.144966
641.582125	4004.460722
641.926566	4006.406608
642.270955	4021.623331
642.615292	4041.540929
642.959576	4058.499371
643.303809	4095.831636
643.647990	4097.142336
643.992118	4141.247391
644.336195	4119.187302
644.680219	4172.250487
645.024192	4199.797872
645.368112	4247.346035
645.711981	4296.739261
646.055797	4339.347093
646.399562	4373.722721
646.743274	4433.115075
647.086935	4532.453532
647.430544	4556.935896
647.774101	4586.149382
648.117606	4657.879960
648.461059	4660.796268
648.804460	4703.590623
649.147810	4680.129093
649.491108	4659.699817
649.834354	4699.547617
650.177548	4667.556455
650.520690	4654.933406
650.863781	4658.890712
651.206820	4689.495557
651.549807	4679.060368
651.892742	4670.850849
652.235626	4678.891490
652.578458	4702.778997
652.921238	4664.425899
653.263967	4725.106268
653.606644	4717.274835
653.949269	4729.958378
654.291843	4729.350919
654.634365	4766.199233
654.976836	4772.851036
655.319255	4803.327331
655.661622	4819.476667
656.003938	4824.517821
656.346203	4826.821629
656.688416	4864.368143
657.030577	4878.362386
657.372687	4894.138677
657.714746	4905.330038
658.056753	4961.455724
658.398708	4961.130570
658.740612	4981.753930
659.082465	5035.800141
659.424266	5029.904511
659.766016	5070.752981
660.107715	5076.971244
660.449362	5110.744454
660.790958	5141.782839
661.132503	5151.517307
661.473996	5182.777502
661.815438	5219.504828
662.156829	5244.821503
662.498168	5271.834526
662.839456	5287.699037
663.180693	5311.639476
663.521879	5376.193972
663.863013	5390.044542
664.204097	5415.570425
664.545129	5473.029496
664.886110	5482.605168
665.227040	5539.338313
665.567918	5571.034568
665.908746	5612.503100
666.249522	5617.725735
666.590248	5665.266336
666.930922	5727.035594
667.271545	5749.020066
667.612118	5802.090813
667.952639	5806.829498
668.293109	5824.075285
668.633528	5845.064129
668.973896	5851.075705
669.314213	5943.230518
669.654480	5859.935533
669.994695	5899.929527
670.334859	5940.049550
670.674973	5950.419204
671.015035	5990.269525
671.355047	6004.392317
671.695008	6008.014386
672.034918	6043.582247
672.374777	6076.546352
672.714585	6082.709163
673.054342	6120.570749
673.394049	6129.228931
673.733705	6183.048289
674.073310	6188.679258
674.412864	6230.072172
674.752368	6206.721547
675.091820	6211.087187
675.431223	6262.501915
675.770574	6230.682152
676.109875	6222.586059
676.449125	6228.501853
676.788324	6227.602007
677.127473	6198.017995
677.466571	6207.717175
677.805619	6207.747422
678.144616	6197.418098
678.483562	6214.253031
678.822458	6176.267937
679.161303	6187.038362
679.500098	6221.965997
679.838842	6215.974585
680.177535	6255.487149
680.516179	6286.207941
680.854771	6294.427542
681.193314	6426.629281
681.531805	6477.582744
681.870247	6692.887904
682.208638	6862.638677
682.546978	7044.493261
682.885268	7110.184537
683.223508	6994.495097
683.561697	6956.182328
683.899836	6931.750376
684.237925	6864.680345
684.575963	6864.773606
684.913951	6867.926848
685.251889	6828.915879
685.589776	6937.535100
685.927614	6925.327946
686.265401	6899.849954
686.603137	6966.814122
686.940824	7057.101187
687.278460	7125.517206
687.616046	7181.849580
687.953582	7279.479086
688.291068	7250.966320
688.628504	7378.792337
688.965889	7398.757827
689.303224	7436.052283
689.640510	7407.804178
689.977745	7280.139477
690.314930	7198.974380
690.652065	7201.323557
690.989150	7082.301915
691.326185	6989.703481
691.663170	6912.384783
692.000105	6815.304763
692.336990	6812.557334
692.673825	6678.523136
693.010610	6649.259238
693.347345	6563.090795
693.684030	6471.419933
694.020665	6468.848945
694.357251	6387.290637
694.693786	6403.001393
695.030272	6295.050125
695.366707	6259.658704
695.703093	6244.179841
696.039429	6261.677686
696.375716	6263.240444
696.711952	6181.377147
697.048139	6221.040945
697.384276	6222.845678
697.720363	6231.347584
698.056400	6212.763370
698.392388	6214.212702
698.728326	6198.907759
699.064214	6178.342372
699.400053	6241.238328
699.735842	6136.021885
700.071581	6135.671525
700.407270	6118.342559
700.742910	6084.350058
701.078501	6058.400719
701.414042	5998.597511
701.749533	5971.241690
702.084974	5905.389097
702.420366	5976.918029
702.755709	5941.836639
703.091002	5877.788780
703.426246	5900.761318
703.761440	5881.612495
704.096584	5869.854003
704.431679	5845.318708
704.766725	5857.437642
705.101721	5835.692624
705.436668	5872.505650
705.771565	5822.691489
706.106413	5875.167380
706.441212	5934.189209
706.775961	5903.236524
707.110661	5930.763745
707.445311	6049.397218
707.779913	5980.817361
708.114465	6080.271765
708.448967	6121.644515
708.783421	6193.276790
709.117825	6328.483057
709.452180	6361.147213
709.786485	6409.431385
710.120742	6596.092709
710.454949	6602.807526
710.789107	6655.553118
711.123216	6779.784793
711.457275	6892.341156
711.791286	7008.398600
712.125247	6989.401011
712.459159	7022.934767
712.793023	7192.249480
713.126837	6927.117556
713.460602	7042.323044
713.794318	6934.626354
714.127985	6994.099367
714.461602	6830.826476
714.795171	6816.665875
715.128691	6689.396905
715.462162	6532.465786
715.795584	6532.102822
716.128957	6453.614578
716.462281	6335.147462
716.795556	6411.054636
717.128782	6283.142919
717.461960	6101.248006
717.795088	6165.994066
718.128167	6120.669051
718.461198	6017.632908
718.794180	5992.021326
719.127113	6011.162587
719.459997	5913.893523
719.792833	5750.789511
720.125619	5806.461494
720.458357	5718.150561
720.791046	5715.821548
721.123686	5747.086784
721.456278	5636.070494
721.788821	5650.266383
722.121315	5581.356331
722.453761	5631.533455
722.786158	5615.154747
723.118506	5628.881808
723.450805	5614.108707
723.783056	5672.853273
724.115259	5593.906283
724.447412	5599.698569
724.779518	5635.510926
725.111574	5649.449716
725.443582	5716.368513
725.775542	5702.964085
726.107453	5841.525239
726.439315	5785.412156
726.771129	5815.906096
727.102895	5935.799858
727.434612	6032.768972
727.766281	6040.607967
728.097901	6108.166990
728.429473	6097.144507
728.760996	6088.892138
729.092471	6087.112611
729.423897	6076.932001
729.755276	6105.603563
730.086606	6065.874230
730.417887	6137.516587
730.749120	6265.486278
731.080305	6429.101967
731.411442	6527.825403
731.742530	6531.407143
732.073570	6639.686087
732.404562	6718.779270
732.735506	6579.555204
733.066401	6705.604214
733.397249	6676.612539
733.728048	6522.249887
734.058798	6286.031500
734.389501	6143.669316
734.720156	6026.485174
735.050762	5839.589436
735.381320	5764.151090
735.711831	5744.909005
736.042293	5666.146018
736.372707	5692.851530
736.703073	5584.617957
737.033391	5616.601558
737.363661	5630.419360
737.693883	5639.387573
738.024056	5709.341144
738.354182	5751.500314
738.684260	5773.444457
739.014290	5853.243402
739.344272	5936.588798
739.674207	5947.074398
740.004093	5996.402088
740.333931	6024.057858
740.663722	6030.286204
740.993464	6107.320076
741.323159	6128.180371
741.652806	5920.288227
741.982405	5916.885448
742.311956	6011.139902
742.641460	5905.923459
742.970915	5739.905660
743.300323	5756.365027
743.629683	5714.901537
743.958996	5624.296879
744.288260	5560.024688
744.617477	5524.910531
744.946647	5551.512700
745.275768	5417.211320
745.604842	5389.379110
745.933869	5374.769846
746.262847	5339.683415
746.591778	5341.039486
746.920662	5312.657789
747.249498	5301.317714
747.578286	5344.207851
747.907027	5412.518006
748.235720	5459.940140
748.564365	5431.029123
748.892963	5449.517555
749.221514	5596.320996
749.550017	5477.566535
749.878473	5355.109346
750.206881	5412.873407
750.535242	5366.278022
750.863555	5318.293799
751.191821	5348.941494
751.520039	5344.260783
751.848210	5274.902068
752.176334	5288.240961
752.504411	5347.214899
752.832440	5280.810300
753.160421	5204.840112
753.488356	5256.804325
753.816243	5303.782838
754.144082	5174.245349
754.471875	5138.586747
754.799620	5189.472154
755.127318	5201.633938
755.454969	5156.084592
755.782572	5125.167196
756.110129	5173.753836
756.437638	5174.928425
756.765100	5116.158654
757.092515	5109.680771
757.419882	5147.038242
757.747203	5138.649762
758.074477	5198.831056
758.401703	5198.155542
758.728882	5143.179238
759.056014	5177.554866
759.383099	5310.467408
759.710138	5315.190969
760.037129	5295.081807
760.364073	5303.792920
760.690970	5386.384664
761.017820	5384.290065
761.344623	5332.633362
761.671379	5421.198873
761.998088	5522.657135
762.324751	5721.165171
762.651366	6217.713783
762.977935	7274.465658
763.304456	8637.147516
763.630931	9446.345970
763.957359	9202.964103
764.283740	8467.994120
764.610074	7800.063920
764.936362	6945.820236
765.262602	6415.576551
765.588796	5934.784065
765.914943	5630.069000
766.241044	5498.207539
766.567097	5339.927911
766.893104	5103.591057
767.219064	4940.781953
767.544978	4896.104727
767.870845	4837.508875
768.196665	4736.884923
768.522438	4671.375129
768.848165	4648.609278
769.173846	4598.129684
769.499479	4564.225404
769.825066	4515.001057
770.150607	4459.230773
770.476101	4436.656486
770.801548	4442.501703
771.126949	4382.900142
771.452303	4335.268799
771.777611	4297.445022
772.102872	4311.892969
772.428087	4282.815594
772.753256	4253.143362
773.078378	4215.937126
773.403453	4153.850275
773.728482	4139.130106
774.053465	4099.930094
774.378401	4089.762087
774.703291	4102.017132
775.028135	4037.127399
775.352932	3986.370542
775.677683	3978.720591
776.002388	4002.542563
776.327046	4017.267774
776.651658	3939.616360
776.976224	3882.699213
777.300743	3888.877147
777.625216	3911.464037
777.949643	3913.929161
778.274024	3868.871328
778.598359	3819.561282
778.922647	3840.187162
779.246889	3838.437882
779.571086	3837.643900
779.895236	3830.818178
780.219339	3807.858243
780.543397	3796.127478
780.867409	3844.870394
781.191374	3862.406048
781.515294	3809.610044
781.839167	3802.975885
782.162995	3822.071776
782.486776	3809.294972
782.810511	3818.588339
783.134201	3825.139318
783.457844	3788.653967
783.781441	3730.474011
784.104993	3737.340062
784.428498	3755.808329
784.751958	3756.897219
785.075372	3739.250660
785.398739	3704.418807
785.722061	3709.228068
786.045337	3748.047473
786.368568	3788.593473
786.691752	3704.910320
787.014891	3747.818101
787.337983	3853.367259
787.661030	3993.382787
787.984031	4140.851660
788.306987	4302.823933
788.629897	4380.528279
788.952760	4346.828165
789.275579	4287.708033
789.598351	4243.056013
789.921078	4122.711068
790.243759	3937.234415
790.566395	3903.448602
790.888984	3910.024787
791.211529	3809.486536
791.534027	3754.694234
791.856480	3753.711209
792.178888	3690.442208
792.501249	3635.917088
792.823566	3643.554436
793.145836	3680.112884
793.468062	3637.285761
793.790241	3586.138214
794.112375	3617.020323
794.434464	3672.062161
794.756507	3698.485369
795.078505	3682.457020
795.400457	3705.442161
795.722364	3824.496571
796.044226	3920.374276
796.366042	3989.279287
796.687812	3984.986745
797.009538	3997.163652
797.331218	3949.812094
797.652852	3921.548865
797.974442	3908.209972
798.295986	3916.290942
798.617484	3840.456864
798.938938	3757.124071
799.260346	3790.990542
799.581709	3796.722334
799.903026	3728.671798
800.224299	3689.353319
800.545526	3686.401723
800.866708	3650.443173
801.187845	3586.153338
801.508936	3626.124647
801.829983	3631.969865
802.150984	3549.357956
802.471940	3537.818755
802.792851	3550.930796
803.113717	3548.488357
803.434538	3561.066036
803.755314	3504.090915
804.076045	3474.557315
804.396731	3489.385869
804.717372	3516.048532
805.037967	3505.832634
805.358518	3493.330572
805.679024	3515.635157
805.999485	3524.973895
806.319901	3527.928011
806.640272	3545.199004
806.960598	3561.696180
807.280879	3537.864125
807.601115	3541.526523
807.921306	3562.079308
808.241453	3601.468363
808.561554	3582.606886
808.881611	3517.760004
809.201623	3552.657391
809.521590	3565.189700
809.841513	3542.844785
810.161390	3563.458063
810.481223	3554.772155
810.801011	3495.977178
811.120755	3481.720795
811.440453	3518.569109
811.760107	3526.634955
812.079716	3492.329903
812.399281	3455.269861
812.718801	3475.068992
813.038276	3451.083182
813.357707	3447.463634
813.677093	3469.591779
813.996434	3424.165941
814.315731	3425.912701
814.634983	3425.990839
814.954191	3439.024742
815.273354	3471.192345
815.592473	3470.713435
815.911547	3472.298878
816.230577	3505.469671
816.549562	3555.334244
816.868502	3598.733537
817.187399	3622.671456
817.506250	3620.100468
817.825058	3587.506888
818.143821	3669.234074
818.462539	3774.621916
818.781213	3820.834173
819.099843	3871.447357
819.418429	4084.163885
819.736970	4311.063699
820.055466	4536.695663
820.373919	4882.354979
820.692327	5285.168378
821.010691	5666.496378
821.329011	6878.619135
821.647286	9309.226585
821.965517	13378.458573
822.283704	17059.970377
822.601847	19313.373708
822.919945	17828.587542
823.237999	15585.153093
823.556010	13285.290488
823.873976	11359.103412
824.191897	9389.577537
824.509775	8064.346411
824.827609	6987.467729
825.145398	6440.237876
825.463144	6326.416184
825.780845	6447.033351
826.098502	6590.736483
826.416116	7344.114240
826.733685	8562.462822
827.051210	9657.119133
827.368692	9819.759359
827.686129	8686.964199
828.003522	7235.046356
828.320872	6256.598724
828.638177	5596.005924
828.955439	5065.784924
829.272656	4586.381275
829.589830	4300.343686
829.906960	4132.853870
830.224046	3961.058908
830.541088	3836.476873
830.858086	3792.812919
831.175041	3725.142991
831.491952	3703.662634
831.808819	3711.597410
832.125642	3774.949591
832.442421	3910.783481
832.759157	4157.502591
833.075849	4655.908869
833.392497	5459.252023
833.709101	6194.554723
834.025662	6556.050824
834.342179	6272.158245
834.658653	5636.115864
834.975083	5026.947875
835.291469	4472.947752
835.607811	4067.555804
835.924110	3937.930094
836.240366	3748.881784
836.556578	3548.377452
836.872746	3438.046758
837.188871	3407.721698
837.504952	3348.041998
837.820990	3270.851850
838.136984	3213.826318
838.452935	3240.181470
838.768842	3235.979668
839.084706	3257.583533
839.400526	3400.520409
839.716303	3700.751368
840.032037	4175.116383
840.347727	4463.828305
840.663373	4237.717431
840.978977	3874.419118
841.294537	3580.408943
841.610054	3354.242617
841.925527	3248.680855
842.240957	3183.506298
842.556344	3133.455202
842.871687	3077.611820
843.186987	3027.908564
843.502244	2990.679643
843.817458	2961.065384
844.132629	2926.727565
844.447756	2935.791560
844.762840	2923.702873
845.077881	2893.433264
845.392879	2875.348125
845.707833	2870.077599
846.022745	2868.880325
846.337613	2871.063144
846.652438	2862.888913
846.967221	2859.264324
847.281960	2842.310923
847.596656	2838.424194
847.911309	2839.593741
848.225919	2830.998574
848.540485	2825.861638
848.855009	2829.201403
849.169490	2822.564724
849.483928	2810.423105
849.798323	2809.089719
850.112675	2805.092084
850.426984	2814.329999
850.741251	2816.532983
851.055474	2806.027218
851.369654	2800.602937
851.683792	2801.180149
851.997887	2810.894452
852.311938	2812.565595
852.625947	2804.638381
852.939914	2803.226857
853.253837	2814.768579
853.567718	2795.052627
853.881555	2790.916360
854.195350	2808.933444
854.509103	2807.055614
854.822812	2799.690488
855.136479	2797.734520
855.450103	2796.988430
855.763685	2789.010804
856.077224	2784.451080
856.390720	2797.404325
856.704173	2807.274904
857.017584	2803.940181
857.330953	2798.798204
857.644278	2808.953608
857.957561	2814.055256
858.270802	2818.786379
858.584000	2819.081286
858.897155	2808.338587
859.210268	2804.131745
859.523339	2804.388843
859.836367	2804.056127
860.149352	2799.287196
860.462295	2794.450209
860.775195	2800.416414
861.088054	2803.110911
861.400869	2787.017027
861.713642	2781.751542
862.026373	2794.455250
862.339062	2797.764767
862.651708	2805.646611
862.964312	2807.978145
863.276873	2799.390539
863.589392	2808.341108
863.901869	2820.364260
864.214303	2840.052486
864.526696	2858.470342
864.839045	2854.671832
865.151353	2851.710155
865.463619	2850.162520
865.775842	2848.710668
866.088023	2868.038452
866.400162	2875.335522
866.712258	2849.529856
867.024313	2838.003257
867.336325	2845.930472
867.648296	2867.287320
867.960224	2858.876155
868.272110	2843.772858
868.583954	2847.674711
868.895755	2866.263966
869.207515	2854.190402
869.519233	2855.133098
869.830909	2863.146012
870.142542	2874.468444
870.454134	2874.725543
870.765684	2878.009854
871.077191	2875.756458
871.388657	2881.210987
871.700081	2896.150446
872.011463	2903.833165
872.322803	2910.222827
872.634101	2905.532034
872.945357	2922.729930
873.256571	2945.316820
873.567744	2942.871860
873.878874	2931.415838
874.189963	2954.816874
874.501010	2956.694704
874.812015	2948.442335
875.122979	2946.599793
875.433900	2943.456634
875.744780	2947.509722
876.055618	2956.054478
876.366415	2949.707665
876.677169	2962.093780
876.987882	2962.164356
877.298554	2954.093469
877.609183	2970.850264
877.919771	2993.001094
878.230317	3019.290711
878.540822	3071.501942
878.851285	3106.295986
879.161707	3142.186480
879.472087	3229.474059
879.782425	3428.440840
880.092722	3830.876151
880.402977	4321.382941
880.713191	4899.779728
881.023363	5945.665396
881.333494	7149.177862
881.643583	7709.161834
881.953631	7453.280427
882.263637	6904.223155
882.573602	6377.664554
882.883526	5824.344987
883.193408	5271.358137
883.503248	4818.410463
883.813048	4536.841857
884.122806	4265.184158
884.432522	3972.318325
884.742197	3745.083275
885.051831	3553.211918
885.361424	3422.172165
885.670975	3358.053729
885.980485	3276.213117
886.289954	3207.184597
886.599382	3164.276817
886.908768	3127.161321
887.218113	3084.858479
887.527417	3031.016435
887.836680	2986.520691
888.145901	2976.524083
888.455082	2970.331025
888.764221	2922.591298
889.073319	2893.118192
889.382376	2893.947462
889.691392	2894.794376
890.000366	2895.976527
890.309300	2884.059239
890.618193	2897.471229
890.927044	2914.986718
891.235855	2913.696182
891.544625	2900.261507
891.853353	2908.518917
892.162041	2922.629107
892.470687	2961.299798
892.779293	3010.892149
893.087858	3052.426216
893.396381	3118.120012
893.704864	3225.940210
894.013306	3443.937347
894.321707	3727.063670
894.630068	3929.672684
894.938387	3934.030762
895.246665	3888.700707
895.554903	3782.168523
895.863100	3592.613577
896.171256	3436.877211
896.479371	3308.166471
896.787446	3189.452339
897.095480	3095.553287
897.403473	3031.155067
897.711425	2993.427072
898.019336	2985.038592
898.327207	2960.984726
898.635038	2930.906682
898.942827	2913.670977
899.250576	2904.783422
899.558284	2871.877291
899.865952	2856.027903
900.173579	2835.366734
900.481165	2831.175014
900.788711	2821.614466
901.096216	2794.571196
901.403681	2784.524177
901.711105	2788.365536
902.018489	2791.743109
902.325832	2785.837397
902.633135	2798.460447
902.940397	2824.971875
903.247619	2894.098697
903.554800	3066.407856
903.861941	3370.976727
904.169041	3771.498921
904.476101	4075.576280
904.783121	4061.892067
905.090100	3833.235411
905.397039	3576.612954
905.703938	3335.035821
906.010796	3158.426557
906.317614	3052.557286
906.624391	2967.376909
906.931129	2899.535581
907.237826	2839.560974
907.544483	2794.707307
907.851099	2767.172525
908.157675	2745.392220
908.464211	2727.952348
908.770707	2716.244268
909.077163	2704.717670
909.383578	2690.158818
909.689954	2679.335461
909.996289	2677.077024
910.302584	2679.584998
910.608839	2679.537107
910.915054	2674.833710
911.221229	2666.926660
911.527363	2665.585713
911.833458	2674.974862
912.139513	2679.181705
912.445527	2681.719926
912.751502	2691.477080
913.057436	2699.666434
913.363331	2708.564071
913.669186	2728.285064
913.975000	2756.883530
914.280775	2812.984011
914.586510	2877.941799
914.892205	2950.995680
915.197859	3064.618246
915.503475	3238.434710
915.809050	3434.354113
916.114585	3570.840833
916.420081	3603.610854
916.725536	3555.046898
917.030952	3448.721402
917.336328	3326.496106
917.641665	3205.760472
917.946961	3107.689865
918.252218	3044.864485
918.557435	2972.324802
918.862612	2917.527459
919.167750	2870.561549
919.472848	2835.641477
919.777906	2810.012251
920.082925	2783.815895
920.387904	2756.797831
920.692843	2741.228227
920.997743	2730.911506
921.302603	2716.687890
921.607423	2708.821169
921.912204	2697.551670
922.216946	2690.191585
922.521647	2677.445028
922.826310	2673.933864
923.130932	2666.185611
923.435516	2657.255207
923.740059	2649.411171
924.044564	2643.417239
924.349028	2638.035808
924.653454	2633.360137
924.957840	2627.119189
925.262186	2622.035185
925.566493	2617.089813
925.870761	2615.320368
926.174989	2609.298710
926.479178	2604.655807
926.783328	2600.385950
927.087438	2601.558018
927.391509	2599.458378
927.695541	2596.242122
927.999533	2591.422779
928.303486	2593.242635
928.607400	2589.597881
928.911275	2589.393714
929.215110	2588.088055
929.518906	2588.491348
929.822663	2589.963365
930.126381	2584.478589
930.430060	2587.273909
930.733699	2587.188209
931.037299	2590.560741
931.340861	2590.563262
931.644383	2591.390011
931.947866	2590.442274
932.251309	2588.514033
932.554714	2587.722572
932.858080	2588.045206
933.161407	2583.916501
933.464694	2584.188723
933.767943	2577.398289
934.071153	2578.595563
934.374323	2580.581777
934.677455	2581.930286
934.980548	2581.670667
935.283602	2580.420460
935.586617	2581.673187
935.889593	2580.952302
936.192530	2577.776375
936.495428	2581.877354
936.798287	2580.591860
937.101108	2586.038826
937.403890	2588.130905
937.706632	2593.106524
938.009336	2598.757657
938.312002	2607.186467
938.614628	2616.734412
938.917216	2623.655916
939.219765	2623.096348
939.522275	2622.163735
939.824747	2616.827673
940.127179	2617.009155
940.429573	2615.320368
940.731929	2611.884822
941.034246	2610.080089
941.336524	2606.311827
941.638763	2599.914602
941.940964	2601.240426
942.243126	2598.941660
942.545250	2599.367637
942.847335	2596.756319
943.149381	2595.183479
943.451389	2590.429671
943.753359	2585.259968
944.055290	2585.166707
944.357182	2586.734506
944.659036	2583.102354
944.960851	2584.392890
945.262628	2580.576736
945.564367	2579.906263
945.866067	2580.879205
946.167729	2581.615214
946.469352	2582.041191
946.770937	2586.356419
947.072484	2580.155800
947.373992	2582.338619
947.675462	2580.740574
947.976893	2575.495253
948.278286	2572.493246
948.579641	2575.407033
948.880958	2570.343194
949.182236	2572.795715
949.483476	2572.896538
949.784678	2573.138514
950.085841	2575.792681
950.386967	2575.724626
950.688054	2575.379307
950.989103	2576.004410
951.290114	2577.138669
951.591087	2579.581108
951.892021	2580.140676
952.192917	2586.152252
952.493776	2583.177972
952.794596	2587.588981
953.095378	2587.924218
953.396122	2586.321131
953.696828	2585.655699
953.997496	2584.155955
954.298126	2579.886098
954.598718	2578.184709
954.899272	2572.611713
955.199788	2573.887125
955.500266	2573.357804
955.800706	2569.602144
956.101108	2566.254818
956.401472	2563.237687
956.701798	2565.919581
957.002087	2562.221895
957.302337	2560.218036
957.602550	2560.896072
957.902724	2559.240052
958.202861	2557.647048
958.502960	2557.193344
958.803022	2558.410783
959.103045	2552.983981
959.403031	2555.645710
959.702979	2554.027499
960.002889	2556.255689
960.302762	2551.637993
960.602596	2555.953220
960.902393	2553.689742
961.202153	2553.566234
961.501875	2552.195040
961.801559	2553.294012
962.101205	2551.466593
962.400814	2552.845349
962.700385	2552.184958
962.999918	2550.453321
963.299414	2546.133052
963.598873	2549.109854
963.898293	2547.068187
964.197677	2549.243444
964.497022	2547.221942
964.796331	2552.089176
965.095601	2550.831408
965.394835	2550.740667
965.694030	2550.299566
965.993189	2551.403579
966.292309	2550.614638
966.591393	2549.351829
966.890439	2549.457693
967.189447	2549.064483
967.488419	2546.322096
967.787353	2549.369473
968.086249	2545.875954
968.385108	2548.290666
968.683930	2548.704041
968.982714	2547.315203
969.281462	2549.709751
969.580172	2548.767055
969.878844	2547.559699
970.177480	2550.617159
970.476078	2550.705379
970.774639	2549.069525
971.073162	2549.848383
971.371649	2549.750080
971.670098	2546.942158
971.968510	2555.653272
972.266885	2551.554813
972.565223	2551.365770
972.863524	2550.375183
973.161788	2551.348126
973.460014	2549.956768
973.758204	2550.392828
974.056356	2551.816953
974.354471	2551.643034
974.652550	2551.597663
974.950591	2549.843342
975.248595	2551.932900
975.546563	2548.734288
975.844493	2550.165976
976.142386	2551.149001
976.440243	2549.193033
976.738062	2550.178578
977.035845	2548.920811
977.333590	2549.797971
977.631299	2548.467107
977.928971	2546.672456
978.226606	2545.611293
978.524204	2547.700851
978.821765	2544.955943
979.119290	2549.248486
979.416777	2547.471479
979.714228	2549.719833
980.011642	2550.649926
980.309020	2549.092210
980.606360	2548.893084
980.903664	2549.797971
981.200931	2549.719833
981.498162	2552.197561
981.795356	2551.794268
982.092513	2549.639175
982.389633	2554.957592
982.686717	2559.986143
982.983764	2560.880948
983.280775	2562.839436
983.577749	2567.802452
983.874686	2564.848336
984.171587	2562.854560
984.468451	2557.679815
984.765279	2559.088818
985.062070	2557.004301
985.358824	2555.267623
985.655543	2552.494989
985.952224	2554.425751
986.248869	2551.459032
986.545478	2546.488454
986.842050	2551.945503
987.138586	2548.898125
987.435086	2549.810574
987.731549	2550.412992
988.027975	2547.670604
988.324366	2543.292362
988.620719	2549.866027
988.917037	2547.499205
989.213318	2549.583722
989.509563	2545.616334
989.805772	2547.690769
990.101944	2545.271015
990.398080	2546.135573
990.694180	2545.016437
990.990244	2545.666746
991.286271	2547.947868
991.582262	2547.751263
991.878217	2546.879143
992.174136	2546.609442
992.470019	2546.551468
992.765865	2544.267826
993.061676	2544.172044
993.357450	2543.519214
993.653188	2541.452341
993.948890	2545.545758
994.244556	2543.257074
994.540186	2545.911242
994.835780	2546.009544
995.131337	2546.269164
995.426859	2547.542055
995.722345	2550.299566
996.017795	2549.402241
996.313208	2553.092365
996.608586	2550.095399
996.903928	2551.464073
997.199234	2550.660009
997.494504	2552.525236
997.789738	2550.246634
998.084936	2551.229659
998.380099	2549.288815
998.675225	2549.823177
998.970316	2548.731767
999.265371	2548.756973
999.560390	2546.914431
999.855373	2547.731098
1000.150320	2547.877292
1000.445232	2547.221942
1000.740108	2546.952240
1001.034948	2544.973587
1001.329752	2546.816129
1001.624521	2545.397044
1001.919254	2546.501057
1002.213951	2547.088351
1002.508613	2548.759494
1002.803239	2544.507280
1003.097829	2544.121632
1003.392384	2545.182795
1003.686903	2545.754966
1003.981386	2545.913762
1004.275834	2546.924514
1004.570246	2545.318906
1004.864623	2545.908721
1005.158964	2545.313865
1005.453270	2542.316899
1005.747540	2544.782023
1006.041775	2546.317055
1006.335974	2542.700027
1006.630138	2544.887888
1006.924266	2544.078782
1007.218359	2544.706406
1007.512416	2541.386806
1007.806438	2543.345294
1008.100425	2542.135417
1008.394376	2540.590304
1008.688292	2547.239586
1008.982172	2544.119112
1009.276017	2546.869061
1009.569827	2543.844369
1009.863602	2547.267312
1010.157341	2546.778320
1010.451045	2545.039122
1010.744714	2545.250851
1011.038347	2546.480892
1011.331945	2543.473844
1011.625508	2544.363607
1011.919036	2545.664225
1012.212528	2543.783875
1012.505986	2547.945347
1012.799408	2546.120450
1013.092795	2545.364277
1013.386147	2545.686910
1013.679464	2546.377548
1013.972745	2543.753628
1014.265992	2544.227496
1014.559204	2547.491643
1014.852380	2542.435366
1015.145521	2546.798485
1015.438628	2545.402085
1015.731699	2543.501570
1016.024736	2542.412681
1016.317737	2540.789429
1016.610703	2543.070552
1016.903635	2548.061294
1017.196531	2544.598021
1017.489393	2542.198432
1017.782219	2546.233876
1018.075011	2545.076931
1018.367768	2544.164482
1018.660490	2544.847558
1018.953177	2544.847558
1019.245829	2544.847558
