Dividing Wavelength (nm)	Counts (n)	Blue Motor Position (mm): 0.000000	Red Motor Position (mm): 43.500000	
326.493990	2139.420322
326.888308	2139.420322
327.282561	2139.420322
327.676750	2112.659357
328.070874	2114.879985
328.464933	2120.750409
328.858929	2129.469084
329.252859	2139.909314
329.646726	2154.752991
330.040528	2169.528613
330.434265	2187.349092
330.827938	2205.915662
331.221547	2226.208827
331.615091	2245.569378
332.008571	2266.540578
332.401986	2288.673764
332.795338	2307.625982
333.188625	2326.605926
333.581847	2344.222238
333.975006	2367.172091
334.368100	2384.117930
334.761129	2400.758778
335.154095	2417.298804
335.546996	2438.481733
335.939833	2462.956535
336.332606	2476.161837
336.725315	2487.975781
337.117960	2495.514827
337.510540	2504.604027
337.903056	2515.520646
338.295508	2519.397293
338.687896	2527.964734
339.080220	2537.366486
339.472480	2542.243802
339.864676	2544.313196
340.256807	2548.630944
340.648875	2549.603887
341.040879	2551.605225
341.432818	2555.189485
341.824694	2553.687222
342.216506	2553.394835
342.608253	2554.115720
342.999937	2551.224618
343.391557	2552.104299
343.783113	2550.584391
344.174605	2548.394010
344.566033	2551.564896
344.957397	2546.687579
345.348697	2543.887218
345.739934	2542.513504
346.131106	2543.196580
346.522215	2539.032587
346.913260	2536.968235
347.304241	2537.011085
347.695159	2534.503111
348.086012	2533.124355
348.476802	2530.457585
348.867528	2534.185518
349.258191	2530.397091
349.648789	2529.744261
350.039324	2527.286699
350.429796	2526.646472
350.820203	2524.972809
351.210548	2524.428365
351.600828	2521.844773
351.991045	2524.771163
352.381198	2523.730165
352.771288	2523.599095
353.161314	2523.410052
353.551276	2524.846780
353.941175	2523.168076
354.331010	2523.352078
354.720782	2524.198992
355.110490	2526.127233
355.500135	2525.305525
355.889717	2522.260668
356.279235	2523.704959
356.668689	2525.721421
357.058080	2525.829805
357.447408	2520.798734
357.836672	2522.522808
358.225873	2520.836543
358.615010	2521.990967
359.004084	2528.234436
359.393095	2527.803417
359.782043	2528.340300
360.170927	2530.439941
360.559748	2529.464477
360.948505	2528.483973
361.337199	2530.024045
361.725830	2531.334745
362.114398	2533.026053
362.502903	2532.577390
362.891344	2531.327184
363.279722	2535.264325
363.668037	2532.584952
364.056289	2531.932122
364.444478	2534.719880
364.832603	2533.691485
365.220665	2534.089736
365.608665	2534.772812
365.996601	2534.704757
366.384474	2533.600744
366.772284	2537.729449
367.160031	2534.886238
367.547715	2537.222813
367.935336	2537.056455
368.322893	2537.714326
368.710388	2538.893956
369.097820	2542.029553
369.485189	2540.244985
369.872495	2540.113915
370.259738	2538.059645
370.646918	2538.336908
371.034035	2538.309182
371.421090	2538.702392
371.808081	2538.856147
372.195010	2540.255067
372.581875	2541.764893
372.968678	2543.257074
373.355418	2544.514842
373.742096	2545.449976
374.128710	2544.524924
374.515262	2549.094730
374.901751	2546.921993
375.288177	2551.174206
375.674540	2552.346275
376.060841	2552.323589
376.447079	2554.319886
376.833254	2555.733930
377.219367	2556.739640
377.605417	2556.674105
377.991404	2557.054712
378.377329	2559.040927
378.763191	2560.641493
379.148991	2571.742114
379.534727	2572.858730
379.920402	2579.954154
380.306013	2581.716037
380.691563	2586.227870
381.077049	2585.983374
381.462474	2593.048551
381.847835	2601.452154
382.233134	2601.840323
382.618371	2608.845006
383.003545	2615.620317
383.388657	2621.031996
383.773706	2628.634056
384.158693	2635.737042
384.543618	2640.311889
384.928480	2648.279432
385.313280	2654.757315
385.698017	2661.341062
386.082692	2671.181394
386.467305	2676.217507
386.851856	2686.539269
387.236344	2695.883048
387.620770	2701.647607
388.005133	2714.066490
388.389435	2722.308777
388.773674	2728.990826
389.157851	2737.205386
389.541965	2749.651995
389.926018	2749.445308
390.310008	2762.663213
390.693936	2773.070675
391.077802	2781.696089
391.461606	2790.588685
391.845348	2799.503965
392.229027	2810.355049
392.612645	2822.625217
392.996200	2834.577793
393.379694	2845.559947
393.763125	2860.789273
394.146494	2869.452496
394.529801	2881.135370
394.913047	2896.374778
395.296230	2900.984913
395.679351	2905.640418
396.062410	2924.280085
396.445408	2917.217428
396.828343	2933.245777
397.211217	2941.533434
397.594028	2934.052362
397.976778	2948.742284
398.359466	2963.414562
398.742092	2957.060188
399.124656	2974.984010
399.507158	2988.479179
399.889598	2993.202740
400.271977	3009.213445
400.654294	3013.879033
401.036549	3026.083666
401.418742	3031.293699
401.800874	3053.444529
402.182944	3063.325190
402.564952	3088.987184
402.946898	3080.034095
403.328783	3089.824015
403.710606	3104.886983
404.092367	3128.918163
404.474067	3152.619148
404.855705	3146.340391
405.237282	3145.004485
405.618797	3175.758044
406.000250	3197.082125
406.381642	3230.073957
406.762972	3232.350037
407.144240	3225.476424
407.525447	3246.419898
407.906593	3244.542068
408.287677	3268.182559
408.668700	3288.324489
409.049661	3283.890794
409.430560	3297.532157
409.811399	3300.665234
410.192176	3326.110458
410.572891	3329.382167
410.953545	3367.674771
411.334138	3340.225689
411.714669	3391.705952
412.095139	3336.825430
412.475547	3386.531207
412.855894	3377.752038
413.236180	3410.375865
413.616405	3389.752505
413.996568	3413.642533
414.376670	3414.965836
414.756711	3413.123294
415.136691	3439.745627
415.516609	3457.366981
415.896466	3468.331490
416.276262	3489.111126
416.655997	3521.641692
417.035670	3528.855583
417.415283	3595.605501
417.794834	3618.817494
418.174324	3602.645473
418.553753	3600.094649
418.933121	3646.039725
419.312428	3637.351296
419.691674	3627.785707
420.070859	3669.869259
420.449983	3649.787823
420.829045	3697.764484
421.208047	3680.561547
421.586988	3727.046026
421.965867	3758.991818
422.344686	3767.201337
422.723444	3806.124086
423.102141	3708.822255
423.480777	3811.520641
423.859352	3778.904376
424.237866	3878.479767
424.616319	3865.670195
424.994712	3921.377466
425.373044	3909.727359
425.751314	3976.613388
426.129524	3909.366917
426.507673	4009.595137
426.885762	3985.916838
427.263789	4008.770909
427.641756	4012.342566
428.019662	4044.910941
428.397508	4044.129562
428.775292	4081.494594
429.153016	4092.023044
429.530679	4104.134416
429.908282	4110.821507
430.285824	4087.410388
430.663305	4162.447963
431.040726	4121.896922
431.418086	4112.855612
431.795385	4186.852189
432.172624	4220.990883
432.549802	4187.023588
432.926920	4202.953634
433.303977	4198.802244
433.680974	4240.520313
434.057910	4262.267851
434.434786	4268.125671
434.811601	4262.519908
435.188355	4367.794324
435.565050	4340.415818
435.941683	4336.541691
436.318257	4425.530659
436.694770	4427.811781
437.071222	4485.888394
437.447614	4423.322634
437.823946	4425.054270
438.200218	4439.156898
438.576429	4423.219290
438.952580	4448.251139
439.328670	4457.478972
439.704700	4495.758973
440.080670	4461.340495
440.456580	4519.999362
440.832429	4557.200556
441.208218	4460.770845
441.583947	4510.806818
441.959616	4522.681255
442.335224	4548.799473
442.710773	4574.264862
443.086261	4630.556907
443.461689	4580.785595
443.837057	4591.044343
444.212365	4665.282895
444.587612	4673.472249
444.962800	4634.541939
445.337927	4679.267056
445.712995	4568.238163
446.088002	4758.582050
446.462949	4778.388743
446.837837	4796.841887
447.212664	4787.374600
447.587431	5012.714177
447.962139	5307.510771
448.336786	5644.653058
448.711374	5632.178723
449.085901	5284.182832
449.460369	5218.879725
449.834776	5149.400022
450.209124	5383.440631
450.583412	5392.764245
450.957640	5519.554305
451.331808	5381.603130
451.705917	5228.725098
452.079965	5221.054983
452.453954	5259.055201
452.827883	5223.774685
453.201752	5236.375049
453.575562	5260.721302
453.949311	5396.681221
454.323001	5404.386625
454.696632	5390.130242
455.070202	5547.298295
455.443713	5576.542029
455.817164	5665.714999
456.190556	5747.409418
456.563888	5714.949428
456.937160	5793.699813
457.310373	5632.292149
457.683526	5691.913876
458.056619	5689.660480
458.429653	5666.062839
458.802628	5716.688626
459.175542	5738.549590
459.548398	5878.824737
459.921194	6062.204270
460.293930	6126.466378
460.666607	6376.230346
461.039224	6589.776143
461.411782	6719.192645
461.784280	6633.944213
462.156719	6638.670294
462.529099	6607.445387
462.901419	6462.429035
463.273680	6330.255022
463.645882	6322.453837
464.018024	6321.203631
464.390106	6391.247943
464.762130	6643.411499
465.134094	7021.722369
465.505999	7653.073956
465.877845	8360.609981
466.249631	8720.389569
466.621358	8647.348291
466.993026	8455.091286
467.364634	8240.325530
467.736184	7960.349927
468.107674	7808.429715
468.479105	7713.625776
468.850477	7648.428533
469.221790	7482.650189
469.593043	7260.211796
469.964238	7157.122720
470.335373	7134.311499
470.706449	7285.304139
471.077467	7460.025490
471.448425	8113.976570
471.819324	8705.412301
472.190164	8750.422243
472.560945	8270.194366
472.931667	7805.367214
473.302330	7602.685103
473.672934	7481.883933
474.043479	7564.563898
474.413965	7464.461706
474.784393	7419.497134
475.154761	7565.798980
475.525070	7575.432625
475.895321	7533.969135
476.265513	7629.859443
476.635645	7791.582179
477.005719	7777.386290
477.375734	7868.953808
477.745691	7975.002041
478.115588	8176.791868
478.485427	8416.594515
478.855207	8885.898212
479.224928	9309.851688
479.594591	9700.715031
479.964194	9705.552018
480.333739	9794.132653
480.703226	9798.059712
481.072653	9896.241224
481.442022	10006.269448
481.811333	10164.508747
482.180584	10004.041258
482.549777	9946.408267
482.918912	9878.753462
483.287988	9863.955155
483.657005	9778.381568
484.025964	9694.635400
484.394864	9752.008772
484.763706	9714.338750
485.132489	9632.803127
485.501213	9623.056056
485.869879	9679.189304
486.238487	9618.869378
486.607036	9690.211787
486.975527	9631.552921
487.343959	9690.005100
487.712333	9733.043951
488.080648	9775.772771
488.448905	9883.834945
488.817104	9885.067507
489.185244	10047.067506
489.553326	10254.422767
489.921350	10715.650535
490.289315	11353.540499
490.657222	11636.714713
491.025070	11825.500884
491.392861	11743.446023
491.760593	11581.612381
492.128267	11332.100472
492.495883	11097.633886
492.863440	10860.818122
493.230939	10640.618001
493.598380	10457.949271
493.965763	10435.266599
494.333088	10299.571341
494.700354	10222.887829
495.067563	10206.272186
495.434713	10199.978305
495.801805	10256.840000
496.168839	10211.262928
496.535815	10176.957876
496.902733	10222.408919
497.269593	10185.333753
497.636395	10187.816522
498.003139	10296.418099
498.369825	10217.110667
498.736453	10321.916255
499.103023	10260.865362
499.469535	10268.495148
499.835989	10312.459051
500.202385	10288.261512
500.568723	10311.332353
500.935003	10365.670950
501.301226	10335.376136
501.667390	10501.986271
502.033497	10604.427558
502.399546	10525.982163
502.765537	10437.867835
503.131470	10545.907323
503.497345	10632.605087
503.863163	10403.111600
504.228923	10542.055882
504.594625	10665.969964
504.960269	10570.412372
505.325856	10721.397451
505.691385	10593.979767
506.056856	10665.997690
506.422270	10763.138204
506.787625	10700.242248
507.152924	10750.121945
507.518164	10815.997223
507.883347	10680.541419
508.248472	10757.633264
508.613540	10863.522701
508.978550	10937.239494
509.343503	10919.729046
509.708398	10973.490431
510.073236	11103.920204
510.438016	11112.996802
510.802738	11023.914572
511.167403	11144.269600
511.532010	11209.345855
511.896561	11301.503188
512.261053	11500.868220
512.625488	11421.885942
512.989866	11414.891341
513.354186	11383.164839
513.718449	11389.098278
514.082655	11539.387677
514.446803	11485.729635
514.810894	11602.850762
515.174927	11602.202974
515.538904	11585.693195
515.902822	11741.921073
516.266684	11607.029879
516.630488	11713.042824
516.994235	11709.398069
517.357925	11815.625263
517.721558	11881.288813
518.085133	11944.358688
518.448651	11970.144190
518.812112	11934.011720
519.175516	11936.585229
519.538863	12026.748786
519.902152	12035.560723
520.265385	12143.839667
520.628560	12161.284580
520.991678	12109.590067
521.354739	12165.320023
521.717743	12236.972463
522.080690	12202.269160
522.443580	12342.990449
522.806413	12359.621216
523.169189	12345.747961
523.531908	12400.389027
523.894569	12368.859130
524.257174	12385.895710
524.619722	12489.226761
524.982213	12473.541211
525.344647	12451.516409
525.707025	12460.671145
526.069345	12563.762741
526.431608	12543.895554
526.793815	12630.618523
527.155964	12519.559383
527.518057	12554.779405
527.880093	12512.572344
528.242072	12629.222124
528.603995	12555.782594
528.965860	12564.793657
529.327669	12591.471443
529.689421	12547.936038
530.051117	12561.378275
530.412755	12592.872884
530.774337	12598.612238
531.135862	12566.379100
531.497331	12607.991304
531.858743	12575.649782
532.220098	12655.322698
532.581396	12581.164804
532.942638	12502.215294
533.303824	12572.415882
533.664953	12561.549674
534.026025	12518.737675
534.387040	12614.857356
534.747999	12595.267432
535.108902	12636.153710
535.469748	12505.691169
535.830537	12539.237528
536.191270	12579.662540
536.551947	12508.337775
536.912567	12574.331520
537.273131	12605.800923
537.633638	12475.910553
537.994089	12536.953885
538.354483	12453.767285
538.714821	12582.818303
539.075103	12668.626303
539.435328	12599.290273
539.795497	12580.244793
540.155609	12569.035788
540.515665	12677.899505
540.875665	12539.502188
541.235609	12634.996765
541.595496	12598.468565
541.955328	12763.034511
542.315102	12618.592851
542.674821	12548.387222
543.034483	12563.465313
543.394090	12565.680900
543.753640	12533.152855
544.113134	12776.461625
544.472571	12545.047457
544.831953	12820.659941
545.191278	12628.680200
545.550548	12573.270357
545.909761	12683.061647
546.268918	12729.667114
546.628019	12791.045683
546.987064	12688.228829
547.346053	12535.030685
547.704986	12733.800860
548.063863	12603.456786
548.422684	12670.917507
548.781449	12618.229888
549.140158	12719.892317
549.498811	12680.873786
549.857408	12543.018393
550.215949	12749.798962
550.574434	12711.644989
550.932864	12654.773212
551.291237	12850.763191
551.649555	12742.040626
552.007817	12808.914052
552.366022	12715.982902
552.724173	12756.407915
553.082267	12854.473480
553.440305	12936.682097
553.798288	12753.156370
554.156215	12837.341119
554.514086	12894.936302
554.871902	12823.641783
555.229661	12853.311494
555.587365	12798.060448
555.945014	12807.061428
556.302606	12799.381231
556.660143	12852.746885
557.017625	12892.307340
557.375050	12851.751257
557.732421	12955.203296
558.089735	12945.368005
558.446994	12919.322883
558.804197	13034.934185
559.161345	13025.565201
559.518437	12857.717463
559.875474	12937.917179
560.232455	12969.260553
560.589381	13019.082277
560.946251	12951.775311
561.303065	13127.988844
561.659825	13084.702977
562.016528	12989.180673
562.373177	12926.879573
562.729770	13055.539902
563.086307	12932.490377
563.442789	13049.984550
563.799216	13083.099890
564.155587	13027.138041
564.511904	13052.021176
564.868164	13061.997620
565.224370	13128.452630
565.580520	13073.809043
565.936615	13139.074341
566.292654	13070.774268
566.648638	13145.816885
567.004567	13141.393272
567.360441	13146.525167
567.716260	13110.382614
568.072023	13187.451774
568.427732	13172.935772
568.783385	13078.633427
569.138982	13181.853573
569.494525	13193.697764
569.850013	13140.553920
570.205445	13126.027835
570.560823	13134.988486
570.916145	13089.605499
571.271412	13103.445987
571.626625	13062.259760
571.981782	13058.826734
572.336884	13004.941840
572.691931	13088.967793
573.046923	12987.476763
573.401860	12969.149648
573.756743	12959.110190
574.111570	12984.215136
574.466342	12967.637302
574.821059	13013.758818
575.175722	12888.649983
575.530330	12905.701686
575.884882	12846.722706
576.239380	12835.503618
576.593823	12832.065552
576.948211	12820.498624
577.302544	12705.126777
577.656823	12712.181872
578.011047	12768.662960
578.365216	12707.896891
578.719330	12652.663489
579.073389	12623.112245
579.427394	12635.102630
579.781344	12618.449178
580.135239	12559.969273
580.489080	12577.194895
580.842866	12459.899848
581.196597	12551.147253
581.550273	12536.903473
581.903895	12502.893329
582.257463	12604.522990
582.610975	12458.750465
582.964434	12525.452492
583.317837	12455.914816
583.671186	12405.314234
584.024481	12451.118158
584.377721	12351.346162
584.730906	12416.286306
585.084037	12426.940784
585.437113	12341.440295
585.790135	12373.494471
586.143103	12283.358641
586.496016	12299.334057
586.848874	12311.508444
587.201679	12303.293883
587.554428	12181.413907
587.907124	12226.822100
588.259765	12166.723985
588.612352	12239.684604
588.964884	12094.726225
589.317362	12146.849236
589.669786	12146.496355
590.022155	12094.761513
590.374470	12200.635827
590.726731	12090.763878
591.078937	11965.783592
591.431090	11995.012202
591.783188	11928.894949
592.135232	11849.156498
592.487222	11913.973134
592.839157	11924.441090
593.191038	11862.505473
593.542866	11806.178141
593.894639	11662.139773
594.246358	11722.076571
594.598022	11735.473438
594.949633	11632.601132
595.301190	11620.552774
595.652692	11584.742938
596.004141	11667.755618
596.355535	11446.121289
596.706876	11430.264340
597.058162	11403.203426
597.409395	11491.201808
597.760573	11523.195490
598.111698	11416.396126
598.462768	11414.898903
598.813785	11420.658421
599.164748	11298.470934
599.515657	11368.590864
599.866511	11247.887997
600.217312	11372.361647
600.568060	11137.695935
600.918753	11308.684312
601.269392	11297.881119
601.619978	11198.913187
601.970510	11248.329098
602.320988	11288.839810
602.671412	11361.538289
603.021783	11277.973603
603.372100	11202.850328
603.722363	11228.285470
604.072572	11230.548948
604.422728	11239.426420
604.772830	11174.672799
605.122878	11185.460868
605.472872	11160.960860
605.822813	11213.391381
606.172701	11178.153715
606.522534	11216.491690
606.872314	11263.986921
607.222041	11196.276663
607.571714	11278.069385
607.921333	11137.892540
608.270899	11195.964112
608.620411	11258.550037
608.969870	11196.228773
609.319276	11183.787205
609.668627	11197.927641
610.017926	11283.284458
610.367171	11314.408542
610.716362	11302.657612
611.065500	11274.608632
611.414585	11286.483070
611.763616	11341.958448
612.112594	11311.525002
612.461518	11340.332676
612.810389	11386.746579
613.159207	11325.390696
613.507971	11319.616054
613.856682	11420.076168
614.205340	11377.876669
614.553945	11520.581652
614.902496	11388.490818
615.250994	11455.059255
615.599439	11443.106679
615.947830	11475.748150
616.296169	11440.858325
616.644454	11454.247629
616.992686	11463.601490
617.340864	11559.816953
617.688990	11447.008532
618.037063	11575.310939
618.385082	11545.759695
618.733048	11587.394585
619.080961	11576.316649
619.428821	11556.996427
619.776628	11562.294680
620.124382	11509.463387
620.472083	11528.980214
620.819731	11558.274359
621.167326	11476.779066
621.514868	11455.954060
621.862357	11353.709377
622.209793	11344.632780
622.557176	11260.760583
622.904506	11205.832171
623.251783	11125.082968
623.599007	11064.556355
623.946179	11014.966524
624.293297	10992.276291
624.640363	10849.478046
624.987376	10845.051913
625.334336	10770.611715
625.681243	10690.500219
626.028097	10661.251444
626.374899	10625.950764
626.721647	10599.930849
627.068343	10554.109281
627.414987	10489.466565
627.761577	10429.151680
628.108115	10462.388007
628.454600	10343.361324
628.801032	10362.578202
629.147412	10339.018370
629.493739	10313.303444
629.840014	10236.020035
630.186236	10283.409402
630.532405	10171.803297
630.878521	10211.893072
631.224585	10153.047684
631.570597	10082.098484
631.916556	10087.588301
632.262462	10076.462474
632.608316	10046.422239
632.954117	10022.489361
633.299866	10006.035035
633.645562	9976.191404
633.991206	9884.628927
634.336797	9777.630436
634.682336	9774.457030
635.027823	9714.973935
635.373257	9674.322070
635.718639	9599.574362
636.063968	9577.605013
636.409245	9469.852870
636.754470	9443.722049
637.099642	9394.429647
637.444762	9291.300242
637.789829	9304.644177
638.134845	9224.762053
638.479808	9201.487045
638.824719	9175.794805
639.169577	9083.259385
639.514383	9084.199560
639.859137	9010.684413
640.203839	9039.857571
640.548489	8962.004511
640.893086	8967.161612
641.237632	8896.993791
641.582125	8901.941684
641.926566	8883.859065
642.270955	8871.183084
642.615292	8860.841157
642.959576	8834.395263
643.303809	8826.924273
643.647990	8841.828445
643.992118	8811.009351
644.336195	8791.681567
644.680219	8790.007904
645.024192	8821.898243
645.368112	8888.363336
645.711981	8860.566414
646.055797	8991.205395
646.399562	8940.438455
646.743274	9097.122558
647.086935	9152.834870
647.430544	9136.519175
647.774101	9151.027616
648.117606	9172.906224
648.461059	9233.006860
648.804460	9155.831836
649.147810	9033.876242
649.491108	9005.277776
649.834354	8939.790667
650.177548	8800.740520
650.520690	8714.809012
650.863781	8702.959780
651.206820	8676.644957
651.549807	8587.247655
651.892742	8502.510900
652.235626	8452.117006
652.578458	8408.347187
652.921238	8299.249056
653.263967	8334.819438
653.606644	8270.118749
653.949269	8244.736539
654.291843	8172.118718
654.634365	8233.262873
654.976836	8151.142477
655.319255	8144.715006
655.661622	8126.599619
656.003938	8089.726100
656.346203	8050.601705
656.688416	8071.653563
657.030577	8027.825772
657.372687	7995.282603
657.714746	8024.662447
658.056753	8032.798870
658.398708	7932.006040
658.740612	7916.418792
659.082465	7960.057540
659.424266	7909.618276
659.766016	7920.408865
660.107715	7892.425420
660.449362	7902.616113
660.790958	7898.061430
661.132503	7882.448977
661.473996	7874.027729
661.815438	7893.360554
662.156829	7910.255982
662.498168	7857.434772
662.839456	7844.116043
663.180693	7864.177315
663.521879	7879.293215
663.863013	7860.358641
664.204097	7851.100562
664.545129	7912.514418
664.886110	7904.385558
665.227040	7900.201400
665.567918	7902.021257
665.908746	7907.533758
666.249522	7914.929131
666.590248	7903.740290
666.930922	7915.680263
667.271545	7905.363542
667.612118	7912.242196
667.952639	7877.987556
668.293109	7873.279118
668.633528	7843.677463
668.973896	7829.118610
669.314213	7826.177097
669.654480	7778.999459
669.994695	7771.006709
670.334859	7745.100220
670.674973	7723.277065
671.015035	7735.539672
671.355047	7719.710448
671.695008	7703.120011
672.034918	7676.175044
672.374777	7668.459558
672.714585	7636.360011
673.054342	7663.050400
673.394049	7621.455839
673.733705	7651.944738
674.073310	7598.763085
674.412864	7609.399920
674.752368	7541.256123
675.091820	7586.707166
675.431223	7513.391145
675.770574	7463.995399
676.109875	7435.238137
676.449125	7393.371354
676.788324	7373.476441
677.127473	7296.455172
677.466571	7274.115298
677.805619	7220.464818
678.144616	7209.255813
678.483562	7187.790580
678.822458	7138.775441
679.161303	7117.209385
679.500098	7087.771567
679.838842	7073.391676
680.177535	7076.121460
680.516179	7094.998061
680.854771	7107.669001
681.193314	7193.340890
681.531805	7311.031668
681.870247	7408.532624
682.208638	7531.831686
682.546978	7599.642767
682.885268	7614.869572
683.223508	7544.837863
683.561697	7492.503124
683.899836	7458.432486
684.237925	7380.118161
684.575963	7340.953437
684.913951	7261.729183
685.251889	7273.475072
685.589776	7258.099552
685.927614	7227.104018
686.265401	7233.977631
686.603137	7223.020683
686.940824	7271.998014
687.278460	7303.134700
687.616046	7302.481871
687.953582	7378.688994
688.291068	7351.033224
688.628504	7395.667600
688.965889	7389.711477
689.303224	7348.784869
689.640510	7300.944319
689.977745	7211.874692
690.314930	7100.654236
690.652065	7038.121243
690.989150	6938.513084
691.326185	6812.010369
691.663170	6717.740792
692.000105	6610.477641
692.336990	6510.239338
692.673825	6450.794052
693.010610	6366.087544
693.347345	6281.557476
693.684030	6181.235994
694.020665	6140.692514
694.357251	6042.924377
694.693786	6029.837541
695.030272	5991.071068
695.366707	5900.776441
695.703093	5849.616291
696.039429	5837.394014
696.375716	5791.577487
696.711952	5778.094921
697.048139	5749.970324
697.384276	5719.022680
697.720363	5729.432663
698.056400	5698.784968
698.392388	5660.000851
698.728326	5658.677548
699.064214	5628.095388
699.400053	5625.869719
699.735842	5568.118261
700.071581	5525.530593
700.407270	5485.466023
700.742910	5458.395027
701.078501	5418.723666
701.414042	5379.536257
701.749533	5330.521118
702.084974	5282.436072
702.420366	5303.223270
702.755709	5244.718159
703.091002	5197.495150
703.426246	5193.469789
703.761440	5177.146533
704.096584	5140.971213
704.431679	5125.421774
704.766725	5111.369558
705.101721	5093.733081
705.436668	5099.865644
705.771565	5051.352100
706.106413	5088.543213
706.441212	5075.421089
706.775961	5086.199076
707.110661	5091.701496
707.445311	5128.932938
707.779913	5093.624696
708.114465	5112.861739
708.448967	5143.963138
708.783421	5222.842072
709.117825	5244.009877
709.452180	5265.762456
709.786485	5301.600018
710.120742	5387.498759
710.454949	5381.686309
710.789107	5428.266571
711.123216	5507.279095
711.457275	5524.345922
711.791286	5589.573411
712.125247	5596.189926
712.459159	5569.096244
712.793023	5657.795346
713.126837	5532.124422
713.460602	5574.172686
713.794318	5527.005130
714.127985	5485.266897
714.461602	5371.588878
714.795171	5370.694073
715.128691	5247.826030
715.462162	5181.441596
715.795584	5124.058142
716.128957	5086.380558
716.462281	5039.427251
716.795556	5002.457949
717.128782	4936.953196
717.461960	4863.622052
717.795088	4851.976986
718.128167	4798.162669
718.461198	4735.475921
718.794180	4711.538002
719.127113	4668.244573
719.459997	4636.681908
719.792833	4591.760187
720.125619	4579.384154
720.458357	4528.803737
720.791046	4507.401518
721.123686	4482.399916
721.456278	4446.791725
721.788821	4433.256227
722.121315	4405.252618
722.453761	4402.734561
722.786158	4385.556830
723.118506	4383.507601
723.450805	4364.688973
723.783056	4375.469481
724.115259	4358.009444
724.447412	4341.978575
724.779518	4367.943038
725.111574	4369.735168
725.443582	4388.518507
725.775542	4374.355386
726.107453	4427.642903
726.439315	4405.038369
726.771129	4446.612764
727.102895	4481.550481
727.434612	4506.952855
727.766281	4519.190256
728.097901	4546.878794
728.429473	4553.213004
728.760996	4558.939754
729.092471	4561.987132
729.423897	4553.243251
729.755276	4533.774314
730.086606	4532.899674
730.417887	4584.523610
730.749120	4638.471518
731.080305	4654.648581
731.411442	4696.434705
731.742530	4704.762691
732.073570	4713.967838
732.404562	4744.371037
732.735506	4742.248711
733.066401	4719.694589
733.397249	4674.384698
733.728048	4611.012353
734.058798	4512.571221
734.389501	4432.305970
734.720156	4372.880848
735.050762	4301.238490
735.381320	4254.028085
735.711831	4209.129048
736.042293	4157.464783
736.372707	4155.957478
736.703073	4121.354998
737.033391	4132.314466
737.363661	4119.056232
737.693883	4120.956747
738.024056	4132.145588
738.354182	4144.398112
738.684260	4171.713604
739.014290	4187.898228
739.344272	4207.795663
739.674207	4240.366558
740.004093	4251.759565
740.333931	4255.827777
740.663722	4261.922532
740.993464	4263.570989
741.323159	4246.100870
741.652806	4215.753124
741.982405	4194.640772
742.311956	4157.447139
742.641460	4144.768637
742.970915	4107.360755
743.300323	4065.524219
743.629683	4041.467833
743.958996	4005.400897
744.288260	3974.566680
744.617477	3935.830454
744.946647	3921.866458
745.275768	3884.599728
745.604842	3860.707179
745.933869	3840.005681
746.262847	3835.070391
746.591778	3824.849452
746.920662	3804.258859
747.249498	3799.195020
747.578286	3806.726504
747.907027	3816.839058
748.235720	3831.034948
748.564365	3837.414528
748.892963	3826.500430
749.221514	3834.228519
749.550017	3814.656239
749.878473	3807.724652
750.206881	3788.394348
750.535242	3776.411525
750.863555	3764.907612
751.191821	3748.024788
751.520039	3746.071341
751.848210	3733.992736
752.176334	3733.450812
752.504411	3721.150397
752.832440	3701.532747
753.160421	3706.258828
753.488356	3691.389945
753.816243	3681.665559
754.144082	3662.907426
754.471875	3652.560458
754.799620	3643.695588
755.127318	3638.102428
755.454969	3630.901140
755.782572	3621.960654
756.110129	3621.567444
756.437638	3612.130404
756.765100	3609.297275
757.092515	3606.166719
757.419882	3606.169239
757.747203	3600.712190
758.074477	3608.959518
758.401703	3598.330245
758.728882	3611.233078
759.056014	3619.112402
759.383099	3625.325624
759.710138	3639.342552
760.037129	3644.124087
760.364073	3647.678100
760.690970	3645.447389
761.017820	3639.158550
761.344623	3654.581960
761.671379	3678.829910
761.998088	3715.037998
762.324751	3817.532217
762.651366	4051.845048
762.977935	4399.367071
763.304456	4677.938712
763.630931	4835.442002
763.957359	4783.082057
764.283740	4629.563799
764.610074	4459.891164
764.936362	4260.223663
765.262602	4098.609312
765.588796	3925.959875
765.914943	3796.150163
766.241044	3680.506094
766.567097	3599.661110
766.893104	3527.754091
767.219064	3476.135196
767.544978	3429.305398
767.870845	3390.327196
768.196665	3363.810727
768.522438	3338.451202
768.848165	3320.058553
769.173846	3297.932928
769.499479	3280.157820
769.825066	3263.305243
770.150607	3241.887901
770.476101	3234.089236
770.801548	3218.297821
771.126949	3202.985316
771.452303	3189.291022
771.777611	3172.972807
772.102872	3168.854184
772.428087	3156.624345
772.753256	3141.619351
773.078378	3128.308184
773.403453	3114.994497
773.728482	3103.062085
774.053465	3094.265272
774.378401	3081.019640
774.703291	3073.727611
775.028135	3059.430899
775.352932	3056.625497
775.677683	3044.884649
776.002388	3034.023483
776.327046	3031.276055
776.651658	3022.078469
776.976224	3015.078827
777.300743	3013.155627
777.625216	3005.482991
777.949643	2998.448061
778.274024	2999.778925
778.598359	2986.840804
778.922647	2987.160917
779.246889	2978.734629
779.571086	2979.538693
779.895236	2982.006338
780.219339	2981.771924
780.543397	2982.331492
780.867409	2985.847697
781.191374	2983.294352
781.515294	2982.303766
781.839167	2983.869044
782.162995	2984.438694
782.486776	2976.589618
782.810511	2974.842858
783.134201	2963.134778
783.457844	2963.061681
783.781441	2961.637555
784.104993	2954.222018
784.428498	2950.040381
784.751958	2947.522325
785.075372	2943.912858
785.398739	2937.492949
785.722061	2939.038063
786.045337	2936.814914
786.368568	2942.564350
786.691752	2942.826490
787.014891	2959.941207
787.337983	2978.648929
787.661030	3018.073273
787.984031	3061.941393
788.306987	3092.107658
788.629897	3110.621296
788.952760	3108.130966
789.275579	3091.195209
789.598351	3070.352559
789.921078	3045.792057
790.243759	3015.648478
790.566395	2997.956548
790.888984	2971.591314
791.211529	2957.271916
791.534027	2938.997733
791.856480	2923.012235
792.178888	2916.161307
792.501249	2905.101015
792.823566	2895.502658
793.145836	2891.837739
793.468062	2886.489075
793.790241	2880.442211
794.112375	2882.342726
794.434464	2889.372615
794.756507	2889.324724
795.078505	2900.571538
795.400457	2912.171233
795.722364	2932.411466
796.044226	2952.747481
796.366042	2970.005871
796.687812	2969.683237
797.009538	2978.122128
797.331218	2970.757003
797.652852	2962.983543
797.974442	2953.601956
798.295986	2948.006275
798.617484	2935.955397
798.938938	2924.849735
799.260346	2917.935793
799.581709	2905.806777
799.903026	2896.682288
800.224299	2890.350599
800.545526	2876.936088
800.866708	2867.914944
801.187845	2863.201465
801.508936	2858.374560
801.829983	2854.437419
802.150984	2843.205728
802.471940	2837.743638
802.792851	2838.028463
803.113717	2836.420335
803.434538	2829.551763
803.755314	2828.135199
804.076045	2825.286947
804.396731	2821.816112
804.717372	2821.992553
805.037967	2821.760660
805.358518	2821.982470
805.679024	2827.883141
805.999485	2827.414314
806.319901	2829.720642
806.640272	2831.109479
806.960598	2833.171311
807.280879	2833.718277
807.601115	2835.770026
807.921306	2831.396825
808.241453	2833.342711
808.561554	2834.615602
808.881611	2830.736434
809.201623	2829.576969
809.521590	2825.039930
809.841513	2822.209322
810.161390	2827.280723
810.481223	2816.119608
810.801011	2816.984166
811.120755	2813.722540
811.440453	2807.496715
811.760107	2804.628298
812.079716	2795.302164
812.399281	2794.669499
812.718801	2792.151442
813.038276	2787.780762
813.357707	2786.512912
813.677093	2789.209929
813.996434	2783.941923
814.315731	2783.427726
814.634983	2779.795574
814.954191	2781.007972
815.273354	2783.863786
815.592473	2784.375463
815.911547	2789.139353
816.230577	2795.592030
816.549562	2805.243319
816.868502	2804.461940
817.187399	2810.516366
817.506250	2813.253712
817.825058	2816.207829
818.143821	2826.673264
818.462539	2834.638287
818.781213	2851.553879
819.099843	2871.683206
819.418429	2917.857655
819.736970	2960.780559
820.055466	3013.077489
820.373919	3072.542940
820.692327	3163.281189
821.010691	3309.459527
821.329011	3684.236548
821.647286	4387.056573
821.965517	5311.536133
822.283704	6009.420868
822.601847	6356.484146
822.919945	6083.361992
823.237999	5694.983938
823.556010	5290.461589
823.873976	4912.213734
824.191897	4563.411258
824.509775	4289.517808
824.827609	4013.933050
825.145398	3820.100685
825.463144	3685.839635
825.780845	3632.542036
826.098502	3660.228052
826.416116	3799.189979
826.733685	3968.260197
827.051210	4056.843352
827.368692	4012.448431
827.686129	3850.526569
828.003522	3670.471677
828.320872	3498.762415
828.638177	3364.864328
828.955439	3263.509409
829.272656	3165.030469
829.589830	3083.376380
829.906960	3009.750328
830.224046	2948.959053
830.541088	2903.336611
830.858086	2871.413504
831.175041	2844.823938
831.491952	2829.103100
831.808819	2823.189827
832.125642	2829.062771
832.442421	2852.037830
832.759157	2911.359608
833.075849	3024.135260
833.392497	3163.954183
833.709101	3280.301493
834.025662	3304.201603
834.342179	3254.768049
834.658653	3172.496418
834.975083	3093.183944
835.291469	3025.939993
835.607811	2967.896148
835.924110	2926.213367
836.240366	2882.675442
836.556578	2839.918896
836.872746	2805.661735
837.188871	2776.044956
837.504952	2753.458066
837.820990	2733.966445
838.136984	2722.530587
838.452935	2715.157900
838.768842	2709.610110
839.084706	2719.584033
839.400526	2759.842687
839.716303	2822.148828
840.032037	2878.806357
840.347727	2887.855228
840.663373	2859.488655
840.978977	2816.069197
841.294537	2783.223559
841.610054	2757.087697
841.925527	2743.688310
842.240957	2725.605691
842.556344	2712.503732
842.871687	2695.310877
843.186987	2680.643640
843.502244	2668.522186
843.817458	2663.107986
844.132629	2651.979639
844.447756	2648.264309
844.762840	2640.228710
845.077881	2636.142854
845.392879	2635.527834
845.707833	2631.610857
846.022745	2628.187914
846.337613	2630.711011
846.652438	2626.678088
846.967221	2627.582975
847.281960	2624.190279
847.596656	2627.041051
847.911309	2621.203395
848.225919	2624.986781
848.540485	2619.605349
848.855009	2622.282202
849.169490	2619.098713
849.483928	2620.013683
849.798323	2619.764146
850.112675	2615.597632
850.426984	2618.468569
850.741251	2616.484875
851.055474	2614.619648
851.369654	2617.581326
851.683792	2613.629061
851.997887	2615.590070
852.311938	2612.782147
852.625947	2615.640482
852.939914	2616.565533
853.253837	2616.583177
853.567718	2615.353136
853.881555	2614.715430
854.195350	2613.180399
854.509103	2614.070162
854.822812	2614.813733
855.136479	2614.372632
855.450103	2614.463372
855.763685	2614.695265
856.077224	2613.782817
856.390720	2614.619648
856.704173	2615.635441
857.017584	2614.032354
857.330953	2614.748197
857.644278	2615.302724
857.957561	2617.195678
858.270802	2616.182406
858.584000	2617.183075
858.897155	2616.074021
859.210268	2614.241562
859.523339	2614.246603
859.836367	2611.809205
860.149352	2615.224587
860.462295	2614.730553
860.775195	2609.376848
861.088054	2606.699995
861.400869	2608.446755
861.713642	2607.332660
862.026373	2609.505397
862.339062	2612.260388
862.651708	2612.207456
862.964312	2611.494133
863.276873	2617.190637
863.589392	2616.104268
863.901869	2615.338012
864.214303	2618.776079
864.526696	2622.277161
864.839045	2622.193982
865.151353	2625.243880
865.463619	2622.403190
865.775842	2620.747171
866.088023	2623.789507
866.400162	2622.083076
866.712258	2622.801441
867.024313	2623.134157
867.336325	2621.636934
867.648296	2624.341513
867.960224	2619.917901
868.272110	2623.968468
868.583954	2621.866307
868.895755	2622.269599
869.207515	2621.921759
869.519233	2624.414610
869.830909	2622.849332
870.142542	2623.723972
870.454134	2621.470576
870.765684	2621.205916
871.077191	2626.206740
871.388657	2626.978037
871.700081	2628.155146
872.011463	2630.040538
872.322803	2631.416773
872.634101	2631.936012
872.945357	2630.259828
873.256571	2635.452216
873.567744	2634.685961
873.878874	2637.682927
874.189963	2637.589666
874.501010	2640.402629
874.812015	2639.729635
875.122979	2642.318268
875.433900	2637.960190
875.744780	2637.246867
876.055618	2634.915333
876.366415	2638.844913
876.677169	2639.124697
876.987882	2637.433390
877.298554	2636.437762
877.609183	2637.511528
877.919771	2641.839358
878.230317	2643.825573
878.540822	2650.021151
878.851285	2658.868376
879.161707	2666.929181
879.472087	2684.172448
879.782425	2708.715305
880.092722	2765.246804
880.402977	2871.479039
880.713191	3049.426729
881.023363	3266.874380
881.333494	3434.628856
881.643583	3515.988038
881.953631	3500.002539
882.263637	3437.812345
882.573602	3364.035058
882.883526	3300.284627
883.193408	3236.554360
883.503248	3173.303002
883.813048	3120.149076
884.122806	3064.751837
884.432522	3005.777898
884.742197	2947.910493
885.051831	2893.866804
885.361424	2844.024916
885.670975	2800.940694
885.980485	2768.999943
886.289954	2744.336098
886.599382	2725.610732
886.908768	2708.148175
887.218113	2693.929601
887.527417	2680.946109
887.836680	2671.854388
888.145901	2661.953562
888.455082	2654.386790
888.764221	2650.517705
889.073319	2644.012096
889.382376	2640.992444
889.691392	2637.246867
890.000366	2637.662762
890.309300	2635.943729
890.618193	2635.893317
890.927044	2636.462968
891.235855	2633.607154
891.544625	2634.106228
891.853353	2636.069758
892.162041	2642.061169
892.470687	2644.518732
892.779293	2652.561892
893.087858	2655.276554
893.396381	2668.635612
893.704864	2690.035310
894.013306	2723.881617
894.321707	2759.966196
894.630068	2791.077677
894.938387	2801.107052
895.246665	2795.967596
895.554903	2782.714402
895.863100	2763.434510
896.171256	2750.992942
896.479371	2737.974162
896.787446	2724.186606
897.095480	2715.409957
897.403473	2701.360262
897.711425	2693.266689
898.019336	2683.343178
898.327207	2674.380006
898.635038	2666.236022
898.942827	2656.854435
899.250576	2652.244300
899.558284	2641.844399
899.865952	2639.510345
900.173579	2634.169243
900.481165	2629.261679
900.788711	2627.998870
901.096216	2625.160701
901.403681	2622.814044
901.711105	2622.251955
902.018489	2620.071656
902.325832	2621.626852
902.633135	2622.130967
902.940397	2628.233284
903.247619	2642.850110
903.554800	2678.357477
903.861941	2735.302351
904.169041	2789.134312
904.476101	2824.263592
904.783121	2821.604384
905.090100	2801.994295
905.397039	2779.218362
905.703938	2755.567789
906.010796	2737.638925
906.317614	2721.348437
906.624391	2709.300079
906.931129	2699.217771
907.237826	2685.140349
907.544483	2675.509225
907.851099	2659.127995
908.157675	2647.674494
908.464211	2631.497431
908.770707	2619.517129
909.077163	2616.386572
909.383578	2608.111518
909.689954	2604.018102
909.996289	2597.721700
910.302584	2599.357555
910.608839	2597.908223
910.915054	2598.155240
911.221229	2598.613985
911.527363	2596.509303
911.833458	2597.237750
912.139513	2596.146340
912.445527	2596.645414
912.751502	2596.209354
913.057436	2602.503235
913.363331	2602.969542
913.669186	2609.833072
913.975000	2612.535131
914.280775	2622.529218
914.586510	2638.668472
914.892205	2657.051040
915.197859	2684.810154
915.503475	2718.928683
915.809050	2755.104003
916.114585	2777.574946
916.420081	2790.689508
916.725536	2792.095990
917.030952	2782.921090
917.336328	2774.600665
917.641665	2760.077101
917.946961	2750.803899
918.252218	2741.271077
918.557435	2728.958058
918.862612	2716.539176
919.167750	2707.407126
919.472848	2694.002698
919.777906	2682.493743
920.082925	2673.402022
920.387904	2659.362409
920.692843	2649.837149
920.997743	2639.719553
921.302603	2631.739407
921.607423	2630.844602
921.912204	2616.900770
922.216946	2615.486727
922.521647	2612.101592
922.826310	2609.092023
923.130932	2607.804008
923.435516	2603.972731
923.740059	2602.447782
924.044564	2598.682040
924.349028	2598.142637
924.653454	2594.253387
924.957840	2588.987901
925.262186	2588.072932
925.566493	2588.819023
925.870761	2583.104875
926.174989	2587.069742
926.479178	2585.459094
926.783328	2584.919690
927.087438	2584.622262
927.391509	2583.324165
927.695541	2580.498598
927.999533	2582.535224
928.303486	2582.358784
928.607400	2578.169585
928.911275	2579.114802
929.215110	2578.146900
929.518906	2577.254616
929.822663	2578.746797
930.126381	2580.680080
930.430060	2581.302662
930.733699	2577.862075
931.037299	2579.500450
931.340861	2579.596232
931.644383	2579.523135
931.947866	2578.436766
932.251309	2578.837538
932.554714	2579.543300
932.858080	2578.696386
933.161407	2578.340984
933.464694	2577.078175
933.767943	2577.635223
934.071153	2576.773186
934.374323	2577.325192
934.677455	2575.893504
934.980548	2574.207238
935.283602	2574.240006
935.586617	2578.310737
935.889593	2576.213617
936.192530	2577.494071
936.495428	2573.680438
936.798287	2575.936354
937.101108	2577.481468
937.403890	2579.021540
937.706632	2579.397106
938.009336	2581.320306
938.312002	2583.911459
938.614628	2585.451532
938.917216	2585.927921
939.219765	2584.907087
939.522275	2588.166193
939.824747	2589.149218
940.127179	2586.328693
940.429573	2584.904567
940.731929	2585.890112
941.034246	2585.512026
941.336524	2588.614856
941.638763	2585.456573
941.940964	2586.903384
942.243126	2587.531008
942.545250	2586.958837
942.847335	2585.272571
943.149381	2582.283167
943.451389	2583.339288
943.753359	2582.953640
944.055290	2584.949937
944.357182	2580.967426
944.659036	2580.402816
944.960851	2580.692683
945.262628	2579.684452
945.564367	2577.315110
945.866067	2576.717733
946.167729	2579.974318
946.469352	2578.121694
946.770937	2580.692683
947.072484	2578.479616
947.373992	2579.087075
947.675462	2577.022723
947.976893	2578.877867
948.278286	2579.336612
948.579641	2577.647826
948.880958	2576.725295
949.182236	2575.223031
949.483476	2576.702609
949.784678	2579.150090
950.085841	2576.271591
950.386967	2576.931982
950.688054	2577.395768
950.989103	2579.162692
951.290114	2579.462641
951.591087	2579.354256
951.892021	2580.065059
952.192917	2580.725450
952.493776	2582.666294
952.794596	2580.901891
953.095378	2581.494226
953.396122	2583.049422
953.696828	2583.856007
953.997496	2581.385841
954.298126	2580.410378
954.598718	2581.443815
954.899272	2579.823084
955.199788	2580.143197
955.500266	2582.663774
955.800706	2575.792681
956.101108	2574.565160
956.401472	2577.209245
956.701798	2574.113977
957.002087	2570.844789
957.302337	2570.307906
957.602550	2575.477609
957.902724	2571.376630
958.202861	2569.483677
958.502960	2571.275807
958.803022	2570.738924
959.103045	2571.245560
959.403031	2568.498132
959.702979	2569.650035
960.002889	2568.392267
960.302762	2569.783626
960.602596	2569.055179
960.902393	2565.622153
961.202153	2568.293965
961.501875	2565.977555
961.801559	2567.111814
962.101205	2567.192473
962.400814	2567.351269
962.700385	2568.006619
962.999918	2568.089798
963.299414	2565.135682
963.598873	2568.281362
963.898293	2564.697102
964.197677	2564.790363
964.497022	2565.990157
964.796331	2565.077709
965.095601	2566.277503
965.394835	2566.499314
965.694030	2565.869170
965.993189	2566.234653
966.292309	2568.457802
966.591393	2564.041752
966.890439	2564.757595
967.189447	2566.637946
967.488419	2561.337173
967.787353	2566.620302
968.086249	2564.296330
968.385108	2568.127607
968.683930	2561.921946
968.982714	2564.744993
969.281462	2564.790363
969.580172	2564.107287
969.878844	2566.902606
970.177480	2567.068964
970.476078	2562.957903
970.774639	2564.881104
971.073162	2566.005281
971.371649	2563.409087
971.670098	2563.588048
971.968510	2565.170970
972.266885	2563.356155
972.565223	2566.252297
972.863524	2567.956207
973.161788	2566.408573
973.460014	2565.745662
973.758204	2567.449572
974.056356	2566.534602
974.354471	2569.125755
974.652550	2567.351269
974.950591	2568.760272
975.248595	2565.286917
975.546563	2566.491752
975.844493	2563.814900
976.142386	2564.971844
976.440243	2566.017884
976.738062	2569.526527
977.035845	2564.878583
977.333590	2565.226423
977.631299	2568.084757
977.928971	2566.232133
978.226606	2564.472770
978.524204	2564.331618
978.821765	2563.832544
979.119290	2564.669375
979.416777	2563.827502
979.714228	2563.404046
980.011642	2562.597461
980.309020	2569.710529
980.606360	2565.226423
980.903664	2564.266083
981.200931	2565.748182
981.498162	2565.596948
981.795356	2570.532237
982.092513	2570.522155
982.389633	2570.812021
982.686717	2577.110943
982.983764	2579.407188
983.280775	2582.552868
983.577749	2584.344999
983.874686	2584.115626
984.171587	2583.974474
984.468451	2579.571026
984.765279	2580.508681
985.062070	2580.569174
985.358824	2580.773341
985.655543	2579.286201
985.952224	2576.034657
986.248869	2572.747824
986.545478	2564.848336
986.842050	2567.661300
987.138586	2565.168449
987.435086	2565.125600
987.731549	2561.682492
988.027975	2564.543346
988.324366	2564.041752
988.620719	2564.349262
988.917037	2564.755075
989.213318	2562.564693
989.509563	2559.991184
989.805772	2565.826320
990.101944	2559.111503
990.398080	2560.830537
990.694180	2560.023952
990.990244	2559.892882
991.286271	2562.138716
991.582262	2562.814231
991.878217	2561.740465
992.174136	2560.853222
992.470019	2561.886658
992.765865	2561.964796
993.061676	2563.789694
993.357450	2558.874569
993.653188	2562.053016
993.948890	2562.534447
994.244556	2561.682492
994.540186	2565.811197
994.835780	2562.705846
995.131337	2563.814900
995.426859	2566.668193
995.722345	2564.061916
996.017795	2569.801270
996.313208	2569.024932
996.608586	2570.348235
996.903928	2571.666497
997.199234	2571.210272
997.494504	2569.274469
997.789738	2572.054666
998.084936	2569.271949
998.380099	2569.367731
998.675225	2569.420663
998.970316	2569.929819
999.265371	2567.094170
999.560390	2564.306412
999.855373	2566.146433
1000.150320	2563.716597
1000.445232	2563.588048
1000.740108	2561.364899
1001.034948	2564.195507
1001.329752	2563.003274
1001.624521	2561.253993
1001.919254	2560.149981
1002.213951	2558.627552
1002.508613	2555.958261
1002.803239	2556.366595
1003.097829	2556.253169
1003.392384	2560.679302
1003.686903	2558.993036
1003.981386	2561.052347
1004.275834	2558.476318
1004.570246	2561.518654
1004.864623	2560.737275
1005.158964	2558.141081
1005.453270	2559.189641
1005.747540	2557.957079
1006.041775	2556.744681
1006.335974	2560.485217
1006.630138	2559.182079
1006.924266	2557.551266
1007.218359	2559.492110
1007.512416	2558.209137
1007.806438	2557.614280
1008.100425	2557.967161
1008.394376	2559.749209
1008.688292	2558.022614
1008.982172	2558.408262
1009.276017	2560.349106
1009.569827	2559.827347
1009.863602	2559.673592
1010.157341	2559.101421
1010.451045	2555.910370
1010.744714	2558.914898
1011.038347	2555.512119
1011.331945	2559.905485
1011.625508	2557.374826
1011.919036	2555.456667
1012.212528	2560.540670
1012.505986	2558.294836
1012.799408	2557.523540
1013.092795	2555.174362
1013.386147	2556.500185
1013.679464	2557.135371
1013.972745	2557.442881
1014.265992	2559.058571
1014.559204	2558.791390
1014.852380	2557.344579
1015.145521	2558.229301
1015.438628	2554.818961
1015.731699	2555.713765
1016.024736	2558.320042
1016.317737	2557.861297
1016.610703	2560.253324
1016.903635	2553.682180
1017.196531	2552.268137
1017.489393	2554.433312
1017.782219	2555.953220
1018.075011	2553.301573
1018.367768	2559.968499
1018.660490	2557.841132
1018.953177	2557.841132
1019.245829	2557.841132
