Dividing Wavelength (nm)	Counts (n)	Blue Motor Position (mm): 0.000000	Red Motor Position (mm): 37.800000	
326.493990	2128.133178
326.888308	2128.133178
327.282561	2128.133178
327.676750	2096.396594
328.070874	2094.773343
328.464933	2097.840885
328.858929	2101.679724
329.252859	2111.336054
329.646726	2124.374998
330.040528	2137.686165
330.434265	2155.211736
330.827938	2171.313182
331.221547	2190.492252
331.615091	2209.537731
332.008571	2229.011708
332.401986	2248.084914
332.795338	2265.297933
333.188625	2285.349123
333.581847	2305.705302
333.975006	2322.081490
334.368100	2340.769048
334.761129	2357.835874
335.154095	2376.223483
335.546996	2396.748541
335.939833	2417.971798
336.332606	2431.154416
336.725315	2446.739143
337.117960	2455.109979
337.510540	2459.432768
337.903056	2472.169243
338.295508	2479.650316
338.687896	2486.284474
339.080220	2496.472646
339.472480	2502.907679
339.864676	2507.485047
340.256807	2514.469565
340.648875	2516.687673
341.040879	2516.405368
341.432818	2518.212622
341.824694	2522.419465
342.216506	2520.617252
342.608253	2523.435257
342.999937	2522.177489
343.391557	2520.516429
343.783113	2520.803775
344.174605	2521.501975
344.566033	2516.024761
344.957397	2516.092817
345.348697	2512.382528
345.739934	2511.603669
346.131106	2511.671725
346.522215	2509.161230
346.913260	2507.152330
347.304241	2502.632936
347.695159	2503.709222
348.086012	2501.125631
348.476802	2499.169663
348.867528	2497.543891
349.258191	2498.060609
349.648789	2496.361741
350.039324	2494.405773
350.429796	2493.873931
350.820203	2491.607933
351.210548	2492.200268
351.600828	2492.371667
351.991045	2490.788745
352.381198	2490.163642
352.771288	2487.496872
353.161314	2490.798827
353.551276	2490.745895
353.941175	2488.429485
354.331010	2490.224136
354.720782	2488.071563
355.110490	2491.912922
355.500135	2489.357057
355.889717	2488.469814
356.279235	2489.036944
356.668689	2491.542398
357.058080	2490.466111
357.447408	2486.952427
357.836672	2488.923518
358.225873	2489.644403
358.615010	2488.295894
359.004084	2492.107007
359.393095	2493.092552
359.782043	2491.880155
360.170927	2493.526092
360.559748	2496.054230
360.948505	2497.261587
361.337199	2497.750578
361.725830	2497.942142
362.114398	2498.806700
362.502903	2499.993892
362.891344	2500.427431
363.279722	2498.736124
363.668037	2502.171670
364.056289	2499.177225
364.444478	2500.563542
364.832603	2502.930364
365.220665	2501.231495
365.608665	2504.329284
365.996601	2502.955570
366.384474	2506.484378
366.772284	2507.742145
367.160031	2508.208452
367.547715	2509.362876
367.935336	2513.272291
368.322893	2516.055008
368.710388	2518.315966
369.097820	2524.698066
369.485189	2525.121523
369.872495	2535.896990
370.259738	2542.659698
370.646918	2550.231511
371.034035	2554.277037
371.421090	2565.528892
371.808081	2577.189081
372.195010	2583.077148
372.581875	2600.106166
372.968678	2610.306941
373.355418	2624.124744
373.742096	2641.350366
374.128710	2654.469969
374.515262	2670.546209
374.901751	2683.950637
375.288177	2697.405477
375.674540	2721.708879
376.060841	2736.388719
376.447079	2757.652306
376.833254	2777.154010
377.219367	2791.564148
377.605417	2828.326762
377.991404	2838.051148
378.377329	2861.260621
378.763191	2878.433311
379.148991	2914.109557
379.534727	2939.113680
379.920402	2967.260963
380.306013	2983.206132
380.691563	3033.650438
381.077049	3052.327913
381.462474	3068.205027
381.847835	3105.902776
382.233134	3131.123668
382.618371	3131.345479
383.003545	3199.164122
383.388657	3203.801983
383.773706	3239.798342
384.158693	3256.025817
384.543618	3280.349384
384.928480	3315.234168
385.313280	3362.996581
385.698017	3358.900643
386.082692	3413.009868
386.467305	3420.629572
386.851856	3449.437246
387.236344	3476.528406
387.620770	3507.995289
388.005133	3532.444885
388.389435	3561.638207
388.773674	3569.472160
389.157851	3610.660907
389.541965	3625.554996
389.926018	3593.329420
390.310008	3661.594205
390.693936	3685.585056
391.077802	3726.476376
391.461606	3711.741083
391.845348	3777.250877
392.229027	3778.811114
392.612645	3789.609266
392.996200	3864.994681
393.379694	3904.973551
393.763125	3970.087615
394.146494	3935.220474
394.529801	3999.164990
394.913047	4051.361097
395.296230	4013.073534
395.679351	4064.354671
396.062410	4090.954319
396.445408	4075.339345
396.828343	4107.058285
397.211217	4127.666522
397.594028	4053.806057
397.976778	4115.154378
398.359466	4142.429541
398.742092	4172.177390
399.124656	4095.483796
399.507158	4174.014891
399.889598	4197.670505
400.271977	4262.766925
400.654294	4233.608891
401.036549	4238.206423
401.418742	4207.919171
401.800874	4313.879184
402.182944	4334.399200
402.564952	4401.796907
402.946898	4387.419536
403.328783	4384.054566
403.710606	4298.377636
404.092367	4491.957943
404.474067	4455.548210
404.855705	4463.510712
405.237282	4389.604876
405.618797	4496.631093
406.000250	4534.414541
406.381642	4612.045790
406.762972	4573.594389
407.144240	4582.711315
407.525447	4586.784568
407.906593	4644.775481
408.287677	4685.560936
408.668700	4618.309423
409.049661	4671.120551
409.430560	4711.638825
409.811399	4635.497237
410.192176	4800.302639
410.572891	4734.684460
410.953545	4842.219833
411.334138	4718.278025
411.714669	4787.215803
412.095139	4675.377805
412.475547	4824.853058
412.855894	4801.562927
413.236180	4812.048527
413.616405	4766.247124
413.996568	4855.838510
414.376670	4799.279285
414.756711	4750.395216
415.136691	4782.416625
415.516609	4863.748081
415.896466	4898.433740
416.276262	4931.720478
416.655997	4912.523765
417.035670	5092.223255
417.415283	5188.118604
417.794834	5128.597701
418.174324	5084.394343
418.553753	4990.830528
418.933121	5176.849105
419.312428	5244.367799
419.691674	5182.936298
420.070859	5306.205113
420.449983	5222.882401
420.829045	5335.637889
421.208047	5240.375205
421.586988	5313.971010
421.965867	5325.628678
422.344686	5459.088185
422.723444	5310.537984
423.102141	5128.620386
423.480777	5428.800933
423.859352	5199.282239
424.237866	5456.292865
424.616319	5450.061999
424.994712	5560.284307
425.373044	5436.211429
425.751314	5584.181897
426.129524	5382.107245
426.507673	5576.776442
426.885762	5661.707282
427.263789	5591.514256
427.641756	5472.820288
428.019662	5594.039874
428.397508	5602.783755
428.775292	5549.468512
429.153016	5644.716073
429.530679	5573.587912
429.908282	5655.428525
430.285824	5528.625861
430.663305	5803.429240
431.040726	5539.723962
431.418086	5535.907808
431.795385	5643.123068
432.172624	5657.518083
432.549802	5651.322505
432.926920	5663.688455
433.303977	5671.116595
433.680974	5711.609664
434.057910	5728.247992
434.434786	5733.160596
434.811601	5699.611717
435.188355	5937.302121
435.565050	5813.698070
435.941683	5794.738291
436.318257	6009.095714
436.694770	5986.508824
437.071222	6023.294124
437.447614	5956.927333
437.823946	5868.480289
438.200218	6022.106932
438.576429	5888.649946
438.952580	5984.338607
439.328670	6028.307551
439.704700	5938.355723
440.080670	5924.386685
440.456580	6198.317944
440.832429	6078.973668
441.208218	5925.803249
441.583947	6084.357620
441.959616	6086.442137
442.335224	6009.587226
442.710773	6149.892620
443.086261	6176.088976
443.461689	5971.491227
443.837057	6121.457992
444.212365	6280.067815
444.587612	6169.759808
444.962800	6324.137582
445.337927	6297.933665
445.712995	5911.148615
446.088002	6489.109342
446.462949	6317.858825
446.837837	6252.961531
447.212664	6420.259783
447.587431	6564.882925
447.962139	7102.839576
448.336786	8030.505145
448.711374	7777.545086
449.085901	6849.108220
449.460369	6768.636282
449.834776	6702.249327
450.209124	7092.487566
450.583412	7244.501040
450.957640	7391.178452
451.331808	7157.828482
451.705917	6709.306942
452.079965	6635.345653
452.453954	6847.968920
452.827883	6722.373613
453.201752	6816.819630
453.575562	6619.287058
453.949311	6820.509755
454.323001	6704.149842
454.696632	6780.334279
455.070202	6920.720331
455.443713	7074.641882
455.817164	7173.740884
456.190556	7258.046620
456.563888	7328.496745
456.937160	7372.377469
457.310373	7028.114552
457.683526	7054.557925
458.056619	6947.146060
458.429653	6938.666839
458.802628	6868.814091
459.175542	6971.083979
459.548398	7332.653177
459.921194	7495.600913
460.293930	7496.621747
460.666607	8029.121348
461.039224	8332.563522
461.411782	8465.254253
461.784280	8482.321079
462.156719	8368.224644
462.529099	8250.685101
462.901419	7841.169489
463.273680	7731.242088
463.645882	7744.596104
464.018024	7612.056608
464.390106	7782.268647
464.762130	8165.799632
465.134094	8632.497052
465.505999	9653.557558
465.877845	10875.692046
466.249631	11525.237158
466.621358	11145.313119
466.993026	10512.950780
467.364634	10255.050391
467.736184	9896.067305
468.107674	9563.033558
468.479105	9595.228887
468.850477	9360.422023
469.221790	9130.018607
469.593043	8797.494017
469.964238	8659.744488
470.335373	8674.303341
470.706449	8737.254749
471.077467	8721.753201
471.448425	10026.716368
471.819324	11096.267733
472.190164	11120.293872
472.560945	9878.337567
472.931667	9084.169313
473.302330	8948.113612
473.672934	8592.024148
474.043479	8956.053429
474.413965	8890.221001
474.784393	8774.423177
475.154761	8928.861445
475.525070	9018.157924
475.895321	8847.434208
476.265513	9020.416361
476.635645	9190.814923
477.005719	9194.784831
477.375734	9299.955903
477.745691	9537.154795
478.115588	9677.092184
478.485427	9923.687787
478.855207	10458.682759
479.224928	11265.085893
479.594591	11903.401834
479.964194	11716.841333
480.333739	11649.118472
480.703226	11566.834239
481.072653	11656.123156
481.442022	11896.036708
481.811333	12080.336252
482.180584	11891.492108
482.549777	11602.180289
482.918912	11425.553382
483.287988	11444.664396
483.657005	11457.269801
484.025964	11134.583023
484.394864	11273.797007
484.763706	11238.700494
485.132489	11000.387507
485.501213	10961.391662
485.869879	11033.459997
486.238487	10877.761440
486.607036	10991.273101
486.975527	10766.795562
487.343959	10955.218769
487.712333	11008.435709
488.080648	10935.959041
488.448905	10976.671399
488.817104	10917.344580
489.185244	11183.237719
489.553326	11341.943324
489.921350	11873.404448
490.289315	12939.192591
490.657222	13281.764201
491.025070	13190.756251
491.392861	13068.167992
491.760593	12688.501052
492.128267	12335.451404
492.495883	12012.850325
492.863440	11669.938438
493.230939	11336.561893
493.598380	11268.748291
493.965763	11129.924997
494.333088	11036.714062
494.700354	10955.831269
495.067563	11016.199086
495.434713	10849.924188
495.801805	10978.309774
496.168839	10895.720551
496.535815	10835.912301
496.902733	10831.092958
497.269593	10765.424368
497.636395	10859.850220
498.003139	10856.951557
498.369825	10721.042049
498.736453	10881.975845
499.103023	10803.492641
499.469535	10837.197796
499.835989	10821.466875
500.202385	10785.112594
500.568723	10633.489810
500.935003	10862.827022
501.301226	10667.923411
501.667390	10916.253170
502.033497	11017.749241
502.399546	10873.945287
502.765537	10790.138624
503.131470	10859.681342
503.497345	11035.625173
503.863163	10644.759309
504.228923	10959.690272
504.594625	11026.916579
504.960269	10768.867476
505.325856	10991.119346
505.691385	10781.563622
506.056856	10938.469535
506.422270	10964.812085
506.787625	10851.471823
507.152924	10972.250307
507.518164	10947.044538
507.883347	10868.838598
508.248472	10788.533017
508.613540	11023.561692
508.978550	10897.978988
509.343503	10876.538960
509.708398	10998.502116
510.073236	11108.290885
510.438016	11114.544436
510.802738	11062.116436
511.167403	11114.315064
511.532010	11019.725373
511.896561	11240.313663
512.261053	11310.965434
512.625488	11187.805004
512.989866	11164.850110
513.354186	11151.281845
513.718449	11056.949253
514.082655	11246.645352
514.446803	11142.631225
514.810894	11264.349884
515.174927	11132.546397
515.538904	11153.560446
515.902822	11308.104579
516.266684	11186.272494
516.630488	11134.983794
516.994235	11191.737104
517.357925	11253.597103
517.721558	11340.821668
518.085133	11354.538647
518.448651	11366.186233
518.812112	11249.990158
519.175516	11263.248392
519.538863	11380.903882
519.902152	11303.212139
520.265385	11457.020264
520.628560	11371.101358
520.991678	11344.226967
521.354739	11406.860783
521.717743	11345.361227
522.080690	11322.529841
522.443580	11453.355345
522.806413	11409.106617
523.169189	11437.463108
523.531908	11492.913279
523.894569	11312.931484
524.257174	11317.171094
524.619722	11439.270361
524.982213	11380.351876
525.344647	11442.874786
525.707025	11389.990562
526.069345	11480.000364
526.431608	11391.656663
526.793815	11505.138077
527.155964	11295.804164
527.518057	11343.717811
527.880093	11291.083123
528.242072	11368.185051
528.603995	11262.807291
528.965860	11184.409787
529.327669	11233.727395
529.689421	11187.227792
530.051117	11155.781075
530.412755	11250.574932
530.774337	11142.810186
531.135862	11122.721188
531.497331	11156.582618
531.858743	10998.184523
532.220098	11167.012765
532.581396	11032.101406
532.942638	11012.340083
533.303824	10980.548046
533.664953	10989.516259
534.026025	10912.404249
534.387040	11002.035965
534.747999	10996.226035
535.108902	11054.683255
535.469748	10805.952724
535.830537	10909.145143
536.191270	10886.906093
536.551947	10906.904350
536.912567	10902.949565
537.273131	10825.893008
537.633638	10800.508278
537.994089	10788.255753
538.354483	10733.045037
538.714821	10864.326765
539.075103	10879.414938
539.435328	10841.253404
539.795497	10670.212095
540.155609	10821.754221
540.515665	10903.057950
540.875665	10638.876283
541.235609	10699.670078
541.595496	10692.839314
541.955328	10842.422952
542.315102	10719.149096
542.674821	10668.432568
543.034483	10657.757924
543.394090	10663.288070
543.753640	10590.894580
544.113134	10797.786055
544.472571	10648.275514
544.831953	10782.176122
545.191278	10582.546430
545.550548	10610.481984
545.909761	10733.395397
546.268918	10707.672909
546.628019	10780.852819
546.987064	10633.940993
547.346053	10558.046422
547.704986	10638.800665
548.063863	10618.363828
548.422684	10602.585016
548.781449	10509.454740
549.140158	10594.289798
549.498811	10476.175563
549.857408	10328.774745
550.215949	10537.639831
550.574434	10383.564526
550.932864	10469.173400
551.291237	10517.651656
551.649555	10452.333426
552.007817	10457.283839
552.366022	10405.178473
552.724173	10390.997707
553.082267	10365.350837
553.440305	10483.109670
553.798288	10282.539803
554.156215	10406.141333
554.514086	10373.036076
554.871902	10223.533097
555.229661	10232.317307
555.587365	10203.111382
555.945014	10093.635165
556.302606	10194.574188
556.660143	10078.052958
557.017625	10199.698521
557.375050	10093.118447
557.732421	10201.193223
558.089735	10105.817113
558.446994	10087.928579
558.804197	10104.002298
559.161345	10088.140307
559.518437	9934.372512
559.875474	9995.919959
560.232455	9996.678653
560.589381	9942.183780
560.946251	9903.097194
561.303065	9993.563220
561.659825	9906.948635
562.016528	9824.243465
562.373177	9706.156957
562.729770	9776.733111
563.086307	9683.980921
563.442789	9746.513914
563.799216	9602.362120
564.155587	9634.693560
564.511904	9563.535153
564.868164	9532.159011
565.224370	9532.547180
565.580520	9422.052650
565.936615	9422.047608
566.292654	9271.899362
566.648638	9355.128812
567.004567	9291.822002
567.360441	9262.442157
567.716260	9156.131784
568.072023	9214.886432
568.427732	9135.813414
568.783385	9048.241010
569.138982	9063.062002
569.494525	9057.166373
569.850013	8923.180065
570.205445	8955.841701
570.560823	8852.167851
570.916145	8751.107840
571.271412	8775.819576
571.626625	8699.718318
571.981782	8660.858583
572.336884	8602.592927
572.691931	8592.833253
573.046923	8504.489553
573.401860	8444.308258
573.756743	8363.765743
574.111570	8363.465795
574.466342	8333.559149
574.821059	8320.467273
575.175722	8204.533337
575.530330	8180.131632
575.884882	8152.828743
576.239380	8049.921149
576.593823	8018.741612
576.948211	7993.067016
577.302544	7877.034778
577.656823	7845.855241
578.011047	7820.941859
578.365216	7761.173939
578.719330	7682.816764
579.073389	7646.102041
579.427394	7587.959893
579.781344	7537.102212
580.135239	7470.095195
580.489080	7449.844880
580.842866	7341.429826
581.196597	7309.181564
581.550273	7316.879406
581.903895	7256.995540
582.257463	7272.544979
582.610975	7144.504712
582.964434	7144.792058
583.317837	7057.217133
583.671186	7015.350351
584.024481	6980.233673
584.377721	6893.382154
584.730906	6848.304156
585.084037	6833.601631
585.437113	6772.447394
585.790135	6743.465800
586.143103	6652.518344
586.496016	6605.391117
586.848874	6605.416323
587.201679	6577.087559
587.554428	6464.367359
587.907124	6462.330733
588.259765	6419.780874
588.612352	6380.870728
588.964884	6286.424710
589.317362	6259.131903
589.669786	6225.119238
590.022155	6233.137194
590.374470	6205.068049
590.726731	6147.649307
591.078937	6025.721439
591.431090	6058.902314
591.783188	5964.259692
592.135232	5917.984420
592.487222	5907.645013
592.839157	5895.745370
593.191038	5833.257747
593.542866	5774.709786
593.894639	5692.949833
594.246358	5695.099885
594.598022	5670.645247
594.949633	5587.519141
595.301190	5545.740579
595.652692	5535.355802
596.004141	5550.852309
596.355535	5424.911683
596.706876	5381.829982
597.058162	5317.421680
597.409395	5330.551365
597.760573	5334.294422
598.111698	5264.867651
598.462768	5230.486982
598.813785	5192.264953
599.164748	5142.665041
599.515657	5120.831803
599.866511	5041.826840
600.217312	5080.729424
600.568060	4987.420187
600.918753	5009.273589
601.269392	4969.473680
601.619978	4902.345675
601.970510	4905.834153
602.320988	4886.859250
602.671412	4877.336511
603.021783	4828.759952
603.372100	4792.488850
603.722363	4764.321403
604.072572	4734.477772
604.422728	4719.470257
604.772830	4664.836753
605.122878	4637.402793
605.472872	4622.362511
605.822813	4604.121096
606.172701	4565.175662
606.522534	4560.358839
606.872314	4545.321077
607.222041	4502.395652
607.571714	4497.853573
607.921333	4461.184220
608.270899	4433.924180
608.620411	4447.772230
608.969870	4392.848859
609.319276	4369.878841
609.668627	4345.630891
610.017926	4341.325746
610.367171	4332.216381
610.716362	4301.929128
611.065500	4278.815438
611.414585	4261.869599
611.763616	4242.899738
612.112594	4210.076785
612.461518	4194.151780
612.810389	4194.550031
613.159207	4153.033608
613.507971	4120.896253
613.856682	4130.572747
614.205340	4101.389508
614.553945	4104.280610
614.902496	4059.714289
615.250994	4050.093247
615.599439	4027.917211
615.947830	4012.816435
616.296169	3988.538238
616.644454	3972.668686
616.992686	3951.228658
617.340864	3950.129687
617.688990	3905.379364
618.037063	3917.188267
618.385082	3885.560068
618.733048	3890.626427
619.080961	3858.743650
619.428821	3844.724201
619.776628	3825.890450
620.124382	3800.460350
620.472083	3774.054786
620.819731	3765.976337
621.167326	3720.918504
621.514868	3705.661452
621.862357	3664.170235
622.209793	3652.905777
622.557176	3620.712968
622.904506	3591.436467
623.251783	3561.862538
623.599007	3537.170967
623.946179	3517.860827
624.293297	3495.473063
624.640363	3467.376192
624.987376	3451.415898
625.334336	3427.369595
625.681243	3402.075605
626.028097	3390.879203
626.374899	3374.429918
626.721647	3354.295549
627.068343	3337.967252
627.414987	3316.723829
627.761577	3296.201292
628.108115	3292.985036
628.454600	3266.642487
628.801032	3257.923811
629.147412	3248.469127
629.493739	3231.883731
629.840014	3213.148282
630.186236	3211.431770
630.532405	3188.393697
630.878521	3184.759025
631.224585	3170.563135
631.570597	3152.389776
631.916556	3143.388796
632.262462	3139.640698
632.608316	3118.707306
632.954117	3107.858743
633.299866	3101.370778
633.645562	3088.238573
633.991206	3072.394226
634.336797	3052.317831
634.682336	3039.523382
635.027823	3022.615352
635.373257	3015.572860
635.718639	2997.948987
636.063968	2992.199551
636.409245	2973.469143
636.754470	2963.263328
637.099642	2955.744447
637.444762	2937.419852
637.789829	2934.208637
638.134845	2919.029723
638.479808	2910.668969
638.824719	2905.146385
639.169577	2896.833523
639.514383	2887.570403
639.859137	2873.578680
640.203839	2871.665562
640.548489	2863.592154
640.893086	2852.262161
641.237632	2844.460975
641.582125	2841.753876
641.926566	2831.905982
642.270955	2830.277689
642.615292	2827.923470
642.959576	2819.603046
643.303809	2818.206646
643.647990	2813.530976
643.992118	2808.058803
644.336195	2800.323153
644.680219	2794.016669
645.024192	2793.121865
645.368112	2794.616567
645.711981	2792.612708
646.055797	2795.675209
646.399562	2791.851494
646.743274	2795.551701
647.086935	2794.659417
647.430544	2795.092956
647.774101	2788.153807
648.117606	2787.432922
648.461059	2784.282201
648.804460	2777.456479
649.147810	2766.388626
649.491108	2760.515682
649.834354	2753.183323
650.177548	2743.499267
650.520690	2738.473236
650.863781	2731.859242
651.206820	2733.081722
651.549807	2724.577296
651.892742	2717.633106
652.235626	2715.563713
652.578458	2710.890563
652.921238	2703.419573
653.263967	2703.245653
653.606644	2698.138964
653.949269	2694.816844
654.291843	2691.149405
654.634365	2691.696370
654.976836	2687.353416
655.319255	2685.853673
655.661622	2682.168589
656.003938	2679.960564
656.346203	2677.734894
656.688416	2674.566529
657.030577	2671.254491
657.372687	2668.948163
657.714746	2664.242246
658.056753	2663.823830
658.398708	2656.138591
658.740612	2657.270330
659.082465	2656.831750
659.424266	2653.028199
659.766016	2650.195071
660.107715	2650.371511
660.449362	2654.109527
660.790958	2649.879999
661.132503	2648.206336
661.473996	2648.720533
661.815438	2649.133908
662.156829	2646.434370
662.498168	2639.999337
662.839456	2639.959008
663.180693	2640.324492
663.521879	2642.096457
663.863013	2638.698719
664.204097	2636.397433
664.545129	2636.548667
664.886110	2636.347021
665.227040	2633.972638
665.567918	2633.367699
665.908746	2634.849798
666.249522	2633.448358
666.590248	2632.344345
666.930922	2631.593213
667.271545	2630.965589
667.612118	2631.666310
667.952639	2626.398304
668.293109	2626.917543
668.633528	2624.457460
668.973896	2622.130967
669.314213	2621.687346
669.654480	2621.659619
669.994695	2618.602160
670.334859	2621.052160
670.674973	2617.856069
671.015035	2617.881275
671.355047	2614.801130
671.695008	2613.253495
672.034918	2613.629061
672.374777	2614.904473
672.714585	2613.581170
673.054342	2615.118722
673.394049	2614.095368
673.733705	2615.794237
674.073310	2611.862137
674.412864	2610.077568
674.752368	2606.435335
675.091820	2607.146137
675.431223	2606.707557
675.770574	2603.932402
676.109875	2599.516351
676.449125	2603.118256
676.788324	2601.202617
677.127473	2597.772112
677.466571	2597.716659
677.805619	2600.574993
678.144616	2599.478542
678.483562	2598.538367
678.822458	2594.238263
679.161303	2596.703387
679.500098	2593.943356
679.838842	2596.116093
680.177535	2593.648448
680.516179	2597.532657
680.854771	2595.354879
681.193314	2594.540732
681.531805	2597.394025
681.870247	2600.892586
682.208638	2601.056424
682.546978	2606.072372
682.885268	2599.554160
683.223508	2599.135744
683.561697	2595.208685
683.899836	2596.859663
684.237925	2596.317739
684.575963	2592.972933
684.913951	2592.778849
685.251889	2596.040476
685.589776	2593.948397
685.927614	2594.515527
686.265401	2592.645258
686.603137	2594.996957
686.940824	2595.722883
687.278460	2597.588110
687.616046	2595.377564
687.953582	2597.217585
688.291068	2594.449992
688.628504	2596.511823
688.965889	2597.930908
689.303224	2597.331011
689.640510	2591.906729
689.977745	2592.879672
690.314930	2590.182655
690.652065	2590.165011
690.989150	2588.824064
691.326185	2587.510843
691.663170	2586.167376
692.000105	2585.479258
692.336990	2583.215780
692.673825	2582.391552
693.010610	2582.787282
693.347345	2577.196642
693.684030	2572.886456
694.020665	2576.110274
694.357251	2571.837896
694.693786	2576.758062
695.030272	2575.916189
695.366707	2576.632033
695.703093	2577.075655
696.039429	2573.453586
696.375716	2576.248906
696.711952	2573.254460
697.048139	2575.028946
697.384276	2574.507187
697.720363	2572.899059
698.056400	2572.896538
698.392388	2573.289748
698.728326	2575.429718
699.064214	2573.095664
699.400053	2573.879563
699.735842	2571.285890
700.071581	2571.467371
700.407270	2570.131465
700.742910	2569.340004
701.078501	2570.819583
701.414042	2570.381002
701.749533	2567.071485
702.084974	2568.150292
702.420366	2567.895714
702.755709	2568.513255
703.091002	2565.639797
703.426246	2568.505693
703.761440	2566.280024
704.096584	2567.454613
704.431679	2566.474108
704.766725	2569.443348
705.101721	2567.341187
705.436668	2566.864798
705.771565	2566.539643
706.106413	2569.803790
706.441212	2563.998902
706.775961	2568.402350
707.110661	2568.770354
707.445311	2568.730025
707.779913	2565.470919
708.114465	2567.676423
708.448967	2567.880590
708.783421	2568.702298
709.117825	2571.235478
709.452180	2570.970817
709.786485	2569.632391
710.120742	2574.703792
710.454949	2570.348235
710.789107	2570.595252
711.123216	2570.544840
711.457275	2572.591548
711.791286	2570.902762
712.125247	2570.900241
712.459159	2573.511559
712.793023	2575.064234
713.126837	2572.677248
713.460602	2570.189439
713.794318	2572.699933
714.127985	2570.345714
714.461602	2568.765313
714.795171	2571.545509
715.128691	2569.216496
715.462162	2569.859243
715.795584	2568.167936
716.128957	2568.866136
716.462281	2565.039900
716.795556	2567.303378
717.128782	2564.311453
717.461960	2564.419838
717.795088	2562.572255
718.128167	2562.287430
718.461198	2562.589899
718.794180	2563.991340
719.127113	2563.648542
719.459997	2564.346741
719.792833	2562.945301
720.125619	2564.472770
720.458357	2561.226267
720.791046	2561.778273
721.123686	2561.586710
721.456278	2561.967317
721.788821	2560.792728
722.121315	2562.110990
722.453761	2559.277861
722.786158	2558.562017
723.118506	2558.869528
723.450805	2560.969168
723.783056	2558.506565
724.115259	2561.448078
724.447412	2558.549414
724.779518	2560.815413
725.111574	2561.231308
725.443582	2559.492110
725.775542	2559.600495
726.107453	2560.228119
726.439315	2561.929508
726.771129	2563.701474
727.102895	2564.039231
727.434612	2562.557132
727.766281	2564.656772
728.097901	2561.004456
728.429473	2560.676781
728.760996	2560.215516
729.092471	2558.383056
729.423897	2562.640311
729.755276	2561.367419
730.086606	2564.689540
730.417887	2566.446382
730.749120	2565.450754
731.080305	2562.211813
731.411442	2567.920919
731.742530	2566.723645
732.073570	2565.246587
732.404562	2563.739282
732.735506	2566.582493
733.066401	2567.726835
733.397249	2565.831361
733.728048	2565.722976
734.058798	2562.612584
734.389501	2562.181566
734.720156	2563.444375
735.050762	2560.525547
735.381320	2559.822306
735.711831	2557.422717
736.042293	2557.795762
736.372707	2556.706873
736.703073	2558.282233
737.033391	2560.495300
737.363661	2560.679302
737.693883	2557.664692
738.024056	2562.867163
738.354182	2558.004970
738.684260	2563.036041
739.014290	2558.962789
739.344272	2560.800290
739.674207	2558.811554
740.004093	2561.516133
740.333931	2563.225085
740.663722	2562.484035
740.993464	2561.402707
741.323159	2561.241391
741.652806	2561.964796
741.982405	2563.315825
742.311956	2558.496482
742.641460	2562.297512
742.970915	2560.641493
743.300323	2557.379867
743.629683	2559.716442
743.958996	2558.388097
744.288260	2558.171328
744.617477	2556.066646
744.946647	2552.429454
745.275768	2555.045812
745.604842	2553.296532
745.933869	2552.716799
746.262847	2554.224104
746.591778	2555.746533
746.920662	2555.602860
747.249498	2557.359702
747.578286	2555.401214
747.907027	2554.980277
748.235720	2556.482541
748.564365	2557.843653
748.892963	2554.488765
749.221514	2554.728220
749.550017	2556.437171
749.878473	2556.878272
750.206881	2554.818961
750.535242	2556.835422
750.863555	2554.645041
751.191821	2553.556152
751.520039	2553.515822
751.848210	2555.481872
752.176334	2556.152346
752.504411	2558.567058
752.832440	2554.919784
753.160421	2553.324258
753.488356	2554.372818
753.816243	2553.178065
754.144082	2553.276367
754.471875	2552.154711
754.799620	2554.455997
755.127318	2553.089845
755.454969	2551.746377
755.782572	2556.149825
756.110129	2555.897768
756.437638	2554.231666
756.765100	2554.932387
757.092515	2555.149156
757.419882	2556.328786
757.747203	2554.362736
758.074477	2554.851728
758.401703	2551.315359
758.728882	2555.433981
759.056014	2556.928683
759.383099	2555.572613
759.710138	2555.008004
760.037129	2559.441699
760.364073	2556.001111
760.690970	2554.216543
761.017820	2554.713096
761.344623	2558.594785
761.671379	2557.427758
761.998088	2553.644372
762.324751	2560.457491
762.651366	2563.446895
762.977935	2575.570870
763.304456	2579.074472
763.630931	2583.208218
763.957359	2580.160841
764.283740	2572.135324
764.610074	2568.422514
764.936362	2563.416648
765.262602	2560.805331
765.588796	2557.359702
765.914943	2557.329455
766.241044	2556.953889
766.567097	2553.034392
766.893104	2552.636141
767.219064	2554.758467
767.544978	2552.421892
767.870845	2552.880637
768.196665	2552.381563
768.522438	2547.413506
768.848165	2548.157076
769.173846	2548.943496
769.499479	2551.864844
769.825066	2550.591953
770.150607	2548.199926
770.476101	2547.471479
770.801548	2553.097407
771.126949	2548.149514
771.452303	2549.077086
771.777611	2549.508105
772.102872	2549.061963
772.428087	2545.916283
772.753256	2544.802188
773.078378	2546.122970
773.403453	2547.511808
773.728482	2548.131870
774.053465	2546.034750
774.378401	2547.917621
774.703291	2545.165151
775.028135	2548.482230
775.352932	2549.621531
775.677683	2545.815460
776.002388	2548.182282
776.327046	2546.790923
776.651658	2546.674977
776.976224	2546.664894
777.300743	2547.489123
777.625216	2544.368649
777.949643	2544.416540
778.274024	2547.809236
778.598359	2541.515356
778.922647	2540.721374
779.246889	2540.368493
779.571086	2540.156765
779.895236	2543.935109
780.219339	2546.443083
780.543397	2543.299924
780.867409	2547.353012
781.191374	2543.955274
781.515294	2545.049204
781.839167	2547.040460
782.162995	2546.823691
782.486776	2544.749256
782.810511	2544.421581
783.134201	2545.286139
783.457844	2545.301262
783.781441	2545.654143
784.104993	2546.785882
784.428498	2544.842517
784.751958	2546.773279
785.075372	2542.420243
785.398739	2544.474513
785.722061	2545.021478
786.045337	2545.828063
786.368568	2546.306972
786.691752	2546.596839
787.014891	2547.695810
787.337983	2545.102137
787.661030	2549.359391
787.984031	2548.762014
788.306987	2548.441901
788.629897	2550.975081
788.952760	2551.504402
789.275579	2548.928372
789.598351	2548.744370
789.921078	2546.647250
790.243759	2547.345450
790.566395	2544.726571
790.888984	2547.484082
791.211529	2548.320913
791.534027	2546.332178
791.856480	2543.836807
792.178888	2544.744215
792.501249	2546.105326
792.823566	2545.598690
793.145836	2545.036602
793.468062	2548.482230
793.790241	2542.226158
794.112375	2544.741694
794.434464	2545.560882
794.756507	2544.517363
795.078505	2543.894780
795.400457	2540.920499
795.722364	2544.222455
796.044226	2544.598021
796.366042	2545.190357
796.687812	2543.662887
797.009538	2546.617003
797.331218	2546.871582
797.652852	2545.076931
797.974442	2547.658002
798.295986	2544.046015
798.617484	2546.128011
798.938938	2544.136756
799.260346	2544.938299
799.581709	2545.999462
799.903026	2546.420398
800.224299	2544.618186
800.545526	2543.138607
800.866708	2545.167672
801.187845	2546.657332
801.508936	2545.765048
801.829983	2544.978628
802.150984	2542.475695
802.471940	2545.407126
802.792851	2542.039636
803.113717	2546.183464
803.434538	2542.354708
803.755314	2544.673638
804.076045	2542.160623
804.396731	2541.525438
804.717372	2545.351674
805.037967	2542.180788
805.358518	2543.667928
805.679024	2541.706919
805.999485	2543.098278
806.319901	2544.114070
806.640272	2545.029040
806.960598	2546.145655
807.280879	2540.905376
807.601115	2543.254554
807.921306	2545.215562
808.241453	2543.955274
808.561554	2543.035263
808.881611	2546.022147
809.201623	2542.422763
809.521590	2546.654812
809.841513	2545.485264
810.161390	2541.817825
810.481223	2543.189019
810.801011	2540.980993
811.120755	2542.707588
811.440453	2543.683052
811.760107	2544.101467
812.079716	2541.038967
812.399281	2541.180119
812.718801	2540.560057
813.038276	2535.423121
813.357707	2541.964018
813.677093	2541.230530
813.996434	2543.189019
814.315731	2540.663401
814.634983	2545.525593
814.954191	2543.466282
815.273354	2543.846889
815.592473	2544.494677
815.911547	2542.702547
816.230577	2544.678680
816.549562	2546.185985
816.868502	2545.860830
817.187399	2544.411498
817.506250	2544.318237
817.825058	2545.739842
818.143821	2545.402085
818.462539	2547.819318
818.781213	2546.826211
819.099843	2550.249155
819.418429	2550.115564
819.736970	2553.422561
820.055466	2555.557490
820.373919	2558.317521
820.692327	2566.441341
821.010691	2568.732545
821.329011	2589.262644
821.647286	2625.488376
821.965517	2667.360200
822.283704	2693.375074
822.601847	2696.722400
822.919945	2680.187416
823.237999	2657.585402
823.556010	2633.834006
823.873976	2616.063939
824.191897	2601.527772
824.509775	2587.772983
824.827609	2582.079000
825.145398	2579.742425
825.463144	2575.452403
825.780845	2575.699420
826.098502	2580.453228
826.416116	2591.750454
826.733685	2605.321240
827.051210	2606.896600
827.368692	2605.585900
827.686129	2589.739033
828.003522	2579.818043
828.320872	2567.426886
828.638177	2561.087635
828.955439	2559.083777
829.272656	2552.696635
829.589830	2551.859803
829.906960	2551.174206
830.224046	2548.825029
830.541088	2549.377035
830.858086	2546.196067
831.175041	2548.419216
831.491952	2547.244627
831.808819	2549.389638
832.125642	2546.783361
832.442421	2549.235883
832.759157	2555.378529
833.075849	2563.456978
833.392497	2570.323029
833.709101	2575.782599
834.025662	2578.204873
834.342179	2570.980900
834.658653	2565.342369
834.975083	2557.873900
835.291469	2561.740465
835.607811	2554.219063
835.924110	2549.513146
836.240366	2546.226314
836.556578	2544.671118
836.872746	2545.147507
837.188871	2545.228165
837.504952	2542.740356
837.820990	2542.689944
838.136984	2539.917310
838.452935	2542.984852
838.768842	2543.758669
839.084706	2539.307330
839.400526	2547.385779
839.716303	2550.092879
840.032037	2554.607232
840.347727	2554.372818
840.663373	2551.617828
840.978977	2550.216387
841.294537	2547.645399
841.610054	2542.339584
841.925527	2543.620037
842.240957	2540.958308
842.556344	2540.421425
842.871687	2539.382948
843.186987	2540.875129
843.502244	2536.612833
843.817458	2540.151723
844.132629	2536.179294
844.447756	2539.577032
844.762840	2534.009077
845.077881	2533.857843
845.392879	2535.768440
845.707833	2533.462112
846.022745	2535.271887
846.337613	2537.772299
846.652438	2533.832637
846.967221	2539.461085
847.281960	2534.883718
847.596656	2540.733977
847.911309	2536.718698
848.225919	2537.064017
848.540485	2537.598379
848.855009	2536.075951
849.169490	2538.914120
849.483928	2536.378420
849.798323	2535.319777
850.112675	2537.053934
850.426984	2535.128214
850.741251	2535.465971
851.055474	2538.571322
851.369654	2538.185673
851.683792	2536.650642
851.997887	2537.033770
852.311938	2535.128214
852.625947	2536.257432
852.939914	2537.774819
853.253837	2538.667104
853.567718	2538.440252
853.881555	2537.192566
854.195350	2536.910262
854.509103	2537.106867
854.822812	2536.431352
855.136479	2537.699202
855.450103	2536.517052
855.763685	2537.341280
856.077224	2536.869932
856.390720	2535.967566
856.704173	2533.870446
857.017584	2535.029911
857.330953	2536.693492
857.644278	2536.320447
857.957561	2538.362114
858.270802	2539.236754
858.584000	2537.762217
858.897155	2537.641229
859.210268	2539.453524
859.523339	2537.343801
859.836367	2536.965714
860.149352	2537.132072
860.462295	2540.181970
860.775195	2532.562266
861.088054	2532.446320
861.400869	2533.812473
861.713642	2531.980013
862.026373	2537.542926
862.339062	2538.296579
862.651708	2535.455889
862.964312	2537.487474
863.276873	2536.824562
863.589392	2536.872453
863.901869	2537.943698
864.214303	2536.970755
864.526696	2538.059645
864.839045	2538.120138
865.151353	2537.351362
865.463619	2538.357073
865.775842	2537.434542
866.088023	2539.652649
866.400162	2539.299768
866.712258	2538.422608
867.024313	2537.714326
867.336325	2539.269522
867.648296	2537.240457
867.960224	2536.902700
868.272110	2537.563091
868.583954	2539.887063
868.895755	2537.338760
869.207515	2539.211548
869.519233	2541.041487
869.830909	2537.742052
870.142542	2539.592155
870.454134	2540.852444
870.765684	2537.547967
871.077191	2539.677855
871.388657	2539.478729
871.700081	2538.962011
872.011463	2537.890766
872.322803	2538.634336
872.634101	2538.568801
872.945357	2539.831610
873.256571	2542.521066
873.567744	2542.647095
873.878874	2539.992927
874.189963	2540.560057
874.501010	2538.591486
874.812015	2539.894625
875.122979	2540.229861
875.433900	2539.002340
875.744780	2543.244471
876.055618	2539.082999
876.366415	2540.307999
876.677169	2540.711292
876.987882	2539.095602
877.298554	2536.736342
877.609183	2537.890766
877.919771	2538.659542
878.230317	2540.638195
878.540822	2544.776982
878.851285	2544.716488
879.161707	2546.284287
879.472087	2550.733105
879.782425	2553.596481
880.092722	2562.720969
880.402977	2570.444017
880.713191	2592.922522
881.023363	2613.732405
881.333494	2630.784108
881.643583	2632.185549
881.953631	2627.940897
882.263637	2626.539456
882.573602	2618.377828
882.883526	2605.170005
883.193408	2596.889910
883.503248	2585.610328
883.813048	2580.569174
884.122806	2575.160016
884.432522	2566.247256
884.742197	2561.770712
885.051831	2558.481359
885.361424	2551.806871
885.670975	2555.560010
885.980485	2548.706562
886.289954	2551.466593
886.599382	2547.237065
886.908768	2547.252189
887.218113	2545.797816
887.527417	2544.441745
887.836680	2542.505942
888.145901	2545.724719
888.455082	2541.313709
888.764221	2543.476364
889.073319	2542.742877
889.382376	2543.801519
889.691392	2542.586601
890.000366	2542.891591
890.309300	2542.808412
890.618193	2542.400078
890.927044	2542.019471
891.235855	2544.219935
891.544625	2540.534851
891.853353	2542.952084
892.162041	2542.392516
892.470687	2546.352343
892.779293	2543.620037
893.087858	2542.649615
893.396381	2546.508618
893.704864	2550.120605
894.013306	2554.980277
894.321707	2566.438820
894.630068	2569.841599
894.938387	2572.725139
895.246665	2573.808987
895.554903	2566.983265
895.863100	2561.921946
896.171256	2557.611760
896.479371	2555.590257
896.787446	2555.665874
897.095480	2548.751932
897.403473	2547.194215
897.711425	2546.700182
898.019336	2547.597508
898.327207	2544.134235
898.635038	2545.586087
898.942827	2543.864533
899.250576	2544.829914
899.558284	2542.009389
899.865952	2541.452341
900.173579	2541.336395
900.481165	2544.761859
900.788711	2539.420756
901.096216	2541.469985
901.403681	2538.503266
901.711105	2542.193391
902.018489	2543.252033
902.325832	2543.428473
902.633135	2539.032587
902.940397	2542.067362
903.247619	2548.131870
903.554800	2551.292673
903.861941	2563.146947
904.169041	2575.568350
904.476101	2586.613518
904.783121	2581.922724
905.090100	2579.271077
905.397039	2572.515931
905.703938	2561.402707
906.010796	2558.728375
906.317614	2552.545400
906.624391	2548.557847
906.931129	2548.152035
907.237826	2542.142979
907.544483	2540.635674
907.851099	2542.831097
908.157675	2537.643749
908.464211	2538.084850
908.770707	2532.804242
909.077163	2538.735159
909.383578	2532.988244
909.689954	2534.349355
909.996289	2534.535878
910.302584	2537.978986
910.608839	2537.643749
910.915054	2538.042001
911.221229	2537.220292
911.527363	2539.272042
911.833458	2536.454037
912.139513	2538.672145
912.445527	2535.682741
912.751502	2539.093081
913.057436	2535.410518
913.363331	2542.127856
913.669186	2541.553164
913.975000	2540.174409
914.280775	2542.054759
914.586510	2548.310831
914.892205	2548.451983
915.197859	2558.476318
915.503475	2560.230639
915.809050	2573.556929
916.114585	2577.839390
916.420081	2580.130594
916.725536	2579.397106
917.030952	2576.407702
917.336328	2566.857236
917.641665	2562.431103
917.946961	2560.964127
918.252218	2554.574465
918.557435	2554.090514
918.862612	2550.299566
919.167750	2547.138763
919.472848	2546.682538
919.777906	2544.552651
920.082925	2543.884698
920.387904	2543.801519
920.692843	2542.571477
920.997743	2540.774306
921.302603	2541.807743
921.607423	2542.611807
921.912204	2539.559388
922.216946	2538.359593
922.521647	2538.543595
922.826310	2536.829603
923.130932	2540.663401
923.435516	2535.995292
923.740059	2534.903882
924.044564	2535.634850
924.349028	2536.902700
924.653454	2532.461443
924.957840	2535.592000
925.262186	2529.038500
925.566493	2535.909592
925.870761	2528.854498
926.174989	2534.402287
926.479178	2531.672503
926.783328	2534.805580
927.087438	2533.076464
927.391509	2533.129396
927.695541	2532.963038
927.999533	2535.042514
928.303486	2532.383305
928.607400	2532.887421
928.911275	2533.446989
929.215110	2532.993285
929.518906	2532.990764
929.822663	2536.244829
930.126381	2529.870290
930.430060	2533.825075
930.733699	2533.525127
931.037299	2534.430014
931.340861	2532.915147
931.644383	2533.625950
931.947866	2531.002029
932.251309	2532.373223
932.554714	2530.621422
932.858080	2535.579397
933.161407	2534.563604
933.464694	2533.424304
933.767943	2531.964890
934.071153	2532.857174
934.374323	2533.227699
934.677455	2534.908923
934.980548	2529.524971
935.283602	2530.482790
935.586617	2532.804242
935.889593	2534.107380
936.192530	2533.570497
936.495428	2531.793490
936.798287	2531.785929
937.101108	2533.525127
937.403890	2533.273069
937.706632	2536.116280
938.009336	2533.081505
938.312002	2537.152237
938.614628	2535.135775
938.917216	2538.480581
939.219765	2536.033101
939.522275	2538.301620
939.824747	2534.795498
940.127179	2532.771474
940.429573	2531.082688
940.731929	2533.378933
941.034246	2530.906247
941.336524	2534.475384
941.638763	2533.230219
941.940964	2532.789118
942.243126	2534.366999
942.545250	2534.248532
942.847335	2532.562266
943.149381	2534.316588
943.451389	2533.787267
943.753359	2531.672503
944.055290	2532.647966
944.357182	2534.077133
944.659036	2532.892462
944.960851	2532.431196
945.262628	2532.693336
945.564367	2535.549150
945.866067	2533.386495
946.167729	2532.736186
946.469352	2532.963038
946.770937	2531.203675
947.072484	2532.383305
947.373992	2534.051927
947.675462	2532.957997
947.976893	2534.379602
948.278286	2532.158974
948.579641	2532.506814
948.880958	2532.017822
949.182236	2532.842050
949.483476	2531.914478
949.784678	2534.838347
950.085841	2530.898686
950.386967	2537.563091
950.688054	2530.487832
950.989103	2533.126876
951.290114	2530.825589
951.591087	2533.068902
951.892021	2533.010929
952.192917	2534.999664
952.493776	2533.192411
952.794596	2530.974303
953.095378	2529.807276
953.396122	2532.988244
953.696828	2534.636701
953.997496	2533.557894
954.298126	2531.042358
954.598718	2535.281969
954.899272	2533.061341
955.199788	2531.281813
955.500266	2532.889941
955.800706	2529.870290
956.101108	2528.917512
956.401472	2530.167718
956.701798	2526.412059
957.002087	2530.288706
957.302337	2530.548325
957.602550	2531.919519
957.902724	2531.664941
958.202861	2529.156967
958.502960	2530.069416
958.803022	2532.191742
959.103045	2529.169570
959.403031	2530.346679
959.702979	2527.422810
960.002889	2528.846936
960.302762	2528.080681
960.602596	2530.356762
960.902393	2531.753161
961.202153	2530.911288
961.501875	2530.928933
961.801559	2530.576052
962.101205	2528.267203
962.400814	2528.310053
962.700385	2529.237625
962.999918	2529.509848
963.299414	2528.032790
963.598873	2529.711494
963.898293	2528.211751
964.197677	2529.865249
964.497022	2527.609333
964.796331	2529.479601
965.095601	2526.359127
965.394835	2529.915661
965.694030	2531.312060
965.993189	2530.422297
966.292309	2526.374250
966.591393	2531.475898
966.890439	2525.489528
967.189447	2528.466329
967.488419	2529.406504
967.787353	2529.668644
968.086249	2528.131092
968.385108	2531.433048
968.683930	2525.272758
968.982714	2530.102183
969.281462	2529.804755
969.580172	2528.912471
969.878844	2529.409025
970.177480	2528.592358
970.476078	2531.115455
970.774639	2527.858870
971.073162	2526.424662
971.371649	2528.297450
971.670098	2526.200330
971.968510	2526.896009
972.266885	2522.646317
972.565223	2529.862728
972.863524	2528.121010
973.161788	2528.206709
973.460014	2528.917512
973.758204	2531.233922
974.056356	2529.386339
974.354471	2528.748633
974.652550	2529.446833
974.950591	2531.364992
975.248595	2526.832995
975.546563	2527.942049
975.844493	2526.575896
976.142386	2529.217461
976.440243	2527.919364
976.738062	2528.282327
977.035845	2528.920033
977.333590	2527.742923
977.631299	2528.456247
977.928971	2527.382481
978.226606	2528.960362
978.524204	2529.043541
978.821765	2527.432892
979.119290	2528.766277
979.416777	2527.024559
979.714228	2528.728469
980.011642	2527.284178
980.309020	2530.354241
980.606360	2527.992460
980.903664	2527.939528
981.200931	2526.830474
981.498162	2530.278624
981.795356	2530.981865
982.092513	2531.811134
982.389633	2531.380116
982.686717	2530.326515
982.983764	2530.470188
983.280775	2533.409180
983.577749	2529.837523
983.874686	2528.945238
984.171587	2528.438602
984.468451	2529.671165
984.765279	2532.032945
985.062070	2526.659075
985.358824	2528.854498
985.655543	2529.845084
985.952224	2529.073788
986.248869	2528.330218
986.545478	2522.764784
986.842050	2523.261338
987.138586	2522.638755
987.435086	2524.907274
987.731549	2521.978364
988.027975	2529.149405
988.324366	2527.410207
988.620719	2528.506658
988.917037	2526.563293
989.213318	2527.770650
989.509563	2528.985568
989.805772	2526.064219
990.101944	2526.994312
990.398080	2525.665968
990.694180	2526.041534
990.990244	2527.584127
991.286271	2527.213602
991.582262	2525.991122
991.878217	2527.422810
992.174136	2529.620753
992.470019	2525.663447
992.765865	2526.086904
993.061676	2529.870290
993.357450	2527.856349
993.653188	2526.031452
993.948890	2527.916843
994.244556	2527.652182
994.540186	2528.201668
994.835780	2525.539939
995.131337	2527.155629
995.426859	2528.657893
995.722345	2527.576565
996.017795	2527.810979
996.313208	2528.219312
996.608586	2527.533715
996.903928	2530.071936
997.199234	2525.671009
997.494504	2527.654703
997.789738	2525.915505
998.084936	2529.519930
998.380099	2525.305525
998.675225	2528.035310
998.970316	2528.123530
999.265371	2528.184024
999.560390	2526.971627
999.855373	2527.069929
1000.150320	2527.090094
1000.445232	2525.691174
1000.740108	2526.664116
1001.034948	2526.497758
1001.329752	2528.468849
1001.624521	2525.550021
1001.919254	2522.036337
1002.213951	2524.579599
1002.508613	2522.038858
1002.803239	2525.295443
1003.097829	2523.382325
1003.392384	2526.880886
1003.686903	2527.707635
1003.981386	2526.061698
1004.275834	2526.401976
1004.570246	2527.495907
1004.864623	2527.634538
1005.158964	2525.756709
1005.453270	2526.293592
1005.747540	2526.969106
1006.041775	2525.587830
1006.335974	2529.409025
1006.630138	2524.030113
1006.924266	2524.438447
1007.218359	2527.606812
1007.512416	2526.220495
1007.806438	2527.271575
1008.100425	2527.412728
1008.394376	2526.243180
1008.688292	2527.400125
1008.982172	2525.580268
1009.276017	2529.199817
1009.569827	2526.175124
1009.863602	2528.645290
1010.157341	2525.499610
1010.451045	2525.091276
1010.744714	2524.730834
1011.038347	2530.134951
1011.331945	2528.602440
1011.625508	2527.891637
1011.919036	2523.770494
1012.212528	2526.475073
1012.505986	2526.578417
1012.799408	2526.359127
1013.092795	2526.878365
1013.386147	2525.527336
1013.679464	2525.746626
1013.972745	2527.551359
1014.265992	2526.843077
1014.559204	2529.512368
1014.852380	2523.382325
1015.145521	2528.514220
1015.438628	2528.221833
1015.731699	2526.754857
1016.024736	2525.018180
1016.317737	2527.019518
1016.610703	2526.233098
1016.903635	2523.077335
1017.196531	2521.386028
1017.489393	2523.311749
1017.782219	2522.419465
1018.075011	2525.512213
1018.367768	2523.790659
1018.660490	2527.710156
1018.953177	2527.710156
1019.245829	2527.710156
