Dividing Wavelength (nm)	Counts (n)	Blue Motor Position (mm): 0.000000	Red Motor Position (mm): 2.300000	
326.493990	2124.846346
326.888308	2124.846346
327.282561	2124.846346
327.676750	2092.078846
328.070874	2046.708462
328.464933	2074.434808
328.858929	2172.737308
329.252859	2094.599423
329.646726	2119.805192
330.040528	2157.613846
330.434265	2089.558269
330.827938	2094.599423
331.221547	2074.434808
331.615091	2152.572692
332.008571	2238.272308
332.401986	2253.395769
332.795338	2170.216731
333.188625	2190.381346
333.581847	2235.751731
333.975006	2374.383462
334.368100	2331.533654
334.761129	2298.766154
335.154095	2303.807308
335.546996	2296.245577
335.939833	2381.945192
336.332606	2404.630385
336.725315	2384.465769
337.117960	2336.574808
337.510540	2457.562500
337.903056	2450.000769
338.295508	2442.439038
338.687896	2392.027500
339.080220	2482.768269
339.472480	2462.603654
339.864676	2470.165385
340.256807	2419.753846
340.648875	2510.494615
341.040879	2495.371154
341.432818	2500.412308
341.824694	2424.795000
342.216506	2455.041923
342.608253	2500.412308
342.999937	2548.303269
343.391557	2520.576923
343.783113	2477.727115
344.174605	2492.850577
344.566033	2505.453462
344.957397	2608.797115
345.348697	2475.206538
345.739934	2533.179808
346.131106	2434.877308
346.522215	2472.685962
346.913260	2513.015192
347.304241	2462.603654
347.695159	2444.959615
348.086012	2437.397885
348.476802	2465.124231
348.867528	2455.041923
349.258191	2515.535769
349.648789	2442.439038
350.039324	2558.385577
350.429796	2472.685962
350.820203	2447.480192
351.210548	2477.727115
351.600828	2364.301154
351.991045	2412.192115
352.381198	2480.247692
352.771288	2452.521346
353.161314	2442.439038
353.551276	2386.986346
353.941175	2419.753846
354.331010	2399.589231
354.720782	2424.795000
355.110490	2460.083077
355.500135	2437.397885
355.889717	2409.671538
356.279235	2500.412308
356.668689	2392.027500
357.058080	2450.000769
357.447408	2397.068654
357.836672	2414.712692
358.225873	2439.918462
358.615010	2414.712692
359.004084	2389.506923
359.393095	2482.768269
359.782043	2407.150962
360.170927	2419.753846
360.559748	2442.439038
360.948505	2490.330000
361.337199	2490.330000
361.725830	2477.727115
362.114398	2450.000769
362.502903	2475.206538
362.891344	2444.959615
363.279722	2424.795000
363.668037	2477.727115
364.056289	2460.083077
364.444478	2492.850577
364.832603	2457.562500
365.220665	2523.097500
365.608665	2417.233269
365.996601	2409.671538
366.384474	2510.494615
366.772284	2427.315577
367.160031	2374.383462
367.547715	2492.850577
367.935336	2404.630385
368.322893	2495.371154
368.710388	2457.562500
369.097820	2457.562500
369.485189	2520.576923
369.872495	2497.891731
370.259738	2432.356731
370.646918	2407.150962
371.034035	2361.780577
371.421090	2444.959615
371.808081	2472.685962
372.195010	2465.124231
372.581875	2442.439038
372.968678	2460.083077
373.355418	2487.809423
373.742096	2495.371154
374.128710	2482.768269
374.515262	2490.330000
374.901751	2434.877308
375.288177	2386.986346
375.674540	2583.591346
376.060841	2475.206538
376.447079	2434.877308
376.833254	2397.068654
377.219367	2482.768269
377.605417	2424.795000
377.991404	2472.685962
378.377329	2447.480192
378.763191	2402.109808
379.148991	2490.330000
379.534727	2442.439038
379.920402	2550.823846
380.306013	2492.850577
380.691563	2399.589231
381.077049	2490.330000
381.462474	2485.288846
381.847835	2475.206538
382.233134	2550.823846
382.618371	2455.041923
383.003545	2480.247692
383.388657	2507.974038
383.773706	2402.109808
384.158693	2505.453462
384.543618	2507.974038
384.928480	2545.782692
385.313280	2432.356731
385.698017	2429.836154
386.082692	2427.315577
386.467305	2543.262115
386.851856	2593.673654
387.236344	2429.836154
387.620770	2545.782692
388.005133	2523.097500
388.389435	2515.535769
388.773674	2565.947308
389.157851	2404.630385
389.541965	2507.974038
389.926018	2439.918462
390.310008	2523.097500
390.693936	2417.233269
391.077802	2457.562500
391.461606	2462.603654
391.845348	2510.494615
392.229027	2480.247692
392.612645	2492.850577
392.996200	2427.315577
393.379694	2520.576923
393.763125	2409.671538
394.146494	2450.000769
394.529801	2515.535769
394.913047	2518.056346
395.296230	2485.288846
395.679351	2460.083077
396.062410	2439.918462
396.445408	2487.809423
396.828343	2523.097500
397.211217	2497.891731
397.594028	2379.424615
397.976778	2485.288846
398.359466	2492.850577
398.742092	2480.247692
399.124656	2507.974038
399.507158	2500.412308
399.889598	2427.315577
400.271977	2530.659231
400.654294	2470.165385
401.036549	2487.809423
401.418742	2550.823846
401.800874	2417.233269
402.182944	2424.795000
402.564952	2470.165385
402.946898	2452.521346
403.328783	2450.000769
403.710606	2523.097500
404.092367	2462.603654
404.474067	2439.918462
404.855705	2505.453462
405.237282	2414.712692
405.618797	2601.235385
406.000250	2409.671538
406.381642	2470.165385
406.762972	2462.603654
407.144240	2558.385577
407.525447	2495.371154
407.906593	2505.453462
408.287677	2419.753846
408.668700	2490.330000
409.049661	2497.891731
409.430560	2507.974038
409.811399	2366.821731
410.192176	2530.659231
410.572891	2444.959615
410.953545	2528.138654
411.334138	2432.356731
411.714669	2422.274423
412.095139	2525.618077
412.475547	2568.467885
412.855894	2528.138654
413.236180	2429.836154
413.616405	2510.494615
413.996568	2457.562500
414.376670	2452.521346
414.756711	2442.439038
415.136691	2404.630385
415.516609	2490.330000
415.896466	2432.356731
416.276262	2550.823846
416.655997	2480.247692
417.035670	2502.932885
417.415283	2444.959615
417.794834	2450.000769
418.174324	2500.412308
418.553753	2470.165385
418.933121	2505.453462
419.312428	2407.150962
419.691674	2535.700385
420.070859	2409.671538
420.449983	2555.865000
420.829045	2513.015192
421.208047	2422.274423
421.586988	2502.932885
421.965867	2439.918462
422.344686	2447.480192
422.723444	2475.206538
423.102141	2444.959615
423.480777	2465.124231
423.859352	2545.782692
424.237866	2518.056346
424.616319	2513.015192
424.994712	2477.727115
425.373044	2437.397885
425.751314	2482.768269
426.129524	2548.303269
426.507673	2455.041923
426.885762	2513.015192
427.263789	2533.179808
427.641756	2429.836154
428.019662	2492.850577
428.397508	2513.015192
428.775292	2545.782692
429.153016	2490.330000
429.530679	2384.465769
429.908282	2480.247692
430.285824	2354.218846
430.663305	2523.097500
431.040726	2460.083077
431.418086	2472.685962
431.795385	2455.041923
432.172624	2467.644808
432.549802	2465.124231
432.926920	2480.247692
433.303977	2465.124231
433.680974	2487.809423
434.057910	2507.974038
434.434786	2518.056346
434.811601	2505.453462
435.188355	2407.150962
435.565050	2462.603654
435.941683	2392.027500
436.318257	2568.467885
436.694770	2467.644808
437.071222	2563.426731
437.447614	2384.465769
437.823946	2480.247692
438.200218	2513.015192
438.576429	2462.603654
438.952580	2530.659231
439.328670	2538.220962
439.704700	2450.000769
440.080670	2560.906154
440.456580	2470.165385
440.832429	2490.330000
441.208218	2482.768269
441.583947	2495.371154
441.959616	2465.124231
442.335224	2429.836154
442.710773	2465.124231
443.086261	2495.371154
443.461689	2427.315577
443.837057	2513.015192
444.212365	2500.412308
444.587612	2386.986346
444.962800	2432.356731
445.337927	2467.644808
445.712995	2515.535769
446.088002	2490.330000
446.462949	2507.974038
446.837837	2520.576923
447.212664	2457.562500
447.587431	2502.932885
447.962139	2465.124231
448.336786	2497.891731
448.711374	2480.247692
449.085901	2447.480192
449.460369	2414.712692
449.834776	2432.356731
450.209124	2462.603654
450.583412	2555.865000
450.957640	2437.397885
451.331808	2558.385577
451.705917	2550.823846
452.079965	2490.330000
452.453954	2523.097500
452.827883	2578.550192
453.201752	2477.727115
453.575562	2530.659231
453.949311	2505.453462
454.323001	2465.124231
454.696632	2457.562500
455.070202	2492.850577
455.443713	2450.000769
455.817164	2402.109808
456.190556	2392.027500
456.563888	2487.809423
456.937160	2515.535769
457.310373	2495.371154
457.683526	2455.041923
458.056619	2505.453462
458.429653	2533.179808
458.802628	2538.220962
459.175542	2462.603654
459.548398	2482.768269
459.921194	2513.015192
460.293930	2530.659231
460.666607	2442.439038
461.039224	2530.659231
461.411782	2500.412308
461.784280	2535.700385
462.156719	2505.453462
462.529099	2505.453462
462.901419	2591.153077
463.273680	2550.823846
463.645882	2422.274423
464.018024	2533.179808
464.390106	2437.397885
464.762130	2480.247692
465.134094	2490.330000
465.505999	2470.165385
465.877845	2565.947308
466.249631	2518.056346
466.621358	2540.741538
466.993026	2455.041923
467.364634	2520.576923
467.736184	2497.891731
468.107674	2573.509038
468.479105	2465.124231
468.850477	2457.562500
469.221790	2525.618077
469.593043	2548.303269
469.964238	2490.330000
470.335373	2482.768269
470.706449	2523.097500
471.077467	2543.262115
471.448425	2573.509038
471.819324	2460.083077
472.190164	2515.535769
472.560945	2540.741538
472.931667	2455.041923
473.302330	2404.630385
473.672934	2470.165385
474.043479	2553.344423
474.413965	2520.576923
474.784393	2568.467885
475.154761	2548.303269
475.525070	2450.000769
475.895321	2530.659231
476.265513	2419.753846
476.635645	2513.015192
477.005719	2497.891731
477.375734	2439.918462
477.745691	2455.041923
478.115588	2581.070769
478.485427	2480.247692
478.855207	2462.603654
479.224928	2465.124231
479.594591	2487.809423
479.964194	2515.535769
480.333739	2490.330000
480.703226	2515.535769
481.072653	2543.262115
481.442022	2528.138654
481.811333	2447.480192
482.180584	2520.576923
482.549777	2462.603654
482.918912	2460.083077
483.287988	2482.768269
483.657005	2487.809423
484.025964	2530.659231
484.394864	2490.330000
484.763706	2535.700385
485.132489	2490.330000
485.501213	2507.974038
485.869879	2510.494615
486.238487	2550.823846
486.607036	2507.974038
486.975527	2439.918462
487.343959	2442.439038
487.712333	2450.000769
488.080648	2419.753846
488.448905	2502.932885
488.817104	2475.206538
489.185244	2429.836154
489.553326	2409.671538
489.921350	2515.535769
490.289315	2444.959615
490.657222	2513.015192
491.025070	2570.988462
491.392861	2495.371154
491.760593	2432.356731
492.128267	2467.644808
492.495883	2505.453462
492.863440	2555.865000
493.230939	2417.233269
493.598380	2550.823846
493.965763	2543.262115
494.333088	2497.891731
494.700354	2447.480192
495.067563	2487.809423
495.434713	2555.865000
495.801805	2570.988462
496.168839	2568.467885
496.535815	2487.809423
496.902733	2422.274423
497.269593	2558.385577
497.636395	2475.206538
498.003139	2437.397885
498.369825	2462.603654
498.736453	2475.206538
499.103023	2533.179808
499.469535	2467.644808
499.835989	2538.220962
500.202385	2490.330000
500.568723	2457.562500
500.935003	2419.753846
501.301226	2507.974038
501.667390	2472.685962
502.033497	2500.412308
502.399546	2457.562500
502.765537	2520.576923
503.131470	2472.685962
503.497345	2495.371154
503.863163	2439.918462
504.228923	2548.303269
504.594625	2535.700385
504.960269	2515.535769
505.325856	2487.809423
505.691385	2576.029615
506.056856	2492.850577
506.422270	2533.179808
506.787625	2467.644808
507.152924	2563.426731
507.518164	2452.521346
507.883347	2545.782692
508.248472	2565.947308
508.613540	2477.727115
508.978550	2520.576923
509.343503	2530.659231
509.708398	2472.685962
510.073236	2507.974038
510.438016	2477.727115
510.802738	2555.865000
511.167403	2495.371154
511.532010	2555.865000
511.896561	2477.727115
512.261053	2482.768269
512.625488	2457.562500
512.989866	2523.097500
513.354186	2467.644808
513.718449	2427.315577
514.082655	2389.506923
514.446803	2482.768269
514.810894	2475.206538
515.174927	2528.138654
515.538904	2497.891731
515.902822	2424.795000
516.266684	2520.576923
516.630488	2452.521346
516.994235	2412.192115
517.357925	2533.179808
517.721558	2432.356731
518.085133	2490.330000
518.448651	2500.412308
518.812112	2470.165385
519.175516	2475.206538
519.538863	2535.700385
519.902152	2485.288846
520.265385	2530.659231
520.628560	2455.041923
520.991678	2553.344423
521.354739	2563.426731
521.717743	2528.138654
522.080690	2505.453462
522.443580	2472.685962
522.806413	2515.535769
523.169189	2450.000769
523.531908	2513.015192
523.894569	2497.891731
524.257174	2500.412308
524.619722	2502.932885
524.982213	2500.412308
525.344647	2525.618077
525.707025	2538.220962
526.069345	2515.535769
526.431608	2555.865000
526.793815	2444.959615
527.155964	2523.097500
527.518057	2573.509038
527.880093	2513.015192
528.242072	2482.768269
528.603995	2538.220962
528.965860	2520.576923
529.327669	2505.453462
529.689421	2434.877308
530.051117	2520.576923
530.412755	2548.303269
530.774337	2515.535769
531.135862	2513.015192
531.497331	2467.644808
531.858743	2565.947308
532.220098	2497.891731
532.581396	2548.303269
532.942638	2560.906154
533.303824	2452.521346
533.664953	2583.591346
534.026025	2402.109808
534.387040	2528.138654
534.747999	2505.453462
535.108902	2581.070769
535.469748	2470.165385
535.830537	2460.083077
536.191270	2497.891731
536.551947	2502.932885
536.912567	2485.288846
537.273131	2490.330000
537.633638	2555.865000
537.994089	2437.397885
538.354483	2545.782692
538.714821	2528.138654
539.075103	2475.206538
539.435328	2417.233269
539.795497	2528.138654
540.155609	2573.509038
540.515665	2548.303269
540.875665	2573.509038
541.235609	2533.179808
541.595496	2613.838269
541.955328	2525.618077
542.315102	2452.521346
542.674821	2540.741538
543.034483	2525.618077
543.394090	2510.494615
543.753640	2523.097500
544.113134	2490.330000
544.472571	2455.041923
544.831953	2462.603654
545.191278	2500.412308
545.550548	2530.659231
545.909761	2485.288846
546.268918	2442.439038
546.628019	2545.782692
546.987064	2455.041923
547.346053	2455.041923
547.704986	2437.397885
548.063863	2540.741538
548.422684	2457.562500
548.781449	2513.015192
549.140158	2457.562500
549.498811	2523.097500
549.857408	2550.823846
550.215949	2558.385577
550.574434	2455.041923
550.932864	2558.385577
551.291237	2424.795000
551.649555	2444.959615
552.007817	2502.932885
552.366022	2432.356731
552.724173	2568.467885
553.082267	2487.809423
553.440305	2523.097500
553.798288	2500.412308
554.156215	2565.947308
554.514086	2492.850577
554.871902	2437.397885
555.229661	2540.741538
555.587365	2606.276538
555.945014	2452.521346
556.302606	2505.453462
556.660143	2462.603654
557.017625	2510.494615
557.375050	2482.768269
557.732421	2485.288846
558.089735	2497.891731
558.446994	2419.753846
558.804197	2419.753846
559.161345	2495.371154
559.518437	2447.480192
559.875474	2523.097500
560.232455	2439.918462
560.589381	2545.782692
560.946251	2523.097500
561.303065	2457.562500
561.659825	2560.906154
562.016528	2515.535769
562.373177	2548.303269
562.729770	2399.589231
563.086307	2452.521346
563.442789	2540.741538
563.799216	2523.097500
564.155587	2523.097500
564.511904	2429.836154
564.868164	2475.206538
565.224370	2510.494615
565.580520	2570.988462
565.936615	2419.753846
566.292654	2535.700385
566.648638	2502.932885
567.004567	2505.453462
567.360441	2480.247692
567.716260	2505.453462
568.072023	2593.673654
568.427732	2586.111923
568.783385	2538.220962
569.138982	2439.918462
569.494525	2482.768269
569.850013	2470.165385
570.205445	2447.480192
570.560823	2497.891731
570.916145	2470.165385
571.271412	2450.000769
571.626625	2555.865000
571.981782	2528.138654
572.336884	2447.480192
572.691931	2530.659231
573.046923	2455.041923
573.401860	2548.303269
573.756743	2553.344423
574.111570	2472.685962
574.466342	2444.959615
574.821059	2482.768269
575.175722	2533.179808
575.530330	2581.070769
575.884882	2439.918462
576.239380	2513.015192
576.593823	2515.535769
576.948211	2475.206538
577.302544	2570.988462
577.656823	2480.247692
578.011047	2480.247692
578.365216	2502.932885
578.719330	2518.056346
579.073389	2550.823846
579.427394	2515.535769
579.781344	2540.741538
580.135239	2480.247692
580.489080	2502.932885
580.842866	2505.453462
581.196597	2548.303269
581.550273	2475.206538
581.903895	2500.412308
582.257463	2515.535769
582.610975	2386.986346
582.964434	2497.891731
583.317837	2492.850577
583.671186	2576.029615
584.024481	2548.303269
584.377721	2482.768269
584.730906	2593.673654
585.084037	2455.041923
585.437113	2543.262115
585.790135	2573.509038
586.143103	2545.782692
586.496016	2520.576923
586.848874	2487.809423
587.201679	2540.741538
587.554428	2510.494615
587.907124	2538.220962
588.259765	2470.165385
588.612352	2513.015192
588.964884	2480.247692
589.317362	2480.247692
589.669786	2392.027500
590.022155	2505.453462
590.374470	2606.276538
590.726731	2570.988462
591.078937	2470.165385
591.431090	2394.548077
591.783188	2507.974038
592.135232	2548.303269
592.487222	2510.494615
592.839157	2525.618077
593.191038	2507.974038
593.542866	2558.385577
593.894639	2507.974038
594.246358	2515.535769
594.598022	2472.685962
594.949633	2502.932885
595.301190	2477.727115
595.652692	2528.138654
596.004141	2528.138654
596.355535	2495.371154
596.706876	2429.836154
597.058162	2548.303269
597.409395	2548.303269
597.760573	2472.685962
598.111698	2553.344423
598.462768	2465.124231
598.813785	2563.426731
599.164748	2447.480192
599.515657	2450.000769
599.866511	2450.000769
600.217312	2502.932885
600.568060	2515.535769
600.918753	2538.220962
601.269392	2429.836154
601.619978	2565.947308
601.970510	2545.782692
602.320988	2533.179808
602.671412	2472.685962
603.021783	2475.206538
603.372100	2452.521346
603.722363	2543.262115
604.072572	2444.959615
604.422728	2490.330000
604.772830	2457.562500
605.122878	2565.947308
605.472872	2505.453462
605.822813	2462.603654
606.172701	2505.453462
606.522534	2497.891731
606.872314	2432.356731
607.222041	2482.768269
607.571714	2455.041923
607.921333	2623.920577
608.270899	2462.603654
608.620411	2510.494615
608.969870	2515.535769
609.319276	2548.303269
609.668627	2525.618077
610.017926	2525.618077
610.367171	2460.083077
610.716362	2528.138654
611.065500	2507.974038
611.414585	2447.480192
611.763616	2528.138654
612.112594	2565.947308
612.461518	2533.179808
612.810389	2538.220962
613.159207	2422.274423
613.507971	2523.097500
613.856682	2578.550192
614.205340	2475.206538
614.553945	2467.644808
614.902496	2560.906154
615.250994	2535.700385
615.599439	2467.644808
615.947830	2477.727115
616.296169	2573.509038
616.644454	2510.494615
616.992686	2472.685962
617.340864	2593.673654
617.688990	2558.385577
618.037063	2480.247692
618.385082	2485.288846
618.733048	2525.618077
619.080961	2500.412308
619.428821	2518.056346
619.776628	2485.288846
620.124382	2523.097500
620.472083	2628.961731
620.819731	2631.482308
621.167326	2548.303269
621.514868	2548.303269
621.862357	2560.906154
622.209793	2472.685962
622.557176	2470.165385
622.904506	2548.303269
623.251783	2497.891731
623.599007	2480.247692
623.946179	2560.906154
624.293297	2490.330000
624.640363	2533.179808
624.987376	2558.385577
625.334336	2450.000769
625.681243	2535.700385
626.028097	2530.659231
626.374899	2525.618077
626.721647	2518.056346
627.068343	2535.700385
627.414987	2487.809423
627.761577	2465.124231
628.108115	2477.727115
628.454600	2523.097500
628.801032	2432.356731
629.147412	2518.056346
629.493739	2487.809423
629.840014	2472.685962
630.186236	2470.165385
630.532405	2500.412308
630.878521	2472.685962
631.224585	2477.727115
631.570597	2480.247692
631.916556	2470.165385
632.262462	2455.041923
632.608316	2450.000769
632.954117	2518.056346
633.299866	2510.494615
633.645562	2439.918462
633.991206	2513.015192
634.336797	2555.865000
634.682336	2472.685962
635.027823	2424.795000
635.373257	2444.959615
635.718639	2455.041923
636.063968	2452.521346
636.409245	2601.235385
636.754470	2467.644808
637.099642	2462.603654
637.444762	2457.562500
637.789829	2429.836154
638.134845	2570.988462
638.479808	2548.303269
638.824719	2490.330000
639.169577	2548.303269
639.514383	2485.288846
639.859137	2475.206538
640.203839	2548.303269
640.548489	2490.330000
640.893086	2634.002885
641.237632	2538.220962
641.582125	2523.097500
641.926566	2452.521346
642.270955	2455.041923
642.615292	2540.741538
642.959576	2497.891731
643.303809	2399.589231
643.647990	2510.494615
643.992118	2442.439038
644.336195	2434.877308
644.680219	2427.315577
645.024192	2510.494615
645.368112	2520.576923
645.711981	2485.288846
646.055797	2467.644808
646.399562	2467.644808
646.743274	2460.083077
647.086935	2515.535769
647.430544	2513.015192
647.774101	2477.727115
648.117606	2502.932885
648.461059	2480.247692
648.804460	2507.974038
649.147810	2495.371154
649.491108	2548.303269
649.834354	2505.453462
650.177548	2555.865000
650.520690	2513.015192
650.863781	2502.932885
651.206820	2518.056346
651.549807	2523.097500
651.892742	2442.439038
652.235626	2450.000769
652.578458	2505.453462
652.921238	2432.356731
653.263967	2505.453462
653.606644	2339.095385
653.949269	2470.165385
654.291843	2482.768269
654.634365	2525.618077
654.976836	2482.768269
655.319255	2530.659231
655.661622	2540.741538
656.003938	2414.712692
656.346203	2447.480192
656.688416	2530.659231
657.030577	2419.753846
657.372687	2505.453462
657.714746	2558.385577
658.056753	2533.179808
658.398708	2429.836154
658.740612	2465.124231
659.082465	2487.809423
659.424266	2528.138654
659.766016	2470.165385
660.107715	2490.330000
660.449362	2558.385577
660.790958	2533.179808
661.132503	2472.685962
661.473996	2525.618077
661.815438	2581.070769
662.156829	2563.426731
662.498168	2465.124231
662.839456	2495.371154
663.180693	2583.591346
663.521879	2540.741538
663.863013	2409.671538
664.204097	2568.467885
664.545129	2583.591346
664.886110	2545.782692
665.227040	2530.659231
665.567918	2525.618077
665.908746	2462.603654
666.249522	2475.206538
666.590248	2472.685962
666.930922	2520.576923
667.271545	2573.509038
667.612118	2429.836154
667.952639	2558.385577
668.293109	2545.782692
668.633528	2495.371154
668.973896	2535.700385
669.314213	2384.465769
669.654480	2518.056346
669.994695	2487.809423
670.334859	2462.603654
670.674973	2548.303269
671.015035	2422.274423
671.355047	2502.932885
671.695008	2523.097500
672.034918	2576.029615
672.374777	2492.850577
672.714585	2520.576923
673.054342	2500.412308
673.394049	2601.235385
673.733705	2583.591346
674.073310	2520.576923
674.412864	2455.041923
674.752368	2550.823846
675.091820	2535.700385
675.431223	2591.153077
675.770574	2520.576923
676.109875	2502.932885
676.449125	2495.371154
676.788324	2528.138654
677.127473	2404.630385
677.466571	2485.288846
677.805619	2419.753846
678.144616	2558.385577
678.483562	2563.426731
678.822458	2477.727115
679.161303	2392.027500
679.500098	2510.494615
679.838842	2427.315577
680.177535	2515.535769
680.516179	2492.850577
680.854771	2525.618077
681.193314	2525.618077
681.531805	2518.056346
681.870247	2472.685962
682.208638	2495.371154
682.546978	2462.603654
682.885268	2523.097500
683.223508	2467.644808
683.561697	2500.412308
683.899836	2523.097500
684.237925	2480.247692
684.575963	2510.494615
684.913951	2487.809423
685.251889	2520.576923
685.589776	2525.618077
685.927614	2530.659231
686.265401	2581.070769
686.603137	2402.109808
686.940824	2535.700385
687.278460	2457.562500
687.616046	2530.659231
687.953582	2465.124231
688.291068	2525.618077
688.628504	2417.233269
688.965889	2482.768269
689.303224	2470.165385
689.640510	2568.467885
689.977745	2482.768269
690.314930	2558.385577
690.652065	2495.371154
690.989150	2505.453462
691.326185	2507.974038
691.663170	2510.494615
692.000105	2518.056346
692.336990	2553.344423
692.673825	2558.385577
693.010610	2452.521346
693.347345	2500.412308
693.684030	2447.480192
694.020665	2470.165385
694.357251	2553.344423
694.693786	2419.753846
695.030272	2545.782692
695.366707	2487.809423
695.703093	2586.111923
696.039429	2520.576923
696.375716	2550.823846
696.711952	2523.097500
697.048139	2467.644808
697.384276	2507.974038
697.720363	2540.741538
698.056400	2444.959615
698.392388	2550.823846
698.728326	2477.727115
699.064214	2583.591346
699.400053	2434.877308
699.735842	2412.192115
700.071581	2530.659231
700.407270	2502.932885
700.742910	2545.782692
701.078501	2487.809423
701.414042	2475.206538
701.749533	2525.618077
702.084974	2470.165385
702.420366	2513.015192
702.755709	2513.015192
703.091002	2563.426731
703.426246	2442.439038
703.761440	2510.494615
704.096584	2520.576923
704.431679	2470.165385
704.766725	2500.412308
705.101721	2455.041923
705.436668	2515.535769
705.771565	2550.823846
706.106413	2439.918462
706.441212	2460.083077
706.775961	2553.344423
707.110661	2472.685962
707.445311	2515.535769
707.779913	2510.494615
708.114465	2530.659231
708.448967	2409.671538
708.783421	2530.659231
709.117825	2497.891731
709.452180	2460.083077
709.786485	2460.083077
710.120742	2470.165385
710.454949	2525.618077
710.789107	2497.891731
711.123216	2424.795000
711.457275	2444.959615
711.791286	2495.371154
712.125247	2548.303269
712.459159	2502.932885
712.793023	2543.262115
713.126837	2417.233269
713.460602	2513.015192
713.794318	2432.356731
714.127985	2475.206538
714.461602	2465.124231
714.795171	2502.932885
715.128691	2475.206538
715.462162	2545.782692
715.795584	2502.932885
716.128957	2538.220962
716.462281	2500.412308
716.795556	2518.056346
717.128782	2507.974038
717.461960	2530.659231
717.795088	2492.850577
718.128167	2530.659231
718.461198	2553.344423
718.794180	2386.986346
719.127113	2515.535769
719.459997	2465.124231
719.792833	2500.412308
720.125619	2480.247692
720.458357	2487.809423
720.791046	2558.385577
721.123686	2487.809423
721.456278	2485.288846
721.788821	2570.988462
722.121315	2507.974038
722.453761	2477.727115
722.786158	2467.644808
723.118506	2457.562500
723.450805	2465.124231
723.783056	2472.685962
724.115259	2543.262115
724.447412	2528.138654
724.779518	2518.056346
725.111574	2543.262115
725.443582	2460.083077
725.775542	2505.453462
726.107453	2533.179808
726.439315	2533.179808
726.771129	2540.741538
727.102895	2490.330000
727.434612	2492.850577
727.766281	2525.618077
728.097901	2480.247692
728.429473	2490.330000
728.760996	2525.618077
729.092471	2450.000769
729.423897	2598.714808
729.755276	2525.618077
730.086606	2550.823846
730.417887	2497.891731
730.749120	2505.453462
731.080305	2502.932885
731.411442	2573.509038
731.742530	2465.124231
732.073570	2502.932885
732.404562	2558.385577
732.735506	2601.235385
733.066401	2525.618077
733.397249	2588.632500
733.728048	2444.959615
734.058798	2502.932885
734.389501	2505.453462
734.720156	2518.056346
735.050762	2533.179808
735.381320	2568.467885
735.711831	2404.630385
736.042293	2568.467885
736.372707	2558.385577
736.703073	2520.576923
737.033391	2538.220962
737.363661	2518.056346
737.693883	2538.220962
738.024056	2477.727115
738.354182	2545.782692
738.684260	2513.015192
739.014290	2507.974038
739.344272	2487.809423
739.674207	2523.097500
740.004093	2523.097500
740.333931	2439.918462
740.663722	2507.974038
740.993464	2482.768269
741.323159	2480.247692
741.652806	2444.959615
741.982405	2434.877308
742.311956	2518.056346
742.641460	2525.618077
742.970915	2545.782692
743.300323	2462.603654
743.629683	2507.974038
743.958996	2482.768269
744.288260	2528.138654
744.617477	2497.891731
744.946647	2550.823846
745.275768	2518.056346
745.604842	2505.453462
745.933869	2513.015192
746.262847	2497.891731
746.591778	2434.877308
746.920662	2487.809423
747.249498	2533.179808
747.578286	2560.906154
747.907027	2583.591346
748.235720	2578.550192
748.564365	2477.727115
748.892963	2535.700385
749.221514	2530.659231
749.550017	2550.823846
749.878473	2477.727115
750.206881	2447.480192
750.535242	2523.097500
750.863555	2576.029615
751.191821	2470.165385
751.520039	2543.262115
751.848210	2497.891731
752.176334	2455.041923
752.504411	2447.480192
752.832440	2515.535769
753.160421	2586.111923
753.488356	2487.809423
753.816243	2528.138654
754.144082	2573.509038
754.471875	2523.097500
754.799620	2472.685962
755.127318	2412.192115
755.454969	2553.344423
755.782572	2540.741538
756.110129	2550.823846
756.437638	2520.576923
756.765100	2480.247692
757.092515	2535.700385
757.419882	2470.165385
757.747203	2505.453462
758.074477	2444.959615
758.401703	2510.494615
758.728882	2507.974038
759.056014	2444.959615
759.383099	2543.262115
759.710138	2452.521346
760.037129	2485.288846
760.364073	2427.315577
760.690970	2437.397885
761.017820	2475.206538
761.344623	2520.576923
761.671379	2502.932885
761.998088	2422.274423
762.324751	2548.303269
762.651366	2487.809423
762.977935	2505.453462
763.304456	2475.206538
763.630931	2535.700385
763.957359	2427.315577
764.283740	2533.179808
764.610074	2457.562500
764.936362	2513.015192
765.262602	2447.480192
765.588796	2487.809423
765.914943	2505.453462
766.241044	2538.220962
766.567097	2444.959615
766.893104	2472.685962
767.219064	2518.056346
767.544978	2462.603654
767.870845	2583.591346
768.196665	2497.891731
768.522438	2500.412308
768.848165	2452.521346
769.173846	2581.070769
769.499479	2460.083077
769.825066	2412.192115
770.150607	2570.988462
770.476101	2515.535769
770.801548	2505.453462
771.126949	2525.618077
771.452303	2570.988462
771.777611	2424.795000
772.102872	2442.439038
772.428087	2533.179808
772.753256	2477.727115
773.078378	2510.494615
773.403453	2467.644808
773.728482	2485.288846
774.053465	2429.836154
774.378401	2538.220962
774.703291	2560.906154
775.028135	2467.644808
775.352932	2507.974038
775.677683	2525.618077
776.002388	2447.480192
776.327046	2530.659231
776.651658	2487.809423
776.976224	2427.315577
777.300743	2538.220962
777.625216	2422.274423
777.949643	2520.576923
778.274024	2422.274423
778.598359	2553.344423
778.922647	2548.303269
779.246889	2490.330000
779.571086	2515.535769
779.895236	2525.618077
780.219339	2545.782692
780.543397	2513.015192
780.867409	2515.535769
781.191374	2507.974038
781.515294	2487.809423
781.839167	2513.015192
782.162995	2480.247692
782.486776	2538.220962
782.810511	2482.768269
783.134201	2487.809423
783.457844	2550.823846
783.781441	2475.206538
784.104993	2497.891731
784.428498	2560.906154
784.751958	2502.932885
785.075372	2500.412308
785.398739	2492.850577
785.722061	2497.891731
786.045337	2439.918462
786.368568	2545.782692
786.691752	2550.823846
787.014891	2465.124231
787.337983	2523.097500
787.661030	2570.988462
787.984031	2427.315577
788.306987	2455.041923
788.629897	2523.097500
788.952760	2540.741538
789.275579	2480.247692
789.598351	2507.974038
789.921078	2497.891731
790.243759	2540.741538
790.566395	2500.412308
790.888984	2520.576923
791.211529	2457.562500
791.534027	2507.974038
791.856480	2490.330000
792.178888	2409.671538
792.501249	2485.288846
792.823566	2492.850577
793.145836	2487.809423
793.468062	2520.576923
793.790241	2550.823846
794.112375	2523.097500
794.434464	2520.576923
794.756507	2507.974038
795.078505	2465.124231
795.400457	2500.412308
795.722364	2525.618077
796.044226	2399.589231
796.366042	2452.521346
796.687812	2502.932885
797.009538	2439.918462
797.331218	2538.220962
797.652852	2500.412308
797.974442	2490.330000
798.295986	2540.741538
798.617484	2530.659231
798.938938	2447.480192
799.260346	2520.576923
799.581709	2525.618077
799.903026	2455.041923
800.224299	2490.330000
800.545526	2472.685962
800.866708	2505.453462
801.187845	2553.344423
801.508936	2497.891731
801.829983	2490.330000
802.150984	2510.494615
802.471940	2518.056346
802.792851	2485.288846
803.113717	2452.521346
803.434538	2434.877308
803.755314	2480.247692
804.076045	2437.397885
804.396731	2442.439038
804.717372	2404.630385
805.037967	2548.303269
805.358518	2500.412308
805.679024	2437.397885
805.999485	2550.823846
806.319901	2487.809423
806.640272	2513.015192
806.960598	2475.206538
807.280879	2558.385577
807.601115	2550.823846
807.921306	2588.632500
808.241453	2535.700385
808.561554	2422.274423
808.881611	2502.932885
809.201623	2505.453462
809.521590	2568.467885
809.841513	2482.768269
810.161390	2505.453462
810.481223	2495.371154
810.801011	2513.015192
811.120755	2462.603654
811.440453	2419.753846
811.760107	2462.603654
812.079716	2467.644808
812.399281	2505.453462
812.718801	2505.453462
813.038276	2399.589231
813.357707	2530.659231
813.677093	2553.344423
813.996434	2513.015192
814.315731	2497.891731
814.634983	2465.124231
814.954191	2555.865000
815.273354	2475.206538
815.592473	2465.124231
815.911547	2432.356731
816.230577	2518.056346
816.549562	2462.603654
816.868502	2568.467885
817.187399	2447.480192
817.506250	2505.453462
817.825058	2538.220962
818.143821	2439.918462
818.462539	2482.768269
818.781213	2487.809423
819.099843	2432.356731
819.418429	2523.097500
819.736970	2399.589231
820.055466	2540.741538
820.373919	2513.015192
820.692327	2520.576923
821.010691	2515.535769
821.329011	2419.753846
821.647286	2591.153077
821.965517	2581.070769
822.283704	2444.959615
822.601847	2397.068654
822.919945	2540.741538
823.237999	2565.947308
823.556010	2530.659231
823.873976	2482.768269
824.191897	2407.150962
824.509775	2510.494615
824.827609	2487.809423
825.145398	2560.906154
825.463144	2520.576923
825.780845	2538.220962
826.098502	2455.041923
826.416116	2467.644808
826.733685	2530.659231
827.051210	2485.288846
827.368692	2497.891731
827.686129	2548.303269
828.003522	2472.685962
828.320872	2485.288846
828.638177	2487.809423
828.955439	2593.673654
829.272656	2563.426731
829.589830	2369.342308
829.906960	2548.303269
830.224046	2548.303269
830.541088	2470.165385
830.858086	2495.371154
831.175041	2576.029615
831.491952	2568.467885
831.808819	2462.603654
832.125642	2540.741538
832.442421	2477.727115
832.759157	2427.315577
833.075849	2502.932885
833.392497	2581.070769
833.709101	2570.988462
834.025662	2548.303269
834.342179	2457.562500
834.658653	2419.753846
834.975083	2550.823846
835.291469	2465.124231
835.607811	2477.727115
835.924110	2477.727115
836.240366	2510.494615
836.556578	2460.083077
836.872746	2533.179808
837.188871	2472.685962
837.504952	2548.303269
837.820990	2596.194231
838.136984	2555.865000
838.452935	2500.412308
838.768842	2520.576923
839.084706	2472.685962
839.400526	2447.480192
839.716303	2523.097500
840.032037	2515.535769
840.347727	2490.330000
840.663373	2439.918462
840.978977	2603.755962
841.294537	2470.165385
841.610054	2538.220962
841.925527	2500.412308
842.240957	2586.111923
842.556344	2550.823846
842.871687	2419.753846
843.186987	2452.521346
843.502244	2550.823846
843.817458	2472.685962
844.132629	2505.453462
844.447756	2439.918462
844.762840	2429.836154
845.077881	2409.671538
845.392879	2510.494615
845.707833	2492.850577
846.022745	2540.741538
846.337613	2500.412308
846.652438	2495.371154
846.967221	2510.494615
847.281960	2470.165385
847.596656	2535.700385
847.911309	2470.165385
848.225919	2528.138654
848.540485	2540.741538
848.855009	2465.124231
849.169490	2533.179808
849.483928	2530.659231
849.798323	2467.644808
850.112675	2490.330000
850.426984	2528.138654
850.741251	2465.124231
851.055474	2470.165385
851.369654	2467.644808
851.683792	2475.206538
851.997887	2523.097500
852.311938	2518.056346
852.625947	2555.865000
852.939914	2437.397885
853.253837	2457.562500
853.567718	2460.083077
853.881555	2487.809423
854.195350	2528.138654
854.509103	2528.138654
854.822812	2447.480192
855.136479	2540.741538
855.450103	2553.344423
855.763685	2513.015192
856.077224	2523.097500
856.390720	2518.056346
856.704173	2465.124231
857.017584	2555.865000
857.330953	2460.083077
857.644278	2505.453462
857.957561	2538.220962
858.270802	2437.397885
858.584000	2417.233269
858.897155	2485.288846
859.210268	2437.397885
859.523339	2538.220962
859.836367	2502.932885
860.149352	2477.727115
860.462295	2502.932885
860.775195	2477.727115
861.088054	2477.727115
861.400869	2611.317692
861.713642	2447.480192
862.026373	2540.741538
862.339062	2623.920577
862.651708	2563.426731
862.964312	2515.535769
863.276873	2613.838269
863.589392	2470.165385
863.901869	2520.576923
864.214303	2490.330000
864.526696	2477.727115
864.839045	2465.124231
865.151353	2530.659231
865.463619	2485.288846
865.775842	2565.947308
866.088023	2487.809423
866.400162	2558.385577
866.712258	2450.000769
867.024313	2497.891731
867.336325	2553.344423
867.648296	2523.097500
867.960224	2487.809423
868.272110	2576.029615
868.583954	2538.220962
868.895755	2560.906154
869.207515	2505.453462
869.519233	2482.768269
869.830909	2452.521346
870.142542	2487.809423
870.454134	2495.371154
870.765684	2543.262115
871.077191	2485.288846
871.388657	2510.494615
871.700081	2533.179808
872.011463	2497.891731
872.322803	2576.029615
872.634101	2467.644808
872.945357	2460.083077
873.256571	2525.618077
873.567744	2533.179808
873.878874	2548.303269
874.189963	2482.768269
874.501010	2455.041923
874.812015	2457.562500
875.122979	2500.412308
875.433900	2513.015192
875.744780	2520.576923
876.055618	2538.220962
876.366415	2452.521346
876.677169	2505.453462
876.987882	2394.548077
877.298554	2520.576923
877.609183	2467.644808
877.919771	2515.535769
878.230317	2402.109808
878.540822	2548.303269
878.851285	2455.041923
879.161707	2462.603654
879.472087	2502.932885
879.782425	2540.741538
880.092722	2417.233269
880.402977	2513.015192
880.713191	2480.247692
881.023363	2520.576923
881.333494	2510.494615
881.643583	2497.891731
881.953631	2455.041923
882.263637	2540.741538
882.573602	2450.000769
882.883526	2530.659231
883.193408	2497.891731
883.503248	2533.179808
883.813048	2495.371154
884.122806	2505.453462
884.432522	2545.782692
884.742197	2507.974038
885.051831	2434.877308
885.361424	2518.056346
885.670975	2447.480192
885.980485	2467.644808
886.289954	2523.097500
886.599382	2462.603654
886.908768	2472.685962
887.218113	2507.974038
887.527417	2487.809423
887.836680	2570.988462
888.145901	2444.959615
888.455082	2480.247692
888.764221	2533.179808
889.073319	2487.809423
889.382376	2490.330000
889.691392	2462.603654
890.000366	2500.412308
890.309300	2535.700385
890.618193	2502.932885
890.927044	2515.535769
891.235855	2470.165385
891.544625	2555.865000
891.853353	2467.644808
892.162041	2485.288846
892.470687	2467.644808
892.779293	2565.947308
893.087858	2452.521346
893.396381	2472.685962
893.704864	2533.179808
894.013306	2502.932885
894.321707	2462.603654
894.630068	2455.041923
894.938387	2434.877308
895.246665	2500.412308
895.554903	2565.947308
895.863100	2475.206538
896.171256	2598.714808
896.479371	2487.809423
896.787446	2419.753846
897.095480	2482.768269
897.403473	2477.727115
897.711425	2482.768269
898.019336	2533.179808
898.327207	2530.659231
898.635038	2515.535769
898.942827	2462.603654
899.250576	2576.029615
899.558284	2485.288846
899.865952	2480.247692
900.173579	2472.685962
900.481165	2530.659231
900.788711	2407.150962
901.096216	2528.138654
901.403681	2450.000769
901.711105	2530.659231
902.018489	2434.877308
902.325832	2528.138654
902.633135	2558.385577
902.940397	2429.836154
903.247619	2475.206538
903.554800	2523.097500
903.861941	2583.591346
904.169041	2568.467885
904.476101	2475.206538
904.783121	2518.056346
905.090100	2480.247692
905.397039	2530.659231
905.703938	2528.138654
906.010796	2553.344423
906.317614	2518.056346
906.624391	2555.865000
906.931129	2399.589231
907.237826	2412.192115
907.544483	2560.906154
907.851099	2513.015192
908.157675	2548.303269
908.464211	2480.247692
908.770707	2424.795000
909.077163	2480.247692
909.383578	2470.165385
909.689954	2513.015192
909.996289	2465.124231
910.302584	2533.179808
910.608839	2455.041923
910.915054	2565.947308
911.221229	2429.836154
911.527363	2543.262115
911.833458	2460.083077
912.139513	2462.603654
912.445527	2618.879423
912.751502	2475.206538
913.057436	2500.412308
913.363331	2535.700385
913.669186	2414.712692
913.975000	2462.603654
914.280775	2432.356731
914.586510	2515.535769
914.892205	2482.768269
915.197859	2427.315577
915.503475	2550.823846
915.809050	2490.330000
916.114585	2548.303269
916.420081	2490.330000
916.725536	2553.344423
917.030952	2434.877308
917.336328	2389.506923
917.641665	2568.467885
917.946961	2505.453462
918.252218	2530.659231
918.557435	2422.274423
918.862612	2495.371154
919.167750	2523.097500
919.472848	2553.344423
919.777906	2434.877308
920.082925	2455.041923
920.387904	2447.480192
920.692843	2515.535769
920.997743	2560.906154
921.302603	2467.644808
921.607423	2538.220962
921.912204	2533.179808
922.216946	2513.015192
922.521647	2505.453462
922.826310	2548.303269
923.130932	2487.809423
923.435516	2545.782692
923.740059	2505.453462
924.044564	2588.632500
924.349028	2593.673654
924.653454	2477.727115
924.957840	2437.397885
925.262186	2492.850577
925.566493	2528.138654
925.870761	2434.877308
926.174989	2497.891731
926.479178	2528.138654
926.783328	2470.165385
927.087438	2502.932885
927.391509	2497.891731
927.695541	2513.015192
927.999533	2447.480192
928.303486	2515.535769
928.607400	2485.288846
928.911275	2472.685962
929.215110	2475.206538
929.518906	2482.768269
929.822663	2472.685962
930.126381	2518.056346
930.430060	2515.535769
930.733699	2457.562500
931.037299	2510.494615
931.340861	2434.877308
931.644383	2467.644808
931.947866	2487.809423
932.251309	2467.644808
932.554714	2525.618077
932.858080	2462.603654
933.161407	2497.891731
933.464694	2492.850577
933.767943	2533.179808
934.071153	2497.891731
934.374323	2475.206538
934.677455	2482.768269
934.980548	2485.288846
935.283602	2429.836154
935.586617	2523.097500
935.889593	2417.233269
936.192530	2450.000769
936.495428	2386.986346
936.798287	2525.618077
937.101108	2480.247692
937.403890	2603.755962
937.706632	2490.330000
938.009336	2487.809423
938.312002	2437.397885
938.614628	2369.342308
938.917216	2495.371154
939.219765	2515.535769
939.522275	2523.097500
939.824747	2518.056346
940.127179	2450.000769
940.429573	2477.727115
940.731929	2457.562500
941.034246	2560.906154
941.336524	2518.056346
941.638763	2414.712692
941.940964	2523.097500
942.243126	2548.303269
942.545250	2576.029615
942.847335	2518.056346
943.149381	2381.945192
943.451389	2525.618077
943.753359	2447.480192
944.055290	2502.932885
944.357182	2513.015192
944.659036	2500.412308
944.960851	2492.850577
945.262628	2457.562500
945.564367	2596.194231
945.866067	2565.947308
946.167729	2545.782692
946.469352	2465.124231
946.770937	2462.603654
947.072484	2543.262115
947.373992	2568.467885
947.675462	2518.056346
947.976893	2437.397885
948.278286	2444.959615
948.579641	2565.947308
948.880958	2487.809423
949.182236	2598.714808
949.483476	2442.439038
949.784678	2482.768269
950.085841	2487.809423
950.386967	2507.974038
950.688054	2528.138654
950.989103	2470.165385
951.290114	2460.083077
951.591087	2477.727115
951.892021	2482.768269
952.192917	2533.179808
952.493776	2500.412308
952.794596	2555.865000
953.095378	2497.891731
953.396122	2480.247692
953.696828	2480.247692
953.997496	2424.795000
954.298126	2563.426731
954.598718	2452.521346
954.899272	2465.124231
955.199788	2444.959615
955.500266	2487.809423
955.800706	2495.371154
956.101108	2470.165385
956.401472	2472.685962
956.701798	2467.644808
957.002087	2452.521346
957.302337	2492.850577
957.602550	2500.412308
957.902724	2500.412308
958.202861	2457.562500
958.502960	2404.630385
958.803022	2576.029615
959.103045	2570.988462
959.403031	2450.000769
959.702979	2492.850577
960.002889	2467.644808
960.302762	2442.439038
960.602596	2495.371154
960.902393	2505.453462
961.202153	2495.371154
961.501875	2467.644808
961.801559	2450.000769
962.101205	2412.192115
962.400814	2507.974038
962.700385	2492.850577
962.999918	2563.426731
963.299414	2515.535769
963.598873	2525.618077
963.898293	2518.056346
964.197677	2520.576923
964.497022	2535.700385
964.796331	2472.685962
965.095601	2502.932885
965.394835	2482.768269
965.694030	2530.659231
965.993189	2573.509038
966.292309	2530.659231
966.591393	2439.918462
966.890439	2485.288846
967.189447	2480.247692
967.488419	2444.959615
967.787353	2500.412308
968.086249	2545.782692
968.385108	2442.439038
968.683930	2439.918462
968.982714	2487.809423
969.281462	2465.124231
969.580172	2487.809423
969.878844	2565.947308
970.177480	2490.330000
970.476078	2543.262115
970.774639	2502.932885
971.073162	2497.891731
971.371649	2513.015192
971.670098	2495.371154
971.968510	2439.918462
972.266885	2586.111923
972.565223	2538.220962
972.863524	2545.782692
973.161788	2518.056346
973.460014	2470.165385
973.758204	2568.467885
974.056356	2533.179808
974.354471	2422.274423
974.652550	2492.850577
974.950591	2409.671538
975.248595	2507.974038
975.546563	2535.700385
975.844493	2480.247692
976.142386	2490.330000
976.440243	2475.206538
976.738062	2452.521346
977.035845	2492.850577
977.333590	2490.330000
977.631299	2490.330000
977.928971	2548.303269
978.226606	2480.247692
978.524204	2480.247692
978.821765	2480.247692
979.119290	2495.371154
979.416777	2482.768269
979.714228	2505.453462
980.011642	2450.000769
980.309020	2555.865000
980.606360	2533.179808
980.903664	2565.947308
981.200931	2553.344423
981.498162	2545.782692
981.795356	2502.932885
982.092513	2530.659231
982.389633	2427.315577
982.686717	2409.671538
982.983764	2386.986346
983.280775	2555.865000
983.577749	2515.535769
983.874686	2452.521346
984.171587	2485.288846
984.468451	2563.426731
984.765279	2467.644808
985.062070	2407.150962
985.358824	2460.083077
985.655543	2462.603654
985.952224	2505.453462
986.248869	2533.179808
986.545478	2492.850577
986.842050	2490.330000
987.138586	2480.247692
987.435086	2543.262115
987.731549	2429.836154
988.027975	2439.918462
988.324366	2450.000769
988.620719	2475.206538
988.917037	2515.535769
989.213318	2505.453462
989.509563	2550.823846
989.805772	2505.453462
990.101944	2462.603654
990.398080	2442.439038
990.694180	2447.480192
990.990244	2530.659231
991.286271	2523.097500
991.582262	2465.124231
991.878217	2455.041923
992.174136	2472.685962
992.470019	2495.371154
992.765865	2505.453462
993.061676	2497.891731
993.357450	2573.509038
993.653188	2545.782692
993.948890	2467.644808
994.244556	2518.056346
994.540186	2507.974038
994.835780	2455.041923
995.131337	2442.439038
995.426859	2472.685962
995.722345	2533.179808
996.017795	2472.685962
996.313208	2477.727115
996.608586	2460.083077
996.903928	2505.453462
997.199234	2545.782692
997.494504	2515.535769
997.789738	2507.974038
998.084936	2535.700385
998.380099	2472.685962
998.675225	2467.644808
998.970316	2467.644808
999.265371	2507.974038
999.560390	2482.768269
999.855373	2540.741538
1000.150320	2397.068654
1000.445232	2548.303269
1000.740108	2442.439038
1001.034948	2465.124231
1001.329752	2555.865000
1001.624521	2563.426731
1001.919254	2402.109808
1002.213951	2500.412308
1002.508613	2487.809423
1002.803239	2442.439038
1003.097829	2465.124231
1003.392384	2480.247692
1003.686903	2525.618077
1003.981386	2492.850577
1004.275834	2485.288846
1004.570246	2528.138654
1004.864623	2460.083077
1005.158964	2477.727115
1005.453270	2495.371154
1005.747540	2513.015192
1006.041775	2502.932885
1006.335974	2510.494615
1006.630138	2487.809423
1006.924266	2513.015192
1007.218359	2495.371154
1007.512416	2515.535769
1007.806438	2455.041923
1008.100425	2507.974038
1008.394376	2450.000769
1008.688292	2472.685962
1008.982172	2533.179808
1009.276017	2507.974038
1009.569827	2492.850577
1009.863602	2470.165385
1010.157341	2480.247692
1010.451045	2470.165385
1010.744714	2553.344423
1011.038347	2515.535769
1011.331945	2495.371154
1011.625508	2505.453462
1011.919036	2475.206538
1012.212528	2576.029615
1012.505986	2432.356731
1012.799408	2462.603654
1013.092795	2452.521346
1013.386147	2538.220962
1013.679464	2502.932885
1013.972745	2465.124231
1014.265992	2550.823846
1014.559204	2576.029615
1014.852380	2452.521346
1015.145521	2490.330000
1015.438628	2432.356731
1015.731699	2500.412308
1016.024736	2548.303269
1016.317737	2535.700385
1016.610703	2520.576923
1016.903635	2424.795000
1017.196531	2555.865000
1017.489393	2543.262115
1017.782219	2472.685962
1018.075011	2490.330000
1018.367768	2507.974038
1018.660490	2548.303269
1018.953177	2548.303269
1019.245829	2548.303269
