Dividing Wavelength (nm)	Counts (n)	Blue Motor Position (mm): 0.000000	Red Motor Position (mm): 15.900000	
326.493990	2127.482870
326.888308	2127.482870
327.282561	2127.482870
327.676750	2095.438775
328.070874	2095.849629
328.464933	2098.022367
328.858929	2104.192739
329.252859	2112.397217
329.646726	2124.644700
330.040528	2136.715743
330.434265	2156.086377
330.827938	2172.021464
331.221547	2191.586182
331.615091	2209.383976
332.008571	2230.443396
332.401986	2251.888464
332.795338	2267.175763
333.188625	2287.287447
333.581847	2306.842082
333.975006	2323.843374
334.368100	2343.884481
334.761129	2360.661441
335.154095	2375.245499
335.546996	2394.701832
335.939833	2408.365880
336.332606	2422.982705
336.725315	2435.247833
337.117960	2444.422733
337.510540	2454.772221
337.903056	2464.511731
338.295508	2471.521455
338.687896	2479.660398
339.080220	2487.897643
339.472480	2497.876607
339.864676	2500.409787
340.256807	2506.711229
340.648875	2507.379182
341.040879	2511.250788
341.432818	2514.577950
341.824694	2509.945130
342.216506	2515.379493
342.608253	2513.610048
342.999937	2512.082579
343.391557	2512.395130
343.783113	2514.938392
344.174605	2510.507218
344.566033	2512.566530
344.957397	2506.822135
345.348697	2507.510252
345.739934	2506.892711
346.131106	2502.882473
346.522215	2504.465395
346.913260	2498.126144
347.304241	2497.352327
347.695159	2495.381236
348.086012	2496.147492
348.476802	2494.907368
348.867528	2491.474342
349.258191	2491.197078
349.648789	2487.615339
350.039324	2488.593323
350.429796	2487.995946
350.820203	2482.566623
351.210548	2484.608290
351.600828	2484.895636
351.991045	2481.644092
352.381198	2483.506798
352.771288	2481.046715
353.161314	2480.202322
353.551276	2482.324648
353.941175	2483.184164
354.331010	2483.138794
354.720782	2481.505460
355.110490	2482.223825
355.500135	2480.605614
355.889717	2481.467652
356.279235	2481.603763
356.668689	2484.630976
357.058080	2481.679380
357.447408	2482.869092
357.836672	2482.511170
358.225873	2484.232724
358.615010	2479.257106
359.004084	2486.463435
359.393095	2487.625421
359.782043	2486.627272
360.170927	2485.475369
360.559748	2487.305308
360.948505	2489.097438
361.337199	2489.394866
361.725830	2490.012407
362.114398	2490.367809
362.502903	2492.043992
362.891344	2492.722028
363.279722	2492.071719
363.668037	2495.353510
364.056289	2492.545587
364.444478	2494.688078
364.832603	2491.318066
365.220665	2495.701349
365.608665	2497.095228
365.996601	2494.977944
366.384474	2496.084477
366.772284	2496.452481
367.160031	2502.874911
367.547715	2501.077740
367.935336	2506.582680
368.322893	2507.016219
368.710388	2510.303052
369.097820	2520.665143
369.485189	2521.544825
369.872495	2524.763601
370.259738	2533.320960
370.646918	2541.734646
371.034035	2545.760007
371.421090	2556.129661
371.808081	2566.582493
372.195010	2576.148082
372.581875	2590.417068
372.968678	2601.457195
373.355418	2612.797271
373.742096	2633.488687
374.128710	2646.870430
374.515262	2660.433654
374.901751	2677.830676
375.288177	2688.575896
375.674540	2712.773434
376.060841	2727.715414
376.447079	2747.496902
376.833254	2770.494646
377.219367	2782.827828
377.605417	2820.316369
377.991404	2828.314160
378.377329	2850.613704
378.763191	2867.204141
379.148991	2905.741242
379.534727	2929.969027
379.920402	2956.941721
380.306013	2971.195583
380.691563	3019.928417
381.077049	3043.584032
381.462474	3057.621125
381.847835	3096.458174
382.233134	3119.193778
382.618371	3119.806278
383.003545	3186.788089
383.388657	3194.019624
383.773706	3228.208730
384.158693	3243.269177
384.543618	3269.831016
384.928480	3306.013898
385.313280	3348.198273
385.698017	3346.632995
386.082692	3401.896644
386.467305	3409.128179
386.851856	3438.815534
387.236344	3460.580716
387.620770	3492.400479
388.005133	3521.278729
388.389435	3546.355949
388.773674	3554.623441
389.157851	3602.489197
389.541965	3614.688789
389.926018	3576.633119
390.310008	3649.936537
390.693936	3668.248528
391.077802	3706.566339
391.461606	3697.658620
391.845348	3759.032147
392.229027	3758.712034
392.612645	3769.255607
392.996200	3848.777289
393.379694	3888.060480
393.763125	3953.310655
394.146494	3919.431580
394.529801	3979.668328
394.913047	4025.268085
395.296230	3990.819360
395.679351	4045.384809
396.062410	4062.996080
396.445408	4045.137793
396.828343	4070.106628
397.211217	4090.109926
397.594028	4006.444416
397.976778	4066.169487
398.359466	4083.490891
398.742092	4105.591310
399.124656	4019.672404
399.507158	4085.978701
399.889598	4097.084362
400.271977	4143.473060
400.654294	4098.170731
401.036549	4089.492385
401.418742	4047.081157
401.800874	4122.063280
402.182944	4122.925317
402.564952	4154.079648
402.946898	4124.788023
403.328783	4094.843570
403.710606	4000.130371
404.092367	4133.408397
404.474067	4077.083585
404.855705	4053.939647
405.237282	3971.824292
405.618797	4026.467879
406.000250	4023.110471
406.381642	4048.364131
406.762972	3984.805263
407.144240	3958.472796
407.525447	3923.144390
407.906593	3929.919701
408.287677	3916.933689
408.668700	3834.871266
409.049661	3824.509174
409.430560	3810.603151
409.811399	3727.358578
410.192176	3776.381278
410.572891	3705.762275
410.953545	3715.295097
411.334138	3614.288017
411.714669	3601.947273
412.095139	3513.918644
412.475547	3535.250287
412.855894	3485.821773
413.236180	3447.821556
413.616405	3388.114130
413.996568	3379.642471
414.376670	3319.879592
414.756711	3268.059051
415.136691	3237.260121
415.516609	3226.550190
415.896466	3199.527085
416.276262	3172.763599
416.655997	3128.852628
417.035670	3135.564925
417.415283	3124.108903
417.794834	3073.563774
418.174324	3036.322250
418.553753	2984.181595
418.933121	2987.090341
419.312428	2964.364820
419.691674	2923.158428
420.070859	2910.033784
420.449983	2872.855274
420.829045	2859.763398
421.208047	2824.843325
421.586988	2806.070068
421.965867	2786.124743
422.344686	2774.598145
422.723444	2745.208218
423.102141	2711.682024
423.480777	2713.496840
423.859352	2683.998528
424.237866	2683.176820
424.616319	2670.208452
424.994712	2660.847029
425.373044	2643.666777
425.751314	2636.561270
426.129524	2619.663322
426.507673	2616.406737
426.885762	2608.449276
427.263789	2597.028542
427.641756	2588.869434
428.019662	2583.722416
428.397508	2574.817218
428.775292	2572.110118
429.153016	2569.014850
429.530679	2563.371278
429.908282	2560.638973
430.285824	2557.647048
430.663305	2556.570762
431.040726	2549.185471
431.418086	2547.703372
431.795385	2546.934596
432.172624	2547.174051
432.549802	2546.354863
432.926920	2547.113557
433.303977	2543.798998
433.680974	2544.217414
434.057910	2541.737166
434.434786	2539.700540
434.811601	2543.375541
435.188355	2539.524100
435.565050	2541.603576
435.941683	2542.140459
436.318257	2535.992772
436.694770	2535.488656
437.071222	2538.757844
437.447614	2534.911444
437.823946	2534.634181
438.200218	2538.571322
438.576429	2537.565612
438.952580	2534.374561
439.328670	2536.774150
439.704700	2537.784902
440.080670	2537.205169
440.456580	2536.557381
440.832429	2539.428318
441.208218	2534.351876
441.583947	2536.806918
441.959616	2534.742565
442.335224	2537.547968
442.710773	2535.791125
443.086261	2535.418080
443.461689	2537.323636
443.837057	2538.359593
444.212365	2537.495035
444.587612	2536.474202
444.962800	2538.210879
445.337927	2538.125180
445.712995	2538.162988
446.088002	2536.464119
446.462949	2538.699871
446.837837	2537.058976
447.212664	2538.646939
447.587431	2537.442103
447.962139	2538.369676
448.336786	2545.558361
448.711374	2542.637012
449.085901	2542.702547
449.460369	2540.802032
449.834776	2539.781199
450.209124	2539.529141
450.583412	2544.764379
450.957640	2543.884698
451.331808	2541.553164
451.705917	2538.132741
452.079965	2539.075437
452.453954	2541.820345
452.827883	2538.465457
453.201752	2541.152393
453.575562	2539.939995
453.949311	2540.413863
454.323001	2542.321940
454.696632	2540.504604
455.070202	2540.907897
455.443713	2540.242464
455.817164	2541.364121
456.190556	2538.125180
456.563888	2540.388658
456.937160	2537.724408
457.310373	2540.900335
457.683526	2541.792619
458.056619	2543.370500
458.429653	2542.417722
458.802628	2540.791950
459.175542	2540.832279
459.548398	2546.289328
459.921194	2547.080789
460.293930	2545.888557
460.666607	2547.315203
461.039224	2547.153886
461.411782	2549.866027
461.784280	2547.915100
462.156719	2550.468445
462.529099	2550.576830
462.901419	2546.957281
463.273680	2546.816129
463.645882	2546.203629
464.018024	2549.566078
464.390106	2549.462735
464.762130	2549.240924
465.134094	2550.133208
465.505999	2556.205278
465.877845	2558.584702
466.249631	2563.028480
466.621358	2559.676112
466.993026	2562.567214
467.364634	2563.378840
467.736184	2557.241235
468.107674	2557.878941
468.479105	2558.234342
468.850477	2554.375339
469.221790	2554.839125
469.593043	2554.478683
469.964238	2555.718807
470.335373	2552.903322
470.706449	2556.313663
471.077467	2554.725699
471.448425	2557.561348
471.819324	2562.688202
472.190164	2563.656103
472.560945	2556.389280
472.931667	2557.405073
473.302330	2553.820812
473.672934	2555.534804
474.043479	2554.667726
474.413965	2556.958930
474.784393	2549.883671
475.154761	2555.008004
475.525070	2554.667726
475.895321	2552.275698
476.265513	2551.524567
476.635645	2560.142419
477.005719	2555.096224
477.375734	2559.918088
477.745691	2559.449260
478.115588	2562.970506
478.485427	2560.744837
478.855207	2563.875393
479.224928	2562.247101
479.594591	2569.536609
479.964194	2567.275652
480.333739	2566.801783
480.703226	2565.007132
481.072653	2567.414283
481.442022	2566.365723
481.811333	2569.276990
482.180584	2566.779098
482.549777	2566.171639
482.918912	2565.120558
483.287988	2567.275652
483.657005	2564.719787
484.025964	2566.685837
484.394864	2564.192986
484.763706	2562.937739
485.132489	2563.025959
485.501213	2563.951011
485.869879	2561.543860
486.238487	2561.415310
486.607036	2562.317677
486.975527	2561.001936
487.343959	2560.011349
487.712333	2564.591237
488.080648	2561.135526
488.448905	2562.733572
488.817104	2561.196020
489.185244	2563.388922
489.553326	2560.611246
489.921350	2564.429920
490.289315	2568.180539
490.657222	2571.747155
491.025070	2565.208779
491.392861	2569.846640
491.760593	2568.472926
492.128267	2563.978737
492.495883	2565.798594
492.863440	2565.254149
493.230939	2562.075702
493.598380	2565.281875
493.965763	2558.892213
494.333088	2561.488407
494.700354	2556.913560
495.067563	2560.354147
495.434713	2556.215360
495.801805	2560.891030
496.168839	2563.081412
496.535815	2561.657286
496.902733	2563.051165
497.269593	2563.608212
497.636395	2563.865311
498.003139	2561.196020
498.369825	2562.476473
498.736453	2565.947308
499.103023	2561.861452
499.469535	2562.259704
499.835989	2563.953531
500.202385	2561.470763
500.568723	2561.979920
500.935003	2562.053016
501.301226	2560.187789
501.667390	2564.588717
502.033497	2565.685168
502.399546	2563.141906
502.765537	2562.932698
503.131470	2559.797100
503.497345	2563.446895
503.863163	2563.280537
504.228923	2563.008315
504.594625	2562.254662
504.960269	2562.032852
505.325856	2562.501679
505.691385	2563.885476
506.056856	2562.226936
506.422270	2562.269786
506.787625	2562.826833
507.152924	2561.536298
507.518164	2563.134344
507.883347	2563.807338
508.248472	2562.451267
508.613540	2564.477811
508.978550	2564.510579
509.343503	2563.151988
509.708398	2563.525033
510.073236	2563.938408
510.438016	2564.994530
510.802738	2559.754250
511.167403	2564.828172
511.532010	2562.143757
511.896561	2563.880435
512.261053	2566.622822
512.625488	2561.674930
512.989866	2557.284085
513.354186	2564.770198
513.718449	2558.332645
514.082655	2563.615774
514.446803	2563.356155
514.810894	2565.811197
515.174927	2564.349262
515.538904	2565.178532
515.902822	2568.510734
516.266684	2565.632236
516.630488	2564.966803
516.994235	2564.119889
517.357925	2565.382698
517.721558	2566.587534
518.085133	2565.360013
518.448651	2567.018553
518.812112	2565.750703
519.175516	2565.007133
519.538863	2566.222051
519.902152	2563.404046
520.265385	2564.571073
520.628560	2565.937225
520.991678	2562.476473
521.354739	2563.353634
521.717743	2564.419838
522.080690	2564.157698
522.443580	2564.699622
522.806413	2563.620815
523.169189	2565.435631
523.531908	2562.950342
523.894569	2563.978737
524.257174	2565.566701
524.619722	2564.414797
524.982213	2568.387226
525.344647	2565.481001
525.707025	2566.585014
526.069345	2565.594427
526.431608	2564.588717
526.793815	2562.524364
527.155964	2564.056875
527.518057	2565.397822
527.880093	2566.585014
528.242072	2565.370096
528.603995	2565.859088
528.965860	2564.273645
529.327669	2564.639128
529.689421	2565.614592
530.051117	2565.717935
530.412755	2565.407904
530.774337	2565.743141
531.135862	2564.104766
531.497331	2562.922615
531.858743	2560.528067
532.220098	2563.240208
532.581396	2561.327090
532.942638	2563.414128
533.303824	2563.119220
533.664953	2563.867832
534.026025	2560.956565
534.387040	2564.127451
534.747999	2565.102914
535.108902	2564.455126
535.469748	2563.671227
535.830537	2562.002605
536.191270	2562.980589
536.551947	2566.393450
536.912567	2565.062585
537.273131	2567.540312
537.633638	2560.701987
537.994089	2564.775239
538.354483	2563.151988
538.714821	2566.176680
539.075103	2564.112328
539.435328	2564.298850
539.795497	2564.966803
540.155609	2565.304561
540.515665	2564.538305
540.875665	2564.044272
541.235609	2561.874055
541.595496	2566.315312
541.955328	2563.071329
542.315102	2562.221895
542.674821	2560.381874
543.034483	2567.217678
543.394090	2564.860939
543.753640	2562.811710
544.113134	2565.017215
544.472571	2564.525702
544.831953	2565.216340
545.191278	2565.360013
545.550548	2563.840105
545.909761	2562.962945
546.268918	2564.346741
546.628019	2566.874880
546.987064	2566.620302
547.346053	2564.452606
547.704986	2565.730538
548.063863	2565.627194
548.422684	2564.230795
548.781449	2562.700805
549.140158	2566.736248
549.498811	2564.261042
549.857408	2562.675599
550.215949	2560.386915
550.574434	2559.474466
550.932864	2563.303223
551.291237	2560.228119
551.649555	2562.766340
552.007817	2561.246432
552.366022	2563.439334
552.724173	2565.765826
553.082267	2566.017884
553.440305	2564.172822
553.798288	2563.018397
554.156215	2561.828685
554.514086	2564.127451
554.871902	2563.706515
555.229661	2563.714077
555.587365	2566.370765
555.945014	2565.090312
556.302606	2562.957903
556.660143	2563.396484
557.017625	2565.791032
557.375050	2565.044941
557.732421	2561.506051
558.089735	2562.405897
558.446994	2565.143244
558.804197	2562.824313
559.161345	2565.385219
559.518437	2564.787842
559.875474	2564.581155
560.232455	2565.065106
560.589381	2564.944118
560.946251	2564.704663
561.303065	2565.511248
561.659825	2565.211299
562.016528	2564.374468
562.373177	2564.445044
562.729770	2561.165773
563.086307	2565.347410
563.442789	2565.533933
563.799216	2563.373799
564.155587	2562.872204
564.511904	2562.887327
564.868164	2565.342369
565.224370	2564.954200
565.580520	2562.368088
565.936615	2560.807851
566.292654	2564.039231
566.648638	2563.696432
567.004567	2563.830023
567.360441	2561.921946
567.716260	2563.535116
568.072023	2563.731721
568.427732	2560.301215
568.783385	2560.157543
569.138982	2558.715773
569.494525	2559.736606
569.850013	2558.917419
570.205445	2565.183573
570.560823	2563.111659
570.916145	2563.739282
571.271412	2563.189797
571.626625	2564.576114
571.981782	2564.621484
572.336884	2562.605023
572.691931	2564.457647
573.046923	2560.180228
573.401860	2560.951524
573.756743	2560.691905
574.111570	2561.276679
574.466342	2561.402707
574.821059	2563.555280
575.175722	2562.045455
575.530330	2561.092677
575.884882	2562.456309
576.239380	2561.503531
576.593823	2561.465722
576.948211	2562.201730
577.302544	2559.156873
577.656823	2561.238870
578.011047	2561.737944
578.365216	2559.739127
578.719330	2559.824826
579.073389	2562.683161
579.427394	2559.814744
579.781344	2559.595454
580.135239	2563.134344
580.489080	2561.881617
580.842866	2561.939590
581.196597	2562.242060
581.550273	2559.655948
581.903895	2560.923798
582.257463	2561.921946
582.610975	2560.396997
582.964434	2560.762481
583.317837	2561.090156
583.671186	2563.462019
584.024481	2562.920095
584.377721	2559.847512
584.730906	2559.774415
585.084037	2559.895403
585.437113	2559.257697
585.790135	2561.203582
586.143103	2557.843653
586.496016	2560.419683
586.848874	2556.563200
587.201679	2558.980433
587.554428	2553.901471
587.907124	2557.294167
588.259765	2553.621687
588.612352	2558.123437
588.964884	2559.363561
589.317362	2558.020093
589.669786	2557.873900
590.022155	2556.099414
590.374470	2559.383725
590.726731	2560.311298
591.078937	2556.147305
591.431090	2559.292985
591.783188	2561.742985
592.135232	2557.208468
592.487222	2560.530588
592.839157	2559.499672
593.191038	2557.452963
593.542866	2559.083777
593.894639	2555.416337
594.246358	2559.572769
594.598022	2554.214022
594.949633	2557.112686
595.301190	2554.685370
595.652692	2559.081256
596.004141	2556.106975
596.355535	2559.391287
596.706876	2555.101265
597.058162	2556.850546
597.409395	2555.801986
597.760573	2557.838612
598.111698	2556.371636
598.462768	2558.161246
598.813785	2560.364230
599.164748	2556.590926
599.515657	2556.424568
599.866511	2552.933569
600.217312	2556.578323
600.568060	2555.184444
600.918753	2559.330793
601.269392	2555.406255
601.619978	2555.234856
601.970510	2558.740978
602.320988	2554.191337
602.671412	2556.492624
603.021783	2560.535629
603.372100	2555.812068
603.722363	2557.037068
604.072572	2556.296019
604.422728	2558.907336
604.772830	2553.498178
605.122878	2552.598332
605.472872	2552.845349
605.822813	2552.699155
606.172701	2556.273333
606.522534	2557.145453
606.872314	2556.905998
607.222041	2556.331307
607.571714	2556.202757
607.921333	2555.963303
608.270899	2557.609239
608.620411	2559.746688
608.969870	2557.692418
609.319276	2558.803993
609.668627	2559.398849
610.017926	2561.284240
610.367171	2565.793552
610.716362	2561.677450
611.065500	2561.196020
611.414585	2559.827347
611.763616	2561.707697
612.112594	2561.027142
612.461518	2560.109652
612.810389	2558.332645
613.159207	2558.287274
613.507971	2555.711245
613.856682	2561.385063
614.205340	2556.459856
614.553945	2558.932542
614.902496	2556.331307
615.250994	2557.301729
615.599439	2558.239383
615.947830	2558.352809
616.296169	2553.883827
616.644454	2558.194013
616.992686	2558.289795
617.340864	2560.699467
617.688990	2556.341389
618.037063	2558.720814
618.385082	2557.992367
618.733048	2555.701162
619.080961	2558.060423
619.428821	2558.511606
619.776628	2557.944476
620.124382	2558.763663
620.472083	2554.597150
620.819731	2557.939435
621.167326	2558.216698
621.514868	2556.311142
621.862357	2556.709393
622.209793	2557.543704
622.557176	2556.598488
622.904506	2556.016235
623.251783	2549.102292
623.599007	2554.266954
623.946179	2551.101110
624.293297	2551.499361
624.640363	2554.486244
624.987376	2554.055226
625.334336	2555.151677
625.681243	2551.703527
626.028097	2553.394835
626.374899	2554.332489
626.721647	2554.030020
627.068343	2554.166131
627.414987	2554.725699
627.761577	2556.507747
628.108115	2555.459187
628.454600	2555.683518
628.801032	2554.082952
629.147412	2556.384239
629.493739	2553.788045
629.840014	2553.901471
630.186236	2553.258723
630.532405	2556.618652
630.878521	2551.305276
631.224585	2556.215360
631.570597	2552.623538
631.916556	2552.278219
632.262462	2554.632438
632.608316	2554.332489
632.954117	2550.206305
633.299866	2552.255534
633.645562	2551.660678
633.991206	2552.767211
634.336797	2554.803837
634.682336	2550.712941
635.027823	2555.738971
635.373257	2550.322251
635.718639	2549.702189
636.063968	2551.282591
636.409245	2552.048847
636.754470	2550.695297
637.099642	2550.753270
637.444762	2552.961295
637.789829	2550.647406
638.134845	2550.614638
638.479808	2550.158414
638.824719	2549.445091
639.169577	2550.352498
639.514383	2549.871068
639.859137	2547.128680
640.203839	2552.275698
640.548489	2548.832590
640.893086	2547.882333
641.237632	2544.361087
641.582125	2547.995759
641.926566	2543.562064
642.270955	2548.620862
642.615292	2548.588094
642.959576	2551.827036
643.303809	2550.982643
643.647990	2550.773435
643.992118	2549.253527
644.336195	2548.938455
644.680219	2548.867878
645.024192	2550.113043
645.368112	2549.777807
645.711981	2547.095913
646.055797	2553.072201
646.399562	2549.490461
646.743274	2551.912735
647.086935	2549.608928
647.430544	2549.429967
647.774101	2553.331820
648.117606	2550.430636
648.461059	2550.750749
648.804460	2552.109340
649.147810	2553.687222
649.491108	2547.537014
649.834354	2551.827036
650.177548	2548.376366
650.520690	2550.886861
650.863781	2548.673794
651.206820	2552.056408
651.549807	2548.870399
651.892742	2547.332847
652.235626	2549.684545
652.578458	2549.838301
652.921238	2547.897456
653.263967	2550.629762
653.606644	2550.178578
653.949269	2548.822508
654.291843	2549.026675
654.634365	2547.426108
654.976836	2545.792775
655.319255	2546.359904
655.661622	2548.706562
656.003938	2548.852755
656.346203	2548.220090
656.688416	2547.153886
657.030577	2546.501057
657.372687	2549.901315
657.714746	2548.265461
658.056753	2545.709596
658.398708	2542.231199
658.740612	2545.087013
659.082465	2545.530635
659.424266	2546.821170
659.766016	2543.017619
660.107715	2549.009031
660.449362	2543.942671
660.790958	2548.441901
661.132503	2545.875954
661.473996	2549.682025
661.815438	2547.920142
662.156829	2548.898125
662.498168	2546.962322
662.839456	2546.901828
663.180693	2546.412837
663.521879	2547.557178
663.863013	2549.523228
664.204097	2546.594318
664.545129	2548.542724
664.886110	2551.602704
665.227040	2548.431819
665.567918	2550.889381
665.908746	2548.613300
666.249522	2548.542724
666.590248	2546.475851
666.930922	2550.680173
667.271545	2544.867723
667.612118	2549.508105
667.952639	2549.976932
668.293109	2548.303269
668.633528	2547.085831
668.973896	2545.412167
669.314213	2547.020296
669.654480	2548.724206
669.994695	2549.011551
670.334859	2549.124977
670.674973	2549.876109
671.015035	2547.199257
671.355047	2546.523742
671.695008	2549.881150
672.034918	2548.396531
672.374777	2548.462066
672.714585	2549.490461
673.054342	2546.551468
673.394049	2548.928372
673.733705	2550.405430
674.073310	2546.627086
674.412864	2548.494833
674.752368	2550.057591
675.091820	2550.251675
675.431223	2547.710934
675.770574	2543.365459
676.109875	2543.436035
676.449125	2545.215563
676.788324	2544.005686
677.127473	2543.105840
677.466571	2543.040305
677.805619	2548.683876
678.144616	2547.902498
678.483562	2548.033567
678.822458	2541.855633
679.161303	2547.295038
679.500098	2544.968546
679.838842	2546.894267
680.177535	2544.378731
680.516179	2546.811088
680.854771	2546.939637
681.193314	2547.040460
681.531805	2545.283618
681.870247	2548.661191
682.208638	2547.204298
682.546978	2551.201933
682.885268	2546.032229
683.223508	2548.890564
683.561697	2549.739998
683.899836	2549.205636
684.237925	2542.581560
684.575963	2549.878630
684.913951	2544.983669
685.251889	2548.106664
685.589776	2547.670604
685.927614	2549.046839
686.265401	2546.380069
686.603137	2548.794782
686.940824	2549.200595
687.278460	2551.406099
687.616046	2546.974925
687.953582	2548.920811
688.291068	2547.380738
688.628504	2548.136911
688.965889	2548.121788
689.303224	2549.974412
689.640510	2548.729247
689.977745	2547.184133
690.314930	2547.529452
690.652065	2547.640357
690.989150	2546.145655
691.326185	2547.680687
691.663170	2546.359904
692.000105	2544.877805
692.336990	2543.834286
692.673825	2545.656663
693.010610	2548.711603
693.347345	2540.277752
693.684030	2541.031405
694.020665	2543.650284
694.357251	2538.954449
694.693786	2541.618699
695.030272	2543.816642
695.366707	2543.441076
695.703093	2543.662887
696.039429	2544.061138
696.375716	2542.911755
696.711952	2546.188505
697.048139	2544.499719
697.384276	2548.111705
697.720363	2541.885880
698.056400	2545.898639
698.392388	2542.752959
698.728326	2542.924358
699.064214	2543.927548
699.400053	2545.911242
699.735842	2544.174564
700.071581	2544.666077
700.407270	2545.069369
700.742910	2545.457538
701.078501	2542.972249
701.414042	2543.231868
701.749533	2543.158772
702.084974	2545.376879
702.420366	2545.142466
702.755709	2543.564585
703.091002	2544.403937
703.426246	2544.978628
703.761440	2540.776827
704.096584	2544.199770
704.431679	2543.519214
704.766725	2544.393854
705.101721	2543.370500
705.436668	2546.022147
705.771565	2540.242464
706.106413	2543.680531
706.441212	2542.758000
706.775961	2542.563916
707.110661	2545.081972
707.445311	2543.234389
707.779913	2543.020140
708.114465	2543.466282
708.448967	2542.591642
708.783421	2540.688606
709.117825	2544.270346
709.452180	2541.835469
709.786485	2543.620037
710.120742	2545.502908
710.454949	2542.763041
710.789107	2543.289842
711.123216	2539.909748
711.457275	2543.667928
711.791286	2542.362269
712.125247	2543.027702
712.459159	2543.385624
712.793023	2544.600542
713.126837	2545.018957
713.460602	2546.269164
713.794318	2542.861344
714.127985	2545.124822
714.461602	2543.519214
714.795171	2545.099616
715.128691	2546.107847
715.462162	2544.444266
715.795584	2544.519883
716.128957	2544.993752
716.462281	2541.893442
716.795556	2542.516025
717.128782	2543.128525
717.461960	2543.567105
717.795088	2542.354708
718.128167	2542.679862
718.461198	2543.602393
718.794180	2541.192722
719.127113	2541.432177
719.459997	2543.012578
719.792833	2541.603576
720.125619	2542.208514
720.458357	2539.597197
720.791046	2540.842362
721.123686	2539.849254
721.456278	2541.210366
721.788821	2541.631302
722.121315	2539.763555
722.453761	2540.756662
722.786158	2540.003009
723.118506	2541.679193
723.450805	2544.013247
723.783056	2541.220448
724.115259	2540.512166
724.447412	2538.901517
724.779518	2541.306148
725.111574	2540.817156
725.443582	2538.846065
725.775542	2538.740200
726.107453	2542.957126
726.439315	2542.861344
726.771129	2547.844524
727.102895	2542.831097
727.434612	2543.196580
727.766281	2542.175747
728.097901	2538.508307
728.429473	2536.678368
728.760996	2540.081147
729.092471	2536.559901
729.423897	2543.166333
729.755276	2542.813453
730.086606	2545.485264
730.417887	2540.207176
730.749120	2544.013247
731.080305	2541.767413
731.411442	2542.185829
731.742530	2543.746066
732.073570	2547.123639
732.404562	2542.382434
732.735506	2541.341436
733.066401	2543.579708
733.397249	2543.914945
733.728048	2541.016281
734.058798	2542.788247
734.389501	2541.094419
734.720156	2541.530479
735.050762	2540.154244
735.381320	2541.278421
735.711831	2537.565612
736.042293	2541.575849
736.372707	2538.314223
736.703073	2542.631971
737.033391	2541.936292
737.363661	2541.434697
737.693883	2539.098122
738.024056	2541.341436
738.354182	2541.096940
738.684260	2543.269677
739.014290	2543.675490
739.344272	2541.681714
739.674207	2540.771785
740.004093	2542.798329
740.333931	2538.518390
740.663722	2541.548123
740.993464	2543.466282
741.323159	2539.103163
741.652806	2543.834286
741.982405	2544.280428
742.311956	2540.865047
742.641460	2541.409491
742.970915	2541.333874
743.300323	2538.089892
743.629683	2538.568801
743.958996	2538.407484
744.288260	2539.629964
744.617477	2537.570653
744.946647	2536.466640
745.275768	2539.440921
745.604842	2536.189377
745.933869	2541.348997
746.262847	2534.893800
746.591778	2540.302958
746.920662	2537.245498
747.249498	2539.869419
747.578286	2540.466796
747.907027	2537.817669
748.235720	2539.448482
748.564365	2539.088040
748.892963	2538.742721
749.221514	2539.851775
749.550017	2541.444779
749.878473	2540.313040
750.206881	2542.100129
750.535242	2539.579552
750.863555	2541.505273
751.191821	2540.723894
751.520039	2542.422763
751.848210	2541.633823
752.176334	2540.015612
752.504411	2541.117104
752.832440	2540.413863
753.160421	2538.657021
753.488356	2538.760365
753.816243	2538.483102
754.144082	2540.867567
754.471875	2540.449152
754.799620	2537.991589
755.127318	2539.423277
755.454969	2541.076775
755.782572	2541.338915
756.110129	2539.050231
756.437638	2541.477547
756.765100	2537.311033
757.092515	2538.898997
757.419882	2540.171888
757.747203	2537.162319
758.074477	2538.828421
758.401703	2537.575694
758.728882	2539.385468
759.056014	2539.337577
759.383099	2539.604758
759.710138	2541.069213
760.037129	2538.725077
760.364073	2540.315561
760.690970	2537.850437
761.017820	2540.902855
761.344623	2536.504449
761.671379	2540.645757
761.998088	2535.017308
762.324751	2540.401261
762.651366	2538.667104
762.977935	2543.257074
763.304456	2542.884029
763.630931	2548.063814
763.957359	2545.399565
764.283740	2542.853782
764.610074	2542.586601
764.936362	2540.925541
765.262602	2542.818494
765.588796	2539.803884
765.914943	2540.676003
766.241044	2539.340098
766.567097	2539.307330
766.893104	2538.382278
767.219064	2536.736342
767.544978	2539.682896
767.870845	2539.690458
768.196665	2538.972093
768.522438	2537.076620
768.848165	2537.527803
769.173846	2539.140972
769.499479	2539.082999
769.825066	2539.488812
770.150607	2538.036959
770.476101	2538.299099
770.801548	2539.632485
771.126949	2535.075282
771.452303	2535.584438
771.777611	2537.951260
772.102872	2535.919675
772.428087	2535.796167
772.753256	2535.130734
773.078378	2537.704243
773.403453	2538.362114
773.728482	2538.404964
774.053465	2537.308513
774.378401	2538.006712
774.703291	2538.354552
775.028135	2534.256094
775.352932	2538.515869
775.677683	2535.962525
776.002388	2538.689789
776.327046	2538.969573
776.651658	2534.944212
776.976224	2536.678368
777.300743	2537.273225
777.625216	2536.943029
777.949643	2536.494366
778.274024	2538.833462
778.598359	2534.624098
778.922647	2532.516896
779.246889	2535.642411
779.571086	2533.441948
779.895236	2531.932122
780.219339	2534.263656
780.543397	2535.705426
780.867409	2536.020498
781.191374	2534.165353
781.515294	2537.018646
781.839167	2538.009233
782.162995	2536.484284
782.486776	2535.281969
782.810511	2537.230375
783.134201	2535.763399
783.457844	2536.391023
783.781441	2538.523431
784.104993	2535.786084
784.428498	2537.532844
784.751958	2535.188708
785.075372	2534.674510
785.398739	2534.351876
785.722061	2537.782381
786.045337	2535.781043
786.368568	2536.985879
786.691752	2537.033770
787.014891	2536.738862
787.337983	2535.390354
787.661030	2538.987217
787.984031	2537.681558
788.306987	2538.500746
788.629897	2536.655683
788.952760	2537.336239
789.275579	2538.488143
789.598351	2537.593338
789.921078	2535.370189
790.243759	2536.995961
790.566395	2535.705426
790.888984	2537.704243
791.211529	2532.320291
791.534027	2537.739531
791.856480	2537.578214
792.178888	2537.270704
792.501249	2532.030425
792.823566	2538.112577
793.145836	2534.372041
793.468062	2535.208872
793.790241	2534.679551
794.112375	2536.688451
794.434464	2537.215251
794.756507	2537.295910
795.078505	2534.777853
795.400457	2532.781557
795.722364	2532.416073
796.044226	2537.563091
796.366042	2530.485311
796.687812	2534.435055
797.009538	2535.317257
797.331218	2537.691640
797.652852	2536.111239
797.974442	2535.569315
798.295986	2538.016795
798.617484	2536.988399
798.938938	2534.994623
799.260346	2537.086702
799.581709	2535.521424
799.903026	2539.077958
800.224299	2535.166022
800.545526	2534.543440
800.866708	2536.663245
801.187845	2532.839530
801.508936	2533.280631
801.829983	2537.636188
802.150984	2537.071578
802.471940	2535.324819
802.792851	2534.651825
803.113717	2538.934285
803.434538	2535.672658
803.755314	2536.181815
804.076045	2535.390354
804.396731	2536.706095
804.717372	2534.387164
805.037967	2535.468492
805.358518	2532.910106
805.679024	2537.192566
805.999485	2533.542771
806.319901	2534.513193
806.640272	2535.579397
806.960598	2536.375899
807.280879	2534.969417
807.601115	2534.974458
807.921306	2534.470343
808.241453	2536.862371
808.561554	2536.328008
808.881611	2537.978986
809.201623	2535.062679
809.521590	2535.531506
809.841513	2536.007895
810.161390	2534.487987
810.481223	2531.929602
810.801011	2535.980169
811.120755	2535.458409
811.440453	2538.664583
811.760107	2534.888759
812.079716	2535.314736
812.399281	2534.787936
812.718801	2533.636032
813.038276	2529.938346
813.357707	2533.532688
813.677093	2534.863553
813.996434	2537.389171
814.315731	2537.663914
814.634983	2534.641742
814.954191	2535.982689
815.273354	2536.292720
815.592473	2535.128214
815.911547	2533.255425
816.230577	2533.900693
816.549562	2536.784233
816.868502	2533.441948
817.187399	2536.476722
817.506250	2535.113090
817.825058	2535.183666
818.143821	2537.149716
818.462539	2538.518390
818.781213	2537.074099
819.099843	2538.142824
819.418429	2536.854809
819.736970	2538.757844
820.055466	2538.374717
820.373919	2540.484440
820.692327	2539.261960
821.010691	2543.846889
821.329011	2548.552806
821.647286	2561.616957
821.965517	2570.559963
822.283704	2579.674370
822.601847	2581.753846
822.919945	2574.900397
823.237999	2564.271124
823.556010	2563.701474
823.873976	2556.353992
824.191897	2554.110678
824.509775	2547.136242
824.827609	2547.998279
825.145398	2542.947043
825.463144	2543.562064
825.780845	2544.270346
826.098502	2546.836293
826.416116	2547.466438
826.733685	2551.065822
827.051210	2553.561193
827.368692	2554.337530
827.686129	2545.177754
828.003522	2541.853113
828.320872	2537.734490
828.638177	2540.728936
828.955439	2535.781043
829.272656	2533.278110
829.589830	2534.049407
829.906960	2537.152237
830.224046	2534.997144
830.541088	2536.149047
830.858086	2534.298944
831.175041	2536.776671
831.491952	2534.263656
831.808819	2536.222144
832.125642	2537.200128
832.442421	2537.399253
832.759157	2535.899510
833.075849	2543.062990
833.392497	2540.476878
833.709101	2543.050387
834.025662	2542.999975
834.342179	2542.047197
834.658653	2541.260777
834.975083	2537.875642
835.291469	2542.316899
835.607811	2536.842206
835.924110	2532.713501
836.240366	2537.328677
836.556578	2533.250384
836.872746	2537.157278
837.188871	2535.453368
837.504952	2535.491177
837.820990	2532.539581
838.136984	2533.734335
838.452935	2532.378264
838.768842	2534.866074
839.084706	2535.276928
839.400526	2536.673327
839.716303	2536.572504
840.032037	2538.745242
840.347727	2538.682227
840.663373	2537.290869
840.978977	2535.823893
841.294537	2537.558050
841.610054	2535.982689
841.925527	2536.640560
842.240957	2534.714839
842.556344	2534.639222
842.871687	2534.818183
843.186987	2532.809283
843.502244	2532.597554
843.817458	2535.289531
844.132629	2533.734335
844.447756	2533.545291
844.762840	2530.200486
845.077881	2531.445651
845.392879	2527.964734
845.707833	2529.346010
846.022745	2528.466329
846.337613	2532.156453
846.652438	2530.727286
846.967221	2531.112935
847.281960	2534.528316
847.596656	2531.785929
847.911309	2533.746938
848.225919	2532.201824
848.540485	2532.789118
848.855009	2532.090918
849.169490	2532.983203
849.483928	2531.024714
849.798323	2533.222657
850.112675	2534.051927
850.426984	2530.487832
850.741251	2530.777698
851.055474	2532.718542
851.369654	2531.339787
851.683792	2530.702081
851.997887	2534.092257
852.311938	2534.031763
852.625947	2532.587472
852.939914	2532.428676
853.253837	2535.571835
853.567718	2530.195445
853.881555	2533.270548
854.195350	2534.276259
854.509103	2533.356248
854.822812	2534.472864
855.136479	2533.015970
855.450103	2531.586803
855.763685	2532.950435
856.077224	2531.632173
856.390720	2531.612009
856.704173	2531.901875
857.017584	2531.803573
857.330953	2529.693850
857.644278	2532.751310
857.957561	2536.726259
858.270802	2534.757689
858.584000	2532.181659
858.897155	2533.510003
859.210268	2531.748120
859.523339	2530.820548
859.836367	2531.753161
860.149352	2532.355579
860.462295	2534.679551
860.775195	2530.608819
861.088054	2528.975485
861.400869	2531.082688
861.713642	2526.321318
862.026373	2529.923222
862.339062	2532.635363
862.651708	2532.655528
862.964312	2531.433048
863.276873	2533.376413
863.589392	2532.206865
863.901869	2535.836496
864.214303	2531.927081
864.526696	2535.813811
864.839045	2532.784077
865.151353	2534.634181
865.463619	2531.763243
865.775842	2531.440610
866.088023	2533.457071
866.400162	2534.006557
866.712258	2532.779036
867.024313	2534.911444
867.336325	2533.802390
867.648296	2532.947915
867.960224	2532.809283
868.272110	2532.758871
868.583954	2529.204858
868.895755	2533.567977
869.207515	2531.057482
869.519233	2533.741896
869.830909	2534.876156
870.142542	2534.077133
870.454134	2530.926412
870.765684	2533.333563
871.077191	2532.365661
871.388657	2533.681403
871.700081	2530.873480
872.011463	2536.310364
872.322803	2532.784077
872.634101	2531.629653
872.945357	2531.251566
873.256571	2533.522606
873.567744	2533.363810
873.878874	2533.021011
874.189963	2533.903213
874.501010	2533.051258
874.812015	2530.588655
875.122979	2533.739376
875.433900	2533.711649
875.744780	2533.933460
876.055618	2531.044879
876.366415	2532.529499
876.677169	2532.219468
876.987882	2530.835671
877.298554	2531.755682
877.609183	2528.985568
877.919771	2530.671834
878.230317	2533.701567
878.540822	2536.229706
878.851285	2535.037473
879.161707	2533.573018
879.472087	2535.755837
879.782425	2536.096115
880.092722	2536.796836
880.402977	2543.267157
880.713191	2548.378887
881.023363	2553.155380
881.333494	2559.771894
881.643583	2560.071843
881.953631	2557.062274
882.263637	2558.067984
882.573602	2554.380380
882.883526	2554.173693
883.193408	2547.282436
883.503248	2547.496685
883.813048	2543.133566
884.122806	2543.824204
884.432522	2541.273380
884.742197	2542.266487
885.051831	2538.694830
885.361424	2535.498738
885.670975	2536.632998
885.980485	2535.213913
886.289954	2535.750796
886.599382	2533.416742
886.908768	2534.971938
887.218113	2535.105528
887.527417	2535.067720
887.836680	2531.480939
888.145901	2532.721063
888.455082	2532.854653
888.764221	2535.912113
889.073319	2533.809952
889.382376	2535.478574
889.691392	2530.487832
890.000366	2535.123173
890.309300	2533.046217
890.618193	2530.528161
890.927044	2531.763243
891.235855	2531.710311
891.544625	2532.937832
891.853353	2529.895496
892.162041	2532.945394
892.470687	2534.185518
892.779293	2534.180477
893.087858	2529.822399
893.396381	2529.625794
893.704864	2530.598737
894.013306	2533.099149
894.321707	2539.992927
894.630068	2540.401261
894.938387	2541.341436
895.246665	2542.334543
895.554903	2540.570139
895.863100	2538.367155
896.171256	2537.457227
896.479371	2537.127031
896.787446	2536.564943
897.095480	2535.980169
897.403473	2533.205013
897.711425	2533.782226
898.019336	2534.913965
898.327207	2530.896165
898.635038	2533.419262
898.942827	2534.939170
899.250576	2531.130579
899.558284	2534.979500
899.865952	2532.708460
900.173579	2534.689633
900.481165	2533.414221
900.788711	2533.225178
901.096216	2532.123686
901.403681	2532.763912
901.711105	2532.312729
902.018489	2533.071423
902.325832	2534.079654
902.633135	2532.090918
902.940397	2533.615867
903.247619	2533.537730
903.554800	2533.988913
903.861941	2538.014274
904.169041	2544.466951
904.476101	2544.250182
904.783121	2544.414019
905.090100	2543.468803
905.397039	2541.739687
905.703938	2536.325488
906.010796	2538.107536
906.317614	2533.404139
906.624391	2536.247350
906.931129	2534.581248
907.237826	2528.075639
907.544483	2533.096629
907.851099	2531.692667
908.157675	2534.666948
908.464211	2533.618388
908.770707	2528.743592
909.077163	2528.279806
909.383578	2529.257790
909.689954	2528.995650
909.996289	2528.841895
910.302584	2528.161339
910.608839	2531.624612
910.915054	2530.437420
911.221229	2532.068233
911.527363	2530.172759
911.833458	2531.284334
912.139513	2533.734335
912.445527	2532.259797
912.751502	2529.517409
913.057436	2533.812473
913.363331	2532.451361
913.669186	2532.466484
913.975000	2533.673841
914.280775	2534.152750
914.586510	2533.300795
914.892205	2534.679551
915.197859	2538.218441
915.503475	2537.152237
915.809050	2542.969728
916.114585	2546.120450
916.420081	2542.742877
916.725536	2539.745911
917.030952	2542.478216
917.336328	2540.980993
917.641665	2538.969573
917.946961	2536.617875
918.252218	2535.750796
918.557435	2535.221475
918.862612	2534.523275
919.167750	2535.236598
919.472848	2530.586134
919.777906	2535.304654
920.082925	2531.954807
920.387904	2532.065713
920.692843	2530.868439
920.997743	2533.283151
921.302603	2529.547656
921.607423	2532.753830
921.912204	2532.698377
922.216946	2529.993798
922.521647	2530.984385
922.826310	2531.967410
923.130932	2530.185362
923.435516	2533.293234
923.740059	2530.288706
924.044564	2531.559077
924.349028	2532.867256
924.653454	2528.463808
924.957840	2530.762574
925.262186	2526.795186
925.566493	2526.865762
925.870761	2525.557583
926.174989	2532.784077
926.479178	2532.055630
926.783328	2528.597399
927.087438	2532.153933
927.391509	2533.139478
927.695541	2527.717717
927.999533	2528.166380
928.303486	2530.281144
928.607400	2529.540095
928.911275	2527.299302
929.215110	2530.245856
929.518906	2527.826102
929.822663	2529.600588
930.126381	2527.659744
930.430060	2530.775177
930.733699	2526.301153
931.037299	2528.635207
931.340861	2530.346679
931.644383	2531.097811
931.947866	2529.577903
932.251309	2531.959848
932.554714	2528.156298
932.858080	2532.988244
933.161407	2528.962882
933.464694	2529.676206
933.767943	2530.588655
934.071153	2528.975485
934.374323	2528.534384
934.677455	2531.496062
934.980548	2527.821061
935.283602	2528.383150
935.586617	2529.141843
935.889593	2528.617563
936.192530	2527.765608
936.495428	2530.087060
936.798287	2528.461288
937.101108	2530.442461
937.403890	2531.735517
937.706632	2531.180990
938.009336	2529.671165
938.312002	2530.455064
938.614628	2526.979188
938.917216	2529.560259
939.219765	2529.330887
939.522275	2529.219981
939.824747	2528.680578
940.127179	2526.664116
940.429573	2526.323838
940.731929	2526.870804
941.034246	2524.672861
941.336524	2528.526823
941.638763	2527.715197
941.940964	2530.013963
942.243126	2528.849457
942.545250	2530.654190
942.847335	2530.092101
943.149381	2527.198479
943.451389	2527.054806
943.753359	2528.879703
944.055290	2530.134951
944.357182	2527.964734
944.659036	2529.872811
944.960851	2528.622605
945.262628	2529.840043
945.564367	2529.565300
945.866067	2530.286185
946.167729	2528.131092
946.469352	2529.104035
946.770937	2528.063037
947.072484	2529.219981
947.373992	2531.359951
947.675462	2527.962213
947.976893	2529.671165
948.278286	2530.500434
948.579641	2530.586134
948.880958	2529.519930
949.182236	2528.168901
949.483476	2531.816176
949.784678	2528.932636
950.085841	2529.635877
950.386967	2532.839530
950.688054	2529.376257
950.989103	2527.803417
951.290114	2530.034128
951.591087	2530.286185
951.892021	2526.807789
952.192917	2528.809127
952.493776	2528.012625
952.794596	2531.244005
953.095378	2530.182842
953.396122	2528.546987
953.696828	2528.925074
953.997496	2530.162677
954.298126	2526.948942
954.598718	2528.811648
954.899272	2525.938190
955.199788	2530.041689
955.500266	2528.955321
955.800706	2528.352903
956.101108	2525.577748
956.401472	2526.008766
956.701798	2526.913653
957.002087	2525.870135
957.302337	2526.817872
957.602550	2529.623274
957.902724	2529.814838
958.202861	2528.458767
958.502960	2529.477080
958.803022	2529.363654
959.103045	2528.990609
959.403031	2526.177645
959.702979	2528.831813
960.002889	2529.807276
960.302762	2527.407687
960.602596	2528.718387
960.902393	2528.032790
961.202153	2528.872142
961.501875	2527.876514
961.801559	2528.776360
962.101205	2528.161339
962.400814	2527.745444
962.700385	2531.312060
962.999918	2526.432223
963.299414	2529.779549
963.598873	2525.925587
963.898293	2527.364837
964.197677	2529.053623
964.497022	2528.020187
964.796331	2528.690660
965.095601	2524.509023
965.394835	2529.184693
965.694030	2529.547656
965.993189	2529.809796
966.292309	2529.648479
966.591393	2529.288037
966.890439	2527.836185
967.189447	2527.485824
967.488419	2528.914992
967.787353	2528.771319
968.086249	2527.150588
968.385108	2529.356092
968.683930	2531.420445
968.982714	2527.705115
969.281462	2526.530526
969.580172	2527.831143
969.878844	2527.919364
970.177480	2525.918026
970.476078	2526.575896
970.774639	2528.365506
971.073162	2527.984899
971.371649	2525.739065
971.670098	2525.106400
971.968510	2525.320649
972.266885	2523.213447
972.565223	2526.401976
972.863524	2528.602440
973.161788	2527.541277
973.460014	2529.940866
973.758204	2527.745444
974.056356	2526.827954
974.354471	2527.092614
974.652550	2527.364837
974.950591	2526.437264
975.248595	2529.789632
975.546563	2528.637728
975.844493	2529.835002
976.142386	2522.542973
976.440243	2526.160001
976.738062	2525.580268
977.035845	2526.394415
977.333590	2526.129754
977.631299	2527.921884
977.928971	2530.971782
978.226606	2528.620084
978.524204	2527.158149
978.821765	2526.686802
979.119290	2527.387522
979.416777	2528.022707
979.714228	2528.121010
980.011642	2528.289888
980.309020	2528.970444
980.606360	2526.250742
980.903664	2528.133613
981.200931	2528.302491
981.498162	2526.704446
981.795356	2525.638242
982.092513	2527.228726
982.389633	2526.091945
982.686717	2526.185207
982.983764	2529.441792
983.280775	2529.177132
983.577749	2527.362316
983.874686	2529.681247
984.171587	2525.907943
984.468451	2529.777029
984.765279	2527.911802
985.062070	2529.391381
985.358824	2528.108407
985.655543	2528.347862
985.952224	2526.129754
986.248869	2527.092614
986.545478	2526.107069
986.842050	2523.334434
987.138586	2523.389887
987.435086	2522.568179
987.731549	2523.805782
988.027975	2526.223015
988.324366	2527.231246
988.620719	2527.674868
988.917037	2528.504138
989.213318	2527.531195
989.509563	2528.184024
989.805772	2526.832995
990.101944	2528.675537
990.398080	2529.003212
990.694180	2526.926256
990.990244	2527.211082
991.286271	2526.999353
991.582262	2527.594209
991.878217	2524.791328
992.174136	2527.541277
992.470019	2528.758716
992.765865	2530.318953
993.061676	2526.961544
993.357450	2527.662265
993.653188	2526.906092
993.948890	2527.886596
994.244556	2525.081194
994.540186	2528.017666
994.835780	2528.274765
995.131337	2529.275434
995.426859	2526.674199
995.722345	2526.033972
996.017795	2526.031452
996.313208	2527.269055
996.608586	2528.753675
996.903928	2528.675537
997.199234	2527.430372
997.494504	2527.117820
997.789738	2527.364837
998.084936	2527.052285
998.380099	2530.533202
998.675225	2525.383663
998.970316	2525.623118
999.265371	2528.413397
999.560390	2526.056657
999.855373	2531.211237
1000.150320	2529.630835
1000.445232	2526.664116
1000.740108	2527.332069
1001.034948	2529.950949
1001.329752	2526.666637
1001.624521	2529.106555
1001.919254	2523.866276
1002.213951	2524.572037
1002.508613	2525.933149
1002.803239	2524.907274
1003.097829	2521.799403
1003.392384	2528.115969
1003.686903	2529.005732
1003.981386	2527.344672
1004.275834	2526.873324
1004.570246	2527.735362
1004.864623	2527.677388
1005.158964	2527.135464
1005.453270	2527.364837
1005.747540	2526.936339
1006.041775	2524.834177
1006.335974	2528.005063
1006.630138	2527.591689
1006.924266	2525.287881
1007.218359	2527.072450
1007.512416	2527.183355
1007.806438	2530.525640
1008.100425	2524.735875
1008.394376	2525.487007
1008.688292	2526.028931
1008.982172	2526.311236
1009.276017	2530.505476
1009.569827	2526.112110
1009.863602	2527.236287
1010.157341	2526.318797
1010.451045	2527.301822
1010.744714	2525.741585
1011.038347	2527.105217
1011.331945	2526.293592
1011.625508	2527.442975
1011.919036	2525.600433
1012.212528	2525.532377
1012.505986	2529.396422
1012.799408	2524.297295
1013.092795	2527.760567
1013.386147	2522.628673
1013.679464	2527.679909
1013.972745	2526.379291
1014.265992	2524.866945
1014.559204	2525.277799
1014.852380	2523.009280
1015.145521	2527.362316
1015.438628	2525.550021
1015.731699	2525.741585
1016.024736	2527.702594
1016.317737	2527.440454
1016.610703	2527.037162
1016.903635	2524.771163
1017.196531	2520.186234
1017.489393	2523.329393
1017.782219	2524.544311
1018.075011	2525.534898
1018.367768	2523.977181
1018.660490	2529.141843
1018.953177	2529.141843
1019.245829	2529.141843
