Dividing Wavelength (nm)	Counts (n)	Blue Motor Position (mm): 0.000000	Red Motor Position (mm): 31.700000	
326.493990	2128.022273
326.888308	2128.022273
327.282561	2128.022273
327.676750	2096.583117
328.070874	2094.894331
328.464933	2097.427510
328.858929	2102.589652
329.252859	2112.795468
329.646726	2123.994391
330.040528	2135.929323
330.434265	2158.236429
330.827938	2173.286793
331.221547	2189.085770
331.615091	2208.269881
332.008571	2229.651935
332.401986	2248.276478
332.795338	2267.765578
333.188625	2286.725358
333.581847	2306.864768
333.975006	2322.615853
334.368100	2342.863647
334.761129	2360.046420
335.154095	2378.005531
335.546996	2394.311143
335.939833	2411.514080
336.332606	2427.640731
336.725315	2439.615992
337.117960	2448.705193
337.510540	2461.285392
337.903056	2469.504993
338.295508	2475.161168
338.687896	2485.624083
339.080220	2491.217243
339.472480	2500.281238
339.864676	2505.607217
340.256807	2505.145951
340.648875	2514.154493
341.040879	2515.392096
341.432818	2514.043588
341.824694	2517.796727
342.216506	2519.689680
342.608253	2517.373270
342.999937	2517.648013
343.391557	2519.016686
343.783113	2518.063908
344.174605	2517.645492
344.566033	2514.746829
344.957397	2514.356139
345.348697	2512.616941
345.739934	2509.458658
346.131106	2507.520335
346.522215	2506.436487
346.913260	2503.623523
347.304241	2501.475991
347.695159	2501.667555
348.086012	2500.966835
348.476802	2496.182780
348.867528	2497.498521
349.258191	2493.793273
349.648789	2494.554487
350.039324	2490.909733
350.429796	2492.762357
350.820203	2489.974599
351.210548	2491.144146
351.600828	2487.998466
351.991045	2489.561224
352.381198	2488.253045
352.771288	2487.338075
353.161314	2485.535863
353.551276	2489.727582
353.941175	2484.767087
354.331010	2487.789258
354.720782	2487.814464
355.110490	2488.328662
355.500135	2486.743219
355.889717	2488.565596
356.279235	2487.542242
356.668689	2488.419403
357.058080	2487.622900
357.447408	2487.219608
357.836672	2486.624752
358.225873	2486.050060
358.615010	2482.778352
359.004084	2491.633138
359.393095	2490.357726
359.782043	2491.819661
360.170927	2492.613643
360.559748	2494.297388
360.948505	2492.903509
361.337199	2491.716317
361.725830	2494.199086
362.114398	2497.007008
362.502903	2495.340907
362.891344	2498.703357
363.279722	2495.343428
363.668037	2499.104128
364.056289	2497.153202
364.444478	2497.090187
364.832603	2498.718480
365.220665	2498.872235
365.608665	2499.958604
365.996601	2501.521362
366.384474	2502.811897
366.772284	2506.673421
367.160031	2504.006650
367.547715	2507.013699
367.935336	2509.650222
368.322893	2515.099709
368.710388	2514.136849
369.097820	2522.842922
369.485189	2524.710669
369.872495	2531.173428
370.259738	2538.662062
370.646918	2546.821170
371.034035	2552.431974
371.421090	2564.205589
371.808081	2575.354101
372.195010	2582.136973
372.581875	2593.177100
372.968678	2608.108998
373.355418	2620.822788
373.742096	2637.451034
374.128710	2652.352685
374.515262	2665.878100
374.901751	2681.830832
375.288177	2692.823068
375.674540	2718.270812
376.060841	2734.520972
376.447079	2754.892274
376.833254	2777.204421
377.219367	2787.848818
377.605417	2827.527740
377.991404	2835.933864
378.377329	2855.901874
378.763191	2876.689072
379.148991	2911.266346
379.534727	2938.019750
379.920402	2966.149388
380.306013	2977.839824
380.691563	3030.245139
381.077049	3049.328427
381.462474	3069.646797
381.847835	3105.083588
382.233134	3127.665437
382.618371	3130.609471
383.003545	3195.388297
383.388657	3203.040769
383.773706	3235.039493
384.158693	3252.335692
384.543618	3279.885598
384.928480	3316.486895
385.313280	3358.570448
385.698017	3358.288143
386.082692	3414.234868
386.467305	3416.062287
386.851856	3453.460086
387.236344	3469.523723
387.620770	3502.263497
388.005133	3528.326262
388.389435	3558.101837
388.773674	3565.915626
389.157851	3608.893983
389.541965	3625.471817
389.926018	3592.323710
390.310008	3659.849966
390.693936	3680.685055
391.077802	3723.360943
391.461606	3710.700085
391.845348	3771.957666
392.229027	3771.950104
392.612645	3784.583236
392.996200	3861.249103
393.379694	3901.532964
393.763125	3964.996049
394.146494	3937.113427
394.529801	3997.065350
394.913047	4045.135272
395.296230	4012.486239
395.679351	4066.343406
396.062410	4092.396089
396.445408	4072.032348
396.828343	4104.260445
397.211217	4127.260709
397.594028	4051.817322
397.976778	4115.865181
398.359466	4137.605157
398.742092	4169.175383
399.124656	4091.745781
399.507158	4171.653110
399.889598	4196.937017
400.271977	4257.534207
400.654294	4231.713417
401.036549	4235.900095
401.418742	4207.036969
401.800874	4312.460099
402.182944	4330.477183
402.564952	4398.764653
402.946898	4386.401223
403.328783	4377.571642
403.710606	4292.353457
404.092367	4489.260926
404.474067	4448.541006
404.855705	4457.937717
405.237282	4383.305954
405.618797	4496.114375
406.000250	4529.849776
406.381642	4613.220378
406.762972	4574.146395
407.144240	4579.313578
407.525447	4577.743258
407.906593	4642.277589
408.287677	4684.885422
408.668700	4616.255153
409.049661	4667.634593
409.430560	4707.706725
409.811399	4631.227380
410.192176	4794.013799
410.572891	4734.974326
410.953545	4836.112475
411.334138	4718.840113
411.714669	4783.203045
412.095139	4679.987941
412.475547	4819.585052
412.855894	4802.193072
413.236180	4812.061130
413.616405	4766.032875
413.996568	4853.643088
414.376670	4796.138646
414.756711	4750.780864
415.136691	4782.759423
415.516609	4854.505125
415.896466	4896.828132
416.276262	4930.293832
416.655997	4910.547632
417.035670	5091.537658
417.415283	5183.289179
417.794834	5129.248010
418.174324	5077.021656
418.553753	4988.214169
418.933121	5172.773332
419.312428	5240.559207
419.691674	5179.190721
420.070859	5306.832736
420.449983	5217.921906
420.829045	5331.652857
421.208047	5239.785390
421.586988	5312.791380
421.965867	5321.593235
422.344686	5454.029387
422.723444	5309.970854
423.102141	5126.301455
423.480777	5427.417136
423.859352	5199.219225
424.237866	5456.358400
424.616319	5447.400270
424.994712	5555.583432
425.373044	5433.128763
425.751314	5576.579837
426.129524	5377.353437
426.507673	5571.949537
426.885762	5659.257281
427.263789	5588.119038
427.641756	5468.928517
428.019662	5589.669193
428.397508	5595.262353
428.775292	5541.138005
429.153016	5643.796062
429.530679	5570.091872
429.908282	5657.132435
430.285824	5524.134193
430.663305	5800.674249
431.040726	5536.575761
431.418086	5536.031316
431.795385	5640.456298
432.172624	5653.878370
432.549802	5648.539788
432.926920	5658.538917
433.303977	5668.606101
433.680974	5708.043047
434.057910	5723.267332
434.434786	5732.119598
434.811601	5699.727664
435.188355	5937.609632
435.565050	5806.340506
435.941683	5788.252846
436.318257	6002.123798
436.694770	5987.025542
437.071222	6020.876890
437.447614	5952.251663
437.823946	5865.432912
438.200218	6021.670872
438.576429	5887.346807
438.952580	5984.555377
439.328670	6024.619947
439.704700	5934.259785
440.080670	5918.007105
440.456580	6191.807294
440.832429	6075.805303
441.208218	5921.374596
441.583947	6078.459470
441.959616	6078.262865
442.335224	6005.854252
442.710773	6141.683101
443.086261	6171.579664
443.461689	5966.606349
443.837057	6117.571262
444.212365	6266.333192
444.587612	6166.699827
444.962800	6316.641387
445.337927	6302.042205
445.712995	5906.362040
446.088002	6482.888558
446.462949	6314.138454
446.837837	6245.949286
447.212664	6416.965389
447.587431	6559.987965
447.962139	7101.977538
448.336786	8026.928446
448.711374	7765.340453
449.085901	6844.188054
449.460369	6762.012205
449.834776	6699.746394
450.209124	7098.179029
450.583412	7245.020279
450.957640	7389.532516
451.331808	7156.240518
451.705917	6704.711930
452.079965	6631.350539
452.453954	6839.651016
452.827883	6712.921449
453.201752	6809.908208
453.575562	6612.907477
453.949311	6810.067004
454.323001	6704.301076
454.696632	6778.524505
455.070202	6915.338900
455.443713	7066.039153
455.817164	7171.583270
456.190556	7252.118223
456.563888	7324.786456
456.937160	7369.998044
457.310373	7026.587083
457.683526	7046.872686
458.056619	6942.172962
458.429653	6927.591424
458.802628	6864.665221
459.175542	6975.817622
459.548398	7324.960376
459.921194	7491.827609
460.293930	7492.346848
460.666607	8024.241511
461.039224	8336.709871
461.411782	8455.532387
461.784280	8475.301272
462.156719	8363.357410
462.529099	8240.627999
462.901419	7831.906368
463.273680	7726.513486
463.645882	7737.011688
464.018024	7601.772654
464.390106	7769.915300
464.762130	8156.959968
465.134094	8623.352399
465.505999	9657.494699
465.877845	10875.986954
466.249631	11520.284224
466.621358	11134.938424
466.993026	10500.945272
467.364634	10245.560418
467.736184	9882.309996
468.107674	9546.233913
468.479105	9581.355632
468.850477	9349.119756
469.221790	9119.139797
469.593043	8789.954972
469.964238	8645.793095
470.335373	8660.208275
470.706449	8718.080721
471.077467	8701.301240
471.448425	10005.354479
471.819324	11077.617984
472.190164	11099.915008
472.560945	9857.136994
472.931667	9066.842867
473.302330	8926.618132
473.672934	8571.146210
474.043479	8929.995705
474.413965	8865.289975
474.784393	8745.542406
475.154761	8895.277278
475.525070	8981.191143
475.895321	8811.198394
476.265513	8981.044949
476.635645	9152.000559
477.005719	9145.457141
477.375734	9252.939582
477.745691	9479.179005
478.115588	9610.052400
478.485427	9846.618627
478.855207	10371.193534
479.224928	11172.517705
479.594591	11783.929008
479.964194	11590.358783
480.333739	11521.584842
480.703226	11429.639237
481.072653	11508.208140
481.442022	11725.728887
481.811333	11900.432594
482.180584	11702.000176
482.549777	11403.132850
482.918912	11217.139479
483.287988	11227.047867
483.657005	11222.858668
484.025964	10900.431509
484.394864	11016.718325
484.763706	10969.525563
485.132489	10725.614376
485.501213	10671.563124
485.869879	10728.142514
486.238487	10551.772706
486.607036	10639.181272
486.975527	10410.343135
487.343959	10570.543442
487.712333	10595.260220
488.080648	10509.729483
488.448905	10526.748418
488.817104	10449.754876
489.185244	10678.686275
489.553326	10783.832141
489.921350	11256.881415
490.289315	12177.728823
490.657222	12464.915796
491.025070	12335.622803
491.392861	12187.725432
491.760593	11829.039774
492.128267	11486.780716
492.495883	11154.205714
492.863440	10814.580659
493.230939	10471.066353
493.598380	10370.064316
493.965763	10209.730417
494.333088	10092.276574
494.700354	9975.866249
495.067563	9993.159928
495.434713	9795.377818
495.801805	9868.388849
496.168839	9760.389690
496.535815	9652.879522
496.902733	9613.770251
497.269593	9496.276078
497.636395	9546.922030
498.003139	9478.490887
498.369825	9326.648813
498.736453	9401.958610
499.103023	9298.952714
499.469535	9260.266899
499.835989	9213.303510
500.202385	9120.483265
500.568723	8942.051624
500.935003	9070.984175
501.301226	8842.428342
501.667390	9002.104370
502.033497	9016.937965
502.399546	8856.417544
502.765537	8721.312100
503.131470	8712.023774
503.497345	8779.925596
503.863163	8440.383720
504.228923	8594.174200
504.594625	8587.091379
504.960269	8345.090789
505.325856	8433.696629
505.691385	8218.656130
506.056856	8268.051876
506.422270	8204.999644
506.787625	8087.558403
507.152924	8080.296621
507.518164	8015.550562
507.883347	7888.195892
508.248472	7764.604444
508.613540	7841.905497
508.978550	7696.216151
509.343503	7613.468131
509.708398	7616.807896
510.073236	7617.571630
510.438016	7544.409365
510.802738	7437.874660
511.167403	7397.454689
511.532010	7259.390088
511.896561	7332.459092
512.261053	7297.420552
512.625488	7145.402038
512.989866	7063.810963
513.354186	6989.774057
513.718449	6858.623398
514.082655	6895.517083
514.446803	6769.508401
514.810894	6758.077585
515.174927	6615.181038
515.538904	6569.603966
515.902822	6556.675927
516.266684	6437.205622
516.630488	6335.563357
516.994235	6301.560775
517.357925	6249.667137
517.721558	6215.556170
518.085133	6145.209388
518.448651	6091.568991
518.812112	5979.189069
519.175516	5903.927162
519.538863	5885.942846
519.902152	5800.482685
520.265385	5774.780363
520.628560	5689.957908
520.991678	5597.268733
521.354739	5566.129525
521.717743	5481.758254
522.080690	5409.551287
522.443580	5382.482811
522.806413	5306.656296
523.169189	5256.766517
523.531908	5206.460843
523.894569	5096.311631
524.257174	5032.122619
524.619722	5005.013814
524.982213	4944.325884
525.344647	4887.930496
525.707025	4823.020599
526.069345	4785.451400
526.431608	4705.314697
526.793815	4680.915513
527.155964	4577.339966
527.518057	4543.896951
527.880093	4475.276765
528.242072	4442.242084
528.603995	4365.170403
528.965860	4302.644972
529.327669	4262.318262
529.689421	4210.875808
530.051117	4159.546779
530.412755	4126.423878
530.774337	4067.815423
531.135862	4012.322402
531.497331	3981.170592
531.858743	3906.538829
532.220098	3900.083632
532.581396	3839.894776
532.942638	3799.557983
533.303824	3760.025255
533.664953	3719.214594
534.026025	3677.735980
534.387040	3655.345695
534.747999	3620.990232
535.108902	3592.671550
535.469748	3533.783311
535.830537	3514.510980
536.191270	3478.063438
536.551947	3451.357925
536.912567	3421.468924
537.273131	3386.984911
537.633638	3354.217411
537.994089	3326.339830
538.354483	3295.568627
538.714821	3285.105713
539.075103	3262.642331
539.435328	3232.319791
539.795497	3200.855429
540.155609	3189.288501
540.515665	3173.786953
540.875665	3133.271200
541.235609	3114.313941
541.595496	3095.530602
541.955328	3086.075917
542.315102	3062.294274
542.674821	3040.705533
543.034483	3025.720703
543.394090	3004.678927
543.753640	2984.332830
544.113134	2979.062304
544.472571	2960.566310
544.831953	2947.953343
545.191278	2925.215219
545.550548	2918.724733
545.909761	2908.465985
546.268918	2894.549880
546.628019	2884.167624
546.987064	2868.383771
547.346053	2853.850124
547.704986	2846.767303
548.063863	2834.383709
548.422684	2827.381546
548.781449	2815.723878
549.140158	2805.495377
549.498811	2797.157308
549.857408	2783.473096
550.215949	2781.219700
550.574434	2766.068512
550.932864	2764.021804
551.291237	2756.850763
551.649555	2751.842376
552.007817	2747.764083
552.366022	2739.279821
552.724173	2733.643811
553.082267	2728.658110
553.440305	2724.305073
553.798288	2715.835935
554.156215	2714.132025
554.514086	2710.784699
554.871902	2704.271528
555.229661	2699.903368
555.587365	2695.409180
555.945014	2693.062522
556.302606	2687.693694
556.660143	2684.474917
557.017625	2683.575071
557.375050	2681.392251
557.732421	2679.461489
558.089735	2674.546364
558.446994	2672.708864
558.804197	2670.004285
559.161345	2666.588903
559.518437	2664.789211
559.875474	2663.176042
560.232455	2662.805517
560.589381	2658.684374
560.946251	2661.900630
561.303065	2657.129178
561.659825	2655.268992
562.016528	2653.202119
562.373177	2651.767911
562.729770	2650.406799
563.086307	2648.685245
563.442789	2649.534680
563.799216	2644.904380
564.155587	2644.150727
564.511904	2641.599903
564.868164	2641.231899
565.224370	2641.317599
565.580520	2636.687299
565.936615	2638.096302
566.292654	2638.456744
566.648638	2637.889614
567.004567	2634.892648
567.360441	2634.103708
567.716260	2633.350055
568.072023	2631.449540
568.427732	2627.388891
568.783385	2629.289406
569.138982	2625.579117
569.494525	2625.677419
569.850013	2625.173304
570.205445	2629.307050
570.560823	2626.690691
570.916145	2628.124899
571.271412	2627.010804
571.626625	2626.025259
571.981782	2625.647172
572.336884	2624.197840
572.691931	2622.501492
573.046923	2620.154835
573.401860	2620.832870
573.756743	2621.949486
574.111570	2619.804475
574.466342	2616.759618
574.821059	2620.661471
575.175722	2614.763321
575.530330	2617.576285
575.884882	2616.484875
576.239380	2614.881788
576.593823	2616.527725
576.948211	2616.144597
577.302544	2614.702827
577.656823	2613.981942
578.011047	2615.524535
578.365216	2613.117384
578.719330	2610.029677
579.073389	2613.099740
579.427394	2609.598659
579.781344	2609.611262
580.135239	2610.611931
580.489080	2613.797940
580.842866	2609.681838
581.196597	2610.780809
581.550273	2608.376179
581.903895	2609.323916
582.257463	2608.832403
582.610975	2607.383072
582.964434	2610.163268
583.317837	2605.686723
583.671186	2610.901797
584.024481	2605.396857
584.377721	2607.108329
584.730906	2607.398195
585.084037	2607.327619
585.437113	2607.647732
585.790135	2604.386106
586.143103	2604.993565
586.496016	2605.893411
586.848874	2601.124479
587.201679	2604.381065
587.554428	2600.721187
587.907124	2601.832761
588.259765	2599.526433
588.612352	2605.278390
588.964884	2598.530806
589.317362	2601.878132
589.669786	2600.771598
590.022155	2605.936261
590.374470	2602.369644
590.726731	2604.328132
591.078937	2601.709253
591.431090	2603.443410
591.783188	2599.034921
592.135232	2602.016763
592.487222	2601.129520
592.839157	2605.727053
593.191038	2596.143819
593.542866	2598.838316
593.894639	2598.089705
594.246358	2600.141454
594.598022	2599.208841
594.949633	2598.172884
595.301190	2594.923860
595.652692	2598.082143
596.004141	2601.386619
596.355535	2598.861001
596.706876	2597.741865
597.058162	2593.247676
597.409395	2597.071392
597.760573	2598.639190
598.111698	2596.428644
598.462768	2597.572986
598.813785	2596.443768
599.164748	2595.196082
599.515657	2595.836309
599.866511	2594.041658
600.217312	2595.554004
600.568060	2594.235742
600.918753	2597.787235
601.269392	2596.176587
601.619978	2591.571493
601.970510	2594.913778
602.320988	2597.336052
602.671412	2596.045517
603.021783	2592.539394
603.372100	2593.943356
603.722363	2593.661051
604.072572	2594.898654
604.422728	2596.106011
604.772830	2593.897985
605.122878	2591.183324
605.472872	2593.219950
605.822813	2589.973447
606.172701	2593.424117
606.522534	2596.388315
606.872314	2592.854466
607.222041	2595.990064
607.571714	2595.354879
607.921333	2592.786411
608.270899	2594.830599
608.620411	2594.964189
608.969870	2596.907554
609.319276	2596.423603
609.668627	2600.055755
610.017926	2600.942998
610.367171	2603.203955
610.716362	2602.258739
611.065500	2602.742690
611.414585	2600.847216
611.763616	2600.721187
612.112594	2599.355034
612.461518	2597.610795
612.810389	2595.554004
613.159207	2597.003336
613.507971	2595.521237
613.856682	2594.422265
614.205340	2599.019797
614.553945	2595.889241
614.902496	2597.691453
615.250994	2595.574169
615.599439	2594.024014
615.947830	2598.372009
616.296169	2595.934611
616.644454	2595.561566
616.992686	2594.656679
617.340864	2595.765733
617.688990	2594.659199
618.037063	2594.555856
618.385082	2595.816144
618.733048	2595.165835
619.080961	2596.035434
619.428821	2596.184148
619.776628	2594.117275
620.124382	2598.523244
620.472083	2593.330855
620.819731	2597.683892
621.167326	2592.244487
621.514868	2597.159612
621.862357	2590.462439
622.209793	2594.253387
622.557176	2593.640886
622.904506	2591.090063
623.251783	2589.948241
623.599007	2587.911615
623.946179	2589.290371
624.293297	2588.763570
624.640363	2591.364805
624.987376	2591.095104
625.334336	2591.626945
625.681243	2590.084352
626.028097	2588.526636
626.374899	2588.705597
626.721647	2588.453539
627.068343	2589.030751
627.414987	2587.427664
627.761577	2588.211564
628.108115	2589.686101
628.454600	2588.453539
628.801032	2587.757860
629.147412	2589.935638
629.493739	2584.450863
629.840014	2585.938003
630.186236	2586.666450
630.532405	2586.109402
630.878521	2587.977150
631.224585	2587.445308
631.570597	2585.421285
631.916556	2586.026223
632.262462	2586.006059
632.608316	2582.870461
632.954117	2584.312231
633.299866	2584.876840
633.645562	2582.328537
633.991206	2582.610842
634.336797	2583.119998
634.682336	2584.806264
635.027823	2580.851479
635.373257	2578.731674
635.718639	2578.988773
636.063968	2580.745615
636.409245	2579.155131
636.754470	2579.732343
637.099642	2581.181675
637.444762	2582.230235
637.789829	2579.535738
638.134845	2580.803588
638.479808	2581.214442
638.824719	2577.680593
639.169577	2579.369380
639.514383	2578.948443
639.859137	2576.778227
640.203839	2578.247723
640.548489	2575.964080
640.893086	2575.444842
641.237632	2572.896538
641.582125	2574.555078
641.926566	2571.540468
642.270955	2579.248392
642.615292	2575.454924
642.959576	2577.700758
643.303809	2578.247723
643.647990	2578.540110
643.992118	2577.118505
644.336195	2575.759914
644.680219	2574.943247
645.024192	2578.504822
645.368112	2577.224369
645.711981	2578.323340
646.055797	2578.678742
646.399562	2578.625810
646.743274	2577.297466
647.086935	2576.959708
647.430544	2580.959864
647.774101	2579.686972
648.117606	2578.640933
648.461059	2581.239648
648.804460	2581.164031
649.147810	2580.896849
649.491108	2578.381314
649.834354	2576.019533
650.177548	2576.833679
650.520690	2577.249575
650.863781	2576.747980
651.206820	2576.836200
651.549807	2574.993658
651.892742	2577.857034
652.235626	2573.551888
652.578458	2574.391240
652.921238	2576.506004
653.263967	2574.635736
653.606644	2574.721436
653.949269	2575.959039
654.291843	2576.223700
654.634365	2576.448031
654.976836	2572.601631
655.319255	2575.268401
655.661622	2571.207752
656.003938	2573.738411
656.346203	2575.354101
656.688416	2572.760427
657.030577	2572.984758
657.372687	2571.041394
657.714746	2569.592062
658.056753	2572.931826
658.398708	2568.172977
658.740612	2568.999726
659.082465	2570.542319
659.424266	2568.462843
659.766016	2568.712381
660.107715	2573.204049
660.449362	2571.790005
660.790958	2571.845458
661.132503	2571.842937
661.473996	2574.933164
661.815438	2573.125911
662.156829	2573.309913
662.498168	2572.647001
662.839456	2572.276476
663.180693	2571.716908
663.521879	2571.111970
663.863013	2572.914182
664.204097	2571.633729
664.545129	2572.170612
664.886110	2573.647670
665.227040	2573.425859
665.567918	2571.364028
665.908746	2573.715726
666.249522	2572.347052
666.590248	2572.531055
666.930922	2575.598597
667.271545	2573.519121
667.612118	2575.691858
667.952639	2573.725808
668.293109	2574.872671
668.633528	2575.051632
668.973896	2572.447876
669.314213	2573.821590
669.654480	2574.502146
669.994695	2573.592218
670.334859	2571.550550
670.674973	2571.779923
671.015035	2571.243040
671.355047	2572.745304
671.695008	2571.570715
672.034918	2572.813359
672.374777	2572.044583
672.714585	2575.386868
673.054342	2574.764286
673.394049	2570.880077
673.733705	2577.148752
674.073310	2571.424521
674.412864	2573.874522
674.752368	2571.595921
675.091820	2570.554922
675.431223	2570.693554
675.770574	2569.090467
676.109875	2567.575600
676.449125	2567.714232
676.788324	2569.110632
677.127473	2568.513255
677.466571	2566.839592
677.805619	2571.263204
678.144616	2569.612227
678.483562	2573.841755
678.822458	2570.852350
679.161303	2572.160530
679.500098	2568.893862
679.838842	2568.951835
680.177535	2570.509552
680.516179	2569.319840
680.854771	2568.997206
681.193314	2571.706826
681.531805	2570.764130
681.870247	2572.117680
682.208638	2572.770509
682.546978	2577.020202
682.885268	2574.522310
683.223508	2572.657083
683.561697	2573.942578
683.899836	2575.182702
684.237925	2573.388051
684.575963	2573.181363
684.913951	2571.197669
685.251889	2573.856878
685.589776	2571.588359
685.927614	2572.072310
686.265401	2570.209603
686.603137	2573.289748
686.940824	2572.523493
687.278460	2573.307392
687.616046	2573.062896
687.953582	2575.220510
688.291068	2572.707495
688.628504	2574.943247
688.965889	2575.568350
689.303224	2572.127762
689.640510	2571.669017
689.977745	2570.645663
690.314930	2569.481157
690.652065	2573.501477
690.989150	2571.308575
691.326185	2569.082905
691.663170	2570.433935
692.000105	2568.911506
692.336990	2568.218347
692.673825	2565.760785
693.010610	2566.320353
693.347345	2563.640980
693.684030	2562.279868
694.020665	2561.160732
694.357251	2561.135526
694.693786	2562.995712
695.030272	2563.774570
695.366707	2562.015208
695.703093	2565.296999
696.039429	2563.865311
696.375716	2565.070147
696.711952	2561.501010
697.048139	2563.303222
697.384276	2558.872048
697.720363	2559.177038
698.056400	2561.866494
698.392388	2564.548388
698.728326	2565.322205
699.064214	2563.141906
699.400053	2561.397666
699.735842	2559.603016
700.071581	2560.830537
700.407270	2559.459343
700.742910	2563.094015
701.078501	2561.548901
701.414042	2558.740978
701.749533	2557.160577
702.084974	2557.518498
702.420366	2558.796431
702.755709	2559.824826
703.091002	2558.619991
703.426246	2557.452963
703.761440	2560.548232
704.096584	2560.765002
704.431679	2559.613098
704.766725	2559.446740
705.101721	2556.716955
705.436668	2555.572613
705.771565	2554.771070
706.106413	2556.752243
706.441212	2557.301729
706.775961	2557.387428
707.110661	2558.841801
707.445311	2560.550752
707.779913	2557.586554
708.114465	2558.725855
708.448967	2560.717111
708.783421	2559.209806
709.117825	2560.104610
709.452180	2560.167625
709.786485	2562.332800
710.120742	2560.555794
710.454949	2563.479663
710.789107	2561.911864
711.123216	2560.339024
711.457275	2561.543860
711.791286	2562.768860
712.125247	2561.564024
712.459159	2561.959755
712.793023	2565.163408
713.126837	2561.468242
713.460602	2562.489076
713.794318	2563.880435
714.127985	2564.818089
714.461602	2561.775753
714.795171	2562.335321
715.128691	2562.894889
715.462162	2559.489590
715.795584	2561.435475
716.128957	2559.857594
716.462281	2559.250135
716.795556	2557.967161
717.128782	2559.572769
717.461960	2558.781307
717.795088	2558.047820
718.128167	2556.719476
718.461198	2557.226112
718.794180	2556.439692
719.127113	2556.298539
719.459997	2556.923642
719.792833	2554.763508
720.125619	2556.303580
720.458357	2555.572613
720.791046	2555.275185
721.123686	2557.606719
721.456278	2556.190154
721.788821	2555.549928
722.121315	2556.512788
722.453761	2553.735113
722.786158	2556.477500
723.118506	2554.254351
723.450805	2551.859803
723.783056	2555.726368
724.115259	2556.283416
724.447412	2554.536656
724.779518	2555.945658
725.111574	2553.223435
725.443582	2556.752243
725.775542	2552.827705
726.107453	2556.192675
726.439315	2554.587067
726.771129	2561.778273
727.102895	2556.623694
727.434612	2558.400700
727.766281	2556.333827
728.097901	2557.682336
728.429473	2553.694783
728.760996	2555.262582
729.092471	2552.721841
729.423897	2558.249466
729.755276	2555.849877
730.086606	2560.835578
730.417887	2557.241235
730.749120	2559.121585
731.080305	2556.575803
731.411442	2557.939435
731.742530	2559.459343
732.073570	2560.021431
732.404562	2559.756771
732.735506	2559.537481
733.066401	2559.376164
733.397249	2560.402038
733.728048	2557.657130
734.058798	2559.345917
734.389501	2557.505896
734.720156	2556.452294
735.050762	2553.258723
735.381320	2554.226625
735.711831	2551.577499
736.042293	2554.985319
736.372707	2553.707386
736.703073	2553.840977
737.033391	2553.054557
737.363661	2557.420196
737.693883	2554.645041
738.024056	2555.875082
738.354182	2554.271995
738.684260	2555.055895
739.014290	2555.239897
739.344272	2555.000442
739.674207	2556.810216
740.004093	2557.717624
740.333931	2555.486913
740.663722	2554.211502
740.993464	2554.145967
741.323159	2556.172510
741.652806	2555.192006
741.982405	2556.711914
742.311956	2553.730071
742.641460	2555.071018
742.970915	2554.105637
743.300323	2556.825340
743.629683	2554.907181
743.958996	2552.976419
744.288260	2550.995245
744.617477	2552.938610
744.946647	2547.045501
745.275768	2549.782848
745.604842	2548.265461
745.933869	2546.853937
746.262847	2545.606252
746.591778	2552.394166
746.920662	2551.333003
747.249498	2552.212684
747.578286	2553.135215
747.907027	2549.913918
748.235720	2554.057746
748.564365	2552.956254
748.892963	2551.511964
749.221514	2551.393497
749.550017	2550.453321
749.878473	2551.569937
750.206881	2549.543393
750.535242	2550.017262
750.863555	2551.885009
751.191821	2550.289484
751.520039	2551.602704
751.848210	2549.908877
752.176334	2553.346944
752.504411	2552.106820
752.832440	2549.185471
753.160421	2552.396686
753.488356	2549.228321
753.816243	2552.195040
754.144082	2549.722354
754.471875	2551.632951
754.799620	2550.415513
755.127318	2550.327293
755.454969	2550.269319
755.782572	2549.964329
756.110129	2548.842673
756.437638	2547.544576
756.765100	2551.189330
757.092515	2550.201264
757.419882	2548.998948
757.747203	2549.858465
758.074477	2548.910728
758.401703	2551.932900
758.728882	2551.698486
759.056014	2549.840821
759.383099	2549.944165
759.710138	2551.650595
760.037129	2550.654968
760.364073	2551.345606
760.690970	2552.623538
761.017820	2550.571788
761.344623	2553.780483
761.671379	2553.364588
761.998088	2549.256047
762.324751	2554.004814
762.651366	2556.900957
762.977935	2566.932853
763.304456	2568.374623
763.630931	2573.713205
763.957359	2572.087433
764.283740	2565.697771
764.610074	2558.035217
764.936362	2559.484548
765.262602	2552.668908
765.588796	2554.887016
765.914943	2551.857283
766.241044	2550.493651
766.567097	2548.814946
766.893104	2550.710420
767.219064	2546.884184
767.544978	2547.708413
767.870845	2549.271171
768.196665	2547.524411
768.522438	2549.321582
768.848165	2551.494320
769.173846	2548.031047
769.499479	2548.734288
769.825066	2548.527601
770.150607	2546.732950
770.476101	2546.314534
770.801548	2546.543907
771.126949	2545.744884
771.452303	2545.868392
771.777611	2545.313865
772.102872	2546.322096
772.428087	2543.153731
772.753256	2544.479554
773.078378	2544.774462
773.403453	2543.158772
773.728482	2542.130376
774.053465	2545.639019
774.378401	2544.270346
774.703291	2543.849410
775.028135	2543.093237
775.352932	2544.754297
775.677683	2544.628268
776.002388	2545.192877
776.327046	2544.963505
776.651658	2544.101467
776.976224	2542.715150
777.300743	2543.536858
777.625216	2544.638350
777.949643	2544.600542
778.274024	2542.309337
778.598359	2539.110725
778.922647	2539.516538
779.246889	2542.669780
779.571086	2536.438914
779.895236	2542.548792
780.219339	2540.917979
780.543397	2542.894111
780.867409	2543.614996
781.191374	2544.020809
781.515294	2541.555685
781.839167	2541.810263
782.162995	2541.054090
782.486776	2541.795140
782.810511	2542.256405
783.134201	2543.551982
783.457844	2544.726571
783.781441	2542.074924
784.104993	2543.178936
784.428498	2544.734132
784.751958	2542.362269
785.075372	2542.450490
785.398739	2542.931920
785.722061	2544.555171
786.045337	2541.464944
786.368568	2544.610624
786.691752	2543.902342
787.014891	2543.466282
787.337983	2543.047866
787.661030	2544.338402
787.984031	2545.341591
788.306987	2544.782023
788.629897	2548.330996
788.952760	2545.379400
789.275579	2543.587270
789.598351	2545.523073
789.921078	2543.995603
790.243759	2543.315048
790.566395	2543.088196
790.888984	2543.211704
791.211529	2541.412012
791.534027	2542.836138
791.856480	2540.489481
792.178888	2541.086857
792.501249	2541.006199
792.823566	2541.336395
793.145836	2543.672969
793.468062	2542.047197
793.790241	2540.991076
794.112375	2541.608617
794.434464	2542.843700
794.756507	2544.262784
795.078505	2542.243802
795.400457	2540.202135
795.722364	2541.628782
796.044226	2541.943854
796.366042	2539.496373
796.687812	2540.912938
797.009538	2543.173895
797.331218	2543.670449
797.652852	2544.083823
797.974442	2544.630789
798.295986	2543.476364
798.617484	2545.016437
798.938938	2542.500901
799.260346	2542.498381
799.581709	2541.190201
799.903026	2542.153062
800.224299	2541.674152
800.545526	2541.681714
800.866708	2540.577701
801.187845	2541.278421
801.508936	2541.215407
801.829983	2543.272198
802.150984	2541.991745
802.471940	2541.351518
802.792851	2541.273380
803.113717	2537.870601
803.434538	2539.254398
803.755314	2543.257074
804.076045	2541.517876
804.396731	2538.856147
804.717372	2542.253885
805.037967	2541.366642
805.358518	2540.839841
805.679024	2539.864378
805.999485	2540.204656
806.319901	2543.186498
806.640272	2539.274563
806.960598	2540.514687
807.280879	2541.228010
807.601115	2538.732639
807.921306	2539.261960
808.241453	2538.788091
808.561554	2541.086857
808.881611	2543.199101
809.201623	2542.069883
809.521590	2540.474357
809.841513	2540.683565
810.161390	2542.095088
810.481223	2539.692978
810.801011	2539.796322
811.120755	2541.641384
811.440453	2542.591642
811.760107	2539.415715
812.079716	2536.915303
812.399281	2535.723070
812.718801	2536.643080
813.038276	2535.077802
813.357707	2540.643236
813.677093	2538.876312
813.996434	2540.592824
814.315731	2541.323792
814.634983	2540.668442
814.954191	2540.396219
815.273354	2544.250182
815.592473	2540.555016
815.911547	2543.655325
816.230577	2540.988555
816.549562	2541.616179
816.868502	2540.257588
817.187399	2541.129707
817.506250	2540.605427
817.825058	2544.729091
818.143821	2542.536189
818.462539	2544.386293
818.781213	2544.474513
819.099843	2546.465769
819.418429	2545.951571
819.736970	2550.450801
820.055466	2552.711758
820.373919	2554.529094
820.692327	2560.281051
821.010691	2566.970662
821.329011	2579.699575
821.647286	2615.791716
821.965517	2648.541572
822.283704	2668.315498
822.601847	2675.121056
822.919945	2656.957779
823.237999	2638.595376
823.556010	2620.137191
823.873976	2602.752772
824.191897	2589.807089
824.509775	2579.480285
824.827609	2570.696075
825.145398	2569.753379
825.463144	2569.299675
825.780845	2568.782957
826.098502	2572.200859
826.416116	2580.957343
826.733685	2591.664754
827.051210	2595.402770
827.368692	2592.904878
827.686129	2583.833322
828.003522	2574.126580
828.320872	2560.155022
828.638177	2559.179559
828.955439	2550.400389
829.272656	2546.990049
829.589830	2545.238248
829.906960	2548.341078
830.224046	2548.618341
830.541088	2547.562220
830.858086	2546.138094
831.175041	2546.246478
831.491952	2545.142466
831.808819	2545.369318
832.125642	2545.177754
832.442421	2547.947868
832.759157	2550.140770
833.075849	2557.984805
833.392497	2564.477811
833.709101	2568.281362
834.025662	2568.999726
834.342179	2563.638459
834.658653	2557.752912
834.975083	2553.296532
835.291469	2559.492110
835.607811	2551.315359
835.924110	2545.427291
836.240366	2546.264123
836.556578	2541.454862
836.872746	2541.787578
837.188871	2540.696168
837.504952	2540.141641
837.820990	2539.133410
838.136984	2539.277083
838.452935	2539.118287
838.768842	2538.157947
839.084706	2540.781868
839.400526	2539.952598
839.716303	2548.608259
840.032037	2548.910728
840.347727	2551.953065
840.663373	2548.083979
840.978977	2545.228165
841.294537	2542.402599
841.610054	2542.100129
841.925527	2540.978473
842.240957	2537.966383
842.556344	2537.984027
842.871687	2537.061496
843.186987	2540.539892
843.502244	2537.313554
843.817458	2537.540406
844.132629	2537.648791
844.447756	2534.740045
844.762840	2534.598892
845.077881	2534.498069
845.392879	2532.332894
845.707833	2534.407329
846.022745	2531.206196
846.337613	2534.735004
846.652438	2532.907585
846.967221	2536.690971
847.281960	2534.215765
847.596656	2537.056455
847.911309	2536.045704
848.225919	2535.435724
848.540485	2533.189890
848.855009	2535.045035
849.169490	2532.806762
849.483928	2533.121834
849.798323	2534.364479
850.112675	2535.511341
850.426984	2532.267359
850.741251	2536.864891
851.055474	2534.830786
851.369654	2536.867412
851.683792	2535.027391
851.997887	2538.488143
852.311938	2536.474202
852.625947	2534.757689
852.939914	2533.673841
853.253837	2538.087371
853.567718	2533.822555
853.881555	2532.801721
854.195350	2535.876825
854.509103	2534.354397
854.822812	2534.939170
855.136479	2534.490508
855.450103	2535.836496
855.763685	2535.360107
856.077224	2532.794159
856.390720	2532.390867
856.704173	2533.915816
857.017584	2537.774819
857.330953	2533.797349
857.644278	2534.586290
857.957561	2536.017977
858.270802	2535.339942
858.584000	2534.684592
858.897155	2535.284489
859.210268	2533.623429
859.523339	2532.426155
859.836367	2535.473533
860.149352	2536.552340
860.462295	2534.785415
860.775195	2531.954807
861.088054	2532.330373
861.400869	2532.678213
861.713642	2531.264169
862.026373	2536.229706
862.339062	2536.542257
862.651708	2534.760209
862.964312	2536.358255
863.276873	2533.746937
863.589392	2533.525127
863.901869	2533.462112
864.214303	2534.903882
864.526696	2537.001002
864.839045	2536.217103
865.151353	2536.869932
865.463619	2535.319777
865.775842	2535.289531
866.088023	2538.551157
866.400162	2535.831455
866.712258	2536.822041
867.024313	2535.917154
867.336325	2538.185673
867.648296	2535.791125
867.960224	2536.161650
868.272110	2537.283307
868.583954	2536.300282
868.895755	2537.144675
869.207515	2536.338091
869.519233	2536.534696
869.830909	2536.806918
870.142542	2538.077289
870.454134	2537.595858
870.765684	2537.220293
871.077191	2536.131403
871.388657	2536.116280
871.700081	2535.954963
872.011463	2536.451517
872.322803	2537.784902
872.634101	2535.730632
872.945357	2536.610313
873.256571	2537.578214
873.567744	2534.349355
873.878874	2537.900848
874.189963	2538.135262
874.501010	2537.482432
874.812015	2535.687782
875.122979	2541.880839
875.433900	2539.728267
875.744780	2537.515200
876.055618	2537.558050
876.366415	2538.334387
876.677169	2538.805735
876.987882	2536.880015
877.298554	2534.563604
877.609183	2535.594520
877.919771	2535.392874
878.230317	2539.176260
878.540822	2541.482588
878.851285	2540.930582
879.161707	2543.836807
879.472087	2544.156920
879.782425	2550.675132
880.092722	2556.091852
880.402977	2565.090312
880.713191	2583.359453
881.023363	2600.118769
881.333494	2617.031840
881.643583	2617.276336
881.953631	2616.878085
882.263637	2608.935747
882.573602	2604.635643
882.883526	2594.618870
883.193408	2586.285843
883.503248	2577.234451
883.813048	2570.512073
884.122806	2564.268603
884.432522	2561.329611
884.742197	2559.434137
885.051831	2551.610266
885.361424	2550.783517
885.670975	2547.786551
885.980485	2544.671118
886.289954	2547.383259
886.599382	2542.773123
886.908768	2545.959133
887.218113	2543.330171
887.527417	2546.979966
887.836680	2541.248174
888.145901	2539.650129
888.455082	2539.108205
888.764221	2538.904038
889.073319	2537.026208
889.382376	2538.868750
889.691392	2539.635005
890.000366	2538.377237
890.309300	2540.991076
890.618193	2538.664583
890.927044	2538.646939
891.235855	2539.783719
891.544625	2539.574511
891.853353	2537.162319
892.162041	2538.473019
892.470687	2540.421425
892.779293	2541.343956
893.087858	2539.493853
893.396381	2540.885211
893.704864	2544.766900
894.013306	2546.720347
894.321707	2558.730896
894.630068	2560.318859
894.938387	2566.320353
895.246665	2566.262380
895.554903	2562.110990
895.863100	2554.748384
896.171256	2552.530277
896.479371	2551.302756
896.787446	2550.425595
897.095480	2543.478885
897.403473	2544.716488
897.711425	2542.009389
898.019336	2541.822866
898.327207	2542.533669
898.635038	2543.451159
898.942827	2539.788760
899.250576	2540.484440
899.558284	2538.853626
899.865952	2540.123997
900.173579	2538.805735
900.481165	2536.627957
900.788711	2539.519059
901.096216	2538.735159
901.403681	2537.358924
901.711105	2536.159130
902.018489	2536.471681
902.325832	2539.876981
902.633135	2539.796322
902.940397	2539.355221
903.247619	2542.420243
903.554800	2544.570295
903.861941	2556.769887
904.169041	2567.996537
904.476101	2574.716395
904.783121	2574.686148
905.090100	2568.029304
905.397039	2561.304405
905.703938	2557.238714
906.010796	2552.530277
906.317614	2548.121788
906.624391	2544.877805
906.931129	2542.203473
907.237826	2539.120807
907.544483	2541.568288
907.851099	2540.010571
908.157675	2535.473533
908.464211	2538.747762
908.770707	2530.775177
909.077163	2534.941691
909.383578	2529.260311
909.689954	2533.240302
909.996289	2531.165867
910.302584	2534.601413
910.608839	2536.151568
910.915054	2535.486136
911.221229	2533.109232
911.527363	2535.397915
911.833458	2534.225847
912.139513	2535.178625
912.445527	2533.477236
912.751502	2533.283151
913.057436	2537.217772
913.363331	2534.515713
913.669186	2539.382948
913.975000	2540.663401
914.280775	2542.100129
914.586510	2545.752445
914.892205	2547.277394
915.197859	2551.552293
915.503475	2555.698642
915.809050	2566.222051
916.114585	2571.598441
916.420081	2571.512742
916.725536	2569.269428
917.030952	2565.697771
917.336328	2560.656617
917.641665	2556.752243
917.946961	2554.670247
918.252218	2552.333672
918.557435	2547.728578
918.862612	2547.312682
919.167750	2544.613145
919.472848	2542.606765
919.777906	2537.971424
920.082925	2541.185160
920.387904	2537.318595
920.692843	2537.507638
920.997743	2537.094264
921.302603	2536.993441
921.607423	2537.600900
921.912204	2536.108718
922.216946	2534.056968
922.521647	2537.873122
922.826310	2531.085208
923.130932	2534.414890
923.435516	2535.965045
923.740059	2536.353214
924.044564	2532.854653
924.349028	2533.517565
924.653454	2527.833664
924.957840	2531.692667
925.262186	2530.069416
925.566493	2533.545291
925.870761	2529.053623
926.174989	2534.772812
926.479178	2532.680733
926.783328	2531.859025
927.087438	2531.319622
927.391509	2531.007070
927.695541	2530.223171
927.999533	2533.182328
928.303486	2529.955990
928.607400	2530.152595
928.911275	2530.818027
929.215110	2532.635363
929.518906	2532.572349
929.822663	2530.437420
930.126381	2531.105373
930.430060	2533.104190
930.733699	2531.422966
931.037299	2532.037986
931.340861	2530.059333
931.644383	2529.794673
931.947866	2530.916330
932.251309	2531.617050
932.554714	2530.495393
932.858080	2533.683923
933.161407	2532.360620
933.464694	2530.192924
933.767943	2530.744930
934.071153	2531.748120
934.374323	2533.464633
934.677455	2532.930271
934.980548	2532.043027
935.283602	2529.948428
935.586617	2531.339787
935.889593	2530.127389
936.192530	2533.169725
936.495428	2533.525127
936.798287	2533.787267
937.101108	2531.307019
937.403890	2534.351876
937.706632	2534.102339
938.009336	2532.993285
938.312002	2531.228881
938.614628	2529.819879
938.917216	2534.561084
939.219765	2532.489170
939.522275	2537.197607
939.824747	2533.777184
940.127179	2529.237625
940.429573	2528.068078
940.731929	2531.241484
941.034246	2528.032790
941.336524	2530.318953
941.638763	2530.903727
941.940964	2532.723583
942.243126	2534.946732
942.545250	2533.845240
942.847335	2529.761905
943.149381	2532.053110
943.451389	2531.380116
943.753359	2532.219468
944.055290	2533.043697
944.357182	2531.493542
944.659036	2531.664941
944.960851	2532.189221
945.262628	2531.806093
945.564367	2531.269210
945.866067	2533.109232
946.167729	2530.676875
946.469352	2529.925743
946.770937	2532.196783
947.072484	2532.277441
947.373992	2530.820548
947.675462	2531.647297
947.976893	2531.669982
948.278286	2530.185362
948.579641	2528.988088
948.880958	2531.954807
949.182236	2528.352903
949.483476	2530.520599
949.784678	2530.235774
950.085841	2532.106042
950.386967	2535.541588
950.688054	2531.135620
950.989103	2532.572349
951.290114	2529.908099
951.591087	2529.371216
951.892021	2532.342976
952.192917	2531.619571
952.493776	2531.916999
952.794596	2531.778367
953.095378	2529.955990
953.396122	2532.731145
953.696828	2533.021011
953.997496	2531.428007
954.298126	2530.523120
954.598718	2531.473377
954.899272	2529.973634
955.199788	2532.884900
955.500266	2531.196114
955.800706	2528.131092
956.101108	2525.698735
956.401472	2527.337110
956.701798	2522.439629
957.002087	2524.761081
957.302337	2527.037162
957.602550	2531.599406
957.902724	2530.203006
958.202861	2528.985568
958.502960	2528.292409
958.803022	2531.589324
959.103045	2526.480114
959.403031	2530.084539
959.702979	2527.967255
960.002889	2530.278624
960.302762	2526.366688
960.602596	2529.136802
960.902393	2528.874662
961.202153	2530.790301
961.501875	2527.299302
961.801559	2528.317615
962.101205	2530.588655
962.400814	2527.208561
962.700385	2531.433048
962.999918	2529.436751
963.299414	2526.107069
963.598873	2528.849457
963.898293	2527.193438
964.197677	2526.792666
964.497022	2527.994981
964.796331	2526.457429
965.095601	2527.992460
965.394835	2529.731658
965.694030	2528.673016
965.993189	2527.677388
966.292309	2524.466173
966.591393	2529.204858
966.890439	2526.840557
967.189447	2527.488345
967.488419	2527.425331
967.787353	2529.255269
968.086249	2523.926770
968.385108	2531.367513
968.683930	2525.653365
968.982714	2528.809127
969.281462	2527.074970
969.580172	2527.601771
969.878844	2527.500948
970.177480	2524.834177
970.476078	2527.604292
970.774639	2530.548325
971.073162	2529.678726
971.371649	2526.565814
971.670098	2522.951307
971.968510	2527.994981
972.266885	2523.518436
972.565223	2525.393746
972.863524	2524.153622
973.161788	2528.574714
973.460014	2527.911802
973.758204	2527.132944
974.056356	2530.099663
974.354471	2529.056144
974.652550	2528.131092
974.950591	2530.139992
975.248595	2527.284178
975.546563	2529.764426
975.844493	2526.780063
976.142386	2526.028931
976.440243	2527.823582
976.738062	2527.768129
977.035845	2527.632018
977.333590	2530.127389
977.631299	2528.657893
977.928971	2529.272913
978.226606	2527.710156
978.524204	2528.123530
978.821765	2526.467511
979.119290	2528.680578
979.416777	2528.486493
979.714228	2528.879703
980.011642	2529.134282
980.309020	2530.003881
980.606360	2526.623787
980.903664	2528.350382
981.200931	2527.992460
981.498162	2530.124868
981.795356	2526.764939
982.092513	2529.293078
982.389633	2529.305681
982.686717	2530.301309
982.983764	2530.664272
983.280775	2530.795342
983.577749	2529.449354
983.874686	2530.785260
984.171587	2530.263500
984.468451	2528.594878
984.765279	2527.153108
985.062070	2526.288550
985.358824	2527.385001
985.655543	2527.798376
985.952224	2528.456247
986.248869	2526.845598
986.545478	2522.215298
986.842050	2526.767460
987.138586	2525.141688
987.435086	2526.825433
987.731549	2524.130937
988.027975	2528.458767
988.324366	2524.950124
988.620719	2528.224353
988.917037	2524.395597
989.213318	2525.096318
989.509563	2526.767460
989.805772	2527.284178
990.101944	2528.007584
990.398080	2528.310053
990.694180	2525.187058
990.990244	2522.908457
991.286271	2527.258973
991.582262	2527.934487
991.878217	2527.962213
992.174136	2528.904909
992.470019	2529.136802
992.765865	2526.228057
993.061676	2527.127903
993.357450	2527.750485
993.653188	2528.405835
993.948890	2528.287368
994.244556	2524.685463
994.540186	2528.728469
994.835780	2525.421472
995.131337	2527.987419
995.426859	2526.671678
995.722345	2525.139167
996.017795	2527.372398
996.313208	2527.276617
996.608586	2527.425331
996.903928	2526.631349
997.199234	2527.674868
997.494504	2523.155473
997.789738	2526.911133
998.084936	2528.249559
998.380099	2527.218643
998.675225	2524.758560
998.970316	2528.569673
999.265371	2525.814682
999.560390	2527.737882
999.855373	2527.367357
1000.150320	2527.785773
1000.445232	2525.582789
1000.740108	2526.268386
1001.034948	2526.535567
1001.329752	2527.137985
1001.624521	2527.513551
1001.919254	2518.943589
1002.213951	2523.460463
1002.508613	2522.391738
1002.803239	2523.072294
1003.097829	2522.278312
1003.392384	2526.036493
1003.686903	2524.463653
1003.981386	2527.357275
1004.275834	2525.832326
1004.570246	2528.330218
1004.864623	2524.665299
1005.158964	2527.765608
1005.453270	2526.260824
1005.747540	2527.838705
1006.041775	2525.517254
1006.335974	2524.451050
1006.630138	2524.992974
1006.924266	2525.963396
1007.218359	2526.449867
1007.512416	2529.020856
1007.806438	2527.662265
1008.100425	2525.628159
1008.394376	2525.058509
1008.688292	2528.085722
1008.982172	2527.266534
1009.276017	2527.291740
1009.569827	2524.859383
1009.863602	2531.546474
1010.157341	2525.663447
1010.451045	2526.825433
1010.744714	2523.422654
1011.038347	2527.100176
1011.331945	2524.110772
1011.625508	2527.919364
1011.919036	2525.318128
1012.212528	2525.660927
1012.505986	2528.567152
1012.799408	2527.069929
1013.092795	2524.370391
1013.386147	2525.454239
1013.679464	2528.040351
1013.972745	2528.662934
1014.265992	2527.125382
1014.559204	2526.112110
1014.852380	2525.391225
1015.145521	2525.285361
1015.438628	2526.046575
1015.731699	2526.712007
1016.024736	2527.992460
1016.317737	2527.916843
1016.610703	2526.641431
1016.903635	2522.059022
1017.196531	2522.429547
1017.489393	2522.789990
1017.782219	2520.690349
1018.075011	2524.181348
1018.367768	2526.139836
1018.660490	2523.856194
1018.953177	2523.856194
1019.245829	2523.856194
