Dividing Wavelength (nm)	Counts (n)	Blue Motor Position (mm): 14.800000	Red Motor Position (mm): 0.000000	
326.493990	2169.979797
326.888308	2169.979797
327.282561	2169.979797
327.676750	2132.702984
328.070874	2129.300206
328.464933	2129.010339
328.858929	2134.185084
329.252859	2137.318161
329.646726	2144.879892
330.040528	2159.368168
330.434265	2170.806546
330.827938	2189.768846
331.221547	2205.527493
331.615091	2222.743033
332.008571	2243.016033
332.401986	2259.349372
332.795338	2276.723709
333.188625	2298.377985
333.581847	2315.071766
333.975006	2333.552636
334.368100	2351.524349
334.761129	2369.538913
335.154095	2386.822509
335.546996	2407.992834
335.939833	2435.565425
336.332606	2447.139914
336.725315	2464.350414
337.117960	2475.130921
337.510540	2487.517036
337.903056	2498.705877
338.295508	2508.568895
338.687896	2516.788496
339.080220	2524.408200
339.472480	2529.845084
339.864676	2537.810108
340.256807	2543.834286
340.648875	2543.254554
341.040879	2549.435008
341.432818	2551.418702
341.824694	2553.460370
342.216506	2553.755277
342.608253	2557.024465
342.999937	2556.417006
343.391557	2554.133364
343.783113	2556.817778
344.174605	2554.869372
344.566033	2554.420709
344.957397	2551.978270
345.348697	2551.481717
345.739934	2549.616490
346.131106	2547.252189
346.522215	2545.560882
346.913260	2542.884029
347.304241	2539.962680
347.695159	2538.969573
348.086012	2537.961342
348.476802	2534.727442
348.867528	2532.305167
349.258191	2527.750485
349.648789	2529.056144
350.039324	2525.958355
350.429796	2529.855167
350.820203	2527.130423
351.210548	2526.520443
351.600828	2521.895185
351.991045	2524.413241
352.381198	2523.687315
352.771288	2523.707480
353.161314	2519.679598
353.551276	2520.773528
353.941175	2522.275792
354.331010	2519.140194
354.720782	2520.740761
355.110490	2520.609691
355.500135	2521.456604
355.889717	2517.511902
356.279235	2520.206398
356.668689	2522.797551
357.058080	2521.461646
357.447408	2521.035668
357.836672	2519.707324
358.225873	2521.388549
358.615010	2524.509023
359.004084	2523.891482
359.393095	2522.124557
359.782043	2525.071112
360.170927	2522.164887
360.559748	2525.648324
360.948505	2525.935670
361.337199	2526.220495
361.725830	2523.888961
362.114398	2528.284847
362.502903	2526.601102
362.891344	2523.964578
363.279722	2529.890455
363.668037	2530.278624
364.056289	2529.517409
364.444478	2533.328522
364.832603	2528.909950
365.220665	2531.470857
365.608665	2531.937163
365.996601	2530.490352
366.384474	2531.223840
366.772284	2533.131917
367.160031	2530.674354
367.547715	2533.613347
367.935336	2532.156453
368.322893	2532.032945
368.710388	2529.633356
369.097820	2531.329704
369.485189	2531.448171
369.872495	2534.820703
370.259738	2531.647297
370.646918	2537.404295
371.034035	2534.508152
371.421090	2532.716022
371.808081	2534.498069
372.195010	2534.447658
372.581875	2536.973276
372.968678	2537.832793
373.355418	2535.571835
373.742096	2535.783564
374.128710	2536.189377
374.515262	2539.907228
374.901751	2536.406146
375.288177	2535.105528
375.674540	2534.039324
376.060841	2541.623740
376.447079	2538.213400
376.833254	2540.224820
377.219367	2540.018133
377.605417	2538.498225
377.991404	2539.692978
378.377329	2539.985365
378.763191	2540.968390
379.148991	2542.700027
379.534727	2540.766744
379.920402	2538.276414
380.306013	2540.492001
380.691563	2541.321271
381.077049	2542.064841
381.462474	2542.029553
381.847835	2540.570139
382.233134	2543.080634
382.618371	2541.754810
383.003545	2542.001827
383.388657	2540.451672
383.773706	2543.640202
384.158693	2542.889070
384.543618	2545.344112
384.928480	2542.634492
385.313280	2541.437218
385.698017	2543.884698
386.082692	2546.309493
386.467305	2543.103319
386.851856	2545.422250
387.236344	2545.515511
387.620770	2542.251364
388.005133	2541.351518
388.389435	2540.691127
388.773674	2541.966539
389.157851	2545.878474
389.541965	2544.802188
389.926018	2544.976108
390.310008	2546.327137
390.693936	2547.726057
391.077802	2548.497354
391.461606	2547.456355
391.845348	2550.594474
392.229027	2546.115408
392.612645	2547.521890
392.996200	2549.293856
393.379694	2548.940975
393.763125	2549.961809
394.146494	2550.942313
394.529801	2548.167158
394.913047	2547.907539
395.296230	2549.644216
395.679351	2549.187992
396.062410	2546.921993
396.445408	2552.515153
396.828343	2550.803682
397.211217	2549.132539
397.594028	2551.111192
397.976778	2548.386448
398.359466	2549.079607
398.742092	2550.133208
399.124656	2550.425595
399.507158	2549.258568
399.889598	2552.326110
400.271977	2552.341233
400.654294	2553.089845
401.036549	2552.684032
401.418742	2553.541028
401.800874	2550.710420
402.182944	2553.626728
402.564952	2550.506253
402.946898	2551.421223
403.328783	2551.839639
403.710606	2552.893240
404.092367	2554.077911
404.474067	2552.636141
404.855705	2552.656306
405.237282	2554.329969
405.618797	2554.526574
406.000250	2553.084804
406.381642	2554.198899
406.762972	2550.412992
407.144240	2551.791748
407.525447	2552.943651
407.906593	2552.560524
408.287677	2554.730740
408.668700	2555.738971
409.049661	2556.727037
409.430560	2555.471790
409.811399	2554.685370
410.192176	2556.086811
410.572891	2556.580844
410.953545	2557.820968
411.334138	2555.940617
411.714669	2556.280895
412.095139	2559.295505
412.475547	2557.629404
412.855894	2557.165618
413.236180	2559.635783
413.616405	2557.694939
413.996568	2556.948848
414.376670	2556.943807
414.756711	2557.352140
415.136691	2562.373130
415.516609	2559.063612
415.896466	2556.217881
416.276262	2557.952038
416.655997	2558.415824
417.035670	2557.667213
417.415283	2561.518654
417.794834	2555.769218
418.174324	2559.141750
418.553753	2560.966648
418.933121	2561.385063
419.312428	2559.227450
419.691674	2560.018911
420.070859	2559.829867
420.449983	2560.863304
420.829045	2560.704508
421.208047	2559.890361
421.586988	2558.751061
421.965867	2559.857594
422.344686	2559.973540
422.723444	2562.680640
423.102141	2561.879097
423.480777	2562.040413
423.859352	2560.641493
424.237866	2562.146278
424.616319	2559.096380
424.994712	2560.530588
425.373044	2561.886658
425.751314	2561.901782
426.129524	2557.236194
426.507673	2560.006308
426.885762	2555.222253
427.263789	2562.166442
427.641756	2560.528067
428.019662	2565.296999
428.397508	2562.451267
428.775292	2562.884807
429.153016	2561.354817
429.530679	2563.048644
429.908282	2562.468912
430.285824	2564.566032
430.663305	2562.763819
431.040726	2565.012174
431.418086	2562.872204
431.795385	2565.690209
432.172624	2563.928326
432.549802	2565.927143
432.926920	2562.035372
433.303977	2565.019735
433.680974	2563.938408
434.057910	2564.709704
434.434786	2564.099725
434.811601	2564.092163
435.188355	2564.031669
435.565050	2568.271280
435.941683	2565.349931
436.318257	2564.830692
436.694770	2567.794891
437.071222	2564.805486
437.447614	2564.611402
437.823946	2563.908161
438.200218	2565.566701
438.576429	2566.859757
438.952580	2567.245405
439.328670	2567.643656
439.704700	2565.730538
440.080670	2566.206927
440.456580	2563.819941
440.832429	2568.568708
441.208218	2565.544015
441.583947	2565.591906
441.959616	2565.975034
442.335224	2567.265569
442.710773	2568.404870
443.086261	2566.857236
443.461689	2566.645507
443.837057	2567.200034
444.212365	2567.961249
444.587612	2566.771536
444.962800	2564.014025
445.337927	2566.642987
445.712995	2565.203737
446.088002	2567.469736
446.462949	2567.978893
446.837837	2569.672720
447.212664	2567.893193
447.587431	2567.177349
447.962139	2569.234140
448.336786	2572.072310
448.711374	2569.952504
449.085901	2572.626837
449.460369	2567.457133
449.834776	2570.980900
450.209124	2569.524006
450.583412	2571.142217
450.957640	2571.890828
451.331808	2570.978379
451.705917	2569.380333
452.079965	2570.302865
452.453954	2568.881259
452.827883	2568.402350
453.201752	2570.171795
453.575562	2569.650035
453.949311	2570.867474
454.323001	2569.624829
454.696632	2569.708008
455.070202	2569.337484
455.443713	2569.869325
455.817164	2571.724470
456.190556	2570.605334
456.563888	2573.514080
456.937160	2572.155489
457.310373	2573.287228
457.683526	2570.133986
458.056619	2570.146589
458.429653	2570.764130
458.802628	2570.030642
459.175542	2572.780592
459.548398	2572.715057
459.921194	2574.580284
460.293930	2573.438462
460.666607	2575.354101
461.039224	2574.860068
461.411782	2574.219841
461.784280	2575.709502
462.156719	2575.187743
462.529099	2574.786971
462.901419	2574.297979
463.273680	2573.652711
463.645882	2570.688513
464.018024	2573.680438
464.390106	2569.196331
464.762130	2576.468196
465.134094	2576.571539
465.505999	2575.989286
465.877845	2579.208063
466.249631	2579.258474
466.621358	2577.005079
466.993026	2579.944071
467.364634	2580.231417
467.736184	2580.838876
468.107674	2579.127404
468.479105	2580.669997
468.850477	2581.310224
469.221790	2579.147569
469.593043	2579.276118
469.964238	2578.759400
470.335373	2578.867785
470.706449	2578.557754
471.077467	2579.497929
471.448425	2579.056828
471.819324	2582.169741
472.190164	2581.678228
472.560945	2583.132601
472.931667	2581.456418
473.302330	2579.777713
473.672934	2579.046746
474.043479	2582.217632
474.413965	2577.017682
474.784393	2580.120512
475.154761	2583.359453
475.525070	2581.111098
475.895321	2579.596232
476.265513	2582.900708
476.635645	2581.564802
477.005719	2582.399113
477.375734	2582.084041
477.745691	2585.907756
478.115588	2584.085379
478.485427	2583.639237
478.855207	2582.827611
479.224928	2587.208374
479.594591	2584.954978
479.964194	2587.329362
480.333739	2586.845411
480.703226	2589.981009
481.072653	2589.441605
481.442022	2585.814495
481.811333	2586.190061
482.180584	2585.496902
482.549777	2583.135122
482.918912	2581.474062
483.287988	2588.221646
483.657005	2588.335072
484.025964	2587.528487
484.394864	2589.106368
484.763706	2588.385483
485.132489	2585.950606
485.501213	2587.689804
485.869879	2587.979671
486.238487	2586.321131
486.607036	2587.364650
486.975527	2590.749785
487.343959	2588.766091
487.712333	2585.305338
488.080648	2587.629310
488.448905	2590.376739
488.817104	2588.733323
489.185244	2587.916656
489.553326	2590.031420
489.921350	2590.951431
490.289315	2590.817840
490.657222	2593.756833
491.025070	2595.652307
491.392861	2595.274220
491.760593	2595.450661
492.128267	2593.093921
492.495883	2590.525453
492.863440	2591.011925
493.230939	2592.962851
493.598380	2591.752974
493.965763	2591.634507
494.333088	2591.503437
494.700354	2592.904878
495.067563	2588.761049
495.434713	2590.442274
495.801805	2590.480083
496.168839	2592.786411
496.535815	2591.488314
496.902733	2590.991760
497.269593	2592.791452
497.636395	2594.024014
498.003139	2592.443612
498.369825	2592.158787
498.736453	2591.606781
499.103023	2592.698191
499.469535	2593.391349
499.835989	2592.504106
500.202385	2587.072263
500.568723	2588.657706
500.935003	2593.963520
501.301226	2589.091245
501.667390	2593.933273
502.033497	2599.473501
502.399546	2596.660537
502.765537	2596.161463
503.131470	2594.626432
503.497345	2597.013418
503.863163	2596.244642
504.228923	2596.539550
504.594625	2599.710436
504.960269	2595.818665
505.325856	2598.598861
505.691385	2596.264807
506.056856	2598.220775
506.422270	2602.513317
506.787625	2602.346959
507.152924	2602.044490
507.518164	2600.007864
507.883347	2601.618512
508.248472	2602.500714
508.613540	2607.935078
508.978550	2605.936261
509.343503	2602.861157
509.708398	2602.306630
510.073236	2607.541868
510.438016	2608.124121
510.802738	2608.096395
511.167403	2607.176384
511.532010	2610.001951
511.896561	2611.920110
512.261053	2610.276694
512.625488	2611.635285
512.989866	2612.756942
513.354186	2616.532766
513.718449	2611.955398
514.082655	2617.218363
514.446803	2616.336161
514.810894	2617.535956
515.174927	2620.384207
515.538904	2618.637448
515.902822	2621.941924
516.266684	2621.710031
516.630488	2621.679784
516.994235	2622.738426
517.357925	2625.173304
517.721558	2626.045423
518.085133	2626.514251
518.448651	2623.113992
518.812112	2624.003756
519.175516	2626.070629
519.538863	2626.509209
519.902152	2630.310239
520.265385	2633.120683
520.628560	2632.127575
520.991678	2635.001033
521.354739	2633.448358
521.717743	2637.085550
522.080690	2639.038997
522.443580	2642.809780
522.806413	2641.766262
523.169189	2640.415232
523.531908	2646.895636
523.894569	2643.001344
524.257174	2646.762045
524.619722	2649.184319
524.982213	2651.485606
525.344647	2652.115750
525.707025	2652.957623
526.069345	2654.974085
526.431608	2655.732778
526.793815	2658.023983
527.155964	2657.161945
527.518057	2660.557162
527.880093	2661.643531
528.242072	2664.948007
528.603995	2664.206958
528.965860	2665.386588
529.327669	2668.191990
529.689421	2670.392454
530.051117	2671.483863
530.412755	2674.664832
530.774337	2675.620130
531.135862	2676.923268
531.497331	2681.997190
531.858743	2682.276974
532.220098	2688.291070
532.581396	2688.981708
532.942638	2690.005063
533.303824	2696.029242
533.664953	2697.685261
534.026025	2699.472350
534.387040	2702.313040
534.747999	2702.809593
535.108902	2709.463917
535.469748	2708.490974
535.830537	2715.472972
536.191270	2722.013869
536.551947	2719.153014
536.912567	2722.593602
537.273131	2729.550394
537.633638	2727.279354
537.994089	2737.878380
538.354483	2740.144379
538.714821	2749.364649
539.075103	2755.610639
539.435328	2759.499889
539.795497	2761.607091
540.155609	2767.885848
540.515665	2772.107815
540.875665	2774.666200
541.235609	2780.433280
541.595496	2790.860907
541.955328	2794.377112
542.315102	2807.779019
542.674821	2810.324802
543.034483	2813.916624
543.394090	2822.141267
543.753640	2827.310970
544.113134	2842.588187
544.472571	2848.695545
544.831953	2859.783562
545.191278	2860.280116
545.550548	2868.512320
545.909761	2878.498846
546.268918	2892.314128
546.628019	2903.835685
546.987064	2913.532345
547.346053	2922.067018
547.704986	2933.298709
548.063863	2946.861933
548.422684	2951.061215
548.781449	2963.565797
549.140158	2985.472131
549.498811	2995.040241
549.857408	2997.848163
550.215949	3020.803058
550.574434	3027.399407
550.932864	3053.477296
551.291237	3063.357958
551.649555	3084.412337
552.007817	3098.351127
552.366022	3113.192284
552.724173	3129.949079
553.082267	3148.077069
553.440305	3180.257274
553.798288	3183.476051
554.156215	3216.571226
554.514086	3236.698033
554.871902	3235.853639
555.229661	3266.975203
555.587365	3293.786579
555.945014	3313.346256
556.302606	3354.930734
556.660143	3369.532437
557.017625	3415.195208
557.375050	3425.398503
557.732421	3455.128708
558.089735	3486.227586
558.446994	3512.353366
558.804197	3548.417781
559.161345	3583.184098
559.518437	3582.553954
559.875474	3636.343066
560.232455	3661.705111
560.589381	3699.420503
560.946251	3726.395717
561.303065	3779.037966
561.659825	3824.879699
562.016528	3838.505938
562.373177	3858.231973
562.729770	3903.073036
563.086307	3956.733598
563.442789	3997.657685
563.799216	4034.924415
564.155587	4064.009352
564.511904	4118.801653
564.868164	4140.513903
565.224370	4201.869786
565.580520	4222.336871
565.936615	4286.677118
566.292654	4298.022234
566.648638	4383.880646
567.004567	4407.616919
567.360441	4455.066779
567.716260	4478.109894
568.072023	4573.954831
568.427732	4606.976909
568.783385	4627.499447
569.138982	4702.322773
569.494525	4772.762815
569.850013	4813.328980
570.205445	4863.415364
570.560823	4884.676431
570.916145	4942.067447
571.271412	4986.359024
571.626625	5056.267225
571.981782	5100.488227
572.336884	5128.814470
572.691931	5209.969486
573.046923	5210.052665
573.401860	5285.569149
573.756743	5360.989852
574.111570	5394.697527
574.466342	5438.603457
574.821059	5515.428121
575.175722	5527.047980
575.530330	5614.771619
575.884882	5665.173075
576.239380	5733.561368
576.593823	5773.305825
576.948211	5815.091949
577.302544	5850.493452
577.656823	5899.866513
578.011047	5994.846893
578.365216	6038.127719
578.719330	6093.255257
579.073389	6125.702643
579.427394	6245.954327
579.781344	6238.843780
580.135239	6317.218599
580.489080	6363.072934
580.842866	6366.442945
581.196597	6520.031780
581.550273	6535.077103
581.903895	6642.065511
582.257463	6751.103148
582.610975	6746.397231
582.964434	6872.826849
583.317837	6891.902575
583.671186	6982.267779
584.024481	7062.785088
584.377721	7056.012298
584.730906	7156.532905
585.084037	7240.127839
585.437113	7284.056454
585.790135	7402.553816
586.143103	7355.701332
586.496016	7406.095227
586.848874	7591.632373
587.201679	7625.531612
587.554428	7605.538396
587.907124	7776.541896
588.259765	7785.187475
588.612352	7915.284533
588.964884	7865.155299
589.317362	7976.053122
589.669786	8062.869352
590.022155	8148.132908
590.374470	8295.294271
590.726731	8312.376221
591.078937	8308.330695
591.431090	8403.215293
591.783188	8388.648879
592.135232	8439.728370
592.487222	8580.066531
592.839157	8642.357549
593.191038	8705.177887
593.542866	8717.523673
593.894639	8719.275474
594.246358	8863.989357
594.598022	8888.128922
594.949633	8895.481445
595.301190	8931.497969
595.652692	9072.725894
596.004141	9231.650789
596.355535	9051.742091
596.706876	9125.103482
597.058162	9168.777519
597.409395	9297.833578
597.760573	9436.487994
598.111698	9418.070138
598.462768	9463.969844
598.813785	9507.550619
599.164748	9510.383747
599.515657	9591.057332
599.866511	9583.026774
600.217312	9791.551582
600.568060	9662.760184
600.918753	9874.528975
601.269392	9930.926883
601.619978	9873.906392
601.970510	10074.660262
602.320988	10090.209701
602.671412	10256.890412
603.021783	10291.467686
603.372100	10234.666485
603.722363	10376.842147
604.072572	10430.411968
604.422728	10530.677998
604.772830	10530.320076
605.122878	10525.861175
605.472872	10623.377255
605.822813	10697.290653
606.172701	10744.644732
606.522534	10912.437017
606.872314	10990.859727
607.222041	10950.172574
607.571714	11137.910184
607.921333	11140.655092
608.270899	11245.793397
608.620411	11435.229876
608.969870	11331.210708
609.319276	11418.589027
609.668627	11526.721778
610.017926	11660.902169
610.367171	11782.242743
610.716362	11901.294632
611.065500	11831.489774
611.414585	11975.596198
611.763616	12044.959955
612.112594	12086.196593
612.461518	12104.047319
612.810389	12295.026391
613.159207	12243.372208
613.507971	12266.758121
613.856682	12547.389073
614.205340	12556.682440
614.553945	12737.627096
614.902496	12585.689240
615.250994	12862.325077
615.599439	12875.059032
615.947830	12905.260585
616.296169	12981.235814
616.644454	13055.857494
616.992686	13058.050396
617.340864	13282.739664
617.688990	13199.308568
618.037063	13373.213252
618.385082	13336.644722
618.733048	13563.370617
619.080961	13521.503834
619.428821	13634.145896
619.776628	13634.826452
620.124382	13622.037044
620.472083	13717.307290
620.819731	13806.669304
621.167326	13636.157316
621.514868	13726.232653
621.862357	13625.535605
622.209793	13694.838868
622.557176	13647.590653
622.904506	13549.570458
623.251783	13548.292525
623.599007	13476.151093
623.946179	13479.077483
624.293297	13500.983817
624.640363	13379.244993
624.987376	13416.816712
625.334336	13322.584944
625.681243	13260.543464
626.028097	13310.995332
626.374899	13346.001104
626.721647	13253.405190
627.068343	13167.108198
627.414987	13169.845544
627.761577	13206.918190
628.108115	13296.827169
628.454600	13087.163060
628.801032	13194.322867
629.147412	13184.721989
629.493739	13247.824633
629.840014	13152.040189
630.186236	13251.746650
630.532405	13111.385804
630.878521	13296.018063
631.224585	13242.627203
631.570597	13156.098318
631.916556	13190.499152
632.262462	13205.993138
632.608316	13191.804811
632.954117	13164.673321
633.299866	13211.349364
633.645562	13187.373636
633.991206	13006.454187
634.336797	12920.830188
634.682336	12955.520889
635.027823	12887.298954
635.373257	12848.265299
635.718639	12763.641970
636.063968	12758.910847
636.409245	12598.082916
636.754470	12644.373312
637.099642	12544.034185
637.444762	12371.089841
637.789829	12457.853140
638.134845	12339.292763
638.479808	12382.437478
638.824719	12375.422713
639.169577	12267.973039
639.514383	12341.044564
639.859137	12196.265146
640.203839	12301.327833
640.548489	12182.316273
640.893086	12199.831762
641.237632	12097.942482
641.582125	12268.139397
641.926566	12148.628763
642.270955	12175.425016
642.615292	12161.342553
642.959576	12190.964373
643.303809	12260.698654
643.647990	12208.913401
643.992118	12284.197993
644.336195	12092.361924
644.680219	12275.630552
645.024192	12248.824216
645.368112	12470.647588
645.711981	12557.105897
646.055797	12727.748955
646.399562	12715.370402
646.743274	12966.127476
647.086935	13246.342533
647.430544	13224.201786
647.774101	13244.731885
648.117606	13425.593361
648.461059	13398.194690
648.804460	13437.064507
649.147810	13212.150908
649.491108	13113.130043
649.834354	13175.841997
650.177548	12908.731419
650.520690	12746.370977
650.863781	12692.186135
651.206820	12742.164134
651.549807	12590.924478
651.892742	12440.264554
652.235626	12387.892007
652.578458	12405.044533
652.921238	12131.877009
653.263967	12316.035400
653.606644	12182.553208
653.949269	12155.966162
654.291843	12011.584996
654.634365	12148.722024
654.976836	12032.959488
655.319255	12060.370762
655.661622	12023.653518
656.003938	11966.572533
656.346203	11908.911815
656.688416	11977.065695
657.030577	11954.826644
657.372687	11900.798078
657.714746	11881.044317
658.056753	12057.310782
658.398708	11912.491034
658.740612	11919.956983
659.082465	12025.180987
659.424266	11989.184628
659.766016	12013.856035
660.107715	11942.183431
660.449362	12019.471881
660.790958	11995.586894
661.132503	11947.559821
661.473996	12006.120385
661.815438	12031.116946
662.156829	12054.099567
662.498168	12048.909699
662.839456	12047.472970
663.180693	12077.130078
663.521879	12167.001248
663.863013	12162.774241
664.204097	12144.449646
664.545129	12252.862180
664.886110	12228.536092
665.227040	12322.120072
665.567918	12342.325017
665.908746	12370.293339
666.249522	12356.987213
666.590248	12404.336251
666.930922	12510.659226
667.271545	12511.763239
667.612118	12591.446237
667.952639	12509.769463
668.293109	12516.852284
668.633528	12489.138541
668.973896	12458.584107
669.314213	12565.136455
669.654480	12317.862818
669.994695	12370.361394
670.334859	12405.087382
670.674973	12357.977800
671.015035	12407.028227
671.355047	12345.321983
671.695008	12325.172491
672.034918	12329.507883
672.374777	12374.353988
672.714585	12298.136783
673.054342	12332.862771
673.394049	12277.876386
673.733705	12369.839635
674.073310	12298.051083
674.412864	12324.582676
674.752368	12210.226622
675.091820	12200.421577
675.431223	12202.760673
675.770574	12084.444792
676.109875	12011.433761
676.449125	11984.997950
676.788324	11920.786253
677.127473	11764.134918
677.466571	11749.838206
677.805619	11671.181082
678.144616	11581.887124
678.483562	11551.922506
678.822458	11424.038515
679.161303	11403.954558
679.500098	11403.868858
679.838842	11355.360355
680.177535	11372.384332
680.516179	11431.307859
680.854771	11389.998123
681.193314	11603.180958
681.531805	11744.413924
681.870247	12139.360602
682.208638	12527.211855
682.546978	12851.879807
682.885268	12928.016353
683.223508	12622.277934
683.561697	12460.477060
683.899836	12356.200793
684.237925	12174.384018
684.575963	12090.526944
684.913951	12027.951102
685.251889	11967.525311
685.589776	12059.145762
685.927614	11994.326605
686.265401	11958.504166
686.603137	11999.166113
686.940824	12148.742189
687.278460	12257.225299
687.616046	12316.973054
687.953582	12498.930982
688.291068	12416.351841
688.628504	12628.254222
688.965889	12636.413330
689.303224	12621.395732
689.640510	12517.248014
689.977745	12235.555899
690.314930	12007.607525
690.652065	11920.922364
690.989150	11641.100517
691.326185	11416.522154
691.663170	11212.098325
692.000105	10972.353651
692.336990	10869.418330
692.673825	10623.611669
693.010610	10504.292598
693.347345	10308.342948
693.684030	10098.688922
694.020665	10040.818996
694.357251	9850.404533
694.693786	9813.228544
695.030272	9640.276638
695.366707	9520.894553
695.703093	9445.304972
696.039429	9439.636194
696.375716	9376.324343
696.711952	9249.972863
697.048139	9286.364953
697.384276	9238.600020
697.720363	9248.311803
698.056400	9195.480511
698.392388	9150.856217
698.728326	9103.925595
699.064214	9039.073671
699.400053	9090.725334
699.735842	8903.920337
700.071581	8859.890899
700.407270	8794.439078
700.742910	8712.424546
701.078501	8630.825909
701.414042	8512.678907
701.749533	8440.645860
702.084974	8306.107546
702.420366	8410.134276
702.755709	8302.659397
703.091002	8169.063779
703.426246	8188.837705
703.761440	8148.430336
704.096584	8103.223789
704.431679	8035.977317
704.766725	8025.159001
705.101721	7971.851320
705.436668	8013.103082
705.771565	7911.710354
706.106413	7992.832602
706.441212	8040.035446
706.775961	7985.086869
707.110661	8011.469748
707.445311	8161.295361
707.779913	8061.568735
708.114465	8189.508178
708.448967	8233.530054
708.783421	8358.848098
709.117825	8544.246613
709.452180	8579.229700
709.786485	8668.826127
710.120742	8942.563302
710.454949	8939.422663
710.789107	9035.290285
711.123216	9247.527903
711.457275	9404.128827
711.791286	9574.106452
712.125247	9564.187982
712.459159	9562.625225
712.793023	9821.924534
713.126837	9394.464935
713.460602	9542.082523
713.794318	9366.113486
714.127985	9396.844360
714.461602	9098.445861
714.795171	9043.819918
715.128691	8804.261766
715.462162	8543.147641
715.795584	8491.566555
716.128957	8363.569138
716.462281	8190.168569
716.795556	8229.056030
717.128782	8034.028911
717.461960	7763.820545
717.795088	7832.881832
718.128167	7737.483036
718.461198	7574.757111
718.794180	7514.588419
719.127113	7506.159610
719.459997	7371.901080
719.792833	7133.255377
720.125619	7194.689399
720.458357	7058.621095
720.791046	7042.078548
721.123686	7048.536267
721.456278	6892.673872
721.788821	6906.829432
722.121315	6798.230375
722.453761	6864.619851
722.786158	6813.431975
723.118506	6827.058213
723.450805	6792.853985
723.783056	6862.081630
724.115259	6753.974086
724.447412	6751.319918
724.779518	6803.936961
725.111574	6807.352343
725.443582	6887.602471
725.775542	6866.424584
726.107453	7046.897892
726.439315	6961.783050
726.771129	7016.368664
727.102895	7180.211205
727.434612	7294.496683
727.766281	7320.539284
728.097901	7411.375835
728.429473	7395.171046
728.760996	7366.504525
729.092471	7343.206832
729.423897	7299.356356
729.755276	7316.055178
730.086606	7246.577995
730.417887	7343.416040
730.749120	7513.991042
731.080305	7704.347532
731.411442	7839.248809
731.742530	7844.867175
732.073570	7939.177081
732.404562	8023.608846
732.735506	7873.253912
733.066401	8012.598966
733.397249	7954.315666
733.728048	7724.363433
734.058798	7392.988227
734.389501	7180.075094
734.720156	6997.063565
735.050762	6763.542196
735.381320	6661.584859
735.711831	6618.936698
736.042293	6504.167268
736.372707	6528.190887
736.703073	6395.225413
737.033391	6434.803512
737.363661	6439.302742
737.693883	6460.152954
738.024056	6543.165635
738.354182	6599.286280
738.684260	6634.844058
739.014290	6735.284008
739.344272	6843.928435
739.674207	6872.050512
740.004093	6938.618948
740.333931	6961.346990
740.663722	6964.734646
740.993464	7035.882970
741.323159	7038.784154
741.652806	6789.794004
741.982405	6780.278826
742.311956	6848.954465
742.641460	6704.404420
742.970915	6507.197002
743.300323	6501.976887
743.629683	6439.378359
743.958996	6308.827598
744.288260	6226.906328
744.617477	6173.283574
744.946647	6187.222364
745.275768	6019.094843
745.604842	5968.476617
745.933869	5955.200738
746.262847	5908.101238
746.591778	5902.545886
746.920662	5862.251943
747.249498	5848.600499
747.578286	5890.603393
747.907027	5971.531556
748.235720	6027.122880
748.564365	6000.016596
748.892963	6018.449575
749.221514	6172.174520
749.550017	6031.307038
749.878473	5899.659826
750.206881	5943.129695
750.535242	5884.054934
750.863555	5821.486653
751.191821	5845.101938
751.520039	5846.689902
751.848210	5755.991982
752.176334	5768.998159
752.504411	5825.844730
752.832440	5748.775570
753.160421	5672.550804
753.488356	5719.494028
753.816243	5760.352580
754.144082	5612.286330
754.471875	5579.453295
754.799620	5624.974914
755.127318	5635.422706
755.454969	5584.232309
755.782572	5551.353903
756.110129	5592.948464
756.437638	5592.416622
756.765100	5527.040418
757.092515	5518.939284
757.419882	5560.972425
757.747203	5551.076640
758.074477	5614.454026
758.401703	5606.884734
758.728882	5554.706271
759.056014	5598.523980
759.383099	5739.250310
759.710138	5747.117031
760.037129	5724.378906
760.364073	5733.233693
760.690970	5814.192103
761.017820	5802.844466
761.344623	5753.668010
761.671379	5845.230488
761.998088	5957.955729
762.324751	6181.011663
762.651366	6748.743888
762.977935	8000.875763
763.304456	9599.413045
763.630931	10529.858810
763.957359	10199.333038
764.283740	9282.851268
764.610074	8474.499729
764.936362	7500.117787
765.262602	6907.918321
765.588796	6362.215938
765.914943	6017.242218
766.241044	5865.004413
766.567097	5679.878121
766.893104	5416.069499
767.219064	5231.958999
767.544978	5175.881203
767.870845	5104.100214
768.196665	4993.434284
768.522438	4919.014250
768.848165	4891.431577
769.173846	4830.025282
769.499479	4783.626502
769.825066	4728.181371
770.150607	4671.080222
770.476101	4641.506293
770.801548	4640.656858
771.126949	4575.315943
771.452303	4519.210421
771.777611	4475.249039
772.102872	4493.513139
772.428087	4459.268581
772.753256	4420.502108
773.078378	4375.998802
773.403453	4308.507834
773.728482	4294.132984
774.053465	4246.199173
774.378401	4233.538315
774.703291	4236.638624
775.028135	4167.872245
775.352932	4118.715954
775.677683	4104.043675
776.002388	4124.609063
776.327046	4140.622288
776.651658	4063.893406
776.976224	3999.598529
777.300743	4003.041637
777.625216	4024.650543
777.949643	4027.518960
778.274024	3983.108915
778.598359	3932.404990
778.922647	3955.251499
779.246889	3949.794450
779.571086	3944.322277
779.895236	3933.940021
780.219339	3915.489398
780.543397	3902.836102
780.867409	3955.720326
781.191374	3973.402173
781.515294	3916.016199
781.839167	3904.590423
782.162995	3925.034823
782.486776	3913.699788
782.810511	3914.771034
783.134201	3917.203390
783.457844	3883.072258
783.781441	3824.332734
784.104993	3824.249555
784.428498	3846.392823
784.751958	3845.424921
785.075372	3825.073783
785.398739	3781.475364
785.722061	3793.954741
786.045337	3835.040144
786.368568	3872.082543
786.691752	3787.227321
787.014891	3827.760718
787.337983	3947.223462
787.661030	4098.541256
787.984031	4262.610649
788.306987	4436.109520
788.629897	4516.442828
788.952760	4473.335921
789.275579	4407.049789
789.598351	4346.132486
789.921078	4211.805901
790.243759	4018.699461
790.566395	3990.766428
790.888984	3992.135101
791.211529	3883.200808
791.534027	3825.005728
791.856480	3820.660253
792.178888	3756.302363
792.501249	3702.699774
792.823566	3713.631516
793.145836	3746.348604
793.468062	3698.485369
793.790241	3647.877226
794.112375	3677.899817
794.434464	3735.416862
794.756507	3761.323352
795.078505	3748.168461
795.400457	3775.562091
795.722364	3907.080753
796.044226	4009.637987
796.366042	4081.955860
796.687812	4075.465374
797.009538	4076.302206
797.331218	4030.644475
797.652852	4007.223275
797.974442	3986.385665
798.295986	3986.511694
798.617484	3912.250457
798.938938	3822.268381
799.260346	3858.617621
799.581709	3858.103423
799.903026	3786.793782
800.224299	3751.568719
800.545526	3745.496649
800.866708	3711.864591
801.187845	3645.273470
801.508936	3678.454344
801.829983	3686.389120
802.150984	3605.791153
802.471940	3590.433277
802.792851	3603.157150
803.113717	3603.845267
803.434538	3606.302830
803.755314	3555.424985
804.076045	3524.709234
804.396731	3542.617933
804.717372	3568.234557
805.037967	3556.622259
805.358518	3546.056000
805.679024	3569.331007
805.999485	3584.262905
806.319901	3584.285590
806.640272	3602.695884
806.960598	3615.480250
807.280879	3589.079728
807.601115	3597.722786
807.921306	3613.330198
808.241453	3655.711179
808.561554	3637.691574
808.881611	3572.264959
809.201623	3602.922736
809.521590	3616.722895
809.841513	3588.840273
810.161390	3616.090230
810.481223	3597.397632
810.801011	3545.461144
811.120755	3529.906664
811.440453	3567.548960
811.760107	3574.243612
812.079716	3534.174001
812.399281	3498.787621
812.718801	3523.320396
813.038276	3496.110768
813.357707	3490.109275
813.677093	3509.386647
813.996434	3463.648258
814.315731	3463.146663
814.634983	3468.427272
814.954191	3480.067296
815.273354	3514.009385
815.592473	3512.229858
815.911547	3510.916637
816.230577	3546.257646
816.549562	3600.616408
816.868502	3643.065444
817.187399	3669.914630
817.506250	3662.204185
817.825058	3634.883652
818.143821	3718.491188
818.462539	3825.328362
818.781213	3871.039024
819.099843	3920.457455
819.418429	4148.224348
819.736970	4383.225296
820.055466	4622.599445
820.373919	4975.308815
820.692327	5378.855701
821.010691	5775.173573
821.329011	7048.044754
821.647286	9632.304053
821.965517	14007.743287
822.283704	18003.379469
822.601847	20300.812238
822.919945	18598.205376
823.237999	16111.860408
823.556010	13676.413450
823.873976	11660.556850
824.191897	9600.315411
824.509775	8245.154955
824.827609	7131.548947
825.145398	6573.483134
825.463144	6460.589014
825.780845	6579.051088
826.098502	6735.805767
826.416116	7533.641460
826.733685	8808.100605
827.051210	9931.047871
827.368692	10053.268126
827.686129	8872.902117
828.003522	7375.455093
828.320872	6368.837493
828.638177	5684.551270
828.955439	5139.252179
829.272656	4650.000637
829.589830	4362.417933
829.906960	4190.895194
830.224046	4011.919109
830.541088	3886.870768
830.858086	3842.087677
831.175041	3770.871297
831.491952	3745.083275
831.808819	3755.548710
832.125642	3820.259481
832.442421	3962.581337
832.759157	4214.875963
833.075849	4731.795879
833.392497	5564.196243
833.709101	6323.459547
834.025662	6683.019845
834.342179	6373.402258
834.658653	5722.967383
834.975083	5098.678453
835.291469	4531.813306
835.607811	4119.789719
835.924110	3981.525993
836.240366	3792.475162
836.556578	3586.181064
836.872746	3477.065289
837.188871	3443.211421
837.504952	3382.518449
837.820990	3298.069040
838.136984	3250.596494
838.452935	3273.236316
838.768842	3266.715583
839.084706	3290.154428
839.400526	3435.322015
839.716303	3749.990838
840.032037	4245.211107
840.347727	4532.158625
840.663373	4288.333137
840.978977	3917.843617
841.294537	3614.814818
841.610054	3386.909294
841.925527	3280.256122
842.240957	3211.043601
842.556344	3159.981753
842.871687	3105.328084
843.186987	3053.873027
843.502244	3015.681245
843.817458	2981.557675
844.132629	2949.299331
844.447756	2958.748974
844.762840	2944.275822
845.077881	2917.918149
845.392879	2897.856877
845.707833	2892.556104
846.022745	2890.673233
846.337613	2891.305898
846.652438	2884.437325
846.967221	2878.801315
847.281960	2866.896631
847.596656	2861.961341
847.911309	2862.150384
848.225919	2854.311390
848.540485	2848.519104
848.855009	2851.591687
849.169490	2841.728670
849.483928	2833.088132
849.798323	2831.989161
850.112675	2826.779128
850.426984	2838.701457
850.741251	2837.408401
851.055474	2828.087308
851.369654	2821.894250
851.683792	2823.890547
851.997887	2833.405725
852.311938	2833.153667
852.625947	2826.814416
852.939914	2828.891372
853.253837	2833.640139
853.567718	2817.498364
853.881555	2815.600370
854.195350	2828.117555
854.509103	2829.395487
854.822812	2822.426092
855.136479	2817.090031
855.450103	2819.333344
855.763685	2811.207004
856.077224	2809.732467
856.390720	2821.412820
856.704173	2833.438492
857.017584	2824.555979
857.330953	2820.754949
857.644278	2829.266938
857.957561	2839.588700
858.270802	2843.185563
858.584000	2839.533247
858.897155	2830.123934
859.210268	2828.992195
859.523339	2826.499344
859.836367	2826.355671
860.149352	2821.869044
860.462295	2815.953250
860.775195	2825.160918
861.088054	2823.139415
861.400869	2809.651808
861.713642	2802.695016
862.026373	2818.325113
862.339062	2818.201605
862.651708	2825.972544
862.964312	2830.297854
863.276873	2824.404745
863.589392	2831.359017
863.901869	2843.324195
864.214303	2863.151053
864.526696	2881.304248
864.839045	2879.446583
865.151353	2874.639843
865.463619	2873.303937
865.775842	2870.954759
866.088023	2889.682646
866.400162	2900.117834
866.712258	2872.910727
867.024313	2860.542256
867.336325	2870.548947
867.648296	2891.434447
867.960224	2880.696789
868.272110	2870.856457
868.583954	2874.246633
868.895755	2889.957389
869.207515	2876.169833
869.519233	2878.405585
869.830909	2890.184241
870.142542	2902.613206
870.454134	2899.931312
870.765684	2903.301323
871.077191	2900.140520
871.388657	2907.891294
871.700081	2921.028541
872.011463	2931.592278
872.322803	2931.461208
872.634101	2931.448606
872.945357	2947.562654
873.256571	2972.425625
873.567744	2965.141157
873.878874	2955.580609
874.189963	2978.825369
874.501010	2984.728561
874.812015	2973.575008
875.122979	2975.752786
875.433900	2968.087712
875.744780	2973.983341
876.055618	2984.887357
876.366415	2978.666573
876.677169	2991.148470
876.987882	2989.668891
877.298554	2980.289825
877.609183	2996.522340
877.919771	3019.774662
878.230317	3043.223589
878.540822	3096.001949
878.851285	3133.712301
879.161707	3171.931809
879.472087	3267.101232
879.782425	3472.679485
880.092722	3879.430025
880.402977	4387.192684
880.713191	4983.863653
881.023363	6071.295991
881.333494	7315.634241
881.643583	7896.264259
881.953631	7609.352029
882.263637	7031.976076
882.573602	6481.189689
882.883526	5918.969965
883.193408	5355.164799
883.503248	4891.794540
883.813048	4596.214046
884.122806	4318.721212
884.432522	4013.383565
884.742197	3788.215387
885.051831	3594.483845
885.361424	3459.201961
885.670975	3390.768297
885.980485	3310.109836
886.289954	3237.774319
886.599382	3199.529605
886.908768	3159.444871
887.218113	3114.205556
887.527417	3061.051630
887.836680	3012.515401
888.145901	3007.083557
888.455082	3001.180366
888.764221	2950.088272
889.073319	2922.248500
889.382376	2916.990576
889.691392	2924.784200
890.000366	2921.618356
890.309300	2908.040008
890.618193	2922.561051
890.927044	2940.074020
891.235855	2940.258022
891.544625	2924.068356
891.853353	2934.546395
892.162041	2950.393262
892.470687	2986.830722
892.779293	3038.391643
893.087858	3082.317737
893.396381	3148.072027
893.704864	3259.821805
894.013306	3481.793892
894.321707	3769.671503
894.630068	3976.925940
894.938387	3982.851816
895.246665	3934.149229
895.554903	3826.737364
895.863100	3634.397180
896.171256	3472.147644
896.479371	3337.185873
896.787446	3223.878378
897.095480	3123.501444
897.403473	3056.542318
897.711425	3021.113088
898.019336	3016.253416
898.327207	2988.511947
898.635038	2954.688325
898.942827	2938.929678
899.250576	2929.777463
899.558284	2898.282854
899.865952	2878.380379
900.173579	2859.660054
900.481165	2853.401462
900.788711	2842.590707
901.096216	2817.591625
901.403681	2805.472692
901.711105	2812.190029
902.018489	2813.790595
902.325832	2808.893114
902.633135	2818.388128
902.940397	2848.085565
903.247619	2921.802358
903.554800	3098.714090
903.861941	3417.670415
904.169041	3825.955985
904.476101	4128.775576
904.783121	4104.767081
905.090100	3874.151937
905.397039	3611.742235
905.703938	3370.790204
906.010796	3189.845549
906.317614	3083.003334
906.624391	2990.412462
906.931129	2918.853283
907.237826	2863.456043
907.544483	2818.471307
907.851099	2786.023920
908.157675	2766.673451
908.464211	2750.824063
908.770707	2734.014336
909.077163	2724.116030
909.383578	2710.862837
909.689954	2702.265149
909.996289	2698.305322
910.302584	2695.527647
910.608839	2699.109387
910.915054	2693.349868
911.221229	2687.401307
911.527363	2690.425999
911.833458	2693.208716
912.139513	2698.829602
912.445527	2702.033256
912.751502	2711.797971
913.057436	2720.793910
913.363331	2732.015518
913.669186	2751.708786
913.975000	2782.253137
914.280775	2835.727176
914.586510	2904.677558
914.892205	2979.238744
915.197859	3097.506734
915.503475	3280.253602
915.809050	3476.727532
916.114585	3617.683235
916.420081	3648.822442
916.725536	3594.982919
917.030952	3484.969818
917.336328	3361.935418
917.641665	3236.975296
917.946961	3139.358393
918.252218	3074.849268
918.557435	2998.750530
918.862612	2942.798763
919.167750	2892.278840
919.472848	2861.159797
919.777906	2832.916733
920.082925	2805.147537
920.387904	2780.004782
920.692843	2764.162956
920.997743	2749.178127
921.302603	2739.736045
921.607423	2729.857904
921.912204	2719.639486
922.216946	2707.971735
922.521647	2701.098122
922.826310	2690.821730
923.130932	2684.948785
923.435516	2678.309586
923.740059	2670.914213
924.044564	2662.308963
924.349028	2660.342913
924.653454	2650.996614
924.957840	2647.445121
925.262186	2642.144348
925.566493	2637.602268
925.870761	2633.397946
926.174989	2629.347379
926.479178	2625.987450
926.783328	2619.403703
927.087438	2618.695421
927.391509	2618.927314
927.695541	2614.753239
927.999533	2611.070676
928.303486	2607.436004
928.607400	2605.714450
928.911275	2607.400716
929.215110	2606.528596
929.518906	2606.727722
929.822663	2606.200921
930.126381	2603.309819
930.430060	2607.194028
930.733699	2605.994234
931.037299	2608.237547
931.340861	2607.536827
931.644383	2609.394492
931.947866	2603.403081
932.251309	2607.763679
932.554714	2604.711260
932.858080	2604.065992
933.161407	2603.508945
933.464694	2602.717484
933.767943	2598.291351
934.071153	2599.957452
934.374323	2599.337390
934.677455	2599.604571
934.980548	2598.112390
935.283602	2596.607605
935.586617	2595.604416
935.889593	2598.014087
936.192530	2599.808738
936.495428	2598.578697
936.798287	2598.651793
937.101108	2602.543564
937.403890	2607.309975
937.706632	2610.992538
938.009336	2616.681480
938.312002	2626.121041
938.614628	2632.329222
938.917216	2641.065541
939.219765	2641.660397
939.522275	2638.799542
939.824747	2638.040849
940.127179	2632.104890
940.429573	2632.790487
940.731929	2630.521968
941.034246	2627.436782
941.336524	2623.731534
941.638763	2619.701131
941.940964	2619.617952
942.243126	2618.186264
942.545250	2618.277005
942.847335	2615.577467
943.149381	2611.111005
943.451389	2603.924840
943.753359	2602.266301
944.055290	2601.074068
944.357182	2605.006168
944.659036	2601.923502
944.960851	2602.417535
945.262628	2598.737493
945.564367	2598.377050
945.866067	2600.436362
946.167729	2600.809407
946.469352	2599.985178
946.770937	2602.704881
947.072484	2598.719849
947.373992	2598.838316
947.675462	2595.790938
947.976893	2593.149374
948.278286	2589.693663
948.579641	2593.537543
948.880958	2590.739702
949.182236	2591.911771
949.483476	2593.529981
949.784678	2591.029569
950.085841	2591.783221
950.386967	2593.993767
950.688054	2591.692480
950.989103	2594.749940
951.290114	2592.322625
951.591087	2596.710949
951.892021	2601.227823
952.192917	2602.029366
952.493776	2600.353183
952.794596	2603.730756
953.095378	2605.333843
953.396122	2603.508945
953.696828	2600.839654
953.997496	2602.286465
954.298126	2599.418049
954.598718	2597.832606
954.899272	2595.251535
955.199788	2592.115937
955.500266	2586.888261
955.800706	2587.503282
956.101108	2583.442632
956.401472	2583.936665
956.701798	2579.384503
957.002087	2579.805440
957.302337	2578.789647
957.602550	2575.462486
957.902724	2575.870819
958.202861	2573.733370
958.502960	2571.411918
958.803022	2573.940057
959.103045	2571.878225
959.403031	2571.333781
959.702979	2569.362689
960.002889	2570.020560
960.302762	2565.929664
960.602596	2570.849830
960.902393	2569.735735
961.202153	2566.524520
961.501875	2565.778429
961.801559	2569.181208
962.101205	2567.373954
962.400814	2566.521999
962.700385	2565.551577
962.999918	2565.445713
963.299414	2564.245918
963.598873	2564.845816
963.898293	2562.378171
964.197677	2566.557287
964.497022	2564.190466
964.796331	2563.522513
965.095601	2566.585014
965.394835	2564.379509
965.694030	2567.016032
965.993189	2567.356310
966.292309	2564.550908
966.591393	2565.380178
966.890439	2565.291958
967.189447	2566.698440
967.488419	2561.735424
967.787353	2566.204407
968.086249	2565.327246
968.385108	2564.722307
968.683930	2567.936043
968.982714	2565.909499
969.281462	2566.264900
969.580172	2565.985116
969.878844	2564.724828
970.177480	2565.594427
970.476078	2564.457647
970.774639	2565.551577
971.073162	2566.920250
971.371649	2566.426217
971.670098	2566.131310
971.968510	2567.880590
972.266885	2564.676937
972.565223	2567.530230
972.863524	2565.806155
973.161788	2563.393963
973.460014	2565.420507
973.758204	2565.024777
974.056356	2564.777760
974.354471	2565.866649
974.652550	2564.313974
974.950591	2567.436969
975.248595	2565.501166
975.546563	2566.937894
975.844493	2565.554098
976.142386	2566.118707
976.440243	2562.146278
976.738062	2563.663665
977.035845	2564.591237
977.333590	2565.191135
977.631299	2564.082081
977.928971	2561.332131
978.226606	2560.770043
978.524204	2560.394477
978.821765	2559.192162
979.119290	2564.598799
979.416777	2560.742316
979.714228	2563.267934
980.011642	2562.294992
980.309020	2563.341031
980.606360	2565.586865
980.903664	2565.339849
981.200931	2565.291958
981.498162	2566.080898
981.795356	2565.037379
982.092513	2567.885631
982.389633	2568.762792
982.686717	2569.150961
982.983764	2575.522979
983.280775	2579.608835
983.577749	2580.974987
983.874686	2580.823753
984.171587	2579.145048
984.468451	2574.640777
984.765279	2571.411918
985.062070	2572.841086
985.358824	2568.127607
985.655543	2567.396639
985.952224	2565.493604
986.248869	2565.314643
986.545478	2564.041752
986.842050	2563.182235
987.138586	2560.059240
987.435086	2563.230126
987.731549	2562.589899
988.027975	2563.472101
988.324366	2562.690722
988.620719	2562.194169
988.917037	2560.311298
989.213318	2561.047306
989.509563	2560.412121
989.805772	2562.310115
990.101944	2559.426575
990.398080	2558.554456
990.694180	2562.065619
990.990244	2561.639642
991.286271	2562.872204
991.582262	2556.926163
991.878217	2560.311298
992.174136	2559.043447
992.470019	2558.917419
992.765865	2557.941955
993.061676	2556.966492
993.357450	2557.551266
993.653188	2556.764846
993.948890	2561.072512
994.244556	2561.397666
994.540186	2561.248952
994.835780	2562.110990
995.131337	2561.523695
995.426859	2563.189797
995.722345	2564.969324
996.017795	2563.545198
996.313208	2567.643656
996.608586	2564.654252
996.903928	2565.163408
997.199234	2566.403532
997.494504	2564.939077
997.789738	2565.874211
998.084936	2565.889334
998.380099	2563.121741
998.675225	2563.525033
998.970316	2566.300188
999.265371	2563.109138
999.560390	2561.601833
999.855373	2561.853891
1000.150320	2561.861453
1000.445232	2562.063099
1000.740108	2559.534960
1001.034948	2560.031514
1001.329752	2562.347924
1001.624521	2560.044117
1001.919254	2558.163766
1002.213951	2559.872717
1002.508613	2558.904816
1002.803239	2559.280382
1003.097829	2559.648386
1003.392384	2559.413972
1003.686903	2559.454302
1003.981386	2560.656617
1004.275834	2558.642676
1004.570246	2559.590413
1004.864623	2557.329455
1005.158964	2560.316339
1005.453270	2557.500854
1005.747540	2558.105793
1006.041775	2559.774415
1006.335974	2558.425906
1006.630138	2557.435319
1006.924266	2561.841288
1007.218359	2557.221070
1007.512416	2555.174362
1007.806438	2558.186451
1008.100425	2554.881975
1008.394376	2552.913404
1008.688292	2557.649568
1008.982172	2557.377346
1009.276017	2559.608057
1009.569827	2557.697459
1009.863602	2559.595454
1010.157341	2556.195196
1010.451045	2557.795762
1010.744714	2558.572100
1011.038347	2559.277861
1011.331945	2555.698642
1011.625508	2558.304918
1011.919036	2558.433468
1012.212528	2556.969013
1012.505986	2555.600339
1012.799408	2557.344579
1013.092795	2556.706873
1013.386147	2559.726524
1013.679464	2557.856256
1013.972745	2559.391287
1014.265992	2557.402552
1014.559204	2555.839794
1014.852380	2560.470094
1015.145521	2558.383056
1015.438628	2557.473128
1015.731699	2557.296688
1016.024736	2558.972871
1016.317737	2557.352140
1016.610703	2557.982285
1016.903635	2560.545711
1017.196531	2558.698128
1017.489393	2556.895916
1017.782219	2557.841132
1018.075011	2557.331976
1018.367768	2556.054043
1018.660490	2557.866338
1018.953177	2557.866338
1019.245829	2557.866338
