Dividing Wavelength (nm)	Counts (n)	Blue Motor Position (mm): 0.000000	Red Motor Position (mm): 5.000000	
326.493990	2089.558269
326.888308	2089.558269
327.282561	2089.558269
327.676750	2092.078846
328.070874	2056.790769
328.464933	2046.708462
328.858929	2049.229038
329.252859	2034.105577
329.646726	2175.257885
330.040528	2137.449231
330.434265	2122.325769
330.827938	2132.408077
331.221547	2150.052115
331.615091	2180.299038
332.008571	2202.984231
332.401986	2200.463654
332.795338	2265.998654
333.188625	2248.354615
333.581847	2298.766154
333.975006	2265.998654
334.368100	2298.766154
334.761129	2296.245577
335.154095	2334.054231
335.546996	2318.930769
335.939833	2321.451346
336.332606	2450.000769
336.725315	2331.533654
337.117960	2341.615962
337.510540	2399.589231
337.903056	2399.589231
338.295508	2409.671538
338.687896	2384.465769
339.080220	2485.288846
339.472480	2455.041923
339.864676	2485.288846
340.256807	2480.247692
340.648875	2457.562500
341.040879	2507.974038
341.432818	2513.015192
341.824694	2513.015192
342.216506	2465.124231
342.608253	2497.891731
342.999937	2507.974038
343.391557	2470.165385
343.783113	2444.959615
344.174605	2467.644808
344.566033	2442.439038
344.957397	2462.603654
345.348697	2414.712692
345.739934	2518.056346
346.131106	2417.233269
346.522215	2455.041923
346.913260	2485.288846
347.304241	2442.439038
347.695159	2492.850577
348.086012	2462.603654
348.476802	2427.315577
348.867528	2452.521346
349.258191	2475.206538
349.648789	2515.535769
350.039324	2394.548077
350.429796	2492.850577
350.820203	2455.041923
351.210548	2482.768269
351.600828	2371.862885
351.991045	2412.192115
352.381198	2495.371154
352.771288	2407.150962
353.161314	2444.959615
353.551276	2409.671538
353.941175	2404.630385
354.331010	2422.274423
354.720782	2472.685962
355.110490	2427.315577
355.500135	2475.206538
355.889717	2452.521346
356.279235	2470.165385
356.668689	2379.424615
357.058080	2452.521346
357.447408	2397.068654
357.836672	2480.247692
358.225873	2465.124231
358.615010	2379.424615
359.004084	2510.494615
359.393095	2417.233269
359.782043	2500.412308
360.170927	2427.315577
360.559748	2399.589231
360.948505	2450.000769
361.337199	2513.015192
361.725830	2409.671538
362.114398	2452.521346
362.502903	2475.206538
362.891344	2510.494615
363.279722	2404.630385
363.668037	2455.041923
364.056289	2429.836154
364.444478	2497.891731
364.832603	2419.753846
365.220665	2492.850577
365.608665	2397.068654
365.996601	2450.000769
366.384474	2487.809423
366.772284	2490.330000
367.160031	2429.836154
367.547715	2528.138654
367.935336	2404.630385
368.322893	2437.397885
368.710388	2500.412308
369.097820	2460.083077
369.485189	2397.068654
369.872495	2351.698269
370.259738	2487.809423
370.646918	2465.124231
371.034035	2429.836154
371.421090	2497.891731
371.808081	2530.659231
372.195010	2427.315577
372.581875	2528.138654
372.968678	2384.465769
373.355418	2482.768269
373.742096	2444.959615
374.128710	2477.727115
374.515262	2427.315577
374.901751	2442.439038
375.288177	2419.753846
375.674540	2507.974038
376.060841	2417.233269
376.447079	2533.179808
376.833254	2399.589231
377.219367	2540.741538
377.605417	2563.426731
377.991404	2427.315577
378.377329	2515.535769
378.763191	2490.330000
379.148991	2555.865000
379.534727	2495.371154
379.920402	2497.891731
380.306013	2462.603654
380.691563	2359.260000
381.077049	2457.562500
381.462474	2502.932885
381.847835	2492.850577
382.233134	2475.206538
382.618371	2505.453462
383.003545	2422.274423
383.388657	2480.247692
383.773706	2439.918462
384.158693	2427.315577
384.543618	2361.780577
384.928480	2424.795000
385.313280	2550.823846
385.698017	2470.165385
386.082692	2467.644808
386.467305	2450.000769
386.851856	2432.356731
387.236344	2465.124231
387.620770	2515.535769
388.005133	2417.233269
388.389435	2500.412308
388.773674	2419.753846
389.157851	2462.603654
389.541965	2518.056346
389.926018	2487.809423
390.310008	2455.041923
390.693936	2444.959615
391.077802	2419.753846
391.461606	2518.056346
391.845348	2422.274423
392.229027	2513.015192
392.612645	2442.439038
392.996200	2404.630385
393.379694	2412.192115
393.763125	2470.165385
394.146494	2444.959615
394.529801	2434.877308
394.913047	2376.904038
395.296230	2434.877308
395.679351	2505.453462
396.062410	2482.768269
396.445408	2452.521346
396.828343	2462.603654
397.211217	2492.850577
397.594028	2432.356731
397.976778	2460.083077
398.359466	2439.918462
398.742092	2460.083077
399.124656	2465.124231
399.507158	2460.083077
399.889598	2424.795000
400.271977	2520.576923
400.654294	2475.206538
401.036549	2502.932885
401.418742	2389.506923
401.800874	2467.644808
402.182944	2465.124231
402.564952	2437.397885
402.946898	2369.342308
403.328783	2510.494615
403.710606	2457.562500
404.092367	2538.220962
404.474067	2492.850577
404.855705	2530.659231
405.237282	2520.576923
405.618797	2518.056346
406.000250	2457.562500
406.381642	2505.453462
406.762972	2475.206538
407.144240	2626.441154
407.525447	2462.603654
407.906593	2467.644808
408.287677	2593.673654
408.668700	2492.850577
409.049661	2412.192115
409.430560	2439.918462
409.811399	2467.644808
410.192176	2414.712692
410.572891	2520.576923
410.953545	2530.659231
411.334138	2450.000769
411.714669	2442.439038
412.095139	2437.397885
412.475547	2429.836154
412.855894	2475.206538
413.236180	2439.918462
413.616405	2409.671538
413.996568	2523.097500
414.376670	2470.165385
414.756711	2472.685962
415.136691	2505.453462
415.516609	2404.630385
415.896466	2470.165385
416.276262	2444.959615
416.655997	2429.836154
417.035670	2477.727115
417.415283	2472.685962
417.794834	2475.206538
418.174324	2452.521346
418.553753	2399.589231
418.933121	2487.809423
419.312428	2429.836154
419.691674	2492.850577
420.070859	2434.877308
420.449983	2450.000769
420.829045	2487.809423
421.208047	2540.741538
421.586988	2470.165385
421.965867	2417.233269
422.344686	2550.823846
422.723444	2518.056346
423.102141	2495.371154
423.480777	2490.330000
423.859352	2523.097500
424.237866	2475.206538
424.616319	2467.644808
424.994712	2502.932885
425.373044	2480.247692
425.751314	2450.000769
426.129524	2492.850577
426.507673	2523.097500
426.885762	2495.371154
427.263789	2485.288846
427.641756	2485.288846
428.019662	2485.288846
428.397508	2394.548077
428.775292	2487.809423
429.153016	2523.097500
429.530679	2502.932885
429.908282	2518.056346
430.285824	2427.315577
430.663305	2487.809423
431.040726	2480.247692
431.418086	2495.371154
431.795385	2397.068654
432.172624	2412.192115
432.549802	2417.233269
432.926920	2399.589231
433.303977	2447.480192
433.680974	2462.603654
434.057910	2429.836154
434.434786	2497.891731
434.811601	2455.041923
435.188355	2482.768269
435.565050	2530.659231
435.941683	2520.576923
436.318257	2528.138654
436.694770	2457.562500
437.071222	2505.453462
437.447614	2560.906154
437.823946	2470.165385
438.200218	2437.397885
438.576429	2472.685962
438.952580	2513.015192
439.328670	2530.659231
439.704700	2495.371154
440.080670	2417.233269
440.456580	2475.206538
440.832429	2485.288846
441.208218	2470.165385
441.583947	2432.356731
441.959616	2462.603654
442.335224	2467.644808
442.710773	2366.821731
443.086261	2530.659231
443.461689	2495.371154
443.837057	2460.083077
444.212365	2513.015192
444.587612	2472.685962
444.962800	2520.576923
445.337927	2543.262115
445.712995	2510.494615
446.088002	2540.741538
446.462949	2424.795000
446.837837	2525.618077
447.212664	2485.288846
447.587431	2510.494615
447.962139	2450.000769
448.336786	2422.274423
448.711374	2462.603654
449.085901	2437.397885
449.460369	2419.753846
449.834776	2540.741538
450.209124	2429.836154
450.583412	2439.918462
450.957640	2543.262115
451.331808	2505.453462
451.705917	2525.618077
452.079965	2470.165385
452.453954	2525.618077
452.827883	2581.070769
453.201752	2477.727115
453.575562	2528.138654
453.949311	2475.206538
454.323001	2518.056346
454.696632	2389.506923
455.070202	2523.097500
455.443713	2422.274423
455.817164	2513.015192
456.190556	2523.097500
456.563888	2550.823846
456.937160	2485.288846
457.310373	2490.330000
457.683526	2495.371154
458.056619	2424.795000
458.429653	2460.083077
458.802628	2507.974038
459.175542	2535.700385
459.548398	2452.521346
459.921194	2543.262115
460.293930	2434.877308
460.666607	2427.315577
461.039224	2492.850577
461.411782	2429.836154
461.784280	2545.782692
462.156719	2452.521346
462.529099	2518.056346
462.901419	2439.918462
463.273680	2429.836154
463.645882	2523.097500
464.018024	2535.700385
464.390106	2487.809423
464.762130	2475.206538
465.134094	2550.823846
465.505999	2404.630385
465.877845	2422.274423
466.249631	2386.986346
466.621358	2477.727115
466.993026	2535.700385
467.364634	2487.809423
467.736184	2525.618077
468.107674	2381.945192
468.479105	2447.480192
468.850477	2462.603654
469.221790	2548.303269
469.593043	2492.850577
469.964238	2495.371154
470.335373	2397.068654
470.706449	2470.165385
471.077467	2502.932885
471.448425	2555.865000
471.819324	2513.015192
472.190164	2583.591346
472.560945	2570.988462
472.931667	2550.823846
473.302330	2442.439038
473.672934	2495.371154
474.043479	2419.753846
474.413965	2460.083077
474.784393	2404.630385
475.154761	2470.165385
475.525070	2497.891731
475.895321	2485.288846
476.265513	2470.165385
476.635645	2558.385577
477.005719	2480.247692
477.375734	2462.603654
477.745691	2492.850577
478.115588	2490.330000
478.485427	2497.891731
478.855207	2444.959615
479.224928	2550.823846
479.594591	2525.618077
479.964194	2576.029615
480.333739	2598.714808
480.703226	2563.426731
481.072653	2515.535769
481.442022	2447.480192
481.811333	2482.768269
482.180584	2548.303269
482.549777	2515.535769
482.918912	2467.644808
483.287988	2487.809423
483.657005	2530.659231
484.025964	2497.891731
484.394864	2477.727115
484.763706	2487.809423
485.132489	2432.356731
485.501213	2515.535769
485.869879	2371.862885
486.238487	2497.891731
486.607036	2553.344423
486.975527	2450.000769
487.343959	2427.315577
487.712333	2475.206538
488.080648	2447.480192
488.448905	2470.165385
488.817104	2560.906154
489.185244	2477.727115
489.553326	2427.315577
489.921350	2376.904038
490.289315	2475.206538
490.657222	2434.877308
491.025070	2502.932885
491.392861	2427.315577
491.760593	2543.262115
492.128267	2477.727115
492.495883	2568.467885
492.863440	2530.659231
493.230939	2472.685962
493.598380	2455.041923
493.965763	2402.109808
494.333088	2523.097500
494.700354	2500.412308
495.067563	2505.453462
495.434713	2457.562500
495.801805	2490.330000
496.168839	2500.412308
496.535815	2419.753846
496.902733	2492.850577
497.269593	2487.809423
497.636395	2510.494615
498.003139	2510.494615
498.369825	2505.453462
498.736453	2434.877308
499.103023	2502.932885
499.469535	2455.041923
499.835989	2470.165385
500.202385	2543.262115
500.568723	2447.480192
500.935003	2475.206538
501.301226	2563.426731
501.667390	2555.865000
502.033497	2485.288846
502.399546	2497.891731
502.765537	2462.603654
503.131470	2500.412308
503.497345	2442.439038
503.863163	2477.727115
504.228923	2472.685962
504.594625	2480.247692
504.960269	2394.548077
505.325856	2490.330000
505.691385	2558.385577
506.056856	2525.618077
506.422270	2434.877308
506.787625	2432.356731
507.152924	2505.453462
507.518164	2507.974038
507.883347	2543.262115
508.248472	2538.220962
508.613540	2515.535769
508.978550	2492.850577
509.343503	2578.550192
509.708398	2505.453462
510.073236	2497.891731
510.438016	2523.097500
510.802738	2540.741538
511.167403	2452.521346
511.532010	2573.509038
511.896561	2502.932885
512.261053	2475.206538
512.625488	2434.877308
512.989866	2525.618077
513.354186	2455.041923
513.718449	2510.494615
514.082655	2447.480192
514.446803	2513.015192
514.810894	2472.685962
515.174927	2457.562500
515.538904	2475.206538
515.902822	2477.727115
516.266684	2465.124231
516.630488	2444.959615
516.994235	2588.632500
517.357925	2477.727115
517.721558	2528.138654
518.085133	2513.015192
518.448651	2442.439038
518.812112	2553.344423
519.175516	2513.015192
519.538863	2528.138654
519.902152	2505.453462
520.265385	2520.576923
520.628560	2530.659231
520.991678	2540.741538
521.354739	2497.891731
521.717743	2452.521346
522.080690	2515.535769
522.443580	2470.165385
522.806413	2565.947308
523.169189	2518.056346
523.531908	2369.342308
523.894569	2472.685962
524.257174	2555.865000
524.619722	2437.397885
524.982213	2558.385577
525.344647	2525.618077
525.707025	2485.288846
526.069345	2392.027500
526.431608	2482.768269
526.793815	2432.356731
527.155964	2518.056346
527.518057	2583.591346
527.880093	2480.247692
528.242072	2515.535769
528.603995	2530.659231
528.965860	2472.685962
529.327669	2429.836154
529.689421	2404.630385
530.051117	2482.768269
530.412755	2520.576923
530.774337	2530.659231
531.135862	2565.947308
531.497331	2457.562500
531.858743	2530.659231
532.220098	2485.288846
532.581396	2470.165385
532.942638	2482.768269
533.303824	2467.644808
533.664953	2535.700385
534.026025	2432.356731
534.387040	2520.576923
534.747999	2591.153077
535.108902	2513.015192
535.469748	2427.315577
535.830537	2485.288846
536.191270	2535.700385
536.551947	2525.618077
536.912567	2475.206538
537.273131	2533.179808
537.633638	2492.850577
537.994089	2518.056346
538.354483	2518.056346
538.714821	2442.439038
539.075103	2520.576923
539.435328	2450.000769
539.795497	2507.974038
540.155609	2487.809423
540.515665	2460.083077
540.875665	2495.371154
541.235609	2444.959615
541.595496	2462.603654
541.955328	2558.385577
542.315102	2480.247692
542.674821	2492.850577
543.034483	2568.467885
543.394090	2510.494615
543.753640	2432.356731
544.113134	2470.165385
544.472571	2495.371154
544.831953	2477.727115
545.191278	2419.753846
545.550548	2530.659231
545.909761	2565.947308
546.268918	2502.932885
546.628019	2568.467885
546.987064	2419.753846
547.346053	2510.494615
547.704986	2513.015192
548.063863	2490.330000
548.422684	2437.397885
548.781449	2485.288846
549.140158	2465.124231
549.498811	2505.453462
549.857408	2455.041923
550.215949	2513.015192
550.574434	2467.644808
550.932864	2548.303269
551.291237	2467.644808
551.649555	2518.056346
552.007817	2399.589231
552.366022	2543.262115
552.724173	2502.932885
553.082267	2507.974038
553.440305	2553.344423
553.798288	2545.782692
554.156215	2515.535769
554.514086	2540.741538
554.871902	2472.685962
555.229661	2505.453462
555.587365	2472.685962
555.945014	2487.809423
556.302606	2520.576923
556.660143	2520.576923
557.017625	2492.850577
557.375050	2505.453462
557.732421	2346.657115
558.089735	2460.083077
558.446994	2555.865000
558.804197	2525.618077
559.161345	2472.685962
559.518437	2518.056346
559.875474	2439.918462
560.232455	2502.932885
560.589381	2513.015192
560.946251	2500.412308
561.303065	2417.233269
561.659825	2460.083077
562.016528	2485.288846
562.373177	2576.029615
562.729770	2490.330000
563.086307	2457.562500
563.442789	2444.959615
563.799216	2523.097500
564.155587	2472.685962
564.511904	2505.453462
564.868164	2523.097500
565.224370	2442.439038
565.580520	2470.165385
565.936615	2485.288846
566.292654	2477.727115
566.648638	2414.712692
567.004567	2596.194231
567.360441	2505.453462
567.716260	2452.521346
568.072023	2548.303269
568.427732	2442.439038
568.783385	2447.480192
569.138982	2442.439038
569.494525	2515.535769
569.850013	2432.356731
570.205445	2626.441154
570.560823	2447.480192
570.916145	2515.535769
571.271412	2457.562500
571.626625	2545.782692
571.981782	2432.356731
572.336884	2497.891731
572.691931	2487.809423
573.046923	2538.220962
573.401860	2482.768269
573.756743	2510.494615
574.111570	2452.521346
574.466342	2533.179808
574.821059	2518.056346
575.175722	2545.782692
575.530330	2480.247692
575.884882	2465.124231
576.239380	2550.823846
576.593823	2502.932885
576.948211	2553.344423
577.302544	2419.753846
577.656823	2472.685962
578.011047	2470.165385
578.365216	2485.288846
578.719330	2510.494615
579.073389	2495.371154
579.427394	2424.795000
579.781344	2540.741538
580.135239	2588.632500
580.489080	2515.535769
580.842866	2472.685962
581.196597	2452.521346
581.550273	2611.317692
581.903895	2543.262115
582.257463	2548.303269
582.610975	2490.330000
582.964434	2480.247692
583.317837	2485.288846
583.671186	2475.206538
584.024481	2482.768269
584.377721	2434.877308
584.730906	2439.918462
585.084037	2487.809423
585.437113	2558.385577
585.790135	2505.453462
586.143103	2583.591346
586.496016	2505.453462
586.848874	2492.850577
587.201679	2487.809423
587.554428	2518.056346
587.907124	2495.371154
588.259765	2487.809423
588.612352	2565.947308
588.964884	2432.356731
589.317362	2523.097500
589.669786	2558.385577
590.022155	2502.932885
590.374470	2548.303269
590.726731	2424.795000
591.078937	2455.041923
591.431090	2472.685962
591.783188	2495.371154
592.135232	2487.809423
592.487222	2573.509038
592.839157	2513.015192
593.191038	2465.124231
593.542866	2513.015192
593.894639	2371.862885
594.246358	2535.700385
594.598022	2450.000769
594.949633	2563.426731
595.301190	2555.865000
595.652692	2560.906154
596.004141	2467.644808
596.355535	2515.535769
596.706876	2560.906154
597.058162	2442.439038
597.409395	2505.453462
597.760573	2497.891731
598.111698	2502.932885
598.462768	2555.865000
598.813785	2460.083077
599.164748	2553.344423
599.515657	2507.974038
599.866511	2515.535769
600.217312	2457.562500
600.568060	2429.836154
600.918753	2475.206538
601.269392	2507.974038
601.619978	2467.644808
601.970510	2507.974038
602.320988	2444.959615
602.671412	2477.727115
603.021783	2507.974038
603.372100	2558.385577
603.722363	2432.356731
604.072572	2467.644808
604.422728	2457.562500
604.772830	2513.015192
605.122878	2507.974038
605.472872	2490.330000
605.822813	2497.891731
606.172701	2507.974038
606.522534	2510.494615
606.872314	2437.397885
607.222041	2505.453462
607.571714	2462.603654
607.921333	2523.097500
608.270899	2530.659231
608.620411	2467.644808
608.969870	2497.891731
609.319276	2540.741538
609.668627	2515.535769
610.017926	2505.453462
610.367171	2538.220962
610.716362	2497.891731
611.065500	2444.959615
611.414585	2482.768269
611.763616	2467.644808
612.112594	2397.068654
612.461518	2386.986346
612.810389	2548.303269
613.159207	2480.247692
613.507971	2543.262115
613.856682	2507.974038
614.205340	2447.480192
614.553945	2487.809423
614.902496	2404.630385
615.250994	2545.782692
615.599439	2371.862885
615.947830	2513.015192
616.296169	2482.768269
616.644454	2472.685962
616.992686	2437.397885
617.340864	2424.795000
617.688990	2475.206538
618.037063	2470.165385
618.385082	2465.124231
618.733048	2497.891731
619.080961	2513.015192
619.428821	2427.315577
619.776628	2455.041923
620.124382	2462.603654
620.472083	2548.303269
620.819731	2490.330000
621.167326	2523.097500
621.514868	2427.315577
621.862357	2550.823846
622.209793	2462.603654
622.557176	2515.535769
622.904506	2475.206538
623.251783	2523.097500
623.599007	2470.165385
623.946179	2500.412308
624.293297	2558.385577
624.640363	2623.920577
624.987376	2510.494615
625.334336	2530.659231
625.681243	2419.753846
626.028097	2507.974038
626.374899	2525.618077
626.721647	2495.371154
627.068343	2535.700385
627.414987	2485.288846
627.761577	2447.480192
628.108115	2518.056346
628.454600	2452.521346
628.801032	2558.385577
629.147412	2487.809423
629.493739	2518.056346
629.840014	2417.233269
630.186236	2525.618077
630.532405	2502.932885
630.878521	2467.644808
631.224585	2513.015192
631.570597	2442.439038
631.916556	2553.344423
632.262462	2505.453462
632.608316	2588.632500
632.954117	2520.576923
633.299866	2505.453462
633.645562	2480.247692
633.991206	2442.439038
634.336797	2432.356731
634.682336	2515.535769
635.027823	2497.891731
635.373257	2434.877308
635.718639	2535.700385
636.063968	2520.576923
636.409245	2427.315577
636.754470	2538.220962
637.099642	2462.603654
637.444762	2608.797115
637.789829	2545.782692
638.134845	2422.274423
638.479808	2538.220962
638.824719	2460.083077
639.169577	2548.303269
639.514383	2573.509038
639.859137	2510.494615
640.203839	2482.768269
640.548489	2384.465769
640.893086	2518.056346
641.237632	2470.165385
641.582125	2525.618077
641.926566	2500.412308
642.270955	2573.509038
642.615292	2583.591346
642.959576	2450.000769
643.303809	2528.138654
643.647990	2490.330000
643.992118	2455.041923
644.336195	2424.795000
644.680219	2545.782692
645.024192	2507.974038
645.368112	2586.111923
645.711981	2528.138654
646.055797	2538.220962
646.399562	2452.521346
646.743274	2482.768269
647.086935	2492.850577
647.430544	2548.303269
647.774101	2482.768269
648.117606	2570.988462
648.461059	2460.083077
648.804460	2555.865000
649.147810	2457.562500
649.491108	2510.494615
649.834354	2495.371154
650.177548	2480.247692
650.520690	2507.974038
650.863781	2533.179808
651.206820	2434.877308
651.549807	2563.426731
651.892742	2455.041923
652.235626	2492.850577
652.578458	2475.206538
652.921238	2558.385577
653.263967	2505.453462
653.606644	2518.056346
653.949269	2480.247692
654.291843	2502.932885
654.634365	2502.932885
654.976836	2523.097500
655.319255	2518.056346
655.661622	2565.947308
656.003938	2601.235385
656.346203	2500.412308
656.688416	2439.918462
657.030577	2558.385577
657.372687	2447.480192
657.714746	2490.330000
658.056753	2581.070769
658.398708	2550.823846
658.740612	2533.179808
659.082465	2462.603654
659.424266	2500.412308
659.766016	2490.330000
660.107715	2500.412308
660.449362	2576.029615
660.790958	2500.412308
661.132503	2535.700385
661.473996	2409.671538
661.815438	2540.741538
662.156829	2502.932885
662.498168	2485.288846
662.839456	2533.179808
663.180693	2530.659231
663.521879	2596.194231
663.863013	2510.494615
664.204097	2492.850577
664.545129	2490.330000
664.886110	2500.412308
665.227040	2497.891731
665.567918	2520.576923
665.908746	2510.494615
666.249522	2505.453462
666.590248	2444.959615
666.930922	2507.974038
667.271545	2596.194231
667.612118	2505.453462
667.952639	2422.274423
668.293109	2538.220962
668.633528	2381.945192
668.973896	2432.356731
669.314213	2427.315577
669.654480	2540.741538
669.994695	2553.344423
670.334859	2495.371154
670.674973	2555.865000
671.015035	2588.632500
671.355047	2555.865000
671.695008	2576.029615
672.034918	2533.179808
672.374777	2457.562500
672.714585	2513.015192
673.054342	2467.644808
673.394049	2558.385577
673.733705	2515.535769
674.073310	2482.768269
674.412864	2460.083077
674.752368	2386.986346
675.091820	2538.220962
675.431223	2472.685962
675.770574	2576.029615
676.109875	2439.918462
676.449125	2487.809423
676.788324	2558.385577
677.127473	2565.947308
677.466571	2477.727115
677.805619	2535.700385
678.144616	2502.932885
678.483562	2543.262115
678.822458	2528.138654
679.161303	2518.056346
679.500098	2432.356731
679.838842	2505.453462
680.177535	2480.247692
680.516179	2492.850577
680.854771	2578.550192
681.193314	2450.000769
681.531805	2553.344423
681.870247	2550.823846
682.208638	2485.288846
682.546978	2533.179808
682.885268	2515.535769
683.223508	2485.288846
683.561697	2460.083077
683.899836	2513.015192
684.237925	2434.877308
684.575963	2502.932885
684.913951	2507.974038
685.251889	2555.865000
685.589776	2550.823846
685.927614	2432.356731
686.265401	2535.700385
686.603137	2442.439038
686.940824	2518.056346
687.278460	2434.877308
687.616046	2500.412308
687.953582	2568.467885
688.291068	2515.535769
688.628504	2467.644808
688.965889	2427.315577
689.303224	2439.918462
689.640510	2583.591346
689.977745	2518.056346
690.314930	2603.755962
690.652065	2487.809423
690.989150	2485.288846
691.326185	2480.247692
691.663170	2457.562500
692.000105	2384.465769
692.336990	2442.439038
692.673825	2518.056346
693.010610	2485.288846
693.347345	2543.262115
693.684030	2487.809423
694.020665	2555.865000
694.357251	2502.932885
694.693786	2467.644808
695.030272	2505.453462
695.366707	2497.891731
695.703093	2497.891731
696.039429	2450.000769
696.375716	2497.891731
696.711952	2422.274423
697.048139	2482.768269
697.384276	2538.220962
697.720363	2495.371154
698.056400	2432.356731
698.392388	2465.124231
698.728326	2475.206538
699.064214	2487.809423
699.400053	2538.220962
699.735842	2596.194231
700.071581	2558.385577
700.407270	2407.150962
700.742910	2538.220962
701.078501	2417.233269
701.414042	2538.220962
701.749533	2447.480192
702.084974	2427.315577
702.420366	2457.562500
702.755709	2502.932885
703.091002	2538.220962
703.426246	2452.521346
703.761440	2467.644808
704.096584	2482.768269
704.431679	2485.288846
704.766725	2518.056346
705.101721	2419.753846
705.436668	2507.974038
705.771565	2525.618077
706.106413	2417.233269
706.441212	2492.850577
706.775961	2424.795000
707.110661	2528.138654
707.445311	2528.138654
707.779913	2518.056346
708.114465	2535.700385
708.448967	2518.056346
708.783421	2507.974038
709.117825	2457.562500
709.452180	2467.644808
709.786485	2507.974038
710.120742	2492.850577
710.454949	2558.385577
710.789107	2563.426731
711.123216	2543.262115
711.457275	2523.097500
711.791286	2460.083077
712.125247	2518.056346
712.459159	2455.041923
712.793023	2465.124231
713.126837	2535.700385
713.460602	2429.836154
713.794318	2513.015192
714.127985	2568.467885
714.461602	2558.385577
714.795171	2553.344423
715.128691	2455.041923
715.462162	2465.124231
715.795584	2487.809423
716.128957	2528.138654
716.462281	2485.288846
716.795556	2407.150962
717.128782	2507.974038
717.461960	2442.439038
717.795088	2487.809423
718.128167	2462.603654
718.461198	2538.220962
718.794180	2513.015192
719.127113	2525.618077
719.459997	2513.015192
719.792833	2500.412308
720.125619	2523.097500
720.458357	2465.124231
720.791046	2452.521346
721.123686	2419.753846
721.456278	2444.959615
721.788821	2480.247692
722.121315	2578.550192
722.453761	2525.618077
722.786158	2495.371154
723.118506	2502.932885
723.450805	2455.041923
723.783056	2528.138654
724.115259	2497.891731
724.447412	2427.315577
724.779518	2470.165385
725.111574	2477.727115
725.443582	2482.768269
725.775542	2533.179808
726.107453	2603.755962
726.439315	2470.165385
726.771129	2513.015192
727.102895	2475.206538
727.434612	2530.659231
727.766281	2480.247692
728.097901	2414.712692
728.429473	2475.206538
728.760996	2518.056346
729.092471	2535.700385
729.423897	2520.576923
729.755276	2487.809423
730.086606	2422.274423
730.417887	2492.850577
730.749120	2538.220962
731.080305	2535.700385
731.411442	2482.768269
731.742530	2475.206538
732.073570	2510.494615
732.404562	2427.315577
732.735506	2533.179808
733.066401	2475.206538
733.397249	2492.850577
733.728048	2455.041923
734.058798	2437.397885
734.389501	2480.247692
734.720156	2437.397885
735.050762	2535.700385
735.381320	2507.974038
735.711831	2513.015192
736.042293	2500.412308
736.372707	2427.315577
736.703073	2523.097500
737.033391	2477.727115
737.363661	2490.330000
737.693883	2455.041923
738.024056	2588.632500
738.354182	2540.741538
738.684260	2427.315577
739.014290	2455.041923
739.344272	2563.426731
739.674207	2462.603654
740.004093	2480.247692
740.333931	2442.439038
740.663722	2623.920577
740.993464	2530.659231
741.323159	2485.288846
741.652806	2455.041923
741.982405	2555.865000
742.311956	2555.865000
742.641460	2510.494615
742.970915	2502.932885
743.300323	2523.097500
743.629683	2497.891731
743.958996	2538.220962
744.288260	2490.330000
744.617477	2510.494615
744.946647	2500.412308
745.275768	2467.644808
745.604842	2447.480192
745.933869	2505.453462
746.262847	2555.865000
746.591778	2535.700385
746.920662	2392.027500
747.249498	2432.356731
747.578286	2366.821731
747.907027	2457.562500
748.235720	2528.138654
748.564365	2510.494615
748.892963	2530.659231
749.221514	2533.179808
749.550017	2518.056346
749.878473	2432.356731
750.206881	2570.988462
750.535242	2520.576923
750.863555	2540.741538
751.191821	2462.603654
751.520039	2535.700385
751.848210	2570.988462
752.176334	2520.576923
752.504411	2570.988462
752.832440	2429.836154
753.160421	2543.262115
753.488356	2515.535769
753.816243	2545.782692
754.144082	2510.494615
754.471875	2450.000769
754.799620	2576.029615
755.127318	2492.850577
755.454969	2523.097500
755.782572	2470.165385
756.110129	2480.247692
756.437638	2402.109808
756.765100	2419.753846
757.092515	2505.453462
757.419882	2475.206538
757.747203	2470.165385
758.074477	2576.029615
758.401703	2515.535769
758.728882	2472.685962
759.056014	2538.220962
759.383099	2565.947308
759.710138	2513.015192
760.037129	2568.467885
760.364073	2475.206538
760.690970	2392.027500
761.017820	2462.603654
761.344623	2434.877308
761.671379	2533.179808
761.998088	2427.315577
762.324751	2495.371154
762.651366	2444.959615
762.977935	2563.426731
763.304456	2475.206538
763.630931	2507.974038
763.957359	2477.727115
764.283740	2523.097500
764.610074	2439.918462
764.936362	2568.467885
765.262602	2487.809423
765.588796	2457.562500
765.914943	2505.453462
766.241044	2485.288846
766.567097	2467.644808
766.893104	2548.303269
767.219064	2518.056346
767.544978	2558.385577
767.870845	2558.385577
768.196665	2432.356731
768.522438	2447.480192
768.848165	2427.315577
769.173846	2482.768269
769.499479	2538.220962
769.825066	2500.412308
770.150607	2502.932885
770.476101	2497.891731
770.801548	2404.630385
771.126949	2462.603654
771.452303	2460.083077
771.777611	2490.330000
772.102872	2518.056346
772.428087	2543.262115
772.753256	2490.330000
773.078378	2434.877308
773.403453	2475.206538
773.728482	2477.727115
774.053465	2515.535769
774.378401	2545.782692
774.703291	2487.809423
775.028135	2467.644808
775.352932	2583.591346
775.677683	2528.138654
776.002388	2568.467885
776.327046	2487.809423
776.651658	2598.714808
776.976224	2530.659231
777.300743	2447.480192
777.625216	2477.727115
777.949643	2523.097500
778.274024	2518.056346
778.598359	2429.836154
778.922647	2573.509038
779.246889	2502.932885
779.571086	2485.288846
779.895236	2568.467885
780.219339	2444.959615
780.543397	2570.988462
780.867409	2540.741538
781.191374	2507.974038
781.515294	2528.138654
781.839167	2407.150962
782.162995	2545.782692
782.486776	2550.823846
782.810511	2477.727115
783.134201	2457.562500
783.457844	2533.179808
783.781441	2457.562500
784.104993	2560.906154
784.428498	2437.397885
784.751958	2477.727115
785.075372	2495.371154
785.398739	2447.480192
785.722061	2520.576923
786.045337	2487.809423
786.368568	2523.097500
786.691752	2381.945192
787.014891	2523.097500
787.337983	2409.671538
787.661030	2513.015192
787.984031	2550.823846
788.306987	2455.041923
788.629897	2540.741538
788.952760	2510.494615
789.275579	2444.959615
789.598351	2560.906154
789.921078	2568.467885
790.243759	2495.371154
790.566395	2515.535769
790.888984	2467.644808
791.211529	2540.741538
791.534027	2502.932885
791.856480	2467.644808
792.178888	2432.356731
792.501249	2437.397885
792.823566	2560.906154
793.145836	2444.959615
793.468062	2472.685962
793.790241	2404.630385
794.112375	2472.685962
794.434464	2465.124231
794.756507	2437.397885
795.078505	2465.124231
795.400457	2432.356731
795.722364	2525.618077
796.044226	2507.974038
796.366042	2538.220962
796.687812	2558.385577
797.009538	2500.412308
797.331218	2457.562500
797.652852	2553.344423
797.974442	2628.961731
798.295986	2513.015192
798.617484	2429.836154
798.938938	2538.220962
799.260346	2444.959615
799.581709	2553.344423
799.903026	2470.165385
800.224299	2560.906154
800.545526	2452.521346
800.866708	2513.015192
801.187845	2500.412308
801.508936	2550.823846
801.829983	2515.535769
802.150984	2439.918462
802.471940	2520.576923
802.792851	2586.111923
803.113717	2555.865000
803.434538	2482.768269
803.755314	2485.288846
804.076045	2530.659231
804.396731	2437.397885
804.717372	2492.850577
805.037967	2439.918462
805.358518	2553.344423
805.679024	2344.136538
805.999485	2457.562500
806.319901	2500.412308
806.640272	2495.371154
806.960598	2510.494615
807.280879	2502.932885
807.601115	2558.385577
807.921306	2424.795000
808.241453	2497.891731
808.561554	2444.959615
808.881611	2500.412308
809.201623	2467.644808
809.521590	2507.974038
809.841513	2518.056346
810.161390	2563.426731
810.481223	2495.371154
810.801011	2507.974038
811.120755	2502.932885
811.440453	2452.521346
811.760107	2470.165385
812.079716	2558.385577
812.399281	2432.356731
812.718801	2520.576923
813.038276	2480.247692
813.357707	2404.630385
813.677093	2477.727115
813.996434	2500.412308
814.315731	2495.371154
814.634983	2545.782692
814.954191	2442.439038
815.273354	2492.850577
815.592473	2495.371154
815.911547	2502.932885
816.230577	2467.644808
816.549562	2545.782692
816.868502	2490.330000
817.187399	2482.768269
817.506250	2444.959615
817.825058	2497.891731
818.143821	2518.056346
818.462539	2530.659231
818.781213	2520.576923
819.099843	2472.685962
819.418429	2507.974038
819.736970	2558.385577
820.055466	2560.906154
820.373919	2520.576923
820.692327	2520.576923
821.010691	2518.056346
821.329011	2497.891731
821.647286	2525.618077
821.965517	2495.371154
822.283704	2490.330000
822.601847	2528.138654
822.919945	2467.644808
823.237999	2513.015192
823.556010	2397.068654
823.873976	2485.288846
824.191897	2472.685962
824.509775	2487.809423
824.827609	2419.753846
825.145398	2523.097500
825.463144	2573.509038
825.780845	2550.823846
826.098502	2513.015192
826.416116	2520.576923
826.733685	2540.741538
827.051210	2485.288846
827.368692	2510.494615
827.686129	2480.247692
828.003522	2500.412308
828.320872	2500.412308
828.638177	2472.685962
828.955439	2444.959615
829.272656	2550.823846
829.589830	2444.959615
829.906960	2485.288846
830.224046	2505.453462
830.541088	2467.644808
830.858086	2565.947308
831.175041	2507.974038
831.491952	2437.397885
831.808819	2472.685962
832.125642	2487.809423
832.442421	2523.097500
832.759157	2558.385577
833.075849	2467.644808
833.392497	2525.618077
833.709101	2397.068654
834.025662	2389.506923
834.342179	2528.138654
834.658653	2538.220962
834.975083	2523.097500
835.291469	2538.220962
835.607811	2495.371154
835.924110	2513.015192
836.240366	2467.644808
836.556578	2520.576923
836.872746	2467.644808
837.188871	2513.015192
837.504952	2555.865000
837.820990	2578.550192
838.136984	2586.111923
838.452935	2497.891731
838.768842	2510.494615
839.084706	2538.220962
839.400526	2563.426731
839.716303	2472.685962
840.032037	2507.974038
840.347727	2470.165385
840.663373	2467.644808
840.978977	2470.165385
841.294537	2515.535769
841.610054	2407.150962
841.925527	2535.700385
842.240957	2548.303269
842.556344	2525.618077
842.871687	2497.891731
843.186987	2397.068654
843.502244	2482.768269
843.817458	2502.932885
844.132629	2513.015192
844.447756	2523.097500
844.762840	2528.138654
845.077881	2429.836154
845.392879	2495.371154
845.707833	2460.083077
846.022745	2475.206538
846.337613	2533.179808
846.652438	2444.959615
846.967221	2528.138654
847.281960	2495.371154
847.596656	2492.850577
847.911309	2530.659231
848.225919	2462.603654
848.540485	2487.809423
848.855009	2442.439038
849.169490	2485.288846
849.483928	2455.041923
849.798323	2394.548077
850.112675	2497.891731
850.426984	2510.494615
850.741251	2452.521346
851.055474	2492.850577
851.369654	2538.220962
851.683792	2422.274423
851.997887	2404.630385
852.311938	2450.000769
852.625947	2550.823846
852.939914	2533.179808
853.253837	2500.412308
853.567718	2452.521346
853.881555	2444.959615
854.195350	2540.741538
854.509103	2419.753846
854.822812	2470.165385
855.136479	2470.165385
855.450103	2543.262115
855.763685	2485.288846
856.077224	2480.247692
856.390720	2555.865000
856.704173	2540.741538
857.017584	2455.041923
857.330953	2553.344423
857.644278	2450.000769
857.957561	2513.015192
858.270802	2500.412308
858.584000	2528.138654
858.897155	2450.000769
859.210268	2520.576923
859.523339	2444.959615
859.836367	2470.165385
860.149352	2447.480192
860.462295	2525.618077
860.775195	2470.165385
861.088054	2588.632500
861.400869	2576.029615
861.713642	2422.274423
862.026373	2518.056346
862.339062	2586.111923
862.651708	2472.685962
862.964312	2497.891731
863.276873	2470.165385
863.589392	2593.673654
863.901869	2583.591346
864.214303	2510.494615
864.526696	2487.809423
864.839045	2439.918462
865.151353	2475.206538
865.463619	2540.741538
865.775842	2455.041923
866.088023	2477.727115
866.400162	2444.959615
866.712258	2487.809423
867.024313	2540.741538
867.336325	2497.891731
867.648296	2497.891731
867.960224	2407.150962
868.272110	2507.974038
868.583954	2515.535769
868.895755	2437.397885
869.207515	2457.562500
869.519233	2497.891731
869.830909	2427.315577
870.142542	2381.945192
870.454134	2518.056346
870.765684	2492.850577
871.077191	2497.891731
871.388657	2402.109808
871.700081	2525.618077
872.011463	2462.603654
872.322803	2510.494615
872.634101	2472.685962
872.945357	2475.206538
873.256571	2543.262115
873.567744	2515.535769
873.878874	2460.083077
874.189963	2515.535769
874.501010	2427.315577
874.812015	2480.247692
875.122979	2538.220962
875.433900	2414.712692
875.744780	2518.056346
876.055618	2528.138654
876.366415	2525.618077
876.677169	2518.056346
876.987882	2513.015192
877.298554	2477.727115
877.609183	2482.768269
877.919771	2462.603654
878.230317	2563.426731
878.540822	2510.494615
878.851285	2523.097500
879.161707	2505.453462
879.472087	2581.070769
879.782425	2550.823846
880.092722	2475.206538
880.402977	2540.741538
880.713191	2513.015192
881.023363	2570.988462
881.333494	2495.371154
881.643583	2518.056346
881.953631	2495.371154
882.263637	2485.288846
882.573602	2520.576923
882.883526	2568.467885
883.193408	2457.562500
883.503248	2507.974038
883.813048	2422.274423
884.122806	2414.712692
884.432522	2482.768269
884.742197	2437.397885
885.051831	2452.521346
885.361424	2455.041923
885.670975	2538.220962
885.980485	2480.247692
886.289954	2548.303269
886.599382	2545.782692
886.908768	2538.220962
887.218113	2528.138654
887.527417	2424.795000
887.836680	2502.932885
888.145901	2482.768269
888.455082	2472.685962
888.764221	2452.521346
889.073319	2427.315577
889.382376	2530.659231
889.691392	2525.618077
890.000366	2475.206538
890.309300	2480.247692
890.618193	2412.192115
890.927044	2455.041923
891.235855	2573.509038
891.544625	2502.932885
891.853353	2500.412308
892.162041	2460.083077
892.470687	2518.056346
892.779293	2475.206538
893.087858	2465.124231
893.396381	2465.124231
893.704864	2520.576923
894.013306	2487.809423
894.321707	2457.562500
894.630068	2381.945192
894.938387	2502.932885
895.246665	2470.165385
895.554903	2467.644808
895.863100	2472.685962
896.171256	2535.700385
896.479371	2490.330000
896.787446	2475.206538
897.095480	2477.727115
897.403473	2470.165385
897.711425	2507.974038
898.019336	2525.618077
898.327207	2487.809423
898.635038	2553.344423
898.942827	2465.124231
899.250576	2482.768269
899.558284	2422.274423
899.865952	2462.603654
900.173579	2475.206538
900.481165	2533.179808
900.788711	2465.124231
901.096216	2384.465769
901.403681	2515.535769
901.711105	2472.685962
902.018489	2429.836154
902.325832	2452.521346
902.633135	2397.068654
902.940397	2472.685962
903.247619	2540.741538
903.554800	2490.330000
903.861941	2485.288846
904.169041	2487.809423
904.476101	2414.712692
904.783121	2515.535769
905.090100	2480.247692
905.397039	2502.932885
905.703938	2487.809423
906.010796	2583.591346
906.317614	2457.562500
906.624391	2480.247692
906.931129	2450.000769
907.237826	2457.562500
907.544483	2429.836154
907.851099	2528.138654
908.157675	2419.753846
908.464211	2470.165385
908.770707	2442.439038
909.077163	2480.247692
909.383578	2513.015192
909.689954	2576.029615
909.996289	2485.288846
910.302584	2429.836154
910.608839	2520.576923
910.915054	2480.247692
911.221229	2523.097500
911.527363	2518.056346
911.833458	2480.247692
912.139513	2429.836154
912.445527	2505.453462
912.751502	2495.371154
913.057436	2583.591346
913.363331	2439.918462
913.669186	2444.959615
913.975000	2497.891731
914.280775	2548.303269
914.586510	2470.165385
914.892205	2460.083077
915.197859	2477.727115
915.503475	2523.097500
915.809050	2487.809423
916.114585	2475.206538
916.420081	2570.988462
916.725536	2553.344423
917.030952	2434.877308
917.336328	2482.768269
917.641665	2472.685962
917.946961	2565.947308
918.252218	2510.494615
918.557435	2467.644808
918.862612	2535.700385
919.167750	2424.795000
919.472848	2452.521346
919.777906	2414.712692
920.082925	2502.932885
920.387904	2497.891731
920.692843	2462.603654
920.997743	2439.918462
921.302603	2412.192115
921.607423	2490.330000
921.912204	2497.891731
922.216946	2434.877308
922.521647	2460.083077
922.826310	2535.700385
923.130932	2525.618077
923.435516	2462.603654
923.740059	2447.480192
924.044564	2465.124231
924.349028	2477.727115
924.653454	2437.397885
924.957840	2515.535769
925.262186	2492.850577
925.566493	2497.891731
925.870761	2412.192115
926.174989	2502.932885
926.479178	2467.644808
926.783328	2540.741538
927.087438	2392.027500
927.391509	2429.836154
927.695541	2545.782692
927.999533	2442.439038
928.303486	2515.535769
928.607400	2470.165385
928.911275	2439.918462
929.215110	2467.644808
929.518906	2495.371154
929.822663	2467.644808
930.126381	2475.206538
930.430060	2475.206538
930.733699	2457.562500
931.037299	2482.768269
931.340861	2467.644808
931.644383	2397.068654
931.947866	2553.344423
932.251309	2437.397885
932.554714	2450.000769
932.858080	2558.385577
933.161407	2487.809423
933.464694	2535.700385
933.767943	2467.644808
934.071153	2520.576923
934.374323	2502.932885
934.677455	2528.138654
934.980548	2553.344423
935.283602	2513.015192
935.586617	2525.618077
935.889593	2555.865000
936.192530	2462.603654
936.495428	2520.576923
936.798287	2485.288846
937.101108	2497.891731
937.403890	2507.974038
937.706632	2419.753846
938.009336	2505.453462
938.312002	2437.397885
938.614628	2477.727115
938.917216	2467.644808
939.219765	2490.330000
939.522275	2523.097500
939.824747	2457.562500
940.127179	2482.768269
940.429573	2437.397885
940.731929	2460.083077
941.034246	2480.247692
941.336524	2518.056346
941.638763	2505.453462
941.940964	2528.138654
942.243126	2505.453462
942.545250	2591.153077
942.847335	2487.809423
943.149381	2513.015192
943.451389	2457.562500
943.753359	2452.521346
944.055290	2530.659231
944.357182	2513.015192
944.659036	2455.041923
944.960851	2386.986346
945.262628	2470.165385
945.564367	2424.795000
945.866067	2419.753846
946.167729	2482.768269
946.469352	2467.644808
946.770937	2495.371154
947.072484	2573.509038
947.373992	2601.235385
947.675462	2414.712692
947.976893	2518.056346
948.278286	2462.603654
948.579641	2480.247692
948.880958	2455.041923
949.182236	2513.015192
949.483476	2477.727115
949.784678	2460.083077
950.085841	2480.247692
950.386967	2513.015192
950.688054	2565.947308
950.989103	2432.356731
951.290114	2480.247692
951.591087	2530.659231
951.892021	2414.712692
952.192917	2497.891731
952.493776	2520.576923
952.794596	2485.288846
953.095378	2465.124231
953.396122	2442.439038
953.696828	2538.220962
953.997496	2429.836154
954.298126	2528.138654
954.598718	2492.850577
954.899272	2495.371154
955.199788	2472.685962
955.500266	2515.535769
955.800706	2487.809423
956.101108	2550.823846
956.401472	2513.015192
956.701798	2495.371154
957.002087	2492.850577
957.302337	2533.179808
957.602550	2475.206538
957.902724	2505.453462
958.202861	2533.179808
958.502960	2470.165385
958.803022	2540.741538
959.103045	2457.562500
959.403031	2518.056346
959.702979	2465.124231
960.002889	2525.618077
960.302762	2576.029615
960.602596	2432.356731
960.902393	2452.521346
961.202153	2593.673654
961.501875	2523.097500
961.801559	2502.932885
962.101205	2540.741538
962.400814	2565.947308
962.700385	2465.124231
962.999918	2560.906154
963.299414	2525.618077
963.598873	2525.618077
963.898293	2467.644808
964.197677	2518.056346
964.497022	2450.000769
964.796331	2497.891731
965.095601	2513.015192
965.394835	2533.179808
965.694030	2492.850577
965.993189	2470.165385
966.292309	2432.356731
966.591393	2535.700385
966.890439	2505.453462
967.189447	2510.494615
967.488419	2520.576923
967.787353	2470.165385
968.086249	2477.727115
968.385108	2497.891731
968.683930	2555.865000
968.982714	2470.165385
969.281462	2490.330000
969.580172	2447.480192
969.878844	2447.480192
970.177480	2447.480192
970.476078	2520.576923
970.774639	2525.618077
971.073162	2472.685962
971.371649	2518.056346
971.670098	2472.685962
971.968510	2475.206538
972.266885	2533.179808
972.565223	2485.288846
972.863524	2518.056346
973.161788	2510.494615
973.460014	2533.179808
973.758204	2465.124231
974.056356	2523.097500
974.354471	2543.262115
974.652550	2490.330000
974.950591	2500.412308
975.248595	2543.262115
975.546563	2450.000769
975.844493	2480.247692
976.142386	2475.206538
976.440243	2530.659231
976.738062	2490.330000
977.035845	2520.576923
977.333590	2404.630385
977.631299	2472.685962
977.928971	2439.918462
978.226606	2429.836154
978.524204	2500.412308
978.821765	2462.603654
979.119290	2429.836154
979.416777	2515.535769
979.714228	2424.795000
980.011642	2560.906154
980.309020	2394.548077
980.606360	2455.041923
980.903664	2457.562500
981.200931	2472.685962
981.498162	2414.712692
981.795356	2518.056346
982.092513	2548.303269
982.389633	2528.138654
982.686717	2419.753846
982.983764	2497.891731
983.280775	2477.727115
983.577749	2543.262115
983.874686	2492.850577
984.171587	2525.618077
984.468451	2407.150962
984.765279	2523.097500
985.062070	2505.453462
985.358824	2565.947308
985.655543	2548.303269
985.952224	2482.768269
986.248869	2409.671538
986.545478	2497.891731
986.842050	2437.397885
987.138586	2457.562500
987.435086	2550.823846
987.731549	2470.165385
988.027975	2427.315577
988.324366	2487.809423
988.620719	2502.932885
988.917037	2495.371154
989.213318	2460.083077
989.509563	2518.056346
989.805772	2427.315577
990.101944	2535.700385
990.398080	2502.932885
990.694180	2545.782692
990.990244	2513.015192
991.286271	2528.138654
991.582262	2518.056346
991.878217	2495.371154
992.174136	2452.521346
992.470019	2470.165385
992.765865	2533.179808
993.061676	2417.233269
993.357450	2543.262115
993.653188	2439.918462
993.948890	2500.412308
994.244556	2450.000769
994.540186	2528.138654
994.835780	2460.083077
995.131337	2434.877308
995.426859	2444.959615
995.722345	2399.589231
996.017795	2462.603654
996.313208	2404.630385
996.608586	2462.603654
996.903928	2543.262115
997.199234	2525.618077
997.494504	2560.906154
997.789738	2502.932885
998.084936	2475.206538
998.380099	2460.083077
998.675225	2563.426731
998.970316	2450.000769
999.265371	2470.165385
999.560390	2432.356731
999.855373	2485.288846
1000.150320	2525.618077
1000.445232	2490.330000
1000.740108	2384.465769
1001.034948	2520.576923
1001.329752	2497.891731
1001.624521	2452.521346
1001.919254	2606.276538
1002.213951	2457.562500
1002.508613	2450.000769
1002.803239	2467.644808
1003.097829	2485.288846
1003.392384	2578.550192
1003.686903	2538.220962
1003.981386	2505.453462
1004.275834	2518.056346
1004.570246	2528.138654
1004.864623	2518.056346
1005.158964	2497.891731
1005.453270	2513.015192
1005.747540	2538.220962
1006.041775	2538.220962
1006.335974	2472.685962
1006.630138	2573.509038
1006.924266	2485.288846
1007.218359	2538.220962
1007.512416	2422.274423
1007.806438	2560.906154
1008.100425	2419.753846
1008.394376	2513.015192
1008.688292	2467.644808
1008.982172	2455.041923
1009.276017	2434.877308
1009.569827	2515.535769
1009.863602	2530.659231
1010.157341	2518.056346
1010.451045	2477.727115
1010.744714	2427.315577
1011.038347	2497.891731
1011.331945	2485.288846
1011.625508	2487.809423
1011.919036	2432.356731
1012.212528	2487.809423
1012.505986	2457.562500
1012.799408	2507.974038
1013.092795	2452.521346
1013.386147	2535.700385
1013.679464	2472.685962
1013.972745	2457.562500
1014.265992	2502.932885
1014.559204	2460.083077
1014.852380	2538.220962
1015.145521	2429.836154
1015.438628	2563.426731
1015.731699	2520.576923
1016.024736	2495.371154
1016.317737	2482.768269
1016.610703	2515.535769
1016.903635	2414.712692
1017.196531	2510.494615
1017.489393	2487.809423
1017.782219	2515.535769
1018.075011	2487.809423
1018.367768	2432.356731
1018.660490	2485.288846
1018.953177	2485.288846
1019.245829	2485.288846
