Dividing Wavelength (nm)	Counts (n)	Blue Motor Position (mm): 0.000000	Red Motor Position (mm): 41.800000	
326.493990	2127.442540
326.888308	2127.442540
327.282561	2127.442540
327.676750	2091.995667
328.070874	2093.916347
328.464933	2097.581266
328.858929	2103.401278
329.252859	2114.660695
329.646726	2125.577313
330.040528	2135.614251
330.434265	2154.425316
330.827938	2173.574139
331.221547	2190.202385
331.615091	2207.680066
332.008571	2224.688919
332.401986	2247.001066
332.795338	2267.674838
333.188625	2285.381890
333.581847	2304.833183
333.975006	2320.039823
334.368100	2341.081599
334.761129	2356.933508
335.154095	2376.714995
335.546996	2396.241905
335.939833	2422.085380
336.332606	2433.614499
336.725315	2447.651592
337.117960	2454.547890
337.510540	2462.999384
337.903056	2474.717547
338.295508	2482.301963
338.687896	2491.565083
339.080220	2496.757471
339.472480	2503.905827
339.864676	2511.202898
340.256807	2514.462003
340.648875	2516.803619
341.040879	2520.324865
341.432818	2519.982067
341.824694	2522.071625
342.216506	2521.494413
342.608253	2524.597243
342.999937	2523.137829
343.391557	2523.833508
343.783113	2521.597757
344.174605	2522.462315
344.566033	2519.871162
344.957397	2520.339989
345.348697	2514.361180
345.739934	2516.687673
346.131106	2509.567043
346.522215	2510.580315
346.913260	2508.823473
347.304241	2508.168123
347.695159	2506.431445
348.086012	2504.583863
348.476802	2502.839623
348.867528	2498.854591
349.258191	2500.293841
349.648789	2502.481701
350.039324	2497.755620
350.429796	2498.673110
350.820203	2493.263952
351.210548	2493.538694
351.600828	2493.886534
351.991045	2492.961482
352.381198	2491.968375
352.771288	2492.921153
353.161314	2492.099445
353.551276	2493.059785
353.941175	2491.555000
354.331010	2491.265134
354.720782	2490.526605
355.110490	2491.549959
355.500135	2491.902840
355.889717	2491.547439
356.279235	2494.927532
356.668689	2495.381236
357.058080	2494.277223
357.447408	2493.722697
357.836672	2490.788745
358.225873	2493.924343
358.615010	2490.319918
359.004084	2496.351658
359.393095	2494.703201
359.782043	2495.751761
360.170927	2496.543222
360.559748	2499.121772
360.948505	2498.287461
361.337199	2500.308964
361.725830	2501.274345
362.114398	2501.559170
362.502903	2503.658811
362.891344	2503.535302
363.279722	2500.429952
363.668037	2503.925992
364.056289	2502.713594
364.444478	2506.086126
364.832603	2505.569408
365.220665	2506.209635
365.608665	2504.765344
365.996601	2506.315499
366.384474	2503.633605
366.772284	2509.052845
367.160031	2509.632578
367.547715	2513.168947
367.935336	2514.676253
368.322893	2517.519463
368.710388	2520.576923
369.097820	2527.369878
369.485189	2526.248221
369.872495	2538.034439
370.259738	2542.410160
370.646918	2551.085986
371.034035	2557.394990
371.421090	2568.621640
371.808081	2579.593711
372.195010	2587.130236
372.581875	2599.808738
372.968678	2614.407920
373.355418	2621.773045
373.742096	2645.252219
374.128710	2656.919970
374.515262	2671.206600
374.901751	2686.884588
375.288177	2699.691640
375.674540	2723.548900
376.060841	2739.945253
376.447079	2761.193717
376.833254	2781.706172
377.219367	2794.278809
377.605417	2830.617967
377.991404	2841.716067
378.377329	2865.291023
378.763191	2880.865668
379.148991	2916.851945
379.534727	2941.344391
379.920402	2969.484111
380.306013	2984.579847
380.691563	3032.715304
381.077049	3052.980743
381.462474	3070.586972
381.847835	3108.929988
382.233134	3132.595685
382.618371	3131.398411
383.003545	3199.882486
383.388657	3204.890872
383.773706	3237.446644
384.158693	3256.116557
384.543618	3282.035650
384.928480	3320.713903
385.313280	3361.786704
385.698017	3363.583875
386.082692	3415.112029
386.467305	3421.098399
386.851856	3451.181485
387.236344	3473.705360
387.620770	3506.175432
388.005133	3529.889020
388.389435	3561.943197
388.773674	3571.244125
389.157851	3615.349180
389.541965	3627.407620
389.926018	3592.477465
390.310008	3664.699556
390.693936	3686.066487
391.077802	3722.524111
391.461606	3709.759910
391.845348	3777.230713
392.229027	3774.238788
392.612645	3785.760345
392.996200	3864.755226
393.379694	3904.971031
393.763125	3971.267245
394.146494	3941.353038
394.529801	4000.541225
394.913047	4048.074265
395.296230	4014.474974
395.679351	4070.615784
396.062410	4096.151749
396.445408	4073.852205
396.828343	4106.173563
397.211217	4131.722131
397.594028	4048.976631
397.976778	4117.639667
398.359466	4142.366527
398.742092	4171.511958
399.124656	4094.515895
399.507158	4175.880118
399.889598	4203.825754
400.271977	4261.690638
400.654294	4232.761977
401.036549	4243.723966
401.418742	4212.519224
401.800874	4314.496725
402.182944	4332.365095
402.564952	4399.362029
402.946898	4384.861150
403.328783	4380.803022
403.710606	4295.985608
404.092367	4487.773786
404.474067	4453.173826
404.855705	4459.840752
405.237282	4391.689393
405.618797	4500.016228
406.000250	4528.849107
406.381642	4612.128969
406.762972	4576.336776
407.144240	4586.381275
407.525447	4586.865226
407.906593	4642.086025
408.287677	4689.750135
408.668700	4618.170792
409.049661	4666.684336
409.430560	4707.200089
409.811399	4635.991270
410.192176	4797.340961
410.572891	4734.916353
410.953545	4840.689843
411.334138	4719.119897
411.714669	4786.260505
412.095139	4680.950801
412.475547	4821.966997
412.855894	4805.943690
413.236180	4811.249504
413.616405	4763.829891
413.996568	4852.201318
414.376670	4797.192247
414.756711	4751.368158
415.136691	4781.148775
415.516609	4859.483264
415.896466	4896.192947
416.276262	4935.302218
416.655997	4913.713477
417.035670	5088.949026
417.415283	5179.767933
417.794834	5131.357733
418.174324	5085.445424
418.553753	4989.451772
418.933121	5172.339793
419.312428	5237.025358
419.691674	5180.347666
420.070859	5309.267613
420.449983	5217.669848
420.829045	5335.211912
421.208047	5241.033076
421.586988	5312.821627
421.965867	5321.434438
422.344686	5454.200787
422.723444	5312.052851
423.102141	5129.132063
423.480777	5428.347229
423.859352	5198.485737
424.237866	5454.319254
424.616319	5448.816834
424.994712	5555.832969
425.373044	5435.288898
425.751314	5578.520682
426.129524	5380.552049
426.507673	5570.752263
426.885762	5654.185880
427.263789	5587.798925
427.641756	5472.255679
428.019662	5592.749338
428.397508	5600.086738
428.775292	5544.329056
429.153016	5645.729345
429.530679	5570.815278
429.908282	5653.215458
430.285824	5526.072517
430.663305	5799.542510
431.040726	5535.249937
431.418086	5534.014855
431.795385	5643.629704
432.172624	5652.887783
432.549802	5643.705321
432.926920	5660.694010
433.303977	5670.809085
433.680974	5706.424837
434.057910	5724.986365
434.434786	5735.063632
434.811601	5698.013672
435.188355	5936.061998
435.565050	5809.450898
435.941683	5791.012878
436.318257	6002.663202
436.694770	5989.170553
437.071222	6024.894690
437.447614	5951.387105
437.823946	5873.677719
438.200218	6018.464698
438.576429	5887.992075
438.952580	5985.689637
439.328670	6028.642788
439.704700	5936.969405
440.080670	5924.863074
440.456580	6194.264856
440.832429	6076.591723
441.208218	5927.630668
441.583947	6077.604995
441.959616	6081.171611
442.335224	6008.931876
442.710773	6143.407176
443.086261	6172.350961
443.461689	5967.589374
443.837057	6115.065809
444.212365	6268.689931
444.587612	6163.085320
444.962800	6315.403783
445.337927	6295.904600
445.712995	5912.630714
446.088002	6484.053065
446.462949	6315.665923
446.837837	6249.556232
447.212664	6422.165339
447.587431	6565.497946
447.962139	7108.407530
448.336786	8028.163529
448.711374	7771.094930
449.085901	6844.780390
449.460369	6769.019409
449.834776	6702.912238
450.209124	7084.724189
450.583412	7245.012717
450.957640	7389.923205
451.331808	7155.323028
451.705917	6700.888215
452.079965	6628.315764
452.453954	6843.938517
452.827883	6714.811882
453.201752	6811.322252
453.575562	6612.529391
453.949311	6811.057591
454.323001	6702.876950
454.696632	6777.579288
455.070202	6913.781183
455.443713	7065.628299
455.817164	7167.227713
456.190556	7249.033037
456.563888	7321.285375
456.937160	7368.165585
457.310373	7023.693460
457.683526	7052.538943
458.056619	6940.607683
458.429653	6932.292300
458.802628	6868.246961
459.175542	6970.481561
459.548398	7323.498441
459.921194	7492.503124
460.293930	7493.050089
460.666607	8025.534567
461.039224	8329.821134
461.411782	8458.993139
461.784280	8474.537537
462.156719	8369.777319
462.529099	8241.444666
462.901419	7832.942326
463.273680	7723.329997
463.645882	7734.944815
464.018024	7602.702747
464.390106	7769.491843
464.762130	8163.306781
465.134094	8628.159139
465.505999	9659.133074
465.877845	10872.995029
466.249631	11514.870025
466.621358	11141.514609
466.993026	10506.568679
467.364634	10247.203835
467.736184	9883.235048
468.107674	9554.882012
468.479105	9585.272608
468.850477	9349.470117
469.221790	9123.533163
469.593043	8794.708780
469.964238	8656.127461
470.335373	8665.556939
470.706449	8720.205567
471.077467	8702.248977
471.448425	10016.954174
471.819324	11085.411608
472.190164	11118.748758
472.560945	9867.932625
472.931667	9078.331657
473.302330	8945.824928
473.672934	8586.430988
474.043479	8940.085574
474.413965	8883.768324
474.784393	8763.370447
475.154761	8918.380887
475.525070	9006.895986
475.895321	8839.176798
476.265513	9008.977983
476.635645	9181.062811
477.005719	9177.826390
477.375734	9296.590933
477.745691	9535.448364
478.115588	9663.153394
478.485427	9908.491228
478.855207	10447.080543
479.224928	11265.274936
479.594591	11891.739125
479.964194	11698.766276
480.333739	11636.205557
480.703226	11554.133052
481.072653	11652.390181
481.442022	11879.670602
481.811333	12071.068090
482.180584	11883.287630
482.549777	11589.879873
482.918912	11407.909343
483.287988	11431.267529
483.657005	11445.755806
484.025964	11122.380910
484.394864	11263.729822
484.763706	11228.136756
485.132489	10985.833696
485.501213	10950.732142
485.869879	11031.030161
486.238487	10867.699297
486.607036	10983.620630
486.975527	10755.815928
487.343959	10944.624784
487.712333	10996.130253
488.080648	10924.187946
488.448905	10971.448764
488.817104	10911.632953
489.185244	11171.718682
489.553326	11319.545478
489.921350	11867.854138
490.289315	12927.683637
490.657222	13270.182150
491.025070	13186.836753
491.392861	13054.541753
491.760593	12670.620079
492.128267	12326.183243
492.495883	11991.261584
492.863440	11655.568629
493.230939	11326.098978
493.598380	11264.072621
493.965763	11126.156734
494.333088	11027.670232
494.700354	10949.486977
495.067563	11008.435709
495.434713	10835.594709
495.801805	10962.389810
496.168839	10893.482278
496.535815	10825.212452
496.902733	10818.137193
497.269593	10750.835268
497.636395	10853.165650
498.003139	10840.572848
498.369825	10707.062930
498.736453	10869.778773
499.103023	10794.229521
499.469535	10825.956023
499.835989	10810.489763
500.202385	10777.162694
500.568723	10625.093768
500.935003	10845.427479
501.301226	10657.447893
501.667390	10914.014898
502.033497	11011.296564
502.399546	10873.665503
502.765537	10781.987079
503.131470	10846.188693
503.497345	11025.252999
503.863163	10636.554831
504.228923	10945.277613
504.594625	11016.466268
504.960269	10760.443708
505.325856	10981.561318
505.691385	10772.366037
506.056856	10928.785479
506.422270	10956.373193
506.787625	10846.710453
507.152924	10959.387803
507.518164	10948.637542
507.883347	10865.254337
508.248472	10777.591193
508.613540	11010.391677
508.978550	10901.472507
509.343503	10869.249452
509.708398	10992.248564
510.073236	11101.533218
510.438016	11105.543456
510.802738	11061.798843
511.167403	11107.970772
511.532010	11000.286684
511.896561	11233.989535
512.261053	11313.044910
512.625488	11178.325115
512.989866	11155.032463
513.354186	11152.804273
513.718449	11048.563294
514.082655	11244.034034
514.446803	11139.026800
514.810894	11265.227045
515.174927	11129.499019
515.538904	11150.041721
515.902822	11302.894547
516.266684	11188.137721
516.630488	11132.848866
516.994235	11188.314161
517.357925	11255.606003
517.721558	11340.937614
518.085133	11351.879439
518.448651	11366.350071
518.812112	11247.855229
519.175516	11260.097671
519.538863	11381.304654
519.902152	11297.079576
520.265385	11456.959770
520.628560	11363.360667
520.991678	11349.802483
521.354739	11408.224415
521.717743	11347.090342
522.080690	11316.810652
522.443580	11457.262239
522.806413	11405.071173
523.169189	11441.528798
523.531908	11501.004331
523.894569	11315.555405
524.257174	11318.544809
524.619722	11438.970412
524.982213	11384.699871
525.344647	11437.321955
525.707025	11386.378575
526.069345	11487.352887
526.431608	11401.658312
526.793815	11509.420538
527.155964	11298.619648
527.518057	11352.660817
527.880093	11292.383741
528.242072	11361.434946
528.603995	11275.919333
528.965860	11200.256654
529.327669	11254.363359
529.689421	11204.077849
530.051117	11165.865903
530.412755	11272.813982
530.774337	11157.573205
531.135862	11141.116358
531.497331	11166.523773
531.858743	11018.949036
532.220098	11183.784684
532.581396	11055.993955
532.942638	11035.821778
533.303824	10998.968423
533.664953	11012.080464
534.026025	10926.595097
534.387040	11025.958760
534.747999	11025.101764
535.108902	11077.549929
535.469748	10841.855822
535.830537	10952.219282
536.191270	10918.909858
536.551947	10945.922881
536.912567	10943.800555
537.273131	10867.530418
537.633638	10849.692295
537.994089	10831.781076
538.354483	10784.374065
538.714821	10932.805799
539.075103	10939.477766
539.435328	10902.213557
539.795497	10730.557227
540.155609	10885.534899
540.515665	10973.782818
540.875665	10714.871677
541.235609	10785.283993
541.595496	10780.441965
541.955328	10936.884092
542.315102	10816.521503
542.674821	10771.015007
543.034483	10770.866293
543.394090	10773.107086
543.753640	10698.374501
544.113134	10919.986145
544.472571	10775.226891
544.831953	10921.155692
545.191278	10732.203164
545.550548	10751.979610
545.909761	10887.445497
546.268918	10867.222908
546.628019	10947.979672
546.987064	10807.979268
547.346053	10730.012783
547.704986	10829.394089
548.063863	10820.002420
548.422684	10806.993722
548.781449	10727.628317
549.140158	10827.947278
549.498811	10706.107631
549.857408	10563.047247
550.215949	10783.383478
550.574434	10638.049533
550.932864	10741.572148
551.291237	10799.119440
551.649555	10743.160112
552.007817	10757.618141
552.366022	10725.450538
552.724173	10717.097346
553.082267	10702.404903
553.440305	10840.252735
553.798288	10639.057764
554.156215	10785.606627
554.514086	10763.957392
554.871902	10615.936512
555.229661	10652.351287
555.587365	10632.375715
555.945014	10524.810095
556.302606	10649.470268
556.660143	10545.201562
557.017625	10694.520539
557.375050	10599.164593
557.732421	10732.553524
558.089735	10645.949022
558.446994	10642.155553
558.804197	10680.342294
559.161345	10688.423263
559.518437	10530.347802
559.875474	10625.663418
560.232455	10650.453293
560.589381	10599.308266
560.946251	10597.536301
561.303065	10706.891530
561.659825	10639.811417
562.016528	10571.468494
562.373177	10450.793353
562.729770	10564.773842
563.086307	10477.708074
563.442789	10574.306664
563.799216	10457.150248
564.155587	10502.717238
564.511904	10450.390061
564.868164	10439.906982
565.224370	10457.939189
565.580520	10381.457323
565.936615	10385.180215
566.292654	10255.168858
566.648638	10390.322192
567.004567	10343.396612
567.360441	10331.733902
567.716260	10237.844932
568.072023	10334.118368
568.427732	10279.298341
568.783385	10197.828253
569.138982	10264.754612
569.494525	10283.457292
569.850013	10155.918621
570.205445	10243.990099
570.560823	10139.136620
570.916145	10051.879288
571.271412	10122.248754
571.626625	10067.769005
571.981782	10043.294203
572.336884	10020.165389
572.691931	10024.755359
573.046923	9972.604623
573.401860	9930.931925
573.756743	9865.306184
574.111570	9909.340663
574.466342	9888.119926
574.821059	9915.029605
575.175722	9814.284666
575.530330	9827.011059
575.884882	9813.213421
576.239380	9735.619981
576.593823	9717.877640
576.948211	9729.076563
577.302544	9608.802194
577.656823	9627.320872
578.011047	9629.617118
578.365216	9601.696687
578.719330	9527.478300
579.073389	9535.702942
579.427394	9480.051125
579.781344	9460.234349
580.135239	9403.622191
580.489080	9417.654243
580.842866	9316.488368
581.196597	9325.373401
581.550273	9361.732723
581.903895	9331.611829
582.257463	9393.849914
582.610975	9270.260987
582.964434	9301.407756
583.317837	9224.051250
583.671186	9197.680974
584.024481	9194.295839
584.377721	9115.542934
584.730906	9097.281354
585.084037	9123.180282
585.437113	9059.954131
585.790135	9076.781502
586.143103	8979.588056
586.496016	8954.856155
586.848874	9007.984876
587.201679	8992.715221
587.554428	8887.075321
587.907124	8925.244417
588.259765	8897.472701
588.612352	8895.662927
588.964884	8774.415615
589.317362	8792.130230
589.669786	8788.823233
590.022155	8837.427517
590.374470	8852.351853
590.726731	8790.403634
591.078937	8644.018609
591.431090	8754.354343
591.783188	8627.160991
592.135232	8613.564999
592.487222	8617.005586
592.839157	8665.652721
593.191038	8601.806507
593.542866	8545.953043
593.894639	8446.705327
594.246358	8494.626535
594.598022	8506.826128
594.949633	8406.431549
595.301190	8374.957105
595.652692	8399.303357
596.004141	8515.259978
596.355535	8293.623129
596.706876	8268.185466
597.058162	8204.460241
597.409395	8275.545551
597.760573	8339.240530
598.111698	8244.862568
598.462768	8231.949653
598.813785	8194.118313
599.164748	8163.833582
599.515657	8152.438053
599.866511	8063.260042
600.217312	8187.390894
600.568060	8043.077782
600.918753	8139.827607
601.269392	8106.308975
601.619978	8023.233280
601.970510	8082.189575
602.320988	8075.623472
602.671412	8132.938870
603.021783	8064.850526
603.372100	8037.827421
603.722363	8041.452010
604.072572	8015.157352
604.422728	8025.211933
604.772830	7951.938762
605.122878	7952.692415
605.472872	7944.727392
605.822813	7969.547512
606.172701	7915.090448
606.522534	7984.902867
606.872314	7982.009245
607.222041	7951.535470
607.571714	8004.676793
607.921333	7959.694577
608.270899	7952.901622
608.620411	8040.184160
608.969870	7941.037267
609.319276	7934.158612
609.668627	7950.723844
610.017926	7979.259295
610.367171	8025.688322
610.716362	7989.596181
611.065500	7980.093606
611.414585	8003.114035
611.763616	7984.953279
612.112594	7965.958211
612.461518	7969.638253
612.810389	8025.723610
613.159207	7964.113149
613.507971	7903.117708
613.856682	8011.079058
614.205340	7966.996689
614.553945	8036.214252
614.902496	7927.640401
615.250994	7978.314079
615.599439	7956.475801
615.947830	7959.387067
616.296169	7930.292047
616.644454	7940.462575
616.992686	7924.104031
617.340864	7967.962070
617.688990	7868.968932
618.037063	7943.509953
618.385082	7890.131695
618.733048	7963.911502
619.080961	7899.014208
619.428821	7901.368427
619.776628	7898.958756
620.124382	7846.447577
620.472083	7823.646438
620.819731	7850.533432
621.167326	7732.517500
621.514868	7736.557985
621.862357	7625.163608
622.209793	7636.445710
622.557176	7563.235554
622.904506	7529.517796
623.251783	7466.047149
623.599007	7409.142604
623.946179	7412.336175
624.293297	7366.307920
624.640363	7276.971112
624.987376	7258.139882
625.334336	7207.645164
625.681243	7143.287274
626.028097	7131.049873
626.374899	7099.363700
626.721647	7082.143119
627.068343	7008.958168
627.414987	6976.989691
627.761577	6924.682678
628.108115	6947.962727
628.454600	6842.781572
628.801032	6872.786520
629.147412	6837.798392
629.493739	6812.156563
629.840014	6750.420072
630.186236	6787.190248
630.532405	6674.235635
630.878521	6707.792075
631.224585	6661.315157
631.570597	6585.274393
631.916556	6599.792916
632.262462	6586.864877
632.608316	6546.071860
632.954117	6509.165573
633.299866	6494.183263
633.645562	6476.191385
633.991206	6393.657614
634.336797	6333.826680
634.682336	6291.985103
635.027823	6254.786429
635.373257	6243.947948
635.718639	6171.786351
636.063968	6175.300036
636.409245	6078.136836
636.754470	6062.219393
637.099642	6025.071130
637.444762	5962.089475
637.789829	5966.588705
638.134845	5903.312142
638.479808	5882.769440
638.824719	5875.921032
639.169577	5808.785466
639.514383	5816.258976
639.859137	5749.130972
640.203839	5750.673565
640.548489	5723.511828
640.893086	5697.728847
641.237632	5663.232231
641.582125	5675.905692
641.926566	5635.684846
642.270955	5643.816227
642.615292	5622.885356
642.959576	5624.843844
643.303809	5609.682574
643.647990	5601.445329
643.992118	5591.166416
644.336195	5535.451584
644.680219	5543.189755
645.024192	5530.055028
645.368112	5592.474595
645.711981	5593.649184
646.055797	5646.447709
646.399562	5596.207570
646.743274	5679.172359
647.086935	5710.218305
647.430544	5695.722467
647.774101	5694.878074
648.117606	5699.286563
648.461059	5679.275703
648.804460	5635.856245
649.147810	5562.557868
649.491108	5527.088309
649.834354	5498.147045
650.177548	5424.606693
650.520690	5350.849571
650.863781	5321.527700
651.206820	5322.097350
651.549807	5257.865488
651.892742	5202.959761
652.235626	5197.313669
652.578458	5175.825751
652.921238	5101.776242
653.263967	5119.737873
653.606644	5067.319955
653.949269	5055.427873
654.291843	5006.188403
654.634365	5028.087175
654.976836	4981.358200
655.319255	4979.003981
655.661622	4942.803455
656.003938	4931.022279
656.346203	4902.476745
656.688416	4909.758692
657.030577	4873.480028
657.372687	4839.663968
657.714746	4823.381041
658.056753	4845.456254
658.398708	4792.687976
658.740612	4783.588693
659.082465	4797.061177
659.424266	4786.696565
659.766016	4775.631232
660.107715	4749.381944
660.449362	4747.322632
660.790958	4737.194954
661.132503	4717.168971
661.473996	4725.375969
661.815438	4715.598651
662.156829	4699.996280
662.498168	4685.117315
662.839456	4670.555942
663.180693	4673.076519
663.521879	4670.019059
663.863013	4652.453158
664.204097	4645.372858
664.545129	4669.824974
664.886110	4655.268643
665.227040	4658.805012
665.567918	4638.395901
665.908746	4639.346158
666.249522	4633.574037
666.590248	4621.054332
666.930922	4625.871154
667.271545	4621.132469
667.612118	4613.875728
667.952639	4589.509311
668.293109	4583.772478
668.633528	4552.534968
668.973896	4544.118762
669.314213	4530.197616
669.654480	4507.121734
669.994695	4495.680835
670.334859	4479.181139
670.674973	4457.292449
671.015035	4457.484013
671.355047	4441.458185
671.695008	4426.019651
672.034918	4409.066251
672.374777	4402.805138
672.714585	4381.012229
673.054342	4376.485273
673.394049	4364.300804
673.733705	4369.183162
674.073310	4344.819265
674.412864	4328.269157
674.752368	4304.182524
675.091820	4299.433757
675.431223	4257.113271
675.770574	4247.958535
676.109875	4212.221796
676.449125	4201.816854
676.788324	4181.851364
677.127473	4141.980879
677.466571	4126.933034
677.805619	4109.916620
678.144616	4092.305349
678.483562	4076.428235
678.822458	4055.331006
679.161303	4039.156464
679.500098	4024.905122
679.838842	4015.422711
680.177535	4008.307123
680.516179	4008.034900
680.854771	4006.603213
681.193314	4039.852143
681.531805	4090.107406
681.870247	4148.065551
682.208638	4192.289073
682.546978	4192.057180
682.885268	4168.832585
683.223508	4115.628247
683.561697	4078.979058
683.899836	4057.433167
684.237925	4030.823436
684.575963	4011.283924
684.913951	3989.697703
685.251889	4000.662213
685.589776	3988.192919
685.927614	3975.032987
686.265401	3988.500429
686.603137	3980.817711
686.940824	4006.509951
687.278460	4014.333822
687.616046	4008.435672
687.953582	4042.095456
688.291068	4023.927138
688.628504	4038.894324
688.965889	4018.034029
689.303224	3989.082682
689.640510	3957.474648
689.977745	3913.208276
690.314930	3861.420502
690.652065	3827.813650
690.989150	3786.541724
691.326185	3740.213520
691.663170	3703.718087
692.000105	3666.126203
692.336990	3624.723206
692.673825	3600.230760
693.010610	3572.315371
693.347345	3541.778581
693.684030	3517.860827
694.020665	3497.129082
694.357251	3462.995429
694.693786	3459.000314
695.030272	3444.633026
695.366707	3420.816095
695.703093	3401.826068
696.039429	3404.402098
696.375716	3390.014645
696.711952	3377.058879
697.048139	3373.192314
697.384276	3360.861652
697.720363	3357.181610
698.056400	3354.915611
698.392388	3331.383505
698.728326	3326.629697
699.064214	3311.612099
699.400053	3303.485759
699.735842	3278.542130
700.071581	3268.903444
700.407270	3252.663367
700.742910	3238.948908
701.078501	3220.105075
701.414042	3209.317006
701.749533	3193.444933
702.084974	3173.658404
702.420366	3180.305165
702.755709	3159.649037
703.091002	3138.957621
703.426246	3139.900317
703.761440	3131.766415
704.096584	3120.378449
704.431679	3114.944085
704.766725	3106.232971
705.101721	3098.630911
705.436668	3097.836929
705.771565	3083.852769
706.106413	3090.360898
706.441212	3090.509612
706.775961	3089.214036
707.110661	3086.285125
707.445311	3093.907350
707.779913	3087.457194
708.114465	3094.718976
708.448967	3101.559822
708.783421	3114.780247
709.117825	3123.929942
709.452180	3125.386835
709.786485	3137.372178
710.120742	3160.284223
710.454949	3159.223060
710.789107	3177.076306
711.123216	3192.456867
711.457275	3196.179759
711.791286	3213.445711
712.125247	3211.356152
712.459159	3193.460056
712.793023	3211.157027
713.126837	3182.855989
713.460602	3176.176460
713.794318	3156.304232
714.127985	3144.800319
714.461602	3111.876543
714.795171	3101.045624
715.128691	3071.985893
715.462162	3049.509908
715.795584	3031.346631
716.128957	3020.987060
716.462281	3006.642456
716.795556	2992.799448
717.128782	2976.128352
717.461960	2954.829477
717.795088	2956.732513
718.128167	2942.037549
718.461198	2925.295877
718.794180	2921.368818
719.127113	2910.699216
719.459997	2901.587331
719.792833	2892.561145
720.125619	2885.551420
720.458357	2876.106819
720.791046	2870.566591
721.123686	2865.255735
721.456278	2855.828777
721.788821	2854.845752
722.121315	2850.744774
722.453761	2840.256653
722.786158	2840.022239
723.118506	2841.345542
723.450805	2833.176352
723.783056	2835.691888
724.115259	2833.125941
724.447412	2833.549398
724.779518	2833.763647
725.111574	2833.468739
725.443582	2835.772547
725.775542	2833.211641
726.107453	2840.186077
726.439315	2838.933350
726.771129	2846.487519
727.102895	2853.673684
727.434612	2863.040148
727.766281	2861.265662
728.097901	2861.066536
728.429473	2858.419930
728.760996	2857.046216
729.092471	2851.097654
729.423897	2847.261336
729.755276	2840.670028
730.086606	2840.959894
730.417887	2849.166892
730.749120	2858.513192
731.080305	2866.435365
731.411442	2867.894779
731.742530	2860.028058
732.073570	2858.155270
732.404562	2865.079295
732.735506	2861.943697
733.066401	2856.239631
733.397249	2839.659276
733.728048	2816.885864
734.058798	2796.542287
734.389501	2777.915224
734.720156	2767.779984
735.050762	2759.101638
735.381320	2754.287336
735.711831	2747.542272
736.042293	2741.172774
736.372707	2741.346694
736.703073	2736.325705
737.033391	2737.223030
737.363661	2736.444172
737.693883	2741.011457
738.024056	2744.114287
738.354182	2743.907600
738.684260	2751.325658
739.014290	2756.843201
739.344272	2759.550301
739.674207	2766.260076
740.004093	2765.743358
740.333931	2762.602719
740.663722	2760.452667
740.993464	2760.137595
741.323159	2753.442943
741.652806	2745.482961
741.982405	2738.984913
742.311956	2730.551063
742.641460	2727.445712
742.970915	2719.054712
743.300323	2713.085986
743.629683	2705.768751
743.958996	2701.226671
744.288260	2696.404807
744.617477	2689.488344
744.946647	2680.721778
745.275768	2678.733043
745.604842	2674.737928
745.933869	2672.119049
746.262847	2666.916578
746.591778	2669.401867
746.920662	2668.582679
747.249498	2667.725683
747.578286	2669.006136
747.907027	2673.873370
748.235720	2673.147444
748.564365	2676.056190
748.892963	2672.655932
749.221514	2670.405057
749.550017	2668.776764
749.878473	2664.905158
750.206881	2660.970537
750.535242	2658.349137
750.863555	2654.575833
751.191821	2655.445432
751.520039	2653.643220
751.848210	2651.745226
752.176334	2651.573826
752.504411	2650.061480
752.832440	2648.591984
753.160421	2647.767755
753.488356	2645.491674
753.816243	2647.162817
754.144082	2643.926396
754.471875	2641.617547
754.799620	2643.502939
755.127318	2641.158802
755.454969	2637.801394
755.782572	2641.148720
756.110129	2638.204686
756.437638	2635.888276
756.765100	2638.832310
757.092515	2637.977834
757.419882	2637.226702
757.747203	2636.435241
758.074477	2635.611013
758.401703	2636.160498
758.728882	2638.895324
759.056014	2640.155613
759.383099	2636.820890
759.710138	2641.819194
760.037129	2639.555716
760.364073	2645.572333
760.690970	2640.563946
761.017820	2640.422794
761.344623	2637.501445
761.671379	2642.383803
761.998088	2641.257105
762.324751	2652.241779
762.651366	2681.682118
762.977935	2734.886455
763.304456	2774.172167
763.630931	2777.542179
763.957359	2740.817373
764.283740	2707.734801
764.610074	2684.870647
764.936362	2667.130827
765.262602	2649.295225
765.588796	2640.286683
765.914943	2632.540950
766.241044	2622.052829
766.567097	2617.291460
766.893104	2614.599483
767.219064	2610.480861
767.544978	2609.220572
767.870845	2603.902155
768.196665	2604.411312
768.522438	2599.591968
768.848165	2597.837647
769.173846	2596.902513
769.499479	2595.911926
769.825066	2595.853953
770.150607	2591.510999
770.476101	2591.667275
770.801548	2590.903540
771.126949	2587.646954
771.452303	2587.165524
771.777611	2586.716862
772.102872	2583.087231
772.428087	2583.225862
772.753256	2583.001531
773.078378	2581.542117
773.403453	2577.662949
773.728482	2578.406519
774.053465	2578.963567
774.378401	2577.514235
774.703291	2574.804615
775.028135	2574.900397
775.352932	2575.253278
775.677683	2574.839903
776.002388	2571.396795
776.327046	2573.592218
776.651658	2573.383010
776.976224	2572.820921
777.300743	2570.204562
777.625216	2570.736404
777.949643	2568.230950
778.274024	2569.428224
778.598359	2564.828172
778.922647	2564.513099
779.246889	2564.538305
779.571086	2560.646534
779.895236	2568.190621
780.219339	2567.295816
780.543397	2569.050138
780.867409	2566.711043
781.191374	2570.083574
781.515294	2566.277503
781.839167	2565.118038
782.162995	2568.578790
782.486776	2565.995199
782.810511	2567.394119
783.134201	2564.661813
783.457844	2565.153326
783.781441	2566.048131
784.104993	2564.175342
784.428498	2567.031156
784.751958	2563.835064
785.075372	2563.162070
785.398739	2561.712738
785.722061	2562.700805
786.045337	2564.356824
786.368568	2562.252142
786.691752	2564.074519
787.014891	2564.266083
787.337983	2566.567370
787.661030	2574.461817
787.984031	2576.621951
788.306987	2580.843917
788.629897	2577.310068
788.952760	2574.214800
789.275579	2575.396951
789.598351	2570.166753
789.921078	2567.562998
790.243759	2564.621484
790.566395	2563.255332
790.888984	2564.939077
791.211529	2562.037893
791.534027	2561.069991
791.856480	2561.506051
792.178888	2561.904302
792.501249	2558.027655
792.823566	2558.627552
793.145836	2559.489590
793.468062	2559.358520
793.790241	2555.691080
794.112375	2558.637635
794.434464	2559.524878
794.756507	2556.739640
795.078505	2561.470763
795.400457	2557.765515
795.722364	2558.012532
796.044226	2561.458160
796.366042	2563.081412
796.687812	2563.048644
797.009538	2565.919581
797.331218	2563.635939
797.652852	2564.061916
797.974442	2562.521844
798.295986	2561.064950
798.617484	2560.132337
798.938938	2557.452963
799.260346	2558.987995
799.581709	2560.606205
799.903026	2560.976730
800.224299	2556.096893
800.545526	2557.578992
800.866708	2558.372974
801.187845	2556.903478
801.508936	2555.446584
801.829983	2552.457180
802.150984	2553.924156
802.471940	2554.564382
802.792851	2553.861141
803.113717	2557.127809
803.434538	2553.851059
803.755314	2552.663867
804.076045	2553.934238
804.396731	2555.386090
804.717372	2556.545556
805.037967	2554.443395
805.358518	2555.481872
805.679024	2558.342727
805.999485	2554.723179
806.319901	2556.948848
806.640272	2554.140925
806.960598	2557.150494
807.280879	2556.941286
807.601115	2554.793755
807.921306	2554.748384
808.241453	2556.399362
808.561554	2554.040102
808.881611	2553.150339
809.201623	2556.051523
809.521590	2555.486913
809.841513	2552.923487
810.161390	2556.573282
810.481223	2553.064639
810.801011	2553.558672
811.120755	2553.846018
811.440453	2553.518343
811.760107	2553.682180
812.079716	2553.581357
812.399281	2549.901315
812.718801	2551.385935
813.038276	2548.462066
813.357707	2552.643703
813.677093	2549.843342
813.996434	2553.110009
814.315731	2551.764021
814.634983	2553.341903
814.954191	2552.399207
815.273354	2553.553631
815.592473	2551.275029
815.911547	2552.467262
816.230577	2554.090514
816.549562	2554.166131
816.868502	2554.796275
817.187399	2557.233673
817.506250	2556.941286
817.825058	2556.762325
818.143821	2556.409445
818.462539	2557.901626
818.781213	2556.885834
819.099843	2556.689229
819.418429	2565.884293
819.736970	2570.012998
820.055466	2572.674728
820.373919	2577.133628
820.692327	2585.864907
821.010691	2599.823862
821.329011	2630.123717
821.647286	2701.508976
821.965517	2795.692853
822.283704	2848.599763
822.601847	2850.641430
822.919945	2802.143009
823.237999	2752.911101
823.556010	2712.183619
823.873976	2675.521828
824.191897	2652.798827
824.509775	2630.088429
824.827609	2615.516973
825.145398	2607.362907
825.463144	2609.389451
825.780845	2606.873915
826.098502	2612.152003
826.416116	2631.494911
826.733685	2654.505257
827.051210	2659.737975
827.368692	2651.745226
827.686129	2632.135137
828.003522	2610.518669
828.320872	2595.879159
828.638177	2582.215111
828.955439	2573.947619
829.272656	2567.008471
829.589830	2563.275496
829.906960	2564.543346
830.224046	2559.759291
830.541088	2560.460012
830.858086	2557.147974
831.175041	2555.436502
831.491952	2558.567058
831.808819	2556.580844
832.125642	2560.583520
832.442421	2561.178376
832.759157	2568.359500
833.075849	2578.923238
833.392497	2594.308839
833.709101	2604.287803
834.025662	2604.141610
834.342179	2596.446288
834.658653	2586.331213
834.975083	2574.630695
835.291469	2574.643298
835.607811	2561.322049
835.924110	2559.955896
836.240366	2555.643189
836.556578	2555.975905
836.872746	2551.345606
837.188871	2550.269319
837.504952	2549.006510
837.820990	2548.041129
838.136984	2547.736139
838.452935	2547.776469
838.768842	2548.603218
839.084706	2548.444422
839.400526	2555.416337
839.716303	2561.306926
840.032037	2568.321691
840.347727	2567.691547
840.663373	2561.954714
840.978977	2558.458674
841.294537	2555.411296
841.610054	2552.492468
841.925527	2548.530121
842.240957	2548.091541
842.556344	2546.584236
842.871687	2547.894936
843.186987	2547.098433
843.502244	2542.226158
843.817458	2542.173226
844.132629	2541.946374
844.447756	2543.234389
844.762840	2538.631816
845.077881	2539.362783
845.392879	2536.769109
845.707833	2538.848585
846.022745	2538.263811
846.337613	2541.485109
846.652438	2541.497712
846.967221	2542.057280
847.281960	2542.601724
847.596656	2540.360931
847.911309	2538.515869
848.225919	2544.436704
848.540485	2540.413863
848.855009	2541.031405
849.169490	2542.228679
849.483928	2543.882177
849.798323	2540.262629
850.112675	2543.675490
850.426984	2541.596014
850.741251	2540.504604
851.055474	2539.703061
851.369654	2539.375386
851.683792	2540.280273
851.997887	2541.812784
852.311938	2540.219779
852.625947	2538.805735
852.939914	2539.980324
853.253837	2543.047866
853.567718	2541.616179
853.881555	2542.372352
854.195350	2541.414533
854.509103	2538.168029
854.822812	2539.110725
855.136479	2539.622402
855.450103	2540.713812
855.763685	2540.731456
856.077224	2541.583411
856.390720	2539.909748
856.704173	2539.292207
857.017584	2541.906045
857.330953	2539.387989
857.644278	2543.418391
857.957561	2543.579708
858.270802	2543.249513
858.584000	2542.165664
858.897155	2540.870088
859.210268	2541.989224
859.523339	2541.777496
859.836367	2539.720705
860.149352	2540.786909
860.462295	2540.512166
860.775195	2539.952598
861.088054	2536.632998
861.400869	2539.904707
861.713642	2537.878163
862.026373	2539.645088
862.339062	2541.094419
862.651708	2542.740356
862.964312	2541.522917
863.276873	2543.234389
863.589392	2542.145500
863.901869	2544.436704
864.214303	2540.986034
864.526696	2542.463093
864.839045	2539.602238
865.151353	2543.690613
865.463619	2544.146838
865.775842	2541.706919
866.088023	2542.354708
866.400162	2541.941333
866.712258	2546.392672
867.024313	2543.597352
867.336325	2542.082485
867.648296	2544.103988
867.960224	2542.551313
868.272110	2542.064841
868.583954	2547.302600
868.895755	2543.587270
869.207515	2542.505942
869.519233	2545.941489
869.830909	2544.928217
870.142542	2543.788916
870.454134	2543.413350
870.765684	2545.283618
871.077191	2543.236910
871.388657	2547.108516
871.700081	2547.179092
872.011463	2543.068031
872.322803	2543.433515
872.634101	2543.199101
872.945357	2544.582898
873.256571	2545.407126
873.567744	2543.577188
873.878874	2546.349822
874.189963	2544.966025
874.501010	2549.135060
874.812015	2544.182126
875.122979	2545.316386
875.433900	2547.045501
875.744780	2545.160110
876.055618	2545.099616
876.366415	2547.063145
876.677169	2545.540717
876.987882	2544.141797
877.298554	2541.283463
877.609183	2544.464431
877.919771	2543.224307
878.230317	2545.323947
878.540822	2548.641027
878.851285	2552.293343
879.161707	2554.554300
879.472087	2557.657130
879.782425	2563.525033
880.092722	2573.541806
880.402977	2586.152252
880.713191	2612.671242
881.023363	2640.518576
881.333494	2661.509941
881.643583	2667.087977
881.953631	2666.077226
882.263637	2653.726399
882.573602	2646.152065
882.883526	2627.046092
883.193408	2614.975049
883.503248	2604.338215
883.813048	2593.179621
884.122806	2584.561768
884.432522	2582.414237
884.742197	2573.251940
885.051831	2565.783470
885.361424	2562.617626
885.670975	2561.294323
885.980485	2563.204920
886.289954	2555.907850
886.599382	2556.424568
886.908768	2553.926676
887.218113	2551.975750
887.527417	2552.437015
887.836680	2551.373332
888.145901	2548.240255
888.455082	2547.509288
888.764221	2546.059956
889.073319	2545.550799
889.382376	2547.910059
889.691392	2547.126160
890.000366	2547.032898
890.309300	2547.579864
890.618193	2546.553989
890.927044	2546.246478
891.235855	2548.767055
891.544625	2547.617672
891.853353	2549.941644
892.162041	2547.889895
892.470687	2552.210163
892.779293	2551.300235
893.087858	2550.087838
893.396381	2550.254196
893.704864	2557.616801
894.013306	2562.166442
894.321707	2573.503997
894.630068	2579.586149
894.938387	2583.419947
895.246665	2582.399113
895.554903	2576.987435
895.863100	2571.056517
896.171256	2568.319171
896.479371	2563.333469
896.787446	2559.721483
897.095480	2557.092521
897.403473	2555.318035
897.711425	2552.189999
898.019336	2554.360216
898.327207	2551.534649
898.635038	2551.131357
898.942827	2547.562220
899.250576	2548.388969
899.558284	2547.000131
899.865952	2547.093392
900.173579	2548.928372
900.481165	2547.179092
900.788711	2545.555840
901.096216	2547.274874
901.403681	2545.994421
901.711105	2542.894111
902.018489	2544.287990
902.325832	2549.777807
902.633135	2545.003834
902.940397	2547.819318
903.247619	2551.128836
903.554800	2559.275341
903.861941	2572.485684
904.169041	2589.862542
904.476101	2597.081474
904.783121	2594.949066
905.090100	2590.570824
905.397039	2579.739905
905.703938	2572.715057
906.010796	2563.698953
906.317614	2559.471946
906.624391	2554.564382
906.931129	2551.746377
907.237826	2548.477189
907.544483	2548.152035
907.851099	2546.740512
908.157675	2544.431663
908.464211	2541.018802
908.770707	2538.752803
909.077163	2542.115253
909.383578	2538.919161
909.689954	2537.255581
909.996289	2537.928575
910.302584	2542.037115
910.608839	2541.180119
910.915054	2540.618030
911.221229	2543.330171
911.527363	2541.129707
911.833458	2540.880170
912.139513	2542.339584
912.445527	2542.972249
912.751502	2542.972249
913.057436	2540.623071
913.363331	2545.694472
913.669186	2544.784544
913.975000	2548.323434
914.280775	2549.160265
914.586510	2556.474980
914.892205	2556.628735
915.197859	2565.216340
915.503475	2575.044070
915.809050	2582.797364
916.114585	2589.426482
916.420081	2592.347830
916.725536	2590.711976
917.030952	2584.471027
917.336328	2580.276787
917.641665	2575.401992
917.946961	2570.053328
918.252218	2564.898748
918.557435	2560.926318
918.862612	2556.916081
919.167750	2557.682336
919.472848	2554.156049
919.777906	2552.484906
920.082925	2550.067673
920.387904	2545.936448
920.692843	2546.909390
920.997743	2546.183464
921.302603	2546.261602
921.607423	2545.104657
921.912204	2546.836293
922.216946	2542.054759
922.521647	2544.073741
922.826310	2541.303627
923.130932	2546.158258
923.435516	2542.329502
923.740059	2543.246992
924.044564	2542.841179
924.349028	2540.907897
924.653454	2537.706764
924.957840	2539.317412
925.262186	2534.649304
925.566493	2537.737011
925.870761	2530.888603
926.174989	2538.392361
926.479178	2537.681558
926.783328	2539.972762
927.087438	2536.902700
927.391509	2539.667773
927.695541	2536.403626
927.999533	2536.696013
928.303486	2535.397915
928.607400	2536.312885
928.911275	2533.010929
929.215110	2535.995292
929.518906	2536.998482
929.822663	2535.871784
930.126381	2536.885056
930.430060	2537.240457
930.733699	2536.456558
931.037299	2540.872608
931.340861	2536.804397
931.644383	2537.525282
931.947866	2534.341794
932.251309	2537.389171
932.554714	2535.513862
932.858080	2538.873791
933.161407	2540.449152
933.464694	2537.565612
933.767943	2537.149716
934.071153	2537.283307
934.374323	2534.500590
934.677455	2538.200797
934.980548	2534.218285
935.283602	2536.890097
935.586617	2533.341125
935.889593	2538.742721
936.192530	2536.940508
936.495428	2536.590148
936.798287	2535.133255
937.101108	2537.792463
937.403890	2538.543595
937.706632	2539.824048
938.009336	2539.539223
938.312002	2536.693492
938.614628	2540.330684
938.917216	2541.270860
939.219765	2540.060983
939.522275	2540.938143
939.824747	2542.994934
940.127179	2539.390509
940.429573	2537.278266
940.731929	2536.572504
941.034246	2537.217772
941.336524	2540.426466
941.638763	2536.133924
941.940964	2539.047711
942.243126	2538.886394
942.545250	2537.351362
942.847335	2537.308513
943.149381	2537.169881
943.451389	2539.052752
943.753359	2538.311702
944.055290	2538.349511
944.357182	2536.993441
944.659036	2538.283976
944.960851	2536.587628
945.262628	2536.131403
945.564367	2538.016795
945.866067	2538.049562
946.167729	2538.536034
946.469352	2538.790612
946.770937	2538.099974
947.072484	2535.604603
947.373992	2537.303472
947.675462	2534.762730
947.976893	2539.282124
948.278286	2535.826413
948.579641	2535.095446
948.880958	2536.201979
949.182236	2537.159799
949.483476	2534.954294
949.784678	2535.415559
950.085841	2537.719367
950.386967	2537.444624
950.688054	2536.391023
950.989103	2534.619057
951.290114	2537.074099
951.591087	2537.099305
951.892021	2535.932278
952.192917	2536.532175
952.493776	2537.777340
952.794596	2538.251208
953.095378	2537.784902
953.396122	2536.481763
953.696828	2533.303316
953.997496	2538.271373
954.298126	2535.710467
954.598718	2534.084695
954.899272	2536.905220
955.199788	2535.176105
955.500266	2537.414377
955.800706	2533.358769
956.101108	2532.670651
956.401472	2533.981351
956.701798	2528.078160
957.002087	2535.115611
957.302337	2531.644776
957.602550	2532.952956
957.902724	2531.710311
958.202861	2532.879859
958.502960	2531.685106
958.803022	2533.434386
959.103045	2533.762061
959.403031	2534.419932
959.702979	2532.179139
960.002889	2532.045548
960.302762	2530.596216
960.602596	2530.036648
960.902393	2531.269210
961.202153	2532.690816
961.501875	2535.241640
961.801559	2534.430014
962.101205	2532.204344
962.400814	2530.102183
962.700385	2532.302647
962.999918	2529.686288
963.299414	2533.590662
963.598873	2532.428676
963.898293	2531.428007
964.197677	2533.971269
964.497022	2532.758871
964.796331	2535.145858
965.095601	2531.690147
965.394835	2532.111083
965.694030	2531.228881
965.993189	2531.836340
966.292309	2532.479087
966.591393	2531.261649
966.890439	2533.293234
967.189447	2532.181659
967.488419	2531.274252
967.787353	2531.342307
968.086249	2528.978006
968.385108	2531.178470
968.683930	2531.654859
968.982714	2531.977493
969.281462	2531.309540
969.580172	2533.247863
969.878844	2531.319622
970.177480	2529.540095
970.476078	2532.879859
970.774639	2531.972451
971.073162	2528.841895
971.371649	2531.533871
971.670098	2529.401463
971.968510	2529.028417
972.266885	2527.755526
972.565223	2530.790301
972.863524	2530.462626
973.161788	2531.801052
973.460014	2532.983203
973.758204	2528.743592
974.056356	2531.407842
974.354471	2532.882380
974.652550	2533.469674
974.950591	2530.462626
975.248595	2531.223840
975.546563	2531.279293
975.844493	2532.166536
976.142386	2529.726617
976.440243	2533.293234
976.738062	2530.437420
977.035845	2530.926412
977.333590	2530.908768
977.631299	2530.656710
977.928971	2529.409025
978.226606	2530.664272
978.524204	2532.927750
978.821765	2530.818027
979.119290	2529.703932
979.416777	2532.184180
979.714228	2532.088398
980.011642	2529.489683
980.309020	2533.058820
980.606360	2530.618902
980.903664	2531.753161
981.200931	2527.420289
981.498162	2532.814324
981.795356	2534.742565
982.092513	2531.735517
982.389633	2530.628984
982.686717	2533.583100
982.983764	2532.683254
983.280775	2534.036804
983.577749	2530.699560
983.874686	2533.295754
984.171587	2531.543953
984.468451	2531.415404
984.765279	2532.426155
985.062070	2530.097142
985.358824	2533.605785
985.655543	2530.455064
985.952224	2529.971113
986.248869	2526.575896
986.545478	2526.689322
986.842050	2529.275434
987.138586	2525.640762
987.435086	2528.163860
987.731549	2524.798889
988.027975	2529.693850
988.324366	2530.326515
988.620719	2531.218799
988.917037	2531.317101
989.213318	2531.082688
989.509563	2529.787111
989.805772	2527.684950
990.101944	2527.478263
990.398080	2528.771319
990.694180	2529.850126
990.990244	2526.762419
991.286271	2530.838192
991.582262	2528.657893
991.878217	2529.582944
992.174136	2530.996988
992.470019	2528.471370
992.765865	2529.356093
993.061676	2529.439272
993.357450	2530.613860
993.653188	2527.667306
993.948890	2529.406504
994.244556	2527.952131
994.540186	2530.381967
994.835780	2531.017153
995.131337	2529.522451
995.426859	2528.541946
995.722345	2530.190403
996.017795	2527.750485
996.313208	2529.058664
996.608586	2528.688140
996.903928	2528.978006
997.199234	2527.551359
997.494504	2529.948428
997.789738	2527.770650
998.084936	2529.482121
998.380099	2532.995806
998.675225	2528.720907
998.970316	2528.667975
999.265371	2530.074457
999.560390	2529.872811
999.855373	2529.358613
1000.150320	2530.099663
1000.445232	2531.669982
1000.740108	2526.989271
1001.034948	2527.516071
1001.329752	2525.625639
1001.624521	2526.729651
1001.919254	2525.330731
1002.213951	2526.328880
1002.508613	2526.623787
1002.803239	2528.196627
1003.097829	2523.258817
1003.392384	2529.083870
1003.686903	2528.960362
1003.981386	2532.237112
1004.275834	2527.823582
1004.570246	2527.785773
1004.864623	2528.186545
1005.158964	2530.833151
1005.453270	2526.976668
1005.747540	2528.337779
1006.041775	2528.574714
1006.335974	2529.595547
1006.630138	2527.342152
1006.924266	2527.611853
1007.218359	2526.238139
1007.512416	2529.477080
1007.806438	2526.953983
1008.100425	2528.080681
1008.394376	2527.924405
1008.688292	2528.090763
1008.982172	2528.516740
1009.276017	2527.107738
1009.569827	2530.926412
1009.863602	2528.189065
1010.157341	2530.424817
1010.451045	2528.098325
1010.744714	2527.200999
1011.038347	2526.696884
1011.331945	2528.892306
1011.625508	2529.787111
1011.919036	2529.310722
1012.212528	2528.526823
1012.505986	2525.855011
1012.799408	2528.564631
1013.092795	2527.717718
1013.386147	2527.332069
1013.679464	2527.251411
1013.972745	2530.480270
1014.265992	2528.075639
1014.559204	2527.047244
1014.852380	2524.942562
1015.145521	2529.219981
1015.438628	2525.106400
1015.731699	2529.333407
1016.024736	2527.541277
1016.317737	2528.178983
1016.610703	2529.958510
1016.903635	2523.737727
1017.196531	2523.727644
1017.489393	2524.294774
1017.782219	2526.845598
1018.075011	2527.740403
1018.367768	2527.561442
1018.660490	2527.974816
1018.953177	2527.974816
1019.245829	2527.974816
