Dividing Wavelength (nm)	Counts (n)	Blue Motor Position (mm): 0.000000	Red Motor Position (mm): 3.000000	
326.493990	2202.984231
326.888308	2202.984231
327.282561	2202.984231
327.676750	2092.078846
328.070874	2092.078846
328.464933	2054.270192
328.858929	2069.393654
329.252859	2049.229038
329.646726	2134.928654
330.040528	2084.517115
330.434265	2170.216731
330.827938	2122.325769
331.221547	2152.572692
331.615091	2175.257885
332.008571	2205.504808
332.401986	2233.231154
332.795338	2235.751731
333.188625	2255.916346
333.581847	2245.834038
333.975006	2180.299038
334.368100	2265.998654
334.761129	2291.204423
335.154095	2336.574808
335.546996	2281.122115
335.939833	2379.424615
336.332606	2427.315577
336.725315	2465.124231
337.117960	2437.397885
337.510540	2379.424615
337.903056	2419.753846
338.295508	2437.397885
338.687896	2422.274423
339.080220	2507.974038
339.472480	2364.301154
339.864676	2444.959615
340.256807	2492.850577
340.648875	2495.371154
341.040879	2497.891731
341.432818	2477.727115
341.824694	2487.809423
342.216506	2555.865000
342.608253	2472.685962
342.999937	2407.150962
343.391557	2533.179808
343.783113	2482.768269
344.174605	2482.768269
344.566033	2495.371154
344.957397	2497.891731
345.348697	2490.330000
345.739934	2510.494615
346.131106	2450.000769
346.522215	2523.097500
346.913260	2407.150962
347.304241	2505.453462
347.695159	2470.165385
348.086012	2364.301154
348.476802	2450.000769
348.867528	2422.274423
349.258191	2477.727115
349.648789	2465.124231
350.039324	2452.521346
350.429796	2404.630385
350.820203	2444.959615
351.210548	2482.768269
351.600828	2336.574808
351.991045	2429.836154
352.381198	2507.974038
352.771288	2533.179808
353.161314	2480.247692
353.551276	2462.603654
353.941175	2414.712692
354.331010	2482.768269
354.720782	2460.083077
355.110490	2475.206538
355.500135	2429.836154
355.889717	2432.356731
356.279235	2424.795000
356.668689	2465.124231
357.058080	2422.274423
357.447408	2404.630385
357.836672	2455.041923
358.225873	2442.439038
358.615010	2427.315577
359.004084	2414.712692
359.393095	2437.397885
359.782043	2427.315577
360.170927	2394.548077
360.559748	2402.109808
360.948505	2442.439038
361.337199	2492.850577
361.725830	2457.562500
362.114398	2412.192115
362.502903	2450.000769
362.891344	2404.630385
363.279722	2455.041923
363.668037	2477.727115
364.056289	2414.712692
364.444478	2414.712692
364.832603	2447.480192
365.220665	2422.274423
365.608665	2467.644808
365.996601	2437.397885
366.384474	2528.138654
366.772284	2477.727115
367.160031	2485.288846
367.547715	2427.315577
367.935336	2543.262115
368.322893	2467.644808
368.710388	2518.056346
369.097820	2513.015192
369.485189	2412.192115
369.872495	2389.506923
370.259738	2482.768269
370.646918	2477.727115
371.034035	2475.206538
371.421090	2414.712692
371.808081	2490.330000
372.195010	2409.671538
372.581875	2477.727115
372.968678	2457.562500
373.355418	2487.809423
373.742096	2470.165385
374.128710	2404.630385
374.515262	2437.397885
374.901751	2392.027500
375.288177	2477.727115
375.674540	2515.535769
376.060841	2518.056346
376.447079	2392.027500
376.833254	2495.371154
377.219367	2407.150962
377.605417	2477.727115
377.991404	2422.274423
378.377329	2379.424615
378.763191	2457.562500
379.148991	2482.768269
379.534727	2462.603654
379.920402	2409.671538
380.306013	2409.671538
380.691563	2513.015192
381.077049	2465.124231
381.462474	2530.659231
381.847835	2450.000769
382.233134	2399.589231
382.618371	2444.959615
383.003545	2437.397885
383.388657	2475.206538
383.773706	2455.041923
384.158693	2434.877308
384.543618	2351.698269
384.928480	2442.439038
385.313280	2417.233269
385.698017	2447.480192
386.082692	2543.262115
386.467305	2520.576923
386.851856	2470.165385
387.236344	2447.480192
387.620770	2427.315577
388.005133	2455.041923
388.389435	2530.659231
388.773674	2414.712692
389.157851	2457.562500
389.541965	2634.002885
389.926018	2548.303269
390.310008	2444.959615
390.693936	2432.356731
391.077802	2482.768269
391.461606	2480.247692
391.845348	2462.603654
392.229027	2417.233269
392.612645	2535.700385
392.996200	2450.000769
393.379694	2520.576923
393.763125	2424.795000
394.146494	2472.685962
394.529801	2507.974038
394.913047	2480.247692
395.296230	2409.671538
395.679351	2482.768269
396.062410	2510.494615
396.445408	2422.274423
396.828343	2450.000769
397.211217	2475.206538
397.594028	2475.206538
397.976778	2384.465769
398.359466	2515.535769
398.742092	2424.795000
399.124656	2538.220962
399.507158	2412.192115
399.889598	2492.850577
400.271977	2447.480192
400.654294	2553.344423
401.036549	2422.274423
401.418742	2515.535769
401.800874	2419.753846
402.182944	2407.150962
402.564952	2475.206538
402.946898	2480.247692
403.328783	2402.109808
403.710606	2535.700385
404.092367	2543.262115
404.474067	2477.727115
404.855705	2525.618077
405.237282	2444.959615
405.618797	2452.521346
406.000250	2419.753846
406.381642	2472.685962
406.762972	2568.467885
407.144240	2467.644808
407.525447	2424.795000
407.906593	2429.836154
408.287677	2530.659231
408.668700	2477.727115
409.049661	2397.068654
409.430560	2417.233269
409.811399	2424.795000
410.192176	2495.371154
410.572891	2392.027500
410.953545	2437.397885
411.334138	2477.727115
411.714669	2482.768269
412.095139	2497.891731
412.475547	2465.124231
412.855894	2513.015192
413.236180	2528.138654
413.616405	2470.165385
413.996568	2432.356731
414.376670	2533.179808
414.756711	2460.083077
415.136691	2523.097500
415.516609	2510.494615
415.896466	2581.070769
416.276262	2470.165385
416.655997	2540.741538
417.035670	2455.041923
417.415283	2419.753846
417.794834	2429.836154
418.174324	2434.877308
418.553753	2525.618077
418.933121	2452.521346
419.312428	2525.618077
419.691674	2545.782692
420.070859	2467.644808
420.449983	2538.220962
420.829045	2404.630385
421.208047	2447.480192
421.586988	2457.562500
421.965867	2502.932885
422.344686	2518.056346
422.723444	2442.439038
423.102141	2447.480192
423.480777	2558.385577
423.859352	2545.782692
424.237866	2477.727115
424.616319	2444.959615
424.994712	2568.467885
425.373044	2492.850577
425.751314	2487.809423
426.129524	2427.315577
426.507673	2437.397885
426.885762	2502.932885
427.263789	2555.865000
427.641756	2477.727115
428.019662	2477.727115
428.397508	2482.768269
428.775292	2384.465769
429.153016	2528.138654
429.530679	2447.480192
429.908282	2497.891731
430.285824	2429.836154
430.663305	2467.644808
431.040726	2472.685962
431.418086	2422.274423
431.795385	2467.644808
432.172624	2419.753846
432.549802	2407.150962
432.926920	2535.700385
433.303977	2555.865000
433.680974	2513.015192
434.057910	2555.865000
434.434786	2487.809423
434.811601	2502.932885
435.188355	2452.521346
435.565050	2455.041923
435.941683	2548.303269
436.318257	2502.932885
436.694770	2500.412308
437.071222	2525.618077
437.447614	2427.315577
437.823946	2472.685962
438.200218	2505.453462
438.576429	2550.823846
438.952580	2477.727115
439.328670	2523.097500
439.704700	2455.041923
440.080670	2487.809423
440.456580	2444.959615
440.832429	2513.015192
441.208218	2485.288846
441.583947	2432.356731
441.959616	2523.097500
442.335224	2487.809423
442.710773	2434.877308
443.086261	2417.233269
443.461689	2500.412308
443.837057	2555.865000
444.212365	2472.685962
444.587612	2407.150962
444.962800	2422.274423
445.337927	2465.124231
445.712995	2573.509038
446.088002	2424.795000
446.462949	2497.891731
446.837837	2490.330000
447.212664	2533.179808
447.587431	2480.247692
447.962139	2533.179808
448.336786	2437.397885
448.711374	2439.918462
449.085901	2470.165385
449.460369	2515.535769
449.834776	2480.247692
450.209124	2518.056346
450.583412	2485.288846
450.957640	2480.247692
451.331808	2472.685962
451.705917	2480.247692
452.079965	2397.068654
452.453954	2492.850577
452.827883	2480.247692
453.201752	2520.576923
453.575562	2470.165385
453.949311	2412.192115
454.323001	2550.823846
454.696632	2485.288846
455.070202	2515.535769
455.443713	2530.659231
455.817164	2490.330000
456.190556	2505.453462
456.563888	2513.015192
456.937160	2457.562500
457.310373	2475.206538
457.683526	2424.795000
458.056619	2507.974038
458.429653	2460.083077
458.802628	2528.138654
459.175542	2548.303269
459.548398	2442.439038
459.921194	2502.932885
460.293930	2570.988462
460.666607	2477.727115
461.039224	2538.220962
461.411782	2530.659231
461.784280	2505.453462
462.156719	2545.782692
462.529099	2467.644808
462.901419	2553.344423
463.273680	2510.494615
463.645882	2497.891731
464.018024	2492.850577
464.390106	2497.891731
464.762130	2485.288846
465.134094	2550.823846
465.505999	2467.644808
465.877845	2500.412308
466.249631	2538.220962
466.621358	2533.179808
466.993026	2465.124231
467.364634	2518.056346
467.736184	2515.535769
468.107674	2553.344423
468.479105	2490.330000
468.850477	2543.262115
469.221790	2543.262115
469.593043	2397.068654
469.964238	2515.535769
470.335373	2495.371154
470.706449	2480.247692
471.077467	2490.330000
471.448425	2573.509038
471.819324	2457.562500
472.190164	2467.644808
472.560945	2540.741538
472.931667	2465.124231
473.302330	2565.947308
473.672934	2497.891731
474.043479	2472.685962
474.413965	2560.906154
474.784393	2462.603654
475.154761	2613.838269
475.525070	2447.480192
475.895321	2540.741538
476.265513	2439.918462
476.635645	2470.165385
477.005719	2460.083077
477.375734	2437.397885
477.745691	2581.070769
478.115588	2581.070769
478.485427	2409.671538
478.855207	2540.741538
479.224928	2462.603654
479.594591	2530.659231
479.964194	2480.247692
480.333739	2550.823846
480.703226	2444.959615
481.072653	2475.206538
481.442022	2485.288846
481.811333	2550.823846
482.180584	2510.494615
482.549777	2482.768269
482.918912	2513.015192
483.287988	2518.056346
483.657005	2470.165385
484.025964	2515.535769
484.394864	2525.618077
484.763706	2500.412308
485.132489	2497.891731
485.501213	2500.412308
485.869879	2528.138654
486.238487	2447.480192
486.607036	2540.741538
486.975527	2518.056346
487.343959	2444.959615
487.712333	2518.056346
488.080648	2477.727115
488.448905	2525.618077
488.817104	2472.685962
489.185244	2583.591346
489.553326	2422.274423
489.921350	2452.521346
490.289315	2422.274423
490.657222	2520.576923
491.025070	2475.206538
491.392861	2510.494615
491.760593	2525.618077
492.128267	2500.412308
492.495883	2545.782692
492.863440	2538.220962
493.230939	2576.029615
493.598380	2452.521346
493.965763	2550.823846
494.333088	2507.974038
494.700354	2548.303269
495.067563	2467.644808
495.434713	2495.371154
495.801805	2490.330000
496.168839	2477.727115
496.535815	2558.385577
496.902733	2553.344423
497.269593	2543.262115
497.636395	2550.823846
498.003139	2528.138654
498.369825	2528.138654
498.736453	2505.453462
499.103023	2439.918462
499.469535	2495.371154
499.835989	2472.685962
500.202385	2442.439038
500.568723	2543.262115
500.935003	2444.959615
501.301226	2523.097500
501.667390	2510.494615
502.033497	2490.330000
502.399546	2485.288846
502.765537	2462.603654
503.131470	2510.494615
503.497345	2505.453462
503.863163	2470.165385
504.228923	2477.727115
504.594625	2596.194231
504.960269	2465.124231
505.325856	2502.932885
505.691385	2520.576923
506.056856	2432.356731
506.422270	2513.015192
506.787625	2593.673654
507.152924	2550.823846
507.518164	2535.700385
507.883347	2470.165385
508.248472	2455.041923
508.613540	2419.753846
508.978550	2601.235385
509.343503	2417.233269
509.708398	2505.453462
510.073236	2543.262115
510.438016	2530.659231
510.802738	2495.371154
511.167403	2528.138654
511.532010	2487.809423
511.896561	2565.947308
512.261053	2530.659231
512.625488	2528.138654
512.989866	2472.685962
513.354186	2543.262115
513.718449	2432.356731
514.082655	2480.247692
514.446803	2457.562500
514.810894	2485.288846
515.174927	2475.206538
515.538904	2429.836154
515.902822	2485.288846
516.266684	2472.685962
516.630488	2533.179808
516.994235	2548.303269
517.357925	2475.206538
517.721558	2502.932885
518.085133	2455.041923
518.448651	2550.823846
518.812112	2417.233269
519.175516	2533.179808
519.538863	2560.906154
519.902152	2437.397885
520.265385	2409.671538
520.628560	2518.056346
520.991678	2460.083077
521.354739	2465.124231
521.717743	2533.179808
522.080690	2505.453462
522.443580	2502.932885
522.806413	2500.412308
523.169189	2502.932885
523.531908	2510.494615
523.894569	2497.891731
524.257174	2500.412308
524.619722	2465.124231
524.982213	2545.782692
525.344647	2419.753846
525.707025	2548.303269
526.069345	2515.535769
526.431608	2513.015192
526.793815	2482.768269
527.155964	2560.906154
527.518057	2578.550192
527.880093	2477.727115
528.242072	2444.959615
528.603995	2460.083077
528.965860	2520.576923
529.327669	2472.685962
529.689421	2442.439038
530.051117	2442.439038
530.412755	2581.070769
530.774337	2535.700385
531.135862	2530.659231
531.497331	2555.865000
531.858743	2470.165385
532.220098	2515.535769
532.581396	2472.685962
532.942638	2444.959615
533.303824	2467.644808
533.664953	2495.371154
534.026025	2507.974038
534.387040	2555.865000
534.747999	2472.685962
535.108902	2452.521346
535.469748	2442.439038
535.830537	2472.685962
536.191270	2513.015192
536.551947	2460.083077
536.912567	2500.412308
537.273131	2460.083077
537.633638	2515.535769
537.994089	2576.029615
538.354483	2404.630385
538.714821	2500.412308
539.075103	2485.288846
539.435328	2563.426731
539.795497	2502.932885
540.155609	2533.179808
540.515665	2560.906154
540.875665	2543.262115
541.235609	2616.358846
541.595496	2450.000769
541.955328	2414.712692
542.315102	2444.959615
542.674821	2399.589231
543.034483	2533.179808
543.394090	2460.083077
543.753640	2518.056346
544.113134	2487.809423
544.472571	2465.124231
544.831953	2444.959615
545.191278	2545.782692
545.550548	2523.097500
545.909761	2543.262115
546.268918	2492.850577
546.628019	2513.015192
546.987064	2507.974038
547.346053	2530.659231
547.704986	2505.453462
548.063863	2530.659231
548.422684	2465.124231
548.781449	2518.056346
549.140158	2530.659231
549.498811	2518.056346
549.857408	2570.988462
550.215949	2477.727115
550.574434	2568.467885
550.932864	2591.153077
551.291237	2472.685962
551.649555	2480.247692
552.007817	2492.850577
552.366022	2533.179808
552.724173	2444.959615
553.082267	2505.453462
553.440305	2540.741538
553.798288	2591.153077
554.156215	2520.576923
554.514086	2487.809423
554.871902	2523.097500
555.229661	2434.877308
555.587365	2429.836154
555.945014	2490.330000
556.302606	2442.439038
556.660143	2485.288846
557.017625	2558.385577
557.375050	2434.877308
557.732421	2480.247692
558.089735	2470.165385
558.446994	2507.974038
558.804197	2548.303269
559.161345	2523.097500
559.518437	2490.330000
559.875474	2565.947308
560.232455	2528.138654
560.589381	2523.097500
560.946251	2409.671538
561.303065	2576.029615
561.659825	2422.274423
562.016528	2543.262115
562.373177	2520.576923
562.729770	2545.782692
563.086307	2482.768269
563.442789	2581.070769
563.799216	2414.712692
564.155587	2510.494615
564.511904	2492.850577
564.868164	2480.247692
565.224370	2490.330000
565.580520	2472.685962
565.936615	2460.083077
566.292654	2485.288846
566.648638	2530.659231
567.004567	2525.618077
567.360441	2490.330000
567.716260	2465.124231
568.072023	2533.179808
568.427732	2465.124231
568.783385	2462.603654
569.138982	2465.124231
569.494525	2477.727115
569.850013	2455.041923
570.205445	2462.603654
570.560823	2429.836154
570.916145	2467.644808
571.271412	2548.303269
571.626625	2437.397885
571.981782	2505.453462
572.336884	2535.700385
572.691931	2553.344423
573.046923	2528.138654
573.401860	2568.467885
573.756743	2497.891731
574.111570	2462.603654
574.466342	2596.194231
574.821059	2573.509038
575.175722	2492.850577
575.530330	2492.850577
575.884882	2520.576923
576.239380	2472.685962
576.593823	2500.412308
576.948211	2530.659231
577.302544	2525.618077
577.656823	2460.083077
578.011047	2500.412308
578.365216	2581.070769
578.719330	2555.865000
579.073389	2462.603654
579.427394	2540.741538
579.781344	2555.865000
580.135239	2495.371154
580.489080	2553.344423
580.842866	2596.194231
581.196597	2535.700385
581.550273	2533.179808
581.903895	2492.850577
582.257463	2485.288846
582.610975	2523.097500
582.964434	2477.727115
583.317837	2550.823846
583.671186	2505.453462
584.024481	2457.562500
584.377721	2485.288846
584.730906	2417.233269
585.084037	2530.659231
585.437113	2477.727115
585.790135	2578.550192
586.143103	2523.097500
586.496016	2502.932885
586.848874	2505.453462
587.201679	2477.727115
587.554428	2518.056346
587.907124	2540.741538
588.259765	2495.371154
588.612352	2467.644808
588.964884	2538.220962
589.317362	2507.974038
589.669786	2500.412308
590.022155	2437.397885
590.374470	2528.138654
590.726731	2563.426731
591.078937	2513.015192
591.431090	2450.000769
591.783188	2507.974038
592.135232	2523.097500
592.487222	2565.947308
592.839157	2560.906154
593.191038	2465.124231
593.542866	2548.303269
593.894639	2545.782692
594.246358	2482.768269
594.598022	2475.206538
594.949633	2442.439038
595.301190	2452.521346
595.652692	2543.262115
596.004141	2505.453462
596.355535	2467.644808
596.706876	2510.494615
597.058162	2555.865000
597.409395	2500.412308
597.760573	2497.891731
598.111698	2487.809423
598.462768	2525.618077
598.813785	2513.015192
599.164748	2470.165385
599.515657	2533.179808
599.866511	2588.632500
600.217312	2432.356731
600.568060	2510.494615
600.918753	2399.589231
601.269392	2505.453462
601.619978	2482.768269
601.970510	2550.823846
602.320988	2465.124231
602.671412	2470.165385
603.021783	2507.974038
603.372100	2540.741538
603.722363	2540.741538
604.072572	2513.015192
604.422728	2485.288846
604.772830	2467.644808
605.122878	2560.906154
605.472872	2540.741538
605.822813	2515.535769
606.172701	2533.179808
606.522534	2422.274423
606.872314	2510.494615
607.222041	2460.083077
607.571714	2432.356731
607.921333	2414.712692
608.270899	2525.618077
608.620411	2490.330000
608.969870	2429.836154
609.319276	2525.618077
609.668627	2578.550192
610.017926	2518.056346
610.367171	2525.618077
610.716362	2460.083077
611.065500	2513.015192
611.414585	2467.644808
611.763616	2583.591346
612.112594	2442.439038
612.461518	2480.247692
612.810389	2495.371154
613.159207	2543.262115
613.507971	2434.877308
613.856682	2394.548077
614.205340	2535.700385
614.553945	2442.439038
614.902496	2515.535769
615.250994	2487.809423
615.599439	2482.768269
615.947830	2482.768269
616.296169	2495.371154
616.644454	2482.768269
616.992686	2518.056346
617.340864	2500.412308
617.688990	2560.906154
618.037063	2528.138654
618.385082	2510.494615
618.733048	2482.768269
619.080961	2545.782692
619.428821	2465.124231
619.776628	2487.809423
620.124382	2439.918462
620.472083	2500.412308
620.819731	2548.303269
621.167326	2533.179808
621.514868	2447.480192
621.862357	2520.576923
622.209793	2429.836154
622.557176	2477.727115
622.904506	2455.041923
623.251783	2467.644808
623.599007	2450.000769
623.946179	2404.630385
624.293297	2457.562500
624.640363	2523.097500
624.987376	2523.097500
625.334336	2495.371154
625.681243	2427.315577
626.028097	2497.891731
626.374899	2465.124231
626.721647	2525.618077
627.068343	2502.932885
627.414987	2513.015192
627.761577	2523.097500
628.108115	2502.932885
628.454600	2457.562500
628.801032	2515.535769
629.147412	2470.165385
629.493739	2560.906154
629.840014	2455.041923
630.186236	2528.138654
630.532405	2502.932885
630.878521	2480.247692
631.224585	2510.494615
631.570597	2507.974038
631.916556	2447.480192
632.262462	2535.700385
632.608316	2530.659231
632.954117	2535.700385
633.299866	2553.344423
633.645562	2492.850577
633.991206	2518.056346
634.336797	2525.618077
634.682336	2553.344423
635.027823	2591.153077
635.373257	2510.494615
635.718639	2507.974038
636.063968	2502.932885
636.409245	2460.083077
636.754470	2525.618077
637.099642	2520.576923
637.444762	2528.138654
637.789829	2460.083077
638.134845	2555.865000
638.479808	2472.685962
638.824719	2500.412308
639.169577	2533.179808
639.514383	2389.506923
639.859137	2502.932885
640.203839	2429.836154
640.548489	2515.535769
640.893086	2439.918462
641.237632	2414.712692
641.582125	2505.453462
641.926566	2520.576923
642.270955	2568.467885
642.615292	2439.918462
642.959576	2533.179808
643.303809	2502.932885
643.647990	2465.124231
643.992118	2457.562500
644.336195	2525.618077
644.680219	2444.959615
645.024192	2450.000769
645.368112	2432.356731
645.711981	2502.932885
646.055797	2523.097500
646.399562	2467.644808
646.743274	2540.741538
647.086935	2586.111923
647.430544	2495.371154
647.774101	2465.124231
648.117606	2502.932885
648.461059	2525.618077
648.804460	2523.097500
649.147810	2376.904038
649.491108	2467.644808
649.834354	2434.877308
650.177548	2513.015192
650.520690	2576.029615
650.863781	2422.274423
651.206820	2543.262115
651.549807	2412.192115
651.892742	2540.741538
652.235626	2518.056346
652.578458	2500.412308
652.921238	2450.000769
653.263967	2510.494615
653.606644	2525.618077
653.949269	2523.097500
654.291843	2485.288846
654.634365	2470.165385
654.976836	2444.959615
655.319255	2513.015192
655.661622	2560.906154
656.003938	2558.385577
656.346203	2601.235385
656.688416	2492.850577
657.030577	2444.959615
657.372687	2450.000769
657.714746	2502.932885
658.056753	2434.877308
658.398708	2470.165385
658.740612	2487.809423
659.082465	2510.494615
659.424266	2434.877308
659.766016	2523.097500
660.107715	2555.865000
660.449362	2518.056346
660.790958	2500.412308
661.132503	2482.768269
661.473996	2505.453462
661.815438	2553.344423
662.156829	2502.932885
662.498168	2470.165385
662.839456	2439.918462
663.180693	2538.220962
663.521879	2586.111923
663.863013	2565.947308
664.204097	2444.959615
664.545129	2505.453462
664.886110	2497.891731
665.227040	2407.150962
665.567918	2578.550192
665.908746	2507.974038
666.249522	2543.262115
666.590248	2462.603654
666.930922	2563.426731
667.271545	2472.685962
667.612118	2482.768269
667.952639	2424.795000
668.293109	2525.618077
668.633528	2510.494615
668.973896	2444.959615
669.314213	2505.453462
669.654480	2507.974038
669.994695	2543.262115
670.334859	2535.700385
670.674973	2462.603654
671.015035	2402.109808
671.355047	2412.192115
671.695008	2495.371154
672.034918	2487.809423
672.374777	2505.453462
672.714585	2505.453462
673.054342	2444.959615
673.394049	2437.397885
673.733705	2472.685962
674.073310	2513.015192
674.412864	2553.344423
674.752368	2457.562500
675.091820	2437.397885
675.431223	2500.412308
675.770574	2520.576923
676.109875	2576.029615
676.449125	2447.480192
676.788324	2558.385577
677.127473	2530.659231
677.466571	2500.412308
677.805619	2558.385577
678.144616	2533.179808
678.483562	2507.974038
678.822458	2450.000769
679.161303	2560.906154
679.500098	2492.850577
679.838842	2450.000769
680.177535	2598.714808
680.516179	2475.206538
680.854771	2485.288846
681.193314	2510.494615
681.531805	2490.330000
681.870247	2482.768269
682.208638	2452.521346
682.546978	2502.932885
682.885268	2455.041923
683.223508	2510.494615
683.561697	2535.700385
683.899836	2570.988462
684.237925	2480.247692
684.575963	2432.356731
684.913951	2570.988462
685.251889	2497.891731
685.589776	2586.111923
685.927614	2520.576923
686.265401	2450.000769
686.603137	2495.371154
686.940824	2523.097500
687.278460	2437.397885
687.616046	2500.412308
687.953582	2429.836154
688.291068	2523.097500
688.628504	2460.083077
688.965889	2482.768269
689.303224	2500.412308
689.640510	2495.371154
689.977745	2434.877308
690.314930	2480.247692
690.652065	2515.535769
690.989150	2530.659231
691.326185	2452.521346
691.663170	2568.467885
692.000105	2510.494615
692.336990	2528.138654
692.673825	2530.659231
693.010610	2550.823846
693.347345	2457.562500
693.684030	2480.247692
694.020665	2487.809423
694.357251	2535.700385
694.693786	2570.988462
695.030272	2482.768269
695.366707	2444.959615
695.703093	2432.356731
696.039429	2397.068654
696.375716	2565.947308
696.711952	2475.206538
697.048139	2361.780577
697.384276	2520.576923
697.720363	2487.809423
698.056400	2497.891731
698.392388	2523.097500
698.728326	2455.041923
699.064214	2475.206538
699.400053	2528.138654
699.735842	2432.356731
700.071581	2439.918462
700.407270	2477.727115
700.742910	2528.138654
701.078501	2528.138654
701.414042	2510.494615
701.749533	2505.453462
702.084974	2477.727115
702.420366	2553.344423
702.755709	2477.727115
703.091002	2576.029615
703.426246	2482.768269
703.761440	2518.056346
704.096584	2439.918462
704.431679	2563.426731
704.766725	2533.179808
705.101721	2495.371154
705.436668	2472.685962
705.771565	2475.206538
706.106413	2475.206538
706.441212	2505.453462
706.775961	2492.850577
707.110661	2490.330000
707.445311	2452.521346
707.779913	2518.056346
708.114465	2533.179808
708.448967	2550.823846
708.783421	2460.083077
709.117825	2555.865000
709.452180	2518.056346
709.786485	2545.782692
710.120742	2485.288846
710.454949	2545.782692
710.789107	2548.303269
711.123216	2538.220962
711.457275	2523.097500
711.791286	2427.315577
712.125247	2452.521346
712.459159	2422.274423
712.793023	2477.727115
713.126837	2500.412308
713.460602	2528.138654
713.794318	2510.494615
714.127985	2550.823846
714.461602	2523.097500
714.795171	2570.988462
715.128691	2533.179808
715.462162	2475.206538
715.795584	2535.700385
716.128957	2530.659231
716.462281	2419.753846
716.795556	2419.753846
717.128782	2452.521346
717.461960	2497.891731
717.795088	2535.700385
718.128167	2455.041923
718.461198	2596.194231
718.794180	2510.494615
719.127113	2467.644808
719.459997	2553.344423
719.792833	2477.727115
720.125619	2487.809423
720.458357	2485.288846
720.791046	2422.274423
721.123686	2570.988462
721.456278	2568.467885
721.788821	2502.932885
722.121315	2467.644808
722.453761	2424.795000
722.786158	2490.330000
723.118506	2472.685962
723.450805	2505.453462
723.783056	2452.521346
724.115259	2583.591346
724.447412	2485.288846
724.779518	2540.741538
725.111574	2513.015192
725.443582	2490.330000
725.775542	2535.700385
726.107453	2533.179808
726.439315	2495.371154
726.771129	2520.576923
727.102895	2470.165385
727.434612	2507.974038
727.766281	2429.836154
728.097901	2543.262115
728.429473	2480.247692
728.760996	2525.618077
729.092471	2497.891731
729.423897	2510.494615
729.755276	2495.371154
730.086606	2505.453462
730.417887	2543.262115
730.749120	2578.550192
731.080305	2485.288846
731.411442	2487.809423
731.742530	2386.986346
732.073570	2505.453462
732.404562	2427.315577
732.735506	2543.262115
733.066401	2452.521346
733.397249	2507.974038
733.728048	2462.603654
734.058798	2573.509038
734.389501	2576.029615
734.720156	2515.535769
735.050762	2467.644808
735.381320	2495.371154
735.711831	2470.165385
736.042293	2462.603654
736.372707	2452.521346
736.703073	2518.056346
737.033391	2467.644808
737.363661	2525.618077
737.693883	2525.618077
738.024056	2475.206538
738.354182	2507.974038
738.684260	2533.179808
739.014290	2477.727115
739.344272	2507.974038
739.674207	2477.727115
740.004093	2513.015192
740.333931	2429.836154
740.663722	2568.467885
740.993464	2528.138654
741.323159	2467.644808
741.652806	2495.371154
741.982405	2490.330000
742.311956	2462.603654
742.641460	2497.891731
742.970915	2513.015192
743.300323	2563.426731
743.629683	2540.741538
743.958996	2480.247692
744.288260	2523.097500
744.617477	2470.165385
744.946647	2364.301154
745.275768	2475.206538
745.604842	2515.535769
745.933869	2581.070769
746.262847	2434.877308
746.591778	2397.068654
746.920662	2523.097500
747.249498	2533.179808
747.578286	2490.330000
747.907027	2518.056346
748.235720	2523.097500
748.564365	2419.753846
748.892963	2495.371154
749.221514	2490.330000
749.550017	2513.015192
749.878473	2414.712692
750.206881	2495.371154
750.535242	2528.138654
750.863555	2540.741538
751.191821	2475.206538
751.520039	2477.727115
751.848210	2548.303269
752.176334	2482.768269
752.504411	2429.836154
752.832440	2543.262115
753.160421	2452.521346
753.488356	2417.233269
753.816243	2535.700385
754.144082	2535.700385
754.471875	2490.330000
754.799620	2480.247692
755.127318	2422.274423
755.454969	2538.220962
755.782572	2447.480192
756.110129	2434.877308
756.437638	2495.371154
756.765100	2515.535769
757.092515	2497.891731
757.419882	2381.945192
757.747203	2442.439038
758.074477	2553.344423
758.401703	2548.303269
758.728882	2427.315577
759.056014	2429.836154
759.383099	2490.330000
759.710138	2530.659231
760.037129	2513.015192
760.364073	2578.550192
760.690970	2500.412308
761.017820	2490.330000
761.344623	2520.576923
761.671379	2490.330000
761.998088	2472.685962
762.324751	2470.165385
762.651366	2439.918462
762.977935	2480.247692
763.304456	2409.671538
763.630931	2485.288846
763.957359	2475.206538
764.283740	2545.782692
764.610074	2460.083077
764.936362	2379.424615
765.262602	2492.850577
765.588796	2513.015192
765.914943	2553.344423
766.241044	2495.371154
766.567097	2510.494615
766.893104	2591.153077
767.219064	2515.535769
767.544978	2450.000769
767.870845	2397.068654
768.196665	2515.535769
768.522438	2550.823846
768.848165	2538.220962
769.173846	2485.288846
769.499479	2538.220962
769.825066	2487.809423
770.150607	2515.535769
770.476101	2578.550192
770.801548	2502.932885
771.126949	2583.591346
771.452303	2523.097500
771.777611	2523.097500
772.102872	2513.015192
772.428087	2450.000769
772.753256	2475.206538
773.078378	2394.548077
773.403453	2530.659231
773.728482	2485.288846
774.053465	2465.124231
774.378401	2507.974038
774.703291	2528.138654
775.028135	2500.412308
775.352932	2487.809423
775.677683	2457.562500
776.002388	2447.480192
776.327046	2507.974038
776.651658	2389.506923
776.976224	2528.138654
777.300743	2477.727115
777.625216	2548.303269
777.949643	2442.439038
778.274024	2530.659231
778.598359	2502.932885
778.922647	2528.138654
779.246889	2528.138654
779.571086	2465.124231
779.895236	2520.576923
780.219339	2490.330000
780.543397	2437.397885
780.867409	2417.233269
781.191374	2457.562500
781.515294	2560.906154
781.839167	2475.206538
782.162995	2502.932885
782.486776	2487.809423
782.810511	2457.562500
783.134201	2510.494615
783.457844	2467.644808
783.781441	2490.330000
784.104993	2477.727115
784.428498	2427.315577
784.751958	2540.741538
785.075372	2462.603654
785.398739	2591.153077
785.722061	2502.932885
786.045337	2422.274423
786.368568	2460.083077
786.691752	2500.412308
787.014891	2500.412308
787.337983	2470.165385
787.661030	2495.371154
787.984031	2500.412308
788.306987	2490.330000
788.629897	2550.823846
788.952760	2434.877308
789.275579	2553.344423
789.598351	2490.330000
789.921078	2485.288846
790.243759	2475.206538
790.566395	2538.220962
790.888984	2550.823846
791.211529	2581.070769
791.534027	2407.150962
791.856480	2487.809423
792.178888	2573.509038
792.501249	2581.070769
792.823566	2485.288846
793.145836	2457.562500
793.468062	2497.891731
793.790241	2475.206538
794.112375	2495.371154
794.434464	2487.809423
794.756507	2442.439038
795.078505	2427.315577
795.400457	2376.904038
795.722364	2543.262115
796.044226	2502.932885
796.366042	2424.795000
796.687812	2588.632500
797.009538	2457.562500
797.331218	2510.494615
797.652852	2439.918462
797.974442	2452.521346
798.295986	2422.274423
798.617484	2507.974038
798.938938	2500.412308
799.260346	2515.535769
799.581709	2500.412308
799.903026	2495.371154
800.224299	2523.097500
800.545526	2570.988462
800.866708	2568.467885
801.187845	2475.206538
801.508936	2507.974038
801.829983	2530.659231
802.150984	2444.959615
802.471940	2487.809423
802.792851	2568.467885
803.113717	2502.932885
803.434538	2535.700385
803.755314	2563.426731
804.076045	2462.603654
804.396731	2533.179808
804.717372	2500.412308
805.037967	2513.015192
805.358518	2545.782692
805.679024	2510.494615
805.999485	2434.877308
806.319901	2530.659231
806.640272	2490.330000
806.960598	2513.015192
807.280879	2500.412308
807.601115	2477.727115
807.921306	2495.371154
808.241453	2500.412308
808.561554	2500.412308
808.881611	2560.906154
809.201623	2477.727115
809.521590	2507.974038
809.841513	2581.070769
810.161390	2439.918462
810.481223	2485.288846
810.801011	2543.262115
811.120755	2558.385577
811.440453	2581.070769
811.760107	2555.865000
812.079716	2487.809423
812.399281	2560.906154
812.718801	2417.233269
813.038276	2480.247692
813.357707	2462.603654
813.677093	2487.809423
813.996434	2510.494615
814.315731	2397.068654
814.634983	2560.906154
814.954191	2510.494615
815.273354	2447.480192
815.592473	2510.494615
815.911547	2412.192115
816.230577	2520.576923
816.549562	2550.823846
816.868502	2487.809423
817.187399	2520.576923
817.506250	2455.041923
817.825058	2505.453462
818.143821	2429.836154
818.462539	2462.603654
818.781213	2520.576923
819.099843	2437.397885
819.418429	2518.056346
819.736970	2444.959615
820.055466	2480.247692
820.373919	2414.712692
820.692327	2528.138654
821.010691	2477.727115
821.329011	2513.015192
821.647286	2480.247692
821.965517	2528.138654
822.283704	2487.809423
822.601847	2437.397885
822.919945	2515.535769
823.237999	2510.494615
823.556010	2467.644808
823.873976	2452.521346
824.191897	2427.315577
824.509775	2452.521346
824.827609	2384.465769
825.145398	2548.303269
825.463144	2470.165385
825.780845	2442.439038
826.098502	2550.823846
826.416116	2442.439038
826.733685	2502.932885
827.051210	2530.659231
827.368692	2586.111923
827.686129	2545.782692
828.003522	2490.330000
828.320872	2540.741538
828.638177	2429.836154
828.955439	2548.303269
829.272656	2462.603654
829.589830	2560.906154
829.906960	2444.959615
830.224046	2470.165385
830.541088	2467.644808
830.858086	2500.412308
831.175041	2500.412308
831.491952	2543.262115
831.808819	2560.906154
832.125642	2528.138654
832.442421	2515.535769
832.759157	2450.000769
833.075849	2480.247692
833.392497	2535.700385
833.709101	2507.974038
834.025662	2507.974038
834.342179	2429.836154
834.658653	2520.576923
834.975083	2437.397885
835.291469	2523.097500
835.607811	2442.439038
835.924110	2530.659231
836.240366	2475.206538
836.556578	2427.315577
836.872746	2505.453462
837.188871	2565.947308
837.504952	2530.659231
837.820990	2452.521346
838.136984	2558.385577
838.452935	2482.768269
838.768842	2477.727115
839.084706	2520.576923
839.400526	2460.083077
839.716303	2467.644808
840.032037	2490.330000
840.347727	2427.315577
840.663373	2520.576923
840.978977	2439.918462
841.294537	2573.509038
841.610054	2419.753846
841.925527	2497.891731
842.240957	2576.029615
842.556344	2505.453462
842.871687	2500.412308
843.186987	2540.741538
843.502244	2482.768269
843.817458	2492.850577
844.132629	2528.138654
844.447756	2510.494615
844.762840	2520.576923
845.077881	2465.124231
845.392879	2525.618077
845.707833	2513.015192
846.022745	2570.988462
846.337613	2424.795000
846.652438	2568.467885
846.967221	2467.644808
847.281960	2570.988462
847.596656	2510.494615
847.911309	2507.974038
848.225919	2462.603654
848.540485	2467.644808
848.855009	2490.330000
849.169490	2510.494615
849.483928	2482.768269
849.798323	2490.330000
850.112675	2523.097500
850.426984	2540.741538
850.741251	2515.535769
851.055474	2480.247692
851.369654	2475.206538
851.683792	2475.206538
851.997887	2505.453462
852.311938	2482.768269
852.625947	2475.206538
852.939914	2462.603654
853.253837	2477.727115
853.567718	2432.356731
853.881555	2480.247692
854.195350	2472.685962
854.509103	2470.165385
854.822812	2538.220962
855.136479	2545.782692
855.450103	2460.083077
855.763685	2540.741538
856.077224	2535.700385
856.390720	2492.850577
856.704173	2497.891731
857.017584	2515.535769
857.330953	2475.206538
857.644278	2502.932885
857.957561	2505.453462
858.270802	2523.097500
858.584000	2477.727115
858.897155	2502.932885
859.210268	2500.412308
859.523339	2548.303269
859.836367	2409.671538
860.149352	2452.521346
860.462295	2520.576923
860.775195	2565.947308
861.088054	2422.274423
861.400869	2475.206538
861.713642	2429.836154
862.026373	2480.247692
862.339062	2487.809423
862.651708	2510.494615
862.964312	2477.727115
863.276873	2424.795000
863.589392	2510.494615
863.901869	2487.809423
864.214303	2510.494615
864.526696	2523.097500
864.839045	2598.714808
865.151353	2470.165385
865.463619	2543.262115
865.775842	2470.165385
866.088023	2576.029615
866.400162	2548.303269
866.712258	2505.453462
867.024313	2475.206538
867.336325	2530.659231
867.648296	2422.274423
867.960224	2548.303269
868.272110	2482.768269
868.583954	2533.179808
868.895755	2465.124231
869.207515	2525.618077
869.519233	2447.480192
869.830909	2510.494615
870.142542	2485.288846
870.454134	2497.891731
870.765684	2538.220962
871.077191	2462.603654
871.388657	2515.535769
871.700081	2518.056346
872.011463	2457.562500
872.322803	2518.056346
872.634101	2510.494615
872.945357	2563.426731
873.256571	2492.850577
873.567744	2442.439038
873.878874	2467.644808
874.189963	2550.823846
874.501010	2490.330000
874.812015	2505.453462
875.122979	2485.288846
875.433900	2528.138654
875.744780	2495.371154
876.055618	2460.083077
876.366415	2523.097500
876.677169	2482.768269
876.987882	2417.233269
877.298554	2427.315577
877.609183	2510.494615
877.919771	2409.671538
878.230317	2505.453462
878.540822	2507.974038
878.851285	2492.850577
879.161707	2576.029615
879.472087	2450.000769
879.782425	2381.945192
880.092722	2523.097500
880.402977	2535.700385
880.713191	2492.850577
881.023363	2475.206538
881.333494	2444.959615
881.643583	2485.288846
881.953631	2472.685962
882.263637	2470.165385
882.573602	2528.138654
882.883526	2533.179808
883.193408	2452.521346
883.503248	2429.836154
883.813048	2429.836154
884.122806	2523.097500
884.432522	2394.548077
884.742197	2460.083077
885.051831	2485.288846
885.361424	2540.741538
885.670975	2434.877308
885.980485	2477.727115
886.289954	2450.000769
886.599382	2507.974038
886.908768	2409.671538
887.218113	2533.179808
887.527417	2518.056346
887.836680	2550.823846
888.145901	2467.644808
888.455082	2500.412308
888.764221	2490.330000
889.073319	2472.685962
889.382376	2424.795000
889.691392	2467.644808
890.000366	2515.535769
890.309300	2470.165385
890.618193	2455.041923
890.927044	2457.562500
891.235855	2452.521346
891.544625	2397.068654
891.853353	2490.330000
892.162041	2523.097500
892.470687	2482.768269
892.779293	2555.865000
893.087858	2397.068654
893.396381	2475.206538
893.704864	2409.671538
894.013306	2545.782692
894.321707	2427.315577
894.630068	2477.727115
894.938387	2543.262115
895.246665	2470.165385
895.554903	2457.562500
895.863100	2553.344423
896.171256	2402.109808
896.479371	2460.083077
896.787446	2530.659231
897.095480	2452.521346
897.403473	2455.041923
897.711425	2465.124231
898.019336	2465.124231
898.327207	2485.288846
898.635038	2510.494615
898.942827	2477.727115
899.250576	2523.097500
899.558284	2502.932885
899.865952	2523.097500
900.173579	2429.836154
900.481165	2533.179808
900.788711	2515.535769
901.096216	2535.700385
901.403681	2399.589231
901.711105	2460.083077
902.018489	2631.482308
902.325832	2538.220962
902.633135	2477.727115
902.940397	2535.700385
903.247619	2490.330000
903.554800	2444.959615
903.861941	2568.467885
904.169041	2452.521346
904.476101	2442.439038
904.783121	2439.918462
905.090100	2507.974038
905.397039	2472.685962
905.703938	2495.371154
906.010796	2450.000769
906.317614	2545.782692
906.624391	2523.097500
906.931129	2465.124231
907.237826	2437.397885
907.544483	2490.330000
907.851099	2482.768269
908.157675	2475.206538
908.464211	2452.521346
908.770707	2462.603654
909.077163	2591.153077
909.383578	2409.671538
909.689954	2462.603654
909.996289	2510.494615
910.302584	2475.206538
910.608839	2424.795000
910.915054	2485.288846
911.221229	2460.083077
911.527363	2500.412308
911.833458	2462.603654
912.139513	2558.385577
912.445527	2543.262115
912.751502	2439.918462
913.057436	2570.988462
913.363331	2530.659231
913.669186	2482.768269
913.975000	2525.618077
914.280775	2515.535769
914.586510	2520.576923
914.892205	2394.548077
915.197859	2455.041923
915.503475	2507.974038
915.809050	2472.685962
916.114585	2565.947308
916.420081	2518.056346
916.725536	2447.480192
917.030952	2432.356731
917.336328	2470.165385
917.641665	2523.097500
917.946961	2502.932885
918.252218	2492.850577
918.557435	2540.741538
918.862612	2470.165385
919.167750	2555.865000
919.472848	2475.206538
919.777906	2530.659231
920.082925	2535.700385
920.387904	2515.535769
920.692843	2543.262115
920.997743	2523.097500
921.302603	2505.453462
921.607423	2548.303269
921.912204	2427.315577
922.216946	2439.918462
922.521647	2530.659231
922.826310	2497.891731
923.130932	2558.385577
923.435516	2462.603654
923.740059	2439.918462
924.044564	2520.576923
924.349028	2482.768269
924.653454	2507.974038
924.957840	2455.041923
925.262186	2535.700385
925.566493	2465.124231
925.870761	2520.576923
926.174989	2482.768269
926.479178	2538.220962
926.783328	2447.480192
927.087438	2467.644808
927.391509	2545.782692
927.695541	2470.165385
927.999533	2497.891731
928.303486	2543.262115
928.607400	2482.768269
928.911275	2523.097500
929.215110	2550.823846
929.518906	2568.467885
929.822663	2480.247692
930.126381	2505.453462
930.430060	2470.165385
930.733699	2460.083077
931.037299	2437.397885
931.340861	2570.988462
931.644383	2452.521346
931.947866	2480.247692
932.251309	2404.630385
932.554714	2523.097500
932.858080	2419.753846
933.161407	2485.288846
933.464694	2530.659231
933.767943	2432.356731
934.071153	2505.453462
934.374323	2540.741538
934.677455	2528.138654
934.980548	2490.330000
935.283602	2495.371154
935.586617	2472.685962
935.889593	2475.206538
936.192530	2422.274423
936.495428	2565.947308
936.798287	2442.439038
937.101108	2520.576923
937.403890	2437.397885
937.706632	2596.194231
938.009336	2507.974038
938.312002	2384.465769
938.614628	2500.412308
938.917216	2472.685962
939.219765	2487.809423
939.522275	2467.644808
939.824747	2518.056346
940.127179	2485.288846
940.429573	2515.535769
940.731929	2487.809423
941.034246	2518.056346
941.336524	2573.509038
941.638763	2462.603654
941.940964	2502.932885
942.243126	2472.685962
942.545250	2533.179808
942.847335	2581.070769
943.149381	2439.918462
943.451389	2520.576923
943.753359	2485.288846
944.055290	2515.535769
944.357182	2439.918462
944.659036	2540.741538
944.960851	2606.276538
945.262628	2482.768269
945.564367	2553.344423
945.866067	2404.630385
946.167729	2490.330000
946.469352	2412.192115
946.770937	2444.959615
947.072484	2515.535769
947.373992	2487.809423
947.675462	2434.877308
947.976893	2651.646923
948.278286	2502.932885
948.579641	2482.768269
948.880958	2487.809423
949.182236	2376.904038
949.483476	2535.700385
949.784678	2495.371154
950.085841	2424.795000
950.386967	2452.521346
950.688054	2543.262115
950.989103	2528.138654
951.290114	2502.932885
951.591087	2528.138654
951.892021	2576.029615
952.192917	2515.535769
952.493776	2507.974038
952.794596	2475.206538
953.095378	2437.397885
953.396122	2497.891731
953.696828	2472.685962
953.997496	2502.932885
954.298126	2467.644808
954.598718	2573.509038
954.899272	2442.439038
955.199788	2500.412308
955.500266	2500.412308
955.800706	2412.192115
956.101108	2570.988462
956.401472	2434.877308
956.701798	2434.877308
957.002087	2419.753846
957.302337	2450.000769
957.602550	2545.782692
957.902724	2497.891731
958.202861	2472.685962
958.502960	2434.877308
958.803022	2560.906154
959.103045	2538.220962
959.403031	2487.809423
959.702979	2586.111923
960.002889	2507.974038
960.302762	2520.576923
960.602596	2553.344423
960.902393	2447.480192
961.202153	2497.891731
961.501875	2538.220962
961.801559	2439.918462
962.101205	2505.453462
962.400814	2487.809423
962.700385	2487.809423
962.999918	2492.850577
963.299414	2419.753846
963.598873	2497.891731
963.898293	2492.850577
964.197677	2447.480192
964.497022	2560.906154
964.796331	2475.206538
965.095601	2507.974038
965.394835	2460.083077
965.694030	2513.015192
965.993189	2444.959615
966.292309	2553.344423
966.591393	2588.632500
966.890439	2500.412308
967.189447	2540.741538
967.488419	2497.891731
967.787353	2540.741538
968.086249	2553.344423
968.385108	2470.165385
968.683930	2495.371154
968.982714	2437.397885
969.281462	2450.000769
969.580172	2490.330000
969.878844	2500.412308
970.177480	2487.809423
970.476078	2538.220962
970.774639	2611.317692
971.073162	2490.330000
971.371649	2480.247692
971.670098	2467.644808
971.968510	2518.056346
972.266885	2450.000769
972.565223	2565.947308
972.863524	2424.795000
973.161788	2452.521346
973.460014	2452.521346
973.758204	2525.618077
974.056356	2437.397885
974.354471	2487.809423
974.652550	2424.795000
974.950591	2460.083077
975.248595	2422.274423
975.546563	2513.015192
975.844493	2518.056346
976.142386	2482.768269
976.440243	2480.247692
976.738062	2429.836154
977.035845	2611.317692
977.333590	2467.644808
977.631299	2530.659231
977.928971	2520.576923
978.226606	2530.659231
978.524204	2450.000769
978.821765	2528.138654
979.119290	2505.453462
979.416777	2465.124231
979.714228	2495.371154
980.011642	2570.988462
980.309020	2477.727115
980.606360	2442.439038
980.903664	2482.768269
981.200931	2457.562500
981.498162	2540.741538
981.795356	2472.685962
982.092513	2540.741538
982.389633	2520.576923
982.686717	2477.727115
982.983764	2545.782692
983.280775	2480.247692
983.577749	2444.959615
983.874686	2500.412308
984.171587	2487.809423
984.468451	2538.220962
984.765279	2470.165385
985.062070	2518.056346
985.358824	2460.083077
985.655543	2492.850577
985.952224	2543.262115
986.248869	2505.453462
986.545478	2492.850577
986.842050	2495.371154
987.138586	2520.576923
987.435086	2495.371154
987.731549	2457.562500
988.027975	2465.124231
988.324366	2437.397885
988.620719	2399.589231
988.917037	2507.974038
989.213318	2482.768269
989.509563	2533.179808
989.805772	2538.220962
990.101944	2424.795000
990.398080	2482.768269
990.694180	2439.918462
990.990244	2424.795000
991.286271	2467.644808
991.582262	2528.138654
991.878217	2540.741538
992.174136	2535.700385
992.470019	2432.356731
992.765865	2412.192115
993.061676	2518.056346
993.357450	2490.330000
993.653188	2492.850577
993.948890	2419.753846
994.244556	2424.795000
994.540186	2482.768269
994.835780	2455.041923
995.131337	2510.494615
995.426859	2495.371154
995.722345	2462.603654
996.017795	2495.371154
996.313208	2528.138654
996.608586	2490.330000
996.903928	2518.056346
997.199234	2560.906154
997.494504	2376.904038
997.789738	2452.521346
998.084936	2540.741538
998.380099	2472.685962
998.675225	2545.782692
998.970316	2472.685962
999.265371	2414.712692
999.560390	2525.618077
999.855373	2525.618077
1000.150320	2528.138654
1000.445232	2510.494615
1000.740108	2472.685962
1001.034948	2528.138654
1001.329752	2513.015192
1001.624521	2543.262115
1001.919254	2560.906154
1002.213951	2439.918462
1002.508613	2573.509038
1002.803239	2465.124231
1003.097829	2485.288846
1003.392384	2535.700385
1003.686903	2510.494615
1003.981386	2500.412308
1004.275834	2492.850577
1004.570246	2487.809423
1004.864623	2442.439038
1005.158964	2409.671538
1005.453270	2555.865000
1005.747540	2500.412308
1006.041775	2538.220962
1006.335974	2429.836154
1006.630138	2485.288846
1006.924266	2492.850577
1007.218359	2530.659231
1007.512416	2487.809423
1007.806438	2455.041923
1008.100425	2467.644808
1008.394376	2460.083077
1008.688292	2586.111923
1008.982172	2538.220962
1009.276017	2462.603654
1009.569827	2563.426731
1009.863602	2460.083077
1010.157341	2523.097500
1010.451045	2492.850577
1010.744714	2490.330000
1011.038347	2490.330000
1011.331945	2555.865000
1011.625508	2535.700385
1011.919036	2545.782692
1012.212528	2505.453462
1012.505986	2500.412308
1012.799408	2452.521346
1013.092795	2472.685962
1013.386147	2492.850577
1013.679464	2447.480192
1013.972745	2495.371154
1014.265992	2450.000769
1014.559204	2460.083077
1014.852380	2560.906154
1015.145521	2497.891731
1015.438628	2467.644808
1015.731699	2495.371154
1016.024736	2470.165385
1016.317737	2470.165385
1016.610703	2528.138654
1016.903635	2548.303269
1017.196531	2518.056346
1017.489393	2455.041923
1017.782219	2510.494615
1018.075011	2502.932885
1018.367768	2502.932885
1018.660490	2548.303269
1018.953177	2548.303269
1019.245829	2548.303269
