Dividing Wavelength (nm)	Counts (n)	Blue Motor Position (mm): 0.000000	Red Motor Position (mm): 49.900000	
326.493990	2126.225102
326.888308	2126.225102
327.282561	2126.225102
327.676750	2095.408528
328.070874	2095.406008
328.464933	2096.510020
328.858929	2104.603593
329.252859	2113.541559
329.646726	2125.887344
330.040528	2137.169447
330.434265	2155.932621
330.827938	2170.133552
331.221547	2188.377488
331.615091	2208.607638
332.008571	2227.748899
332.401986	2248.218504
332.795338	2266.210382
333.188625	2289.618980
333.581847	2303.938378
333.975006	2324.420586
334.368100	2343.022443
334.761129	2359.645648
335.154095	2374.045704
335.546996	2398.460012
335.939833	2424.825247
336.332606	2438.975766
336.725315	2449.378187
337.117960	2456.944959
337.510540	2468.506845
337.903056	2478.657208
338.295508	2488.815133
338.687896	2494.932573
339.080220	2503.694099
339.472480	2510.413957
339.864676	2515.369411
340.256807	2518.641120
340.648875	2519.709845
341.040879	2523.619259
341.432818	2526.341483
341.824694	2528.345341
342.216506	2526.177645
342.608253	2528.511699
342.999937	2529.169570
343.391557	2528.020187
343.783113	2527.548839
344.174605	2525.734023
344.566033	2522.913498
344.957397	2525.290402
345.348697	2522.187572
345.739934	2520.060205
346.131106	2518.777231
346.522215	2518.515091
346.913260	2514.905625
347.304241	2513.529390
347.695159	2511.707013
348.086012	2512.508556
348.476802	2507.903462
348.867528	2506.396157
349.258191	2507.595952
349.648789	2503.096722
350.039324	2502.421208
350.429796	2500.810559
350.820203	2499.396515
351.210548	2499.698984
351.600828	2498.534478
351.991045	2498.418531
352.381198	2499.368789
352.771288	2497.511124
353.161314	2497.508603
353.551276	2494.962820
353.941175	2496.906185
354.331010	2497.760661
354.720782	2495.482059
355.110490	2497.480877
355.500135	2495.298057
355.889717	2497.453150
356.279235	2497.672441
356.668689	2499.557832
357.058080	2498.451299
357.447408	2493.931904
357.836672	2493.745382
358.225873	2495.766884
358.615010	2494.304950
359.004084	2497.735455
359.393095	2499.484735
359.782043	2501.460868
360.170927	2499.285610
360.559748	2500.881135
360.948505	2504.765344
361.337199	2504.490601
361.725830	2503.792401
362.114398	2506.184429
362.502903	2504.324243
362.891344	2504.157885
363.279722	2507.459841
363.668037	2506.406240
364.056289	2507.845489
364.444478	2506.905314
364.832603	2508.105108
365.220665	2510.797085
365.608665	2510.751714
365.996601	2512.173320
366.384474	2512.198525
366.772284	2514.051149
367.160031	2517.804288
367.547715	2519.863600
367.935336	2519.304032
368.322893	2523.357119
368.710388	2527.390043
369.097820	2533.351207
369.485189	2535.617206
369.872495	2543.466282
370.259738	2552.182437
370.646918	2554.153528
371.034035	2560.840619
371.421090	2572.987279
371.808081	2584.523960
372.195010	2591.193406
372.581875	2605.099429
372.968678	2618.844135
373.355418	2628.744961
373.742096	2648.160965
374.128710	2659.450629
374.515262	2677.835717
374.901751	2691.043540
375.288177	2704.153061
375.674540	2726.240877
376.060841	2746.982704
376.447079	2764.271341
376.833254	2786.021399
377.219367	2797.260652
377.605417	2835.107114
377.991404	2844.229082
378.377329	2868.875283
378.763191	2884.137377
379.148991	2920.058118
379.534727	2945.493260
379.920402	2974.890749
380.306013	2986.800475
380.691563	3035.157743
381.077049	3059.456105
381.462474	3075.492015
381.847835	3114.535752
382.233134	3138.314874
382.618371	3136.066520
383.003545	3205.513455
383.388657	3213.178529
383.773706	3242.891090
384.158693	3260.512443
384.543618	3287.616207
384.928480	3320.983604
385.313280	3369.015718
385.698017	3365.320553
386.082692	3419.139911
386.467305	3425.234666
386.851856	3458.654995
387.236344	3482.020743
387.620770	3515.080630
388.005133	3537.138199
388.389435	3562.510326
388.773674	3577.104467
389.157851	3617.771455
389.541965	3633.729227
389.926018	3600.021552
390.310008	3666.829443
390.693936	3689.373483
391.077802	3729.047364
391.461606	3718.677711
391.845348	3780.913276
392.229027	3777.031587
392.612645	3793.014565
392.996200	3867.805124
393.379694	3911.975714
393.763125	3972.532574
394.146494	3941.673151
394.529801	4006.285620
394.913047	4051.424112
395.296230	4018.764996
395.679351	4073.804314
396.062410	4098.526133
396.445408	4077.882607
396.828343	4112.651446
397.211217	4136.884272
397.594028	4053.969894
397.976778	4123.192498
398.359466	4149.267867
398.742092	4179.562681
399.124656	4101.563428
399.507158	4180.076878
399.889598	4204.690312
400.271977	4265.978140
400.654294	4235.852204
401.036549	4244.288575
401.418742	4213.711457
401.800874	4320.881346
402.182944	4339.634439
402.564952	4407.213627
402.946898	4388.495822
403.328783	4386.471799
403.710606	4301.059529
404.092367	4493.480372
404.474067	4456.417809
404.855705	4466.749653
405.237282	4393.138725
405.618797	4503.444212
406.000250	4539.990057
406.381642	4616.557622
406.762972	4579.931119
407.144240	4587.200463
407.525447	4588.889249
407.906593	4649.201614
408.287677	4691.265002
408.668700	4618.349752
409.049661	4676.118855
409.430560	4712.410122
409.811399	4642.307836
410.192176	4803.060150
410.572891	4741.948762
410.953545	4845.272252
411.334138	4728.660281
411.714669	4790.769817
412.095139	4688.623437
412.475547	4825.909180
412.855894	4808.681037
413.236180	4816.754444
413.616405	4770.607722
413.996568	4856.009909
414.376670	4801.383966
414.756711	4757.185650
415.136691	4787.530876
415.516609	4865.454511
415.896466	4903.880706
416.276262	4942.195996
416.655997	4915.906379
417.035670	5102.141725
417.415283	5190.515673
417.794834	5135.078104
418.174324	5089.032205
418.553753	4993.862782
418.933121	5181.486966
419.312428	5248.347790
419.691674	5187.818656
420.070859	5311.019414
420.449983	5223.996496
420.829045	5339.887582
421.208047	5243.702367
421.586988	5313.134178
421.965867	5329.729657
422.344686	5458.095078
422.723444	5315.911854
423.102141	5134.805882
423.480777	5432.417961
423.859352	5202.846335
424.237866	5463.216890
424.616319	5453.033759
424.994712	5561.905038
425.373044	5437.713693
425.751314	5581.391619
426.129524	5386.631681
426.507673	5578.215692
426.885762	5658.727960
427.263789	5593.034163
427.641756	5474.708200
428.019662	5593.409729
428.397508	5606.816678
428.775292	5554.986055
429.153016	5651.443492
429.530679	5574.167645
429.908282	5657.903731
430.285824	5533.961923
430.663305	5808.914015
431.040726	5542.370567
431.418086	5535.622983
431.795385	5644.466536
432.172624	5662.201315
432.549802	5650.462988
432.926920	5664.555534
433.303977	5676.850908
433.680974	5710.659406
434.057910	5731.711265
434.434786	5734.541873
434.811601	5706.515578
435.188355	5943.258245
435.565050	5816.778215
435.941683	5796.376666
436.318257	6005.198902
436.694770	5995.918138
437.071222	6025.587849
437.447614	5958.018743
437.823946	5871.520105
438.200218	6024.882087
438.576429	5890.429473
438.952580	5986.581921
439.328670	6035.687800
439.704700	5940.331855
440.080670	5926.118322
440.456580	6200.450352
440.832429	6085.012970
441.208218	5926.859371
441.583947	6083.508186
441.959616	6085.781746
442.335224	6016.044944
442.710773	6147.167877
443.086261	6180.449574
443.461689	5974.639427
443.837057	6123.247602
444.212365	6276.148318
444.587612	6170.331978
444.962800	6325.662531
445.337927	6303.277288
445.712995	5912.431589
446.088002	6487.584393
446.462949	6319.353527
446.837837	6250.624956
447.212664	6422.361944
447.587431	6565.813018
447.962139	7109.388035
448.336786	8034.802728
448.711374	7774.999303
449.085901	6853.398242
449.460369	6768.182578
449.834776	6707.010696
450.209124	7094.635098
450.583412	7247.679487
450.957640	7394.298927
451.331808	7160.712022
451.705917	6711.935904
452.079965	6637.490664
452.453954	6845.909608
452.827883	6724.067440
453.201752	6814.941800
453.575562	6610.759946
453.949311	6817.046482
454.323001	6708.409617
454.696632	6783.351410
455.070202	6921.642862
455.443713	7079.055412
455.817164	7174.527304
456.190556	7257.126610
456.563888	7332.995975
456.937160	7374.945937
457.310373	7035.404061
457.683526	7058.290899
458.056619	6948.776873
458.429653	6934.311282
458.802628	6875.450770
459.175542	6982.807182
459.548398	7335.380441
459.921194	7497.496387
460.293930	7498.988568
460.666607	8033.519755
461.039224	8346.267898
461.411782	8464.170404
461.784280	8487.316862
462.156719	8368.552319
462.529099	8249.896160
462.901419	7840.010023
463.273680	7734.302068
463.645882	7746.095848
464.018024	7611.625589
464.390106	7777.905528
464.762130	8160.430803
465.134094	8633.512844
465.505999	9651.654522
465.877845	10877.925277
466.249631	11522.096519
466.621358	11142.394291
466.993026	10513.409525
467.364634	10257.878478
467.736184	9890.491788
468.107674	9563.973733
468.479105	9598.581254
468.850477	9357.122588
469.221790	9130.631108
469.593043	8800.682547
469.964238	8657.901947
470.335373	8677.930451
470.706449	8733.718380
471.077467	8711.166778
471.448425	10023.928610
471.819324	11090.818246
472.190164	11128.110181
472.560945	9874.912103
472.931667	9087.317514
473.302330	8954.067215
473.672934	8592.931556
474.043479	8952.499416
474.413965	8894.614367
474.784393	8773.104915
475.154761	8933.131303
475.525070	9024.797124
475.895321	8842.756017
476.265513	9023.216722
476.635645	9192.715438
477.005719	9188.793420
477.375734	9308.379672
477.745691	9540.958345
478.115588	9674.203603
478.485427	9916.453731
478.855207	10456.484816
479.224928	11268.289546
479.594591	11898.055690
479.964194	11708.883872
480.333739	11649.766261
480.703226	11566.554455
481.072653	11649.768781
481.442022	11887.600337
481.811333	12091.041142
482.180584	11884.835264
482.549777	11602.480238
482.918912	11423.272259
483.287988	11443.701535
483.657005	11459.016561
484.025964	11132.856428
484.394864	11264.871644
484.763706	11237.097407
485.132489	10993.579429
485.501213	10960.491816
485.869879	11035.413444
486.238487	10873.065605
486.607036	10982.587193
486.975527	10772.182034
487.343959	10959.223966
487.712333	11007.702222
488.080648	10936.077508
488.448905	10977.573766
488.817104	10913.956925
489.185244	11180.565907
489.553326	11335.475524
489.921350	11877.180272
490.289315	12935.492384
490.657222	13276.153397
491.025070	13186.320035
491.392861	13056.409501
491.760593	12679.396728
492.128267	12335.053153
492.495883	12007.710869
492.863440	11667.869044
493.230939	11331.606438
493.598380	11269.151583
493.965763	11136.849021
494.333088	11033.507888
494.700354	10960.638009
495.067563	11017.923161
495.434713	10849.409991
495.801805	10969.318876
496.168839	10897.938658
496.535815	10837.936325
496.902733	10836.403814
497.269593	10768.441498
497.636395	10865.576971
498.003139	10854.320075
498.369825	10716.288241
498.736453	10880.433252
499.103023	10811.911368
499.469535	10839.241983
499.835989	10825.116670
500.202385	10785.178129
500.568723	10636.580037
500.935003	10856.891063
501.301226	10662.771352
501.667390	10924.029150
502.033497	11019.559015
502.399546	10874.298167
502.765537	10792.913780
503.131470	10863.782320
503.497345	11040.696573
503.863163	10639.733279
504.228923	10958.238420
504.594625	11021.555312
504.960269	10766.946796
505.325856	10990.527010
505.691385	10786.637543
506.056856	10940.881727
506.422270	10965.802671
506.787625	10851.169353
507.152924	10970.642179
507.518164	10954.013933
507.883347	10871.954031
508.248472	10793.866558
508.613540	11023.418019
508.978550	10903.914946
509.343503	10886.374251
509.708398	10999.638896
510.073236	11111.096287
510.438016	11113.848757
510.802738	11066.023330
511.167403	11118.531989
511.532010	11015.909220
511.896561	11249.249108
512.261053	11309.596761
512.625488	11189.889522
512.989866	11169.971923
513.354186	11162.052270
513.718449	11061.657691
514.082655	11255.258163
514.446803	11149.855198
514.810894	11269.333065
515.174927	11140.277006
515.538904	11166.496047
515.902822	11317.617237
516.266684	11198.104082
516.630488	11137.267437
516.994235	11206.091790
517.357925	11264.848959
517.721558	11349.331135
518.085133	11373.871472
518.448651	11369.094979
518.812112	11259.253278
519.175516	11278.906216
519.538863	11392.548947
519.902152	11315.404170
520.265385	11475.460805
520.628560	11384.906558
520.991678	11358.667352
521.354739	11420.471898
521.717743	11355.829183
522.080690	11333.748929
522.443580	11472.821761
522.806413	11425.800398
523.169189	11460.349946
523.531908	11518.320695
523.894569	11332.634834
524.257174	11335.306645
524.619722	11453.930037
524.982213	11401.507078
525.344647	11452.326950
525.707025	11409.419169
526.069345	11505.551452
526.431608	11418.868812
526.793815	11524.382682
527.155964	11317.289562
527.518057	11367.486851
527.880093	11316.097329
528.242072	11388.294213
528.603995	11295.839452
528.965860	11207.110103
529.327669	11267.946748
529.689421	11218.130065
530.051117	11181.102790
530.412755	11292.494646
530.774337	11177.221102
531.135862	11162.296766
531.497331	11185.430621
531.858743	11036.109123
532.220098	11201.143898
532.581396	11072.319732
532.942638	11053.173429
533.303824	11019.286793
533.664953	11030.762980
534.026025	10949.290372
534.387040	11048.520444
534.747999	11047.139168
535.108902	11103.710997
535.469748	10867.444719
535.830537	10969.520522
536.191270	10946.064033
536.551947	10972.456994
536.912567	10966.679832
537.273131	10886.437266
537.633638	10877.826975
537.994089	10861.544048
538.354483	10809.637808
538.714821	10954.538213
539.075103	10964.885181
539.435328	10928.041908
539.795497	10756.188974
540.155609	10917.657132
540.515665	11002.416572
540.875665	10739.901006
541.235609	10806.270317
541.595496	10805.872066
541.955328	10965.290994
542.315102	10840.421613
542.674821	10792.699531
543.034483	10797.889398
543.394090	10803.764863
543.753640	10722.277132
544.113134	10948.629981
544.472571	10798.907712
544.831953	10943.641759
545.191278	10752.529096
545.550548	10774.082549
545.909761	10924.545868
546.268918	10890.598738
546.628019	10971.647889
546.987064	10840.474546
547.346053	10758.424726
547.704986	10856.533141
548.063863	10844.477222
548.422684	10835.085552
548.781449	10748.470967
549.140158	10860.104799
549.498811	10731.159645
549.857408	10588.812584
550.215949	10812.596965
550.574434	10670.756540
550.932864	10768.171797
551.291237	10822.714561
551.649555	10774.077508
552.007817	10787.882708
552.366022	10753.252502
552.724173	10739.454864
553.082267	10725.962215
553.440305	10867.353978
553.798288	10664.853348
554.156215	10820.698099
554.514086	10793.853955
554.871902	10647.446244
555.229661	10684.433190
555.587365	10660.311269
555.945014	10547.817921
556.302606	10683.908910
556.660143	10573.326159
557.017625	10730.474048
557.375050	10628.075611
557.732421	10762.011507
558.089735	10672.384832
558.446994	10667.671353
558.804197	10706.730213
559.161345	10706.846160
559.518437	10553.758921
559.875474	10654.982769
560.232455	10681.408498
560.589381	10626.308686
560.946251	10632.373194
561.303065	10734.748947
561.659825	10666.141363
562.016528	10601.498647
562.373177	10477.745882
562.729770	10595.280384
563.086307	10506.291416
563.442789	10601.518812
563.799216	10478.486932
564.155587	10531.338389
564.511904	10486.456996
564.868164	10476.586417
565.224370	10488.682666
565.580520	10408.717363
565.936615	10418.789588
566.292654	10287.651533
566.648638	10416.969732
567.004567	10376.761488
567.360441	10353.877171
567.716260	10264.479869
568.072023	10361.789262
568.427732	10313.452158
568.783385	10219.265760
569.138982	10291.707141
569.494525	10312.378392
569.850013	10185.507673
570.205445	10267.696125
570.560823	10163.009004
570.916145	10084.409853
571.271412	10152.110029
571.626625	10098.515002
571.981782	10076.759903
572.336884	10042.429645
572.691931	10053.467251
573.046923	10003.804324
573.401860	9954.892529
573.756743	9891.963805
574.111570	9933.407131
574.466342	9915.924410
574.821059	9946.695613
575.175722	9840.780970
575.530330	9846.583338
575.884882	9842.817597
576.239380	9761.922201
576.593823	9746.864274
576.948211	9763.651317
577.302544	9643.636567
577.656823	9657.088886
578.011047	9656.693155
578.365216	9631.719279
578.719330	9558.201612
579.073389	9561.191016
579.427394	9513.426084
579.781344	9488.593360
580.135239	9438.481770
580.489080	9450.061300
580.842866	9347.347791
581.196597	9357.730047
581.550273	9398.898630
581.903895	9362.020069
582.257463	9430.431047
582.610975	9307.280700
582.964434	9334.376902
583.317837	9247.931196
583.671186	9238.731090
584.024481	9233.684895
584.377721	9153.167586
584.730906	9128.591961
585.084037	9159.494234
585.437113	9095.600129
585.790135	9116.841031
586.143103	9020.232359
586.496016	8983.255495
586.848874	9048.041884
587.201679	9037.334473
587.554428	8921.642513
587.907124	8969.954411
588.259765	8940.272097
588.612352	8936.395450
588.964884	8816.990680
589.317362	8830.795880
589.669786	8832.109100
590.022155	8880.927634
590.374470	8899.537053
590.726731	8837.649328
591.078937	8693.187503
591.431090	8804.501221
591.783188	8674.585645
592.135232	8664.261362
592.487222	8663.853029
592.839157	8719.512408
593.191038	8648.767376
593.542866	8596.624201
593.894639	8490.855752
594.246358	8551.185761
594.598022	8564.443996
594.949633	8459.225033
595.301190	8438.609234
595.652692	8462.852143
596.004141	8569.946415
596.355535	8351.021706
596.706876	8332.961773
597.058162	8263.966021
597.409395	8339.696754
597.760573	8404.435252
598.111698	8313.800347
598.462768	8302.619068
598.813785	8266.163964
599.164748	8231.715239
599.515657	8225.391111
599.866511	8134.315105
600.217312	8262.068026
600.568060	8117.477652
600.918753	8219.946665
601.269392	8191.023045
601.619978	8103.422915
601.970510	8167.344745
602.320988	8161.635639
602.671412	8223.132674
603.021783	8155.656830
603.372100	8123.549721
603.722363	8128.303529
604.072572	8109.192515
604.422728	8117.563351
604.772830	8050.306797
605.122878	8057.303919
605.472872	8050.183289
605.822813	8084.626972
606.172701	8025.905092
606.522534	8096.579548
606.872314	8099.455527
607.222041	8072.956701
607.571714	8120.918239
607.921333	8087.407169
608.270899	8090.807427
608.620411	8177.979059
608.969870	8080.994821
609.319276	8079.966426
609.668627	8090.222653
610.017926	8133.959704
610.367171	8176.189450
610.716362	8154.855287
611.065500	8144.246178
611.414585	8170.979417
611.763616	8156.924680
612.112594	8141.329871
612.461518	8156.299577
612.810389	8216.188485
613.159207	8152.952251
613.507971	8104.859643
613.856682	8218.267961
614.205340	8173.028646
614.553945	8260.578365
614.902496	8153.721027
615.250994	8207.825211
615.599439	8186.279319
615.947830	8202.985703
616.296169	8174.906476
616.644454	8191.506996
616.992686	8185.228239
617.340864	8246.097651
617.688990	8145.882033
618.037063	8239.234120
618.385082	8186.299484
618.733048	8272.954398
619.080961	8209.229172
619.428821	8227.382367
619.776628	8236.274962
620.124382	8186.939710
620.472083	8177.084255
620.819731	8194.549332
621.167326	8090.527643
621.514868	8100.274714
621.862357	7987.151222
622.209793	8000.404415
622.557176	7946.204450
622.904506	7909.668687
623.251783	7847.007145
623.599007	7796.595606
623.946179	7800.903272
624.293297	7759.041531
624.640363	7676.112029
624.987376	7664.555184
625.334336	7604.371369
625.681243	7555.046199
626.028097	7540.376442
626.374899	7517.746702
626.721647	7511.404930
627.068343	7440.387676
627.414987	7417.266423
627.761577	7370.386213
628.108115	7407.957933
628.454600	7298.632950
628.801032	7354.599840
629.147412	7311.066956
629.493739	7303.164947
629.840014	7239.079279
630.186236	7292.762526
630.532405	7177.846904
630.878521	7229.160809
631.224585	7186.051382
631.570597	7108.599094
631.916556	7142.883981
632.262462	7137.139587
632.608316	7097.344718
632.954117	7077.908549
633.299866	7063.833648
633.645562	7054.136988
633.991206	6972.926521
634.336797	6913.377891
634.682336	6874.986984
635.027823	6840.326530
635.373257	6830.912176
635.718639	6763.872391
636.063968	6781.541635
636.409245	6674.651530
636.754470	6669.381003
637.099642	6625.926257
637.444762	6571.685963
637.789829	6584.669454
638.134845	6526.580238
638.479808	6509.437795
638.824719	6513.427868
639.169577	6445.248783
639.514383	6465.161341
639.859137	6393.632409
640.203839	6399.359159
640.548489	6389.193673
640.893086	6362.357090
641.237632	6331.860630
641.582125	6360.055803
641.926566	6329.584549
642.270955	6338.698955
642.615292	6332.291649
642.959576	6348.942580
643.303809	6338.794737
643.647990	6347.528536
643.992118	6336.548903
644.336195	6280.264420
644.680219	6306.594367
645.024192	6296.088602
645.368112	6396.911679
645.711981	6413.134112
646.055797	6491.735783
646.399562	6451.764474
646.743274	6583.225164
647.086935	6630.453213
647.430544	6626.206041
647.774101	6646.393342
648.117606	6651.744527
648.461059	6646.428630
648.804460	6607.941941
649.147810	6515.242683
649.491108	6482.777653
649.834354	6460.957018
650.177548	6371.864706
650.520690	6288.315143
650.863781	6267.737153
651.206820	6285.721469
651.549807	6207.139963
651.892742	6148.566797
652.235626	6154.941336
652.578458	6140.286702
652.921238	6050.599533
653.263967	6084.672692
653.606644	6024.909813
653.949269	6030.646647
654.291843	5972.978367
654.634365	6022.086767
654.976836	5974.137833
655.319255	5974.657071
655.661622	5948.639676
656.003938	5948.745541
656.346203	5907.554273
656.688416	5938.511998
657.030577	5890.008537
657.372687	5865.004413
657.714746	5852.242733
658.056753	5893.194546
658.398708	5832.244475
658.740612	5823.031767
659.082465	5870.824426
659.424266	5863.918045
659.766016	5868.818046
660.107715	5842.931721
660.449362	5856.542837
660.790958	5850.042269
661.132503	5842.969530
661.473996	5874.557400
661.815438	5861.165575
662.156829	5859.933013
662.498168	5848.834913
662.839456	5829.055945
663.180693	5858.095512
663.521879	5861.692375
663.863013	5848.272824
664.204097	5867.625813
664.545129	5910.463018
664.886110	5906.435136
665.227040	5942.663388
665.567918	5908.358337
665.908746	5934.221976
666.249522	5941.244304
666.590248	5925.092447
666.930922	5950.209996
667.271545	5965.910669
667.612118	5967.521318
667.952639	5942.028203
668.293109	5962.709537
668.633528	5919.834523
668.973896	5921.498104
669.314213	5916.199851
669.654480	5895.195884
669.994695	5889.305296
670.334859	5879.943873
670.674973	5875.200147
671.015035	5874.711155
671.355047	5874.880034
671.695008	5859.658270
672.034918	5835.364949
672.374777	5844.217216
672.714585	5829.176933
673.054342	5830.843034
673.394049	5827.654505
673.733705	5861.926789
674.073310	5845.739644
674.412864	5804.850845
674.752368	5795.461696
675.091820	5795.343229
675.431223	5735.492130
675.770574	5738.239559
676.109875	5688.843813
676.449125	5693.491757
676.788324	5662.445811
677.127473	5598.168579
677.466571	5595.630358
677.805619	5585.331280
678.144616	5570.795113
678.483562	5552.044542
678.822458	5519.511455
679.161303	5508.549466
679.500098	5503.982181
679.838842	5482.181711
680.177535	5487.671527
680.516179	5505.610473
680.854771	5515.750754
681.193314	5597.372076
681.531805	5706.248397
681.870247	5859.622982
682.208638	5962.966636
682.546978	5977.764943
682.885268	5952.894410
683.223508	5865.629517
683.561697	5816.180838
683.899836	5781.263286
684.237925	5734.791410
684.575963	5704.030289
684.913951	5662.957488
685.251889	5720.046035
685.589776	5692.541499
685.927614	5662.985214
686.265401	5733.815946
686.603137	5718.833637
686.940824	5795.507067
687.278460	5819.200490
687.616046	5828.367828
687.953582	5899.480865
688.291068	5877.819027
688.628504	5937.284477
688.965889	5906.709879
689.303224	5850.652248
689.640510	5797.876409
689.977745	5721.069389
690.314930	5620.916785
690.652065	5567.316717
690.989150	5474.239373
691.326185	5399.983177
691.663170	5345.458057
692.000105	5267.567189
692.336990	5191.087844
692.673825	5165.751005
693.010610	5094.343060
693.347345	5032.440212
693.684030	5013.979506
694.020665	4969.501406
694.357251	4881.248446
694.693786	4891.222369
695.030272	4853.189384
695.366707	4823.406247
695.703093	4790.477430
696.039429	4811.476356
696.375716	4796.163852
696.711952	4769.914563
697.048139	4753.198097
697.384276	4736.133792
697.720363	4751.393364
698.056400	4758.176237
698.392388	4708.987178
698.728326	4683.589845
699.064214	4659.052029
699.400053	4654.280577
699.735842	4622.133138
700.071581	4599.221094
700.407270	4574.327877
700.742910	4554.896749
701.078501	4500.215353
701.414042	4498.350126
701.749533	4473.134275
702.084974	4406.190272
702.420366	4465.476762
702.755709	4405.610540
703.091002	4346.581149
703.426246	4396.967481
703.761440	4352.179350
704.096584	4316.976973
704.431679	4338.197710
704.766725	4325.012572
705.101721	4310.630160
705.436668	4340.567052
705.771565	4288.282725
706.106413	4313.115449
706.441212	4346.951673
706.775961	4358.117829
707.110661	4335.316690
707.445311	4364.164693
707.779913	4384.251171
708.114465	4397.632914
708.448967	4421.694341
708.783421	4484.456706
709.117825	4526.053787
709.452180	4526.474724
709.786485	4577.166046
710.120742	4664.012524
710.454949	4647.109535
710.789107	4710.842323
711.123216	4786.777223
711.457275	4775.598464
711.791286	4856.017471
712.125247	4868.272516
712.459159	4774.335655
712.793023	4843.303681
713.126837	4802.913957
713.460602	4799.586795
713.794318	4715.991861
714.127985	4727.498295
714.461602	4638.088390
714.795171	4613.071664
715.128691	4546.853588
715.462162	4487.572139
715.795584	4441.448102
716.128957	4419.582097
716.462281	4369.548646
716.795556	4342.732228
717.128782	4305.299140
717.461960	4235.892534
717.795088	4247.928288
718.128167	4204.055127
718.461198	4143.599089
718.794180	4140.965086
719.127113	4119.923310
719.459997	4097.359105
719.792833	4055.530131
720.125619	4048.459913
720.458357	4009.229654
720.791046	4012.914737
721.123686	3990.025378
721.456278	3948.569450
721.788821	3963.773570
722.121315	3940.306998
722.453761	3912.298348
722.786158	3925.422992
723.118506	3946.616002
723.450805	3900.081111
723.783056	3923.449380
724.115259	3940.468315
724.447412	3942.293213
724.779518	3934.867593
725.111574	3941.143830
725.443582	3969.321359
725.775542	3956.272333
726.107453	4004.929550
726.439315	4005.584900
726.771129	4021.956047
727.102895	4058.317889
727.434612	4106.488635
727.766281	4119.177219
728.097901	4120.510604
728.429473	4119.129328
728.760996	4132.218684
729.092471	4128.417654
729.423897	4110.191363
729.755276	4115.109008
730.086606	4116.603710
730.417887	4153.716685
730.749120	4217.189853
731.080305	4282.104791
731.411442	4311.202331
731.742530	4275.253863
732.073570	4282.813073
732.404562	4337.867514
732.735506	4328.191019
733.066401	4292.562665
733.397249	4228.025813
733.728048	4148.191580
734.058798	4064.488262
734.389501	3995.404289
734.720156	3936.148047
735.050762	3886.469996
735.381320	3881.133935
735.711831	3825.809792
736.042293	3798.338024
736.372707	3822.775017
736.703073	3796.014052
737.033391	3782.594500
737.363661	3802.151657
737.693883	3828.388342
738.024056	3837.233046
738.354182	3831.831450
738.684260	3896.171697
739.014290	3919.608021
739.344272	3914.670211
739.674207	3954.545737
740.004093	3960.194350
740.333931	3954.906180
740.663722	3956.418526
740.993464	3951.725212
741.323159	3930.322993
741.652806	3898.493148
741.982405	3870.968448
742.311956	3842.927030
742.641460	3831.178621
742.970915	3809.012667
743.300323	3765.769649
743.629683	3729.609453
743.958996	3719.330540
744.288260	3695.125440
744.617477	3662.746109
744.946647	3649.427380
745.275768	3624.561889
745.604842	3622.237917
745.933869	3572.953077
746.262847	3567.808579
746.591778	3606.428859
746.920662	3574.004157
747.249498	3543.623643
747.578286	3587.816919
747.907027	3608.914147
748.235720	3603.179835
748.564365	3630.833084
748.892963	3630.107158
749.221514	3615.865899
749.550017	3589.082248
749.878473	3591.630552
750.206881	3558.464800
750.535242	3551.565981
750.863555	3552.818708
751.191821	3547.228068
751.520039	3531.608053
751.848210	3508.378416
752.176334	3544.442831
752.504411	3548.838717
752.832440	3509.235412
753.160421	3490.923421
753.488356	3498.364164
753.816243	3511.481247
754.144082	3470.242088
754.471875	3454.186013
754.799620	3475.119404
755.127318	3467.098928
755.454969	3468.626398
755.782572	3473.092860
756.110129	3448.265177
756.437638	3437.711522
756.765100	3452.454376
757.092515	3461.944348
757.419882	3467.005667
757.747203	3442.679579
758.074477	3445.754683
758.401703	3458.861683
758.728882	3482.449242
759.056014	3488.087772
759.383099	3492.468535
759.710138	3487.984428
760.037129	3504.383302
760.364073	3534.718445
760.690970	3521.707227
761.017820	3494.817713
761.344623	3515.743542
761.671379	3561.416396
761.998088	3614.245168
762.324751	3739.233016
762.651366	3984.928772
762.977935	4462.449549
763.304456	4909.650307
763.630931	5008.903064
763.957359	4650.706398
764.283740	4297.944096
764.610074	4105.959314
764.936362	3909.308943
765.262602	3752.713061
765.588796	3637.371461
765.914943	3544.571380
766.241044	3458.622228
766.567097	3426.368926
766.893104	3382.447873
767.219064	3352.516022
767.544978	3324.635920
767.870845	3266.392949
768.196665	3250.840990
768.522438	3258.299377
768.848165	3252.824684
769.173846	3215.764641
769.499479	3198.329811
769.825066	3184.118798
770.150607	3163.293792
770.476101	3182.402285
770.801548	3179.410360
771.126949	3132.759523
771.452303	3119.478603
771.777611	3120.648151
772.102872	3124.643265
772.428087	3103.349431
772.753256	3091.837956
773.078378	3083.638520
773.403453	3050.336657
773.728482	3034.240253
774.053465	3058.301680
774.378401	3045.154351
774.703291	3014.935154
775.028135	3016.094620
775.352932	3010.047756
775.677683	2999.688185
776.002388	2998.198524
776.327046	3001.291272
776.651658	2988.829539
776.976224	2976.413177
777.300743	2975.961994
777.625216	2967.472691
777.949643	2962.373564
778.274024	2962.565128
778.598359	2952.528190
778.922647	2956.130095
779.246889	2956.314097
779.571086	2939.706016
779.895236	2935.020263
780.219339	2946.529217
780.543397	2957.221505
780.867409	2962.204685
781.191374	2954.610187
781.515294	2949.710185
781.839167	2953.503654
782.162995	2942.029988
782.486776	2952.442491
782.810511	2949.586677
783.134201	2937.288782
783.457844	2944.674073
783.781441	2935.771395
784.104993	2914.888415
784.428498	2914.565781
784.751958	2928.549942
785.075372	2920.920156
785.398739	2907.644277
785.722061	2920.312697
786.045337	2935.098401
786.368568	2919.095258
786.691752	2909.832138
787.014891	2960.314253
787.337983	2989.973881
787.661030	3017.924559
787.984031	3082.058118
788.306987	3132.225160
788.629897	3123.393059
788.952760	3108.405708
789.275579	3091.081783
789.598351	3036.065151
789.921078	2987.599498
790.243759	2980.241934
790.566395	2961.693008
790.888984	2938.052517
791.211529	2920.559713
791.534027	2910.855492
791.856480	2901.972979
792.178888	2886.098386
792.501249	2877.576315
792.823566	2874.864174
793.145836	2873.792929
793.468062	2867.264635
793.790241	2866.304295
794.112375	2873.523227
794.434464	2887.996380
794.756507	2890.421175
795.078505	2891.560476
795.400457	2907.102353
795.722364	2945.064762
796.044226	2972.377734
796.366042	2973.547281
796.687812	2963.230560
797.009538	2979.084989
797.331218	2969.955459
797.652852	2951.857717
797.974442	2935.592434
798.295986	2936.058741
798.617484	2927.350148
798.938938	2912.456058
799.260346	2897.196486
799.581709	2889.697769
799.903026	2883.678632
800.224299	2880.832900
800.545526	2867.783874
800.866708	2854.089579
801.187845	2842.441993
801.508936	2843.485512
801.829983	2849.774352
802.150984	2840.871674
802.471940	2825.576813
802.792851	2827.106803
803.113717	2824.878613
803.434538	2830.176866
803.755314	2823.280567
804.076045	2817.568940
804.396731	2817.644557
804.717372	2818.161276
805.037967	2812.532827
805.358518	2819.073725
805.679024	2828.961948
805.999485	2827.535301
806.319901	2828.157884
806.640272	2822.955413
806.960598	2828.936742
807.280879	2837.524348
807.601115	2842.978876
807.921306	2830.373471
808.241453	2830.237360
808.561554	2836.848833
808.881611	2837.247084
809.201623	2830.736434
809.521590	2830.469253
809.841513	2826.779128
810.161390	2829.758450
810.481223	2824.450115
810.801011	2813.820842
811.120755	2808.567960
811.440453	2813.170533
811.760107	2816.046512
812.079716	2814.088023
812.399281	2801.457412
812.718801	2795.186217
813.038276	2789.608180
813.357707	2796.721248
813.677093	2805.359266
813.996434	2795.672688
814.315731	2790.762605
814.634983	2788.000052
814.954191	2792.718572
815.273354	2801.885911
815.592473	2813.120122
815.911547	2813.404947
816.230577	2821.916935
816.549562	2830.927998
816.868502	2827.005980
817.187399	2839.702126
817.506250	2856.433716
817.825058	2850.412057
818.143821	2861.689119
818.462539	2879.323075
818.781213	2905.421128
819.099843	2944.235492
819.418429	2999.428565
819.736970	3062.440468
820.055466	3137.619195
820.373919	3241.484608
820.692327	3385.482647
821.010691	3554.935993
821.329011	3996.193230
821.647286	4906.839864
821.965517	6304.119160
822.283704	7065.204842
822.601847	7049.902419
822.919945	6408.856693
823.237999	5893.171861
823.556010	5306.134536
823.873976	4743.120831
824.191897	4327.906194
824.509775	4029.865617
824.827609	3756.471241
825.145398	3632.123620
825.463144	3617.796661
825.780845	3706.951987
826.098502	3814.240344
826.416116	4100.494703
826.733685	4420.978497
827.051210	4490.760669
827.368692	4374.647773
827.686129	4103.252214
828.003522	3774.437913
828.320872	3516.766896
828.638177	3315.271977
828.955439	3174.490194
829.272656	3088.793099
829.589830	3022.315404
829.906960	2971.046869
830.224046	2927.846701
830.541088	2893.397976
830.858086	2878.849206
831.175041	2858.956813
831.491952	2860.673326
831.808819	2871.940305
832.125642	2893.403018
832.442421	2944.840431
832.759157	3023.280785
833.075849	3202.987837
833.392497	3486.404027
833.709101	3696.116027
834.025662	3645.482677
834.342179	3486.159531
834.658653	3305.053558
834.975083	3154.713748
835.291469	3059.231773
835.607811	2971.303968
835.924110	2915.384969
836.240366	2859.045033
836.556578	2813.720019
836.872746	2791.743109
837.188871	2771.694440
837.504952	2755.736668
837.820990	2744.358783
838.136984	2732.968296
838.452935	2724.841956
838.768842	2721.368601
839.084706	2740.683782
839.400526	2820.228149
839.716303	2953.758232
840.032037	3036.380223
840.347727	3022.809437
840.663373	2957.702935
840.978977	2883.547562
841.294537	2810.914617
841.610054	2760.712287
841.925527	2737.480129
842.240957	2716.473641
842.556344	2696.593851
842.871687	2678.213804
843.186987	2666.984634
843.502244	2665.512617
843.817458	2661.232677
844.132629	2650.263126
844.447756	2637.975314
844.762840	2632.432565
845.077881	2636.604120
845.392879	2635.008595
845.707833	2629.211268
846.022745	2620.757253
846.337613	2624.855711
846.652438	2621.311780
846.967221	2625.954682
847.281960	2623.751698
847.596656	2618.715586
847.911309	2621.712552
848.225919	2617.049484
848.540485	2615.317848
848.855009	2613.742487
849.169490	2614.715430
849.483928	2613.268619
849.798323	2612.449431
850.112675	2611.176540
850.426984	2611.471447
850.741251	2610.932044
851.055474	2609.689400
851.369654	2616.139556
851.683792	2611.781478
851.997887	2611.058073
852.311938	2608.638319
852.625947	2610.979935
852.939914	2615.474124
853.253837	2613.888681
853.567718	2608.474482
853.881555	2608.676128
854.195350	2615.274998
854.509103	2611.534462
854.822812	2609.833073
855.136479	2610.543875
855.450103	2610.995058
855.763685	2614.891870
856.077224	2613.470265
856.390720	2609.278546
856.704173	2609.147476
857.017584	2614.412961
857.330953	2618.382869
857.644278	2615.673249
857.957561	2617.130143
858.270802	2615.365739
858.584000	2615.862292
858.897155	2619.799434
859.210268	2616.736933
859.523339	2615.703496
859.836367	2609.770058
860.149352	2608.991200
860.462295	2614.957405
860.775195	2607.695623
861.088054	2608.585387
861.400869	2609.084461
861.713642	2604.544902
862.026373	2608.330809
862.339062	2607.788885
862.651708	2616.018568
862.964312	2616.119391
863.276873	2612.061262
863.589392	2614.748197
863.901869	2619.509567
864.214303	2623.729013
864.526696	2626.821761
864.839045	2627.832512
865.151353	2633.208903
865.463619	2630.849643
865.775842	2631.147071
866.088023	2631.502472
866.400162	2632.180507
866.712258	2631.247894
867.024313	2630.733696
867.336325	2628.341669
867.648296	2629.049951
867.960224	2631.152112
868.272110	2633.302164
868.583954	2627.136833
868.895755	2627.582975
869.207515	2633.029942
869.519233	2639.845582
869.830909	2634.663276
870.142542	2631.852832
870.454134	2632.908954
870.765684	2636.470529
871.077191	2643.316416
871.388657	2642.073772
871.700081	2643.505460
872.011463	2642.469503
872.322803	2643.142497
872.634101	2647.424957
872.945357	2653.111378
873.256571	2657.852583
873.567744	2657.897954
873.878874	2656.670433
874.189963	2660.819302
874.501010	2663.740651
874.812015	2667.082936
875.122979	2663.181083
875.433900	2657.134219
875.744780	2656.612460
876.055618	2663.055054
876.366415	2666.795590
876.677169	2666.974551
876.987882	2660.612615
877.298554	2659.541370
877.609183	2671.390602
877.919771	2676.938392
878.230317	2685.039526
878.540822	2695.714169
878.851285	2711.273691
879.161707	2734.659603
879.472087	2772.173350
879.782425	2823.696463
880.092722	2938.665017
880.402977	3132.247846
880.713191	3395.333062
881.023363	3696.947817
881.333494	3897.764701
881.643583	4071.127461
881.953631	4071.278696
882.263637	3890.729771
882.573602	3668.664423
882.883526	3531.671068
883.193408	3415.081782
883.503248	3309.656132
883.813048	3192.595498
884.122806	3076.243147
884.432522	2989.787358
884.742197	2919.077614
885.051831	2882.415823
885.361424	2847.082375
885.670975	2809.460244
885.980485	2776.526386
886.289954	2758.731113
886.599382	2741.737383
886.908768	2731.518965
887.218113	2712.604555
887.527417	2700.042000
887.836680	2689.841225
888.145901	2685.203364
888.455082	2677.399657
888.764221	2665.550425
889.073319	2658.918787
889.382376	2658.152532
889.691392	2657.194713
890.000366	2659.591782
890.309300	2655.642037
890.618193	2658.172697
890.927044	2662.538336
891.235855	2662.477842
891.544625	2662.641680
891.853353	2661.285609
892.162041	2668.665858
892.470687	2688.354085
892.779293	2701.710622
893.087858	2711.596325
893.396381	2733.600961
893.704864	2776.244082
894.013306	2849.567664
894.321707	2946.080555
894.630068	2998.788339
894.938387	3017.672501
895.246665	3012.500277
895.554903	2967.215592
895.863100	2919.493509
896.171256	2862.659541
896.479371	2800.449182
896.787446	2760.553490
897.095480	2741.051787
897.403473	2730.858573
897.711425	2718.051522
898.019336	2696.230888
898.327207	2687.779393
898.635038	2681.437622
898.942827	2680.938547
899.250576	2671.924964
899.558284	2660.055568
899.865952	2655.649599
900.173579	2651.745226
900.481165	2650.593322
900.788711	2638.741569
901.096216	2634.406177
901.403681	2633.768471
901.711105	2630.174128
902.018489	2628.122379
902.325832	2633.942391
902.633135	2633.450878
902.940397	2651.175575
903.247619	2685.311748
903.554800	2762.433841
903.861941	2891.666340
904.169041	3020.182996
904.476101	3086.456525
904.783121	3083.552820
905.090100	3020.666946
905.397039	2943.277673
905.703938	2866.881507
906.010796	2802.659728
906.317614	2748.787437
906.624391	2713.827035
906.931129	2685.069773
907.237826	2661.900630
907.544483	2640.692496
907.851099	2630.995836
908.157675	2616.532766
908.464211	2610.271653
908.770707	2598.873604
909.077163	2596.539550
909.383578	2593.159456
909.689954	2593.275403
909.996289	2589.736513
910.302584	2588.587130
910.608839	2583.619072
910.915054	2587.213415
911.221229	2587.717531
911.527363	2591.082501
911.833458	2590.044023
912.139513	2590.921184
912.445527	2595.390167
912.751502	2599.488625
913.057436	2603.234202
913.363331	2610.405243
913.669186	2620.432098
913.975000	2634.993471
914.280775	2651.750267
914.586510	2672.792043
914.892205	2712.244113
915.197859	2777.522014
915.503475	2865.810262
915.809050	2934.329625
916.114585	2955.600774
916.420081	2966.071250
916.725536	2976.415698
917.030952	2946.509053
917.336328	2900.193452
917.641665	2850.119671
917.946961	2799.294757
918.252218	2761.707914
918.557435	2734.888976
918.862612	2708.422918
919.167750	2690.567151
919.472848	2676.714061
919.777906	2659.785866
920.082925	2644.450676
920.387904	2633.213944
920.692843	2629.934673
920.997743	2627.088942
921.302603	2617.011676
921.607423	2612.749380
921.912204	2605.752258
922.216946	2604.842330
922.521647	2601.434510
922.826310	2596.174066
923.130932	2591.906729
923.435516	2586.890781
923.740059	2583.760225
924.044564	2585.552355
924.349028	2580.934658
924.653454	2570.234809
924.957840	2566.819427
925.262186	2566.718604
925.566493	2570.222206
925.870761	2564.253480
926.174989	2564.974365
926.479178	2559.918088
926.783328	2559.696277
927.087438	2559.182079
927.391509	2561.493448
927.695541	2554.806358
927.999533	2556.636297
928.303486	2555.824671
928.607400	2551.955585
928.911275	2556.046482
929.215110	2554.450956
929.518906	2552.462221
929.822663	2555.824671
930.126381	2551.670760
930.430060	2554.340051
930.733699	2554.108158
931.037299	2556.658982
931.340861	2552.810061
931.644383	2555.557490
931.947866	2556.162428
932.251309	2553.457849
932.554714	2553.535987
932.858080	2555.673436
933.161407	2554.040102
933.464694	2552.391645
933.767943	2555.179403
934.071153	2552.202602
934.374323	2549.971891
934.677455	2552.386604
934.980548	2549.823177
935.283602	2552.762170
935.586617	2550.939793
935.889593	2552.943651
936.192530	2552.570606
936.495428	2552.542880
936.798287	2552.394166
937.101108	2553.392314
937.403890	2557.515978
937.706632	2558.720814
938.009336	2563.046124
938.312002	2566.353121
938.614628	2569.629871
938.917216	2573.385530
939.219765	2576.937023
939.522275	2573.821590
939.824747	2574.701271
940.127179	2570.570046
940.429573	2565.670044
940.731929	2568.641804
941.034246	2565.186093
941.336524	2565.816238
941.638763	2564.656772
941.940964	2564.926474
942.243126	2564.077040
942.545250	2562.342883
942.847335	2559.519837
943.149381	2559.540001
943.451389	2559.348437
943.753359	2559.419013
944.055290	2552.857952
944.357182	2555.683518
944.659036	2558.572100
944.960851	2556.706873
945.262628	2554.745864
945.564367	2553.566234
945.866067	2554.582026
946.167729	2554.385421
946.469352	2555.154197
946.770937	2557.977243
947.072484	2552.200081
947.373992	2554.725699
947.675462	2553.535987
947.976893	2554.604712
948.278286	2553.306614
948.579641	2550.654968
948.880958	2552.517674
949.182236	2552.079093
949.483476	2550.912066
949.784678	2553.732592
950.085841	2550.854093
950.386967	2553.193188
950.688054	2552.116902
950.989103	2551.927859
951.290114	2555.799465
951.591087	2555.554969
951.892021	2554.982798
952.192917	2557.740309
952.493776	2558.998077
952.794596	2559.668551
953.095378	2560.195351
953.396122	2560.465053
953.696828	2561.347255
953.997496	2555.512119
954.298126	2552.154711
954.598718	2553.641851
954.899272	2551.244783
955.199788	2553.215874
955.500266	2549.261088
955.800706	2544.575336
956.101108	2541.487629
956.401472	2542.263967
956.701798	2539.430838
957.002087	2542.901673
957.302337	2543.703216
957.602550	2540.701209
957.902724	2540.796991
958.202861	2540.459234
958.502960	2539.365303
958.803022	2543.887218
959.103045	2537.752134
959.403031	2538.707433
959.702979	2539.733308
960.002889	2538.846065
960.302762	2540.897814
960.602596	2538.120138
960.902393	2540.512166
961.202153	2535.990251
961.501875	2535.481094
961.801559	2538.707433
962.101205	2537.908410
962.400814	2536.900179
962.700385	2536.277597
962.999918	2537.550488
963.299414	2536.176774
963.598873	2538.783050
963.898293	2537.018646
964.197677	2537.863040
964.497022	2536.101156
964.796331	2534.009077
965.095601	2535.125693
965.394835	2537.202648
965.694030	2535.221475
965.993189	2535.158461
966.292309	2535.644932
966.591393	2533.522606
966.890439	2533.933460
967.189447	2535.715508
967.488419	2533.741896
967.787353	2536.953111
968.086249	2536.020498
968.385108	2535.271887
968.683930	2534.543440
968.982714	2534.341794
969.281462	2533.764582
969.580172	2536.199459
969.878844	2534.195600
970.177480	2535.680220
970.476078	2534.104859
970.774639	2536.207021
971.073162	2533.678882
971.371649	2534.122503
971.670098	2533.033614
971.968510	2531.271731
972.266885	2533.535209
972.565223	2536.509490
972.863524	2536.809438
973.161788	2537.182484
973.460014	2533.129396
973.758204	2538.256250
974.056356	2536.212062
974.354471	2541.210366
974.652550	2536.448996
974.950591	2536.852288
975.248595	2536.496887
975.546563	2535.589479
975.844493	2532.247194
976.142386	2535.531506
976.440243	2533.482277
976.738062	2534.838347
977.035845	2532.264838
977.333590	2534.959335
977.631299	2532.448840
977.928971	2535.662576
978.226606	2535.239119
978.524204	2537.679038
978.821765	2531.690147
979.119290	2535.879346
979.416777	2534.911444
979.714228	2534.054448
980.011642	2536.907741
980.309020	2536.159130
980.606360	2534.533358
980.903664	2531.778367
981.200931	2536.196938
981.498162	2539.093081
981.795356	2540.030736
982.092513	2543.304965
982.389633	2540.703730
982.686717	2549.742519
982.983764	2548.958619
983.280775	2552.502550
983.577749	2552.104299
983.874686	2549.563558
984.171587	2548.701520
984.468451	2542.364790
984.765279	2540.522248
985.062070	2541.964018
985.358824	2538.992258
985.655543	2539.950077
985.952224	2536.713657
986.248869	2535.629808
986.545478	2530.195445
986.842050	2529.093953
987.138586	2533.804911
987.435086	2530.611340
987.731549	2525.665968
988.027975	2532.708460
988.324366	2532.070754
988.620719	2533.094108
988.917037	2535.617206
989.213318	2531.765764
989.509563	2530.082019
989.805772	2530.833151
990.101944	2530.092101
990.398080	2533.038655
990.694180	2531.506145
990.990244	2533.270548
991.286271	2531.226361
991.582262	2531.281813
991.878217	2531.662420
992.174136	2529.930784
992.470019	2529.587986
992.765865	2531.848943
993.061676	2530.886083
993.357450	2532.411032
993.653188	2533.946063
993.948890	2533.227699
994.244556	2531.561597
994.540186	2534.130065
994.835780	2535.213913
995.131337	2533.177287
995.426859	2535.050076
995.722345	2531.886752
996.017795	2535.496218
996.313208	2537.111908
996.608586	2537.046373
996.903928	2535.052596
997.199234	2536.383461
997.494504	2535.012267
997.789738	2535.702905
998.084936	2535.924716
998.380099	2531.410363
998.675225	2532.831968
998.970316	2531.440610
999.265371	2531.359951
999.560390	2531.473377
999.855373	2530.306350
1000.150320	2531.153264
1000.445232	2531.095291
1000.740108	2531.206196
1001.034948	2530.843233
1001.329752	2528.587317
1001.624521	2529.945908
1001.919254	2526.401976
1002.213951	2528.546987
1002.508613	2527.508510
1002.803239	2527.034641
1003.097829	2524.355268
1003.392384	2528.410876
1003.686903	2530.117307
1003.981386	2530.429858
1004.275834	2528.128572
1004.570246	2530.830630
1004.864623	2528.136133
1005.158964	2527.349713
1005.453270	2529.305681
1005.747540	2532.292565
1006.041775	2529.577903
1006.335974	2527.780732
1006.630138	2527.644621
1006.924266	2527.700073
1007.218359	2525.121523
1007.512416	2527.989940
1007.806438	2527.944569
1008.100425	2527.821061
1008.394376	2528.607481
1008.688292	2529.615712
1008.982172	2524.249404
1009.276017	2527.853829
1009.569827	2528.942718
1009.863602	2530.462626
1010.157341	2526.699404
1010.451045	2527.952131
1010.744714	2528.380629
1011.038347	2528.362985
1011.331945	2528.194107
1011.625508	2532.164015
1011.919036	2528.675537
1012.212528	2529.073788
1012.505986	2530.563449
1012.799408	2529.093953
1013.092795	2527.200999
1013.386147	2528.236956
1013.679464	2527.672347
1013.972745	2530.268541
1014.265992	2531.811134
1014.559204	2529.391381
1014.852380	2527.899199
1015.145521	2528.811648
1015.438628	2527.737882
1015.731699	2529.144364
1016.024736	2528.176463
1016.317737	2528.917512
1016.610703	2529.439272
1016.903635	2523.876358
1017.196531	2525.411390
1017.489393	2524.171266
1017.782219	2524.246883
1018.075011	2527.879034
1018.367768	2527.720238
1018.660490	2527.082532
1018.953177	2527.082532
1019.245829	2527.082532
