Dividing Wavelength (nm)	Counts (n)	Blue Motor Position (mm): 0.000000	Red Motor Position (mm): 7.000000	
326.493990	2147.080355
326.888308	2147.080355
327.282561	2147.080355
327.676750	2122.852570
328.070874	2125.153857
328.464933	2126.509927
328.858929	2138.197842
329.252859	2149.752167
329.646726	2165.649445
330.040528	2178.519511
330.434265	2199.087419
330.827938	2216.474358
331.221547	2236.417163
331.615091	2254.948445
332.008571	2275.846548
332.401986	2296.951338
332.795338	2317.052939
333.188625	2337.010868
333.581847	2358.420648
333.975006	2375.048894
334.368100	2393.416338
334.761129	2412.292938
335.154095	2428.248190
335.546996	2445.216714
335.939833	2457.189455
336.332606	2469.540282
336.725315	2483.776500
337.117960	2490.060298
337.510540	2500.220744
337.903056	2509.806498
338.295508	2515.097189
338.687896	2521.426358
339.080220	2531.049920
339.472480	2535.634850
339.864676	2538.820859
340.256807	2540.489481
340.648875	2543.743546
341.040879	2548.111705
341.432818	2545.200439
341.824694	2548.172199
342.216506	2545.452497
342.608253	2550.095399
342.999937	2547.254709
343.391557	2547.509287
343.783113	2547.915100
344.174605	2544.913093
344.566033	2539.501415
344.957397	2540.555016
345.348697	2540.171888
345.739934	2534.568646
346.131106	2536.406146
346.522215	2536.307844
346.913260	2530.424817
347.304241	2530.223171
347.695159	2525.577748
348.086012	2528.965403
348.476802	2524.536749
348.867528	2523.967099
349.258191	2522.943745
349.648789	2521.832170
350.039324	2517.776562
350.429796	2518.900739
350.820203	2519.687159
351.210548	2518.933507
351.600828	2517.648013
351.991045	2517.431243
352.381198	2515.538290
352.771288	2516.778414
353.161314	2516.163393
353.551276	2518.202540
353.941175	2515.654236
354.331010	2514.837569
354.720782	2516.584329
355.110490	2518.487365
355.500135	2517.753877
355.889717	2516.763290
356.279235	2515.916376
356.668689	2517.423681
357.058080	2517.441325
357.447408	2517.892509
357.836672	2515.104751
358.225873	2516.712879
358.615010	2512.742970
359.004084	2521.887623
359.393095	2520.650020
359.782043	2521.133971
360.170927	2520.806296
360.559748	2521.910308
360.948505	2523.105062
361.337199	2522.878210
361.725830	2522.520288
362.114398	2526.563293
362.502903	2523.314270
362.891344	2526.485155
363.279722	2526.596061
363.668037	2525.900382
364.056289	2526.165042
364.444478	2525.383663
364.832603	2527.211082
365.220665	2526.346524
365.608665	2527.127903
365.996601	2525.804600
366.384474	2528.249559
366.772284	2527.652182
367.160031	2530.535723
367.547715	2527.188396
367.935336	2529.958510
368.322893	2528.736031
368.710388	2529.567821
369.097820	2532.398429
369.485189	2530.044210
369.872495	2529.277955
370.259738	2528.632687
370.646918	2528.103366
371.034035	2530.298788
371.421090	2534.891279
371.808081	2535.193749
372.195010	2533.265507
372.581875	2533.726773
372.968678	2535.627288
373.355418	2534.102339
373.742096	2538.599048
374.128710	2536.854809
374.515262	2539.501415
374.901751	2539.922351
375.288177	2537.812628
375.674540	2542.165664
376.060841	2541.812784
376.447079	2544.383772
376.833254	2546.150697
377.219367	2542.243802
377.605417	2547.229503
377.991404	2550.665050
378.377329	2552.898281
378.763191	2554.503888
379.148991	2559.298026
379.534727	2561.800959
379.920402	2567.457133
380.306013	2569.771023
380.691563	2574.918041
381.077049	2576.049780
381.462474	2584.271902
381.847835	2583.959350
382.233134	2591.735330
382.618371	2593.051071
383.003545	2604.083637
383.388657	2601.777309
383.773706	2608.605552
384.158693	2614.788527
384.543618	2618.919752
384.928480	2623.015690
385.313280	2626.690691
385.698017	2635.568163
386.082692	2639.369193
386.467305	2643.810449
386.851856	2647.979484
387.236344	2656.703200
387.620770	2658.152532
388.005133	2661.633449
388.389435	2670.210972
388.773674	2669.616116
389.157851	2673.717095
389.541965	2678.226407
389.926018	2678.155831
390.310008	2681.825791
390.693936	2684.946265
391.077802	2687.139167
391.461606	2688.094465
391.845348	2693.433047
392.229027	2692.876000
392.612645	2696.833306
392.996200	2697.448326
393.379694	2697.337421
393.763125	2701.196424
394.146494	2696.198120
394.529801	2698.484283
394.913047	2700.616692
395.296230	2697.894468
395.679351	2692.044209
396.062410	2694.330373
396.445408	2684.386697
396.828343	2684.830318
397.211217	2678.717919
397.594028	2671.327588
397.976778	2668.408760
398.359466	2666.251146
398.742092	2658.777635
399.124656	2659.022131
399.507158	2657.091369
399.889598	2649.214566
400.271977	2647.782879
400.654294	2645.905049
401.036549	2639.530510
401.418742	2633.788636
401.800874	2631.956176
402.182944	2627.114148
402.564952	2627.197327
402.946898	2620.167438
403.328783	2614.211315
403.710606	2611.506736
404.092367	2608.446755
404.474067	2606.155551
404.855705	2601.046341
405.237282	2593.910588
405.618797	2593.325814
406.000250	2589.522264
406.381642	2589.718869
406.762972	2584.387848
407.144240	2580.750656
407.525447	2579.502970
407.906593	2574.527352
408.287677	2574.855027
408.668700	2569.876887
409.049661	2568.563667
409.430560	2566.799263
409.811399	2567.620971
410.192176	2565.019735
410.572891	2564.192986
410.953545	2562.970506
411.334138	2562.305074
411.714669	2559.169476
412.095139	2558.720814
412.475547	2558.924980
412.855894	2558.970351
413.236180	2557.417675
413.616405	2558.287274
413.996568	2560.336503
414.376670	2557.906667
414.756711	2557.289126
415.136691	2557.982285
415.516609	2557.558828
415.896466	2556.164949
416.276262	2558.703170
416.655997	2551.930379
417.035670	2556.598488
417.415283	2556.848025
417.794834	2552.386604
418.174324	2553.941800
418.553753	2556.858107
418.933121	2556.752243
419.312428	2554.123281
419.691674	2555.373488
420.070859	2555.822150
420.449983	2554.836605
420.829045	2558.221739
421.208047	2558.221739
421.586988	2557.082439
421.965867	2556.759805
422.344686	2557.125288
422.723444	2559.474466
423.102141	2558.032696
423.480777	2559.867676
423.859352	2556.963972
424.237866	2558.511606
424.616319	2560.129816
424.994712	2556.956410
425.373044	2563.341031
425.751314	2558.914898
426.129524	2558.700649
426.507673	2559.817265
426.885762	2558.965310
427.263789	2559.746688
427.641756	2560.850701
428.019662	2560.187789
428.397508	2559.124106
428.775292	2561.997564
429.153016	2560.296174
429.530679	2560.598643
429.908282	2558.695608
430.285824	2558.829198
430.663305	2559.940773
431.040726	2559.124106
431.418086	2559.850032
431.795385	2560.316339
432.172624	2559.207285
432.549802	2562.705846
432.926920	2560.896072
433.303977	2564.810528
433.680974	2561.632080
434.057910	2560.785166
434.434786	2560.971689
434.811601	2559.963458
435.188355	2561.304405
435.565050	2562.592420
435.941683	2564.687019
436.318257	2556.225443
436.694770	2559.456822
437.071222	2557.828529
437.447614	2559.739127
437.823946	2556.311142
438.200218	2561.546380
438.576429	2563.709035
438.952580	2560.076884
439.328670	2563.638459
439.704700	2561.165773
440.080670	2564.805486
440.456580	2561.896741
440.832429	2565.612071
441.208218	2565.206258
441.583947	2565.188614
441.959616	2563.411607
442.335224	2564.646690
442.710773	2565.415466
443.086261	2562.846998
443.461689	2563.583007
443.837057	2564.442523
444.212365	2565.135682
444.587612	2565.491083
444.962800	2564.954200
445.337927	2565.985116
445.712995	2565.478480
446.088002	2565.468398
446.462949	2566.998388
446.837837	2568.636763
447.212664	2566.774057
447.587431	2564.681978
447.962139	2568.057031
448.336786	2568.235992
448.711374	2566.267421
449.085901	2569.380333
449.460369	2564.896227
449.834776	2565.871690
450.209124	2566.751372
450.583412	2566.073337
450.957640	2567.641135
451.331808	2565.549057
451.705917	2566.779098
452.079965	2565.463357
452.453954	2566.970662
452.827883	2569.085426
453.201752	2566.458985
453.575562	2568.112483
453.949311	2568.470405
454.323001	2566.960580
454.696632	2569.203893
455.070202	2568.813204
455.443713	2568.281362
455.817164	2566.151474
456.190556	2562.660475
456.563888	2565.115517
456.937160	2562.652914
457.310373	2569.428224
457.683526	2569.569377
458.056619	2570.209603
458.429653	2569.655076
458.802628	2570.703636
459.175542	2568.669531
459.548398	2570.310426
459.921194	2568.815724
460.293930	2571.245560
460.666607	2570.312947
461.039224	2570.804459
461.411782	2572.473081
461.784280	2568.228430
462.156719	2571.724470
462.529099	2569.655076
462.901419	2571.081723
463.273680	2571.094326
463.645882	2570.625498
464.018024	2569.992834
464.390106	2571.742114
464.762130	2573.246898
465.134094	2572.163050
465.505999	2571.026270
465.877845	2573.254460
466.249631	2574.250088
466.621358	2574.063565
466.993026	2577.320151
467.364634	2578.154462
467.736184	2573.952660
468.107674	2570.340673
468.479105	2570.015519
468.850477	2573.693041
469.221790	2574.292938
469.593043	2573.652711
469.964238	2571.837896
470.335373	2573.067937
470.706449	2574.360993
471.077467	2571.210272
471.448425	2574.658422
471.819324	2574.812177
472.190164	2578.343505
472.560945	2572.054666
472.931667	2573.267063
473.302330	2574.766806
473.672934	2572.158009
474.043479	2572.896538
474.413965	2573.408215
474.784393	2570.018039
475.154761	2572.054666
475.525070	2567.492421
475.895321	2570.499470
476.265513	2569.569377
476.635645	2572.372258
477.005719	2572.503328
477.375734	2573.917372
477.745691	2572.634398
478.115588	2575.202866
478.485427	2575.217990
478.855207	2572.478123
479.224928	2573.909810
479.594591	2574.464337
479.964194	2572.876374
480.333739	2573.806467
480.703226	2575.512897
481.072653	2571.570715
481.442022	2575.976683
481.811333	2575.588514
482.180584	2574.918041
482.549777	2573.899728
482.918912	2575.165058
483.287988	2574.204718
483.657005	2572.180694
484.025964	2574.696230
484.394864	2576.155644
484.763706	2574.547516
485.132489	2575.633885
485.501213	2574.650860
485.869879	2573.403174
486.238487	2575.064234
486.607036	2573.141034
486.975527	2574.179512
487.343959	2575.931313
487.712333	2574.781930
488.080648	2576.387537
488.448905	2576.415264
488.817104	2576.165727
489.185244	2576.332085
489.553326	2577.322671
489.921350	2574.764286
490.289315	2576.579101
490.657222	2574.038360
491.025070	2577.123546
491.392861	2579.591191
491.760593	2574.451734
492.128267	2575.394430
492.495883	2576.624472
492.863440	2576.405181
493.230939	2577.405850
493.598380	2576.112794
493.965763	2571.033832
494.333088	2568.689695
494.700354	2573.698082
495.067563	2572.243709
495.434713	2570.459140
495.801805	2575.921231
496.168839	2576.977352
496.535815	2575.923751
496.902733	2574.444172
497.269593	2574.053483
497.636395	2576.377455
498.003139	2576.382496
498.369825	2574.577763
498.736453	2574.781930
499.103023	2576.836200
499.469535	2575.442321
499.835989	2576.654718
500.202385	2577.536920
500.568723	2576.173288
500.935003	2576.778227
501.301226	2576.261508
501.667390	2576.949626
502.033497	2579.056828
502.399546	2574.688668
502.765537	2575.883422
503.131470	2577.602455
503.497345	2576.024574
503.863163	2578.252764
504.228923	2573.509038
504.594625	2577.199163
504.960269	2571.467371
505.325856	2575.127249
505.691385	2576.710171
506.056856	2575.361663
506.422270	2576.069945
506.787625	2575.044070
507.152924	2574.981055
507.518164	2575.598597
507.883347	2577.065573
508.248472	2574.774368
508.613540	2576.997517
508.978550	2574.061045
509.343503	2578.207394
509.708398	2574.597928
510.073236	2578.076324
510.438016	2575.772517
510.802738	2577.620099
511.167403	2575.694379
511.532010	2575.439800
511.896561	2579.356777
512.261053	2576.039698
512.625488	2569.587021
512.989866	2572.253791
513.354186	2573.821590
513.718449	2571.180025
514.082655	2572.316806
514.446803	2576.442990
514.810894	2577.231931
515.174927	2578.618248
515.538904	2574.187074
515.902822	2579.034143
516.266684	2578.535069
516.630488	2576.687486
516.994235	2579.402147
517.357925	2575.661611
517.721558	2576.831159
518.085133	2577.988104
518.448651	2578.434246
518.812112	2573.239337
519.175516	2576.395099
519.538863	2576.780747
519.902152	2578.083886
520.265385	2575.084399
520.628560	2576.352249
520.991678	2575.923751
521.354739	2574.638257
521.717743	2576.009451
522.080690	2579.903742
522.443580	2577.547003
522.806413	2577.610017
523.169189	2575.142372
523.531908	2577.761252
523.894569	2576.989955
524.257174	2576.465675
524.619722	2576.054821
524.982213	2579.810481
525.344647	2577.748649
525.707025	2576.652198
526.069345	2576.581622
526.431608	2576.054821
526.793815	2575.084399
527.155964	2577.022723
527.518057	2576.518607
527.880093	2577.970460
528.242072	2579.306365
528.603995	2577.763772
528.965860	2576.148082
529.327669	2579.152610
529.689421	2577.738567
530.051117	2578.149421
530.412755	2576.236303
530.774337	2577.519276
531.135862	2577.161354
531.497331	2573.965263
531.858743	2572.697413
532.220098	2572.674728
532.581396	2572.231106
532.942638	2570.945612
533.303824	2577.282342
533.664953	2575.628844
534.026025	2577.630182
534.387040	2576.236303
534.747999	2577.889801
535.108902	2577.347877
535.469748	2578.630851
535.830537	2579.671849
536.191270	2579.059349
536.551947	2577.163875
536.912567	2575.487691
537.273131	2577.821746
537.633638	2578.076324
537.994089	2578.933320
538.354483	2579.535738
538.714821	2573.047773
539.075103	2577.219328
539.435328	2577.413412
539.795497	2577.105902
540.155609	2578.116653
540.515665	2576.826118
540.875665	2579.692014
541.235609	2578.842579
541.595496	2579.729822
541.955328	2575.243195
542.315102	2578.194791
542.674821	2579.591191
543.034483	2579.820563
543.394090	2577.844431
543.753640	2580.105388
544.113134	2576.591704
544.472571	2578.172106
544.831953	2577.148752
545.191278	2578.028433
545.550548	2577.355439
545.909761	2578.043556
546.268918	2575.273442
546.628019	2575.996848
546.987064	2578.721592
547.346053	2576.468196
547.704986	2576.795871
548.063863	2580.511201
548.422684	2576.662280
548.781449	2578.111612
549.140158	2576.105233
549.498811	2579.462641
549.857408	2581.274936
550.215949	2572.493246
550.574434	2574.237485
550.932864	2576.659760
551.291237	2573.662794
551.649555	2578.242682
552.007817	2575.790161
552.366022	2577.804102
552.724173	2580.115471
553.082267	2577.884760
553.440305	2579.311407
553.798288	2577.725964
554.156215	2575.835531
554.514086	2579.041705
554.871902	2578.653536
555.229661	2579.704617
555.587365	2577.826787
555.945014	2575.898545
556.302606	2576.929461
556.660143	2579.830645
557.017625	2578.192270
557.375050	2578.421643
557.732421	2576.480799
558.089735	2575.543144
558.446994	2573.773699
558.804197	2580.009606
559.161345	2577.859554
559.518437	2580.246541
559.875474	2576.848803
560.232455	2576.874009
560.589381	2578.562795
560.946251	2581.169072
561.303065	2577.476427
561.659825	2577.390727
562.016528	2579.082034
562.373177	2577.136149
562.729770	2575.051632
563.086307	2576.758062
563.442789	2581.756366
563.799216	2577.383165
564.155587	2577.332754
564.511904	2579.707137
564.868164	2577.673032
565.224370	2577.466344
565.580520	2577.685634
565.936615	2577.110943
566.292654	2579.114802
566.648638	2579.689493
567.004567	2581.078331
567.360441	2578.182188
567.716260	2581.393403
568.072023	2576.788309
568.427732	2575.182702
568.783385	2573.534244
569.138982	2575.739749
569.494525	2573.390571
569.850013	2576.135480
570.205445	2577.604976
570.560823	2577.360480
570.916145	2580.244020
571.271412	2578.058680
571.626625	2577.236972
571.981782	2579.618917
572.336884	2578.940882
572.691931	2580.947261
573.046923	2579.702096
573.401860	2577.763772
573.756743	2579.273598
574.111570	2577.461303
574.466342	2581.143866
574.821059	2577.723443
575.175722	2577.945254
575.530330	2578.766962
575.884882	2577.506673
576.239380	2577.819225
576.593823	2579.679411
576.948211	2579.205542
577.302544	2580.488516
577.656823	2579.235789
578.011047	2577.713361
578.365216	2576.208576
578.719330	2578.837538
579.073389	2575.585994
579.427394	2575.951478
579.781344	2579.044225
580.135239	2580.203691
580.489080	2577.673032
580.842866	2579.283680
581.196597	2580.947261
581.550273	2578.898032
581.903895	2578.703947
582.257463	2577.952816
582.610975	2577.176478
582.964434	2581.539597
583.317837	2578.078844
583.671186	2579.689493
584.024481	2578.131777
584.377721	2578.807291
584.730906	2581.222004
585.084037	2577.645305
585.437113	2579.901222
585.790135	2577.572208
586.143103	2576.972311
586.496016	2577.884760
586.848874	2574.633216
587.201679	2576.034657
587.554428	2577.012640
587.907124	2573.670355
588.259765	2572.946950
588.612352	2577.599935
588.964884	2578.154462
589.317362	2579.477765
589.669786	2578.797209
590.022155	2578.383834
590.374470	2576.672362
590.726731	2577.579770
591.078937	2578.514904
591.431090	2577.090778
591.783188	2575.722105
592.135232	2577.100861
592.487222	2578.101530
592.839157	2578.295614
593.191038	2575.585994
593.542866	2580.203691
593.894639	2577.816704
594.246358	2579.336612
594.598022	2577.874678
594.949633	2578.177147
595.301190	2575.792681
595.652692	2577.829307
596.004141	2575.896025
596.355535	2578.769482
596.706876	2580.140676
597.058162	2580.085224
597.409395	2580.397775
597.760573	2577.791499
598.111698	2575.331416
598.462768	2578.461972
598.813785	2580.617065
599.164748	2581.161510
599.515657	2577.675552
599.866511	2581.310224
600.217312	2579.248392
600.568060	2577.332754
600.918753	2579.697055
601.269392	2576.236303
601.619978	2577.768813
601.970510	2579.694534
602.320988	2575.525500
602.671412	2578.835017
603.021783	2577.814184
603.372100	2580.188567
603.722363	2576.682445
604.072572	2580.241499
604.422728	2579.283680
604.772830	2574.461817
605.122878	2572.037022
605.472872	2576.599266
605.822813	2573.851837
606.172701	2577.032805
606.522534	2578.547672
606.872314	2578.930799
607.222041	2577.330233
607.571714	2577.322671
607.921333	2577.347877
608.270899	2576.800912
608.620411	2578.020871
608.969870	2577.892322
609.319276	2578.290573
609.668627	2578.507342
610.017926	2580.007086
610.367171	2578.088927
610.716362	2578.590522
611.065500	2577.284863
611.414585	2577.073134
611.763616	2578.093968
612.112594	2576.062383
612.461518	2580.866603
612.810389	2577.121025
613.159207	2580.206211
613.507971	2575.908628
613.856682	2576.634554
614.205340	2576.601786
614.553945	2574.877712
614.902496	2577.950295
615.250994	2577.088258
615.599439	2581.605132
615.947830	2578.812332
616.296169	2577.549523
616.644454	2576.165727
616.992686	2576.127918
617.340864	2579.631520
617.688990	2577.055490
618.037063	2578.570357
618.385082	2575.528021
618.733048	2579.064390
619.080961	2578.461972
619.428821	2578.870306
619.776628	2577.675552
620.124382	2581.411047
620.472083	2576.468196
620.819731	2579.820563
621.167326	2577.060531
621.514868	2577.806622
621.862357	2578.398958
622.209793	2578.230079
622.557176	2580.521283
622.904506	2574.061045
623.251783	2572.221024
623.599007	2576.306879
623.946179	2573.440983
624.293297	2573.100705
624.640363	2578.613207
624.987376	2577.123546
625.334336	2577.927610
625.681243	2577.131107
626.028097	2578.066242
626.374899	2579.535738
626.721647	2577.312589
627.068343	2579.502970
627.414987	2578.628330
627.761577	2575.863257
628.108115	2578.104050
628.454600	2576.652198
628.801032	2579.568505
629.147412	2578.330902
629.493739	2579.079513
629.840014	2577.763772
630.186236	2577.236972
630.532405	2575.351580
630.878521	2577.894842
631.224585	2577.728484
631.570597	2578.116653
631.916556	2578.693865
632.262462	2576.964749
632.608316	2579.535738
632.954117	2578.950964
633.299866	2578.464493
633.645562	2578.459452
633.991206	2576.301838
634.336797	2576.175809
634.682336	2580.460790
635.027823	2577.284863
635.373257	2579.162692
635.718639	2577.025243
636.063968	2578.308217
636.409245	2577.683114
636.754470	2577.471385
637.099642	2575.714543
637.444762	2577.486509
637.789829	2576.059862
638.134845	2577.015161
638.479808	2577.647826
638.824719	2575.316292
639.169577	2574.913000
639.514383	2575.754873
639.859137	2578.109091
640.203839	2579.369380
640.548489	2577.214287
640.893086	2574.101374
641.237632	2572.992320
641.582125	2576.395099
641.926566	2570.806980
642.270955	2578.706468
642.615292	2576.256467
642.959576	2576.006930
643.303809	2575.094481
643.647990	2575.565829
643.992118	2579.213104
644.336195	2575.210428
644.680219	2575.961560
645.024192	2572.596590
645.368112	2579.734863
645.711981	2576.483319
646.055797	2576.397620
646.399562	2575.003741
646.743274	2577.809143
647.086935	2577.983062
647.430544	2578.101530
647.774101	2575.021385
648.117606	2576.450552
648.461059	2576.044739
648.804460	2578.041036
649.147810	2579.888619
649.491108	2575.724626
649.834354	2577.715881
650.177548	2577.549523
650.520690	2575.235634
650.863781	2575.260839
651.206820	2580.269226
651.549807	2576.488360
651.892742	2577.400809
652.235626	2577.675552
652.578458	2576.168247
652.921238	2576.334605
653.263967	2579.334092
653.606644	2573.151117
653.949269	2577.131107
654.291843	2575.782599
654.634365	2579.001376
654.976836	2575.896025
655.319255	2579.578588
655.661622	2578.459452
656.003938	2574.502146
656.346203	2577.184040
656.688416	2576.296797
657.030577	2576.183371
657.372687	2574.040880
657.714746	2578.479616
658.056753	2577.294945
658.398708	2574.512228
658.740612	2573.778740
659.082465	2573.693041
659.424266	2570.350756
659.766016	2571.066599
660.107715	2578.093968
660.449362	2577.110943
660.790958	2575.706982
661.132503	2573.254460
661.473996	2578.267888
661.815438	2576.989955
662.156829	2576.490881
662.498168	2576.009451
662.839456	2577.209245
663.180693	2574.560119
663.521879	2575.341498
663.863013	2574.320664
664.204097	2577.063052
664.545129	2577.146231
664.886110	2577.519276
665.227040	2575.626323
665.567918	2574.635736
665.908746	2576.632033
666.249522	2576.778227
666.590248	2575.815366
666.930922	2574.323185
667.271545	2575.717064
667.612118	2578.439287
667.952639	2575.681776
668.293109	2576.369893
668.633528	2574.774368
668.973896	2573.955181
669.314213	2573.758576
669.654480	2578.519945
669.994695	2576.629513
670.334859	2577.912486
670.674973	2574.779409
671.015035	2574.429049
671.355047	2575.621282
671.695008	2576.884091
672.034918	2574.421487
672.374777	2576.874009
672.714585	2575.263360
673.054342	2573.710685
673.394049	2573.332598
673.733705	2575.704461
674.073310	2576.387537
674.412864	2576.024574
674.752368	2577.332754
675.091820	2575.810325
675.431223	2575.386868
675.770574	2574.560119
676.109875	2572.687330
676.449125	2572.871332
676.788324	2574.224882
677.127473	2571.104408
677.466571	2572.221024
677.805619	2575.636405
678.144616	2573.740932
678.483562	2575.865778
678.822458	2577.524318
679.161303	2577.524317
679.500098	2577.090778
679.838842	2573.778740
680.177535	2576.672362
680.516179	2576.014492
680.854771	2575.875860
681.193314	2577.272260
681.531805	2574.436611
681.870247	2576.639595
682.208638	2574.355952
682.546978	2575.674214
682.885268	2574.176991
683.223508	2576.150603
683.561697	2576.011971
683.899836	2577.158834
684.237925	2576.269070
684.575963	2577.360480
684.913951	2575.424677
685.251889	2576.503484
685.589776	2574.149265
685.927614	2575.545665
686.265401	2573.808987
686.603137	2577.841910
686.940824	2574.764286
687.278460	2576.700089
687.616046	2574.466858
687.953582	2575.467527
688.291068	2576.125397
688.628504	2577.153793
688.965889	2578.333423
689.303224	2574.862588
689.640510	2575.361662
689.977745	2575.195304
690.314930	2574.444172
690.652065	2575.918710
690.989150	2576.538772
691.326185	2574.827300
691.663170	2574.015674
692.000105	2573.279666
692.336990	2575.071796
692.673825	2576.606827
693.010610	2578.671180
693.347345	2573.125911
693.684030	2571.177505
694.020665	2569.549212
694.357251	2572.435273
694.693786	2572.780592
695.030272	2575.215469
695.366707	2573.567012
695.703093	2574.708833
696.039429	2575.641447
696.375716	2576.052301
696.711952	2573.168761
697.048139	2571.772361
697.384276	2574.681107
697.720363	2573.967783
698.056400	2577.458782
698.392388	2574.303020
698.728326	2575.157496
699.064214	2574.277814
699.400053	2574.701271
699.735842	2574.353432
700.071581	2573.725808
700.407270	2574.756724
700.742910	2575.974163
701.078501	2574.855027
701.414042	2574.383679
701.749533	2573.297310
702.084974	2572.480643
702.420366	2573.388051
702.755709	2575.492732
703.091002	2576.299317
703.426246	2574.287897
703.761440	2572.077351
704.096584	2573.597259
704.431679	2573.193966
704.766725	2574.360993
705.101721	2572.775551
705.436668	2572.717577
705.771565	2573.947619
706.106413	2573.912331
706.441212	2572.737742
706.775961	2570.706157
707.110661	2573.657752
707.445311	2573.350242
707.779913	2576.614389
708.114465	2576.793350
708.448967	2575.308730
708.783421	2575.349060
709.117825	2574.426528
709.452180	2573.781261
709.786485	2572.810839
710.120742	2574.822259
710.454949	2576.521128
710.789107	2570.547361
711.123216	2570.491908
711.457275	2571.633729
711.791286	2570.706157
712.125247	2571.089285
712.459159	2571.401836
712.793023	2576.974832
713.126837	2574.487022
713.460602	2573.879563
713.794318	2574.366035
714.127985	2574.643298
714.461602	2573.158678
714.795171	2575.487691
715.128691	2575.938875
715.462162	2574.088771
715.795584	2574.262691
716.128957	2574.804615
716.462281	2573.451065
716.795556	2574.063565
717.128782	2571.656414
717.461960	2574.776889
717.795088	2574.953329
718.128167	2573.569532
718.461198	2576.201015
718.794180	2575.099522
719.127113	2574.792012
719.459997	2576.027095
719.792833	2571.467371
720.125619	2575.996848
720.458357	2573.917372
720.791046	2574.197156
721.123686	2573.647670
721.456278	2575.303689
721.788821	2572.515931
722.121315	2575.502815
722.453761	2570.514593
722.786158	2574.913000
723.118506	2574.063565
723.450805	2575.676735
723.783056	2574.146744
724.115259	2570.829665
724.447412	2574.696230
724.779518	2572.672207
725.111574	2572.654563
725.443582	2574.030798
725.775542	2572.725139
726.107453	2573.186405
726.439315	2573.249419
726.771129	2574.907959
727.102895	2573.254460
727.434612	2573.272104
727.766281	2572.100036
728.097901	2571.172464
728.429473	2568.069633
728.760996	2570.035683
729.092471	2567.184911
729.423897	2571.764799
729.755276	2573.236816
730.086606	2574.101374
730.417887	2571.711867
730.749120	2574.335788
731.080305	2573.745973
731.411442	2573.844275
731.742530	2572.256312
732.073570	2573.698082
732.404562	2573.624985
732.735506	2574.481981
733.066401	2571.464851
733.397249	2576.616910
733.728048	2572.541137
734.058798	2572.389902
734.389501	2572.972156
734.720156	2572.962073
735.050762	2574.461817
735.381320	2576.039698
735.711831	2572.394943
736.042293	2573.652711
736.372707	2569.889490
736.703073	2574.073648
737.033391	2574.945767
737.363661	2574.113977
737.693883	2571.358986
738.024056	2573.156158
738.354182	2572.004254
738.684260	2571.230437
739.014290	2573.572053
739.344272	2570.249932
739.674207	2573.017526
740.004093	2575.018864
740.333931	2572.989800
740.663722	2575.694379
740.993464	2573.680438
741.323159	2570.930488
741.652806	2573.408215
741.982405	2572.694892
742.311956	2572.616754
742.641460	2573.133472
742.970915	2570.486867
743.300323	2570.426373
743.629683	2571.628688
743.958996	2572.677248
744.288260	2571.933678
744.617477	2570.171795
744.946647	2572.362176
745.275768	2569.168605
745.604842	2569.045097
745.933869	2571.021229
746.262847	2567.860426
746.591778	2572.410067
746.920662	2573.289748
747.249498	2571.250602
747.578286	2572.589028
747.907027	2573.584656
748.235720	2572.836044
748.564365	2575.381827
748.892963	2572.589028
749.221514	2573.057855
749.550017	2573.667835
749.878473	2575.427197
750.206881	2573.383010
750.535242	2573.284707
750.863555	2570.935529
751.191821	2571.752196
751.520039	2571.371589
751.848210	2569.037535
752.176334	2574.262691
752.504411	2571.409398
752.832440	2572.563822
753.160421	2570.010478
753.488356	2573.067937
753.816243	2574.837382
754.144082	2572.551219
754.471875	2574.383679
754.799620	2571.222875
755.127318	2568.087277
755.454969	2571.469892
755.782572	2573.766137
756.110129	2573.219172
756.437638	2570.504511
756.765100	2572.102557
757.092515	2569.032494
757.419882	2571.535427
757.747203	2574.930644
758.074477	2570.065930
758.401703	2572.578946
758.728882	2572.190777
759.056014	2573.808987
759.383099	2570.902762
759.710138	2572.009295
760.037129	2574.635736
760.364073	2573.446024
760.690970	2569.803790
761.017820	2575.419636
761.344623	2574.466858
761.671379	2573.776220
761.998088	2569.859243
762.324751	2568.873697
762.651366	2567.933522
762.977935	2569.660117
763.304456	2569.476115
763.630931	2572.548699
763.957359	2571.311095
764.283740	2573.385530
764.610074	2574.262691
764.936362	2572.369738
765.262602	2570.968297
765.588796	2571.069120
765.914943	2574.817218
766.241044	2571.021229
766.567097	2571.938719
766.893104	2573.342680
767.219064	2573.624985
767.544978	2571.343863
767.870845	2571.127093
768.196665	2569.992834
768.522438	2572.321847
768.848165	2571.991651
769.173846	2573.987948
769.499479	2569.236661
769.825066	2570.010478
770.150607	2570.330591
770.476101	2570.774213
770.801548	2573.214131
771.126949	2573.133472
771.452303	2570.421332
771.777611	2571.341342
772.102872	2569.279510
772.428087	2571.379151
772.753256	2572.997361
773.078378	2571.873184
773.403453	2571.192628
773.728482	2570.713719
774.053465	2569.287072
774.378401	2571.056517
774.703291	2570.706157
775.028135	2567.759602
775.352932	2571.384192
775.677683	2573.050293
776.002388	2573.083061
776.327046	2571.364027
776.651658	2573.398133
776.976224	2570.423852
777.300743	2571.999213
777.625216	2571.810170
777.949643	2570.809501
778.274024	2574.577763
778.598359	2567.978893
778.922647	2567.366392
779.246889	2570.350756
779.571086	2567.802452
779.895236	2569.352607
780.219339	2569.826476
780.543397	2572.042063
780.867409	2570.978379
781.191374	2569.909655
781.515294	2572.934347
781.839167	2570.144068
782.162995	2569.082905
782.486776	2570.953173
782.810511	2571.643812
783.134201	2572.762948
783.457844	2571.321178
783.781441	2571.583318
784.104993	2573.062896
784.428498	2571.991651
784.751958	2572.616754
785.075372	2567.830179
785.398739	2572.125242
785.722061	2573.246898
786.045337	2571.790005
786.368568	2571.908472
786.691752	2567.978893
787.014891	2569.808832
787.337983	2572.344532
787.661030	2572.001733
787.984031	2569.271949
788.306987	2570.683472
788.629897	2569.395457
788.952760	2575.326374
789.275579	2569.153482
789.598351	2576.508525
789.921078	2572.457958
790.243759	2572.289079
790.566395	2571.870663
790.888984	2571.986610
791.211529	2569.347566
791.534027	2571.230437
791.856480	2569.471074
792.178888	2569.667679
792.501249	2569.932340
792.823566	2571.865622
793.145836	2571.858061
793.468062	2570.892680
793.790241	2569.536609
794.112375	2568.977041
794.434464	2570.597772
794.756507	2570.186918
795.078505	2569.629871
795.400457	2566.842112
795.722364	2567.373954
796.044226	2567.278172
796.366042	2566.196845
796.687812	2568.760272
797.009538	2567.671382
797.331218	2572.253791
797.652852	2570.464182
797.974442	2571.449727
798.295986	2569.483677
798.617484	2571.250602
798.938938	2571.477453
799.260346	2570.738924
799.581709	2571.752196
799.903026	2572.490725
800.224299	2572.548699
800.545526	2571.515262
800.866708	2570.796898
801.187845	2573.209090
801.508936	2569.665159
801.829983	2570.988462
802.150984	2570.723801
802.471940	2572.561302
802.792851	2571.658935
803.113717	2569.176167
803.434538	2570.842268
803.755314	2571.916034
804.076045	2571.250602
804.396731	2569.317319
804.717372	2570.766651
805.037967	2569.216496
805.358518	2568.999726
805.679024	2569.360169
805.999485	2570.804459
806.319901	2570.398647
806.640272	2568.893862
806.960598	2570.096177
807.280879	2568.573749
807.601115	2571.492577
807.921306	2569.864284
808.241453	2570.554922
808.561554	2569.153482
808.881611	2567.807493
809.201623	2570.101218
809.521590	2569.655076
809.841513	2572.924265
810.161390	2569.828996
810.481223	2572.732701
810.801011	2570.186918
811.120755	2571.303534
811.440453	2568.969479
811.760107	2569.365210
812.079716	2566.232133
812.399281	2564.016546
812.718801	2564.253480
813.038276	2566.511917
813.357707	2571.434604
813.677093	2570.854871
813.996434	2569.221537
814.315731	2570.917885
814.634983	2567.194993
814.954191	2567.142061
815.273354	2569.773543
815.592473	2569.924778
815.911547	2567.419325
816.230577	2569.708008
816.549562	2570.648184
816.868502	2571.709347
817.187399	2568.936712
817.506250	2571.328739
817.825058	2570.867474
818.143821	2567.532751
818.462539	2570.360838
818.781213	2572.647001
819.099843	2573.433421
819.418429	2568.747669
819.736970	2571.053997
820.055466	2569.917216
820.373919	2568.979562
820.692327	2572.029460
821.010691	2572.483164
821.329011	2568.777916
821.647286	2574.819738
821.965517	2574.771847
822.283704	2573.866960
822.601847	2576.253947
822.919945	2575.011302
823.237999	2573.826631
823.556010	2575.553226
823.873976	2576.175809
824.191897	2574.355952
824.509775	2574.023236
824.827609	2572.616754
825.145398	2572.553740
825.463144	2574.124059
825.780845	2570.625498
826.098502	2570.164233
826.416116	2571.522824
826.733685	2573.196487
827.051210	2569.609706
827.368692	2570.938050
827.686129	2573.309913
828.003522	2571.598441
828.320872	2566.209448
828.638177	2567.038718
828.955439	2564.243398
829.272656	2566.665672
829.589830	2566.655590
829.906960	2571.253122
830.224046	2569.264387
830.541088	2571.411918
830.858086	2568.790518
831.175041	2568.719942
831.491952	2568.057031
831.808819	2568.291444
832.125642	2570.335632
832.442421	2569.576938
832.759157	2570.751527
833.075849	2570.827145
833.392497	2569.123235
833.709101	2570.832186
834.025662	2574.245047
834.342179	2569.723132
834.658653	2569.337484
834.975083	2569.564336
835.291469	2576.710171
835.607811	2569.496280
835.924110	2570.191959
836.240366	2571.323698
836.556578	2567.983934
836.872746	2571.560632
837.188871	2567.991496
837.504952	2568.727504
837.820990	2571.111970
838.136984	2568.916547
838.452935	2569.644994
838.768842	2570.378482
839.084706	2570.270097
839.400526	2571.348904
839.716303	2569.460992
840.032037	2570.456620
840.347727	2568.553584
840.663373	2569.602144
840.978977	2569.788667
841.294537	2570.202042
841.610054	2567.472257
841.925527	2568.974521
842.240957	2567.631053
842.556344	2566.337997
842.871687	2572.498287
843.186987	2568.198183
843.502244	2566.950497
843.817458	2568.450241
844.132629	2568.089798
844.447756	2568.873697
844.762840	2563.310784
845.077881	2566.514437
845.392879	2565.281875
845.707833	2566.469067
846.022745	2565.455795
846.337613	2570.701116
846.652438	2569.274469
846.967221	2568.931671
847.281960	2568.021742
847.596656	2571.532906
847.911309	2566.514437
848.225919	2567.646177
848.540485	2565.717935
848.855009	2568.762792
849.169490	2569.193811
849.483928	2569.032494
849.798323	2569.914696
850.112675	2566.090981
850.426984	2567.663821
850.741251	2568.669531
851.055474	2569.045097
851.369654	2566.524520
851.683792	2568.979562
851.997887	2567.144582
852.311938	2566.968141
852.625947	2567.764644
852.939914	2569.894531
853.253837	2569.329922
853.567718	2567.255487
853.881555	2567.653738
854.195350	2567.759602
854.509103	2569.420663
854.822812	2567.618450
855.136479	2569.614747
855.450103	2570.098698
855.763685	2568.200703
856.077224	2570.494428
856.390720	2570.159192
856.704173	2567.099211
857.017584	2569.352607
857.330953	2567.729356
857.644278	2568.069633
857.957561	2570.408729
858.270802	2570.035683
858.584000	2568.278841
858.897155	2568.084757
859.210268	2567.898234
859.523339	2571.311095
859.836367	2569.347566
860.149352	2571.237999
860.462295	2569.047617
860.775195	2562.602502
861.088054	2565.163408
861.400869	2564.765157
861.713642	2562.877245
862.026373	2563.814900
862.339062	2567.623491
862.651708	2567.517627
862.964312	2567.502504
863.276873	2568.246074
863.589392	2569.574418
863.901869	2565.894376
864.214303	2568.815724
864.526696	2569.559294
864.839045	2568.238512
865.151353	2566.736248
865.463619	2567.169787
865.775842	2568.810683
866.088023	2571.658935
866.400162	2569.831517
866.712258	2567.905796
867.024313	2568.873697
867.336325	2569.420663
867.648296	2567.338666
867.960224	2566.572411
868.272110	2566.383368
868.583954	2569.720611
868.895755	2568.046948
869.207515	2566.521999
869.519233	2566.721125
869.830909	2566.726166
870.142542	2569.266907
870.454134	2566.068295
870.765684	2568.477967
871.077191	2566.920250
871.388657	2570.857392
871.700081	2567.444530
872.011463	2569.972669
872.322803	2568.170457
872.634101	2569.382854
872.945357	2566.816907
873.256571	2568.578790
873.567744	2568.283882
873.878874	2567.668862
874.189963	2566.832030
874.501010	2569.024932
874.812015	2567.875549
875.122979	2567.139541
875.433900	2566.695919
875.744780	2568.263718
876.055618	2568.475446
876.366415	2569.551733
876.677169	2569.869325
876.987882	2564.729869
877.298554	2563.136864
877.609183	2563.540157
877.919771	2563.711556
878.230317	2562.862122
878.540822	2570.948132
878.851285	2568.379664
879.161707	2564.334138
879.472087	2569.433266
879.782425	2567.631053
880.092722	2566.375806
880.402977	2569.345045
880.713191	2570.030642
881.023363	2567.699109
881.333494	2569.027453
881.643583	2569.949984
881.953631	2573.070458
882.263637	2569.939902
882.573602	2570.933009
882.883526	2568.815724
883.193408	2571.011147
883.503248	2567.744479
883.813048	2568.044428
884.122806	2572.573904
884.432522	2568.661969
884.742197	2566.653069
885.051831	2569.750858
885.361424	2567.457133
885.670975	2571.164902
885.980485	2571.502659
886.289954	2567.810014
886.599382	2567.134499
886.908768	2569.269428
887.218113	2567.089129
887.527417	2571.336301
887.836680	2566.912689
888.145901	2566.537123
888.455082	2567.615930
888.764221	2568.908986
889.073319	2568.911506
889.382376	2567.686506
889.691392	2567.424366
890.000366	2567.497462
890.309300	2567.643656
890.618193	2567.005950
890.927044	2566.466547
891.235855	2567.973852
891.544625	2567.031156
891.853353	2566.688357
892.162041	2565.276834
892.470687	2569.581980
892.779293	2567.270611
893.087858	2563.472101
893.396381	2561.891699
893.704864	2565.710373
894.013306	2564.324056
894.321707	2566.514438
894.630068	2565.823799
894.938387	2570.103739
895.246665	2568.941753
895.554903	2571.174984
895.863100	2568.941753
896.171256	2566.290106
896.479371	2566.590055
896.787446	2568.798080
897.095480	2565.309602
897.403473	2567.479818
897.711425	2565.707853
898.019336	2566.675754
898.327207	2567.499983
898.635038	2568.644325
898.942827	2567.626012
899.250576	2567.126938
899.558284	2568.853533
899.865952	2567.983934
900.173579	2567.522668
900.481165	2567.240364
900.788711	2566.269942
901.096216	2568.099880
901.403681	2566.776577
901.711105	2565.934705
902.018489	2565.576783
902.325832	2568.853533
902.633135	2569.226578
902.940397	2568.664490
903.247619	2565.944787
903.554800	2566.862277
903.861941	2569.922257
904.169041	2569.024932
904.476101	2567.494942
904.783121	2569.057700
905.090100	2567.207596
905.397039	2565.329766
905.703938	2569.428224
906.010796	2567.328584
906.317614	2568.561146
906.624391	2570.398647
906.931129	2566.721125
907.237826	2565.508727
907.544483	2567.167267
907.851099	2567.094170
908.157675	2563.230126
908.464211	2567.331104
908.770707	2564.074519
909.077163	2563.396484
909.383578	2562.327759
909.689954	2565.002091
909.996289	2560.200392
910.302584	2565.594427
910.608839	2565.052503
910.915054	2566.027966
911.221229	2566.569890
911.527363	2567.830179
911.833458	2565.546536
912.139513	2567.618450
912.445527	2566.963100
912.751502	2567.565518
913.057436	2565.296999
913.363331	2565.627194
913.669186	2566.287586
913.975000	2567.270611
914.280775	2566.789180
914.586510	2569.108111
914.892205	2568.649366
915.197859	2568.500652
915.503475	2567.439489
915.809050	2568.225909
916.114585	2569.508883
916.420081	2566.753892
916.725536	2566.849674
917.030952	2567.903275
917.336328	2566.153995
917.641665	2566.330435
917.946961	2569.161043
918.252218	2566.002760
918.557435	2566.741289
918.862612	2566.789180
919.167750	2565.785991
919.472848	2565.586865
919.777906	2566.020404
920.082925	2567.242884
920.387904	2567.875549
920.692843	2567.779767
920.997743	2565.934705
921.302603	2566.968141
921.607423	2568.394788
921.912204	2566.010322
922.216946	2567.646177
922.521647	2567.560477
922.826310	2566.925292
923.130932	2565.866649
923.435516	2563.603171
923.740059	2565.843964
924.044564	2566.345559
924.349028	2566.491752
924.653454	2564.316494
924.957840	2562.781463
925.262186	2561.811041
925.566493	2561.846329
925.870761	2563.845147
926.174989	2563.643500
926.479178	2566.242215
926.783328	2567.434448
927.087438	2565.629715
927.391509	2567.026115
927.695541	2565.481001
927.999533	2565.347410
928.303486	2566.940415
928.607400	2565.725497
928.911275	2562.073181
929.215110	2568.152812
929.518906	2568.883780
929.822663	2566.012843
930.126381	2566.043090
930.430060	2567.119376
930.733699	2566.164077
931.037299	2564.883624
931.340861	2566.012843
931.644383	2567.550395
931.947866	2567.633574
932.251309	2563.719118
932.554714	2565.443192
932.858080	2567.815055
933.161407	2565.417987
933.464694	2566.053172
933.767943	2565.730538
934.071153	2565.475960
934.374323	2565.531412
934.677455	2565.599468
934.980548	2564.319015
935.283602	2566.801783
935.586617	2561.997564
935.889593	2564.099725
936.192530	2563.015877
936.495428	2564.573593
936.798287	2566.569890
937.101108	2567.177349
937.403890	2568.084757
937.706632	2566.950497
938.009336	2568.717422
938.312002	2563.119220
938.614628	2565.531412
938.917216	2566.048131
939.219765	2565.695250
939.522275	2565.115517
939.824747	2567.353790
940.127179	2562.126113
940.429573	2560.535629
940.731929	2561.881617
941.034246	2557.808365
941.336524	2563.184755
941.638763	2566.111145
941.940964	2563.925805
942.243126	2565.511248
942.545250	2565.228943
942.847335	2564.208110
943.149381	2565.538974
943.451389	2564.071998
943.753359	2568.248594
944.055290	2566.554767
944.357182	2568.162895
944.659036	2565.254149
944.960851	2567.051320
945.262628	2562.597461
945.564367	2564.376988
945.866067	2564.041752
946.167729	2564.452606
946.469352	2565.544015
946.770937	2566.537123
947.072484	2562.032852
947.373992	2567.336146
947.675462	2564.618964
947.976893	2564.971844
948.278286	2564.923953
948.579641	2564.755075
948.880958	2564.069478
949.182236	2564.041752
949.483476	2567.963769
949.784678	2567.089129
950.085841	2567.830179
950.386967	2567.119376
950.688054	2563.751885
950.989103	2568.046948
951.290114	2564.243398
951.591087	2565.445713
951.892021	2565.881773
952.192917	2565.831361
952.493776	2566.980744
952.794596	2567.676423
953.095378	2565.889334
953.396122	2563.809858
953.696828	2565.256670
953.997496	2565.188614
954.298126	2562.300033
954.598718	2565.997719
954.899272	2562.239539
955.199788	2565.856567
955.500266	2567.036197
955.800706	2562.045455
956.101108	2561.866494
956.401472	2562.327759
956.701798	2564.024107
957.002087	2559.744168
957.302337	2563.860270
957.602550	2563.739282
957.902724	2563.973696
958.202861	2562.100907
958.502960	2561.458160
958.803022	2566.895045
959.103045	2564.931515
959.403031	2566.920250
959.702979	2565.420507
960.002889	2567.051320
960.302762	2564.389591
960.602596	2563.749365
960.902393	2563.575445
961.202153	2566.401012
961.501875	2564.097204
961.801559	2564.235836
962.101205	2564.737431
962.400814	2565.349931
962.700385	2565.849005
962.999918	2567.041238
963.299414	2565.183573
963.598873	2566.098542
963.898293	2565.302040
964.197677	2566.040569
964.497022	2565.720456
964.796331	2567.686506
965.095601	2564.886145
965.394835	2565.102914
965.694030	2565.193655
965.993189	2566.453944
966.292309	2564.094684
966.591393	2567.351269
966.890439	2564.742472
967.189447	2564.467729
967.488419	2563.918243
967.787353	2564.636608
968.086249	2568.220868
968.385108	2565.811197
968.683930	2566.436300
968.982714	2562.743654
969.281462	2564.404715
969.580172	2563.754406
969.878844	2564.586196
970.177480	2563.051165
970.476078	2565.281875
970.774639	2565.579303
971.073162	2563.693912
971.371649	2561.324570
971.670098	2562.413459
971.968510	2560.873386
972.266885	2560.031514
972.565223	2562.443706
972.863524	2565.538974
973.161788	2563.860270
973.460014	2564.694581
973.758204	2563.930846
974.056356	2565.579303
974.354471	2564.329097
974.652550	2564.059396
974.950591	2567.613409
975.248595	2567.086608
975.546563	2565.531412
975.844493	2565.806155
976.142386	2564.445044
976.440243	2567.547874
976.738062	2563.146947
977.035845	2563.310784
977.333590	2564.656772
977.631299	2564.886145
977.928971	2564.868501
978.226606	2563.330949
978.524204	2564.155177
978.821765	2564.497976
979.119290	2563.951011
979.416777	2562.990671
979.714228	2565.047462
980.011642	2563.635939
980.309020	2569.702967
980.606360	2562.836916
980.903664	2563.600651
981.200931	2564.170301
981.498162	2560.182748
981.795356	2563.774570
982.092513	2564.354303
982.389633	2563.494786
982.686717	2566.068295
982.983764	2564.208110
983.280775	2566.993347
983.577749	2563.386402
983.874686	2564.089643
984.171587	2564.515620
984.468451	2565.367575
984.765279	2564.132492
985.062070	2563.764488
985.358824	2565.365054
985.655543	2564.334138
985.952224	2565.851526
986.248869	2562.277348
986.545478	2561.044786
986.842050	2559.083777
987.138586	2558.851884
987.435086	2561.395146
987.731549	2558.957748
988.027975	2563.671227
988.324366	2563.010836
988.620719	2566.655590
988.917037	2563.940928
989.213318	2568.472926
989.509563	2565.428069
989.805772	2565.115517
990.101944	2563.900599
990.398080	2565.037379
990.694180	2564.341700
990.990244	2564.848336
991.286271	2565.551577
991.582262	2565.236505
991.878217	2563.862791
992.174136	2563.648542
992.470019	2563.618295
992.765865	2563.887996
993.061676	2564.210630
993.357450	2565.208779
993.653188	2564.155178
993.948890	2565.944787
994.244556	2565.977555
994.540186	2565.110476
994.835780	2563.429251
995.131337	2564.732390
995.426859	2563.474622
995.722345	2564.054354
996.017795	2561.669889
996.313208	2563.759447
996.608586	2564.303892
996.903928	2563.020918
997.199234	2563.414128
997.494504	2563.935887
997.789738	2561.909343
998.084936	2565.375137
998.380099	2562.834395
998.675225	2562.920095
998.970316	2564.500497
999.265371	2564.757595
999.560390	2564.129972
999.855373	2566.242215
1000.150320	2564.258521
1000.445232	2564.818089
1000.740108	2564.901268
1001.034948	2563.419169
1001.329752	2561.979920
1001.624521	2563.199879
1001.919254	2557.702501
1002.213951	2563.189797
1002.508613	2559.426575
1002.803239	2559.345917
1003.097829	2558.932542
1003.392384	2562.791545
1003.686903	2561.735424
1003.981386	2563.487225
1004.275834	2564.326577
1004.570246	2564.606361
1004.864623	2563.847667
1005.158964	2563.671227
1005.453270	2562.678119
1005.747540	2562.930177
1006.041775	2562.438665
1006.335974	2563.741803
1006.630138	2562.146278
1006.924266	2567.210117
1007.218359	2564.132492
1007.512416	2564.845816
1007.806438	2564.802966
1008.100425	2564.770198
1008.394376	2563.063768
1008.688292	2564.485373
1008.982172	2562.395815
1009.276017	2561.833726
1009.569827	2562.224416
1009.863602	2565.808676
1010.157341	2562.786504
1010.451045	2562.466391
1010.744714	2561.322049
1011.038347	2564.739951
1011.331945	2564.467729
1011.625508	2564.833213
1011.919036	2562.794066
1012.212528	2563.305743
1012.505986	2563.852708
1012.799408	2562.524364
1013.092795	2563.746844
1013.386147	2563.232646
1013.679464	2564.997050
1013.972745	2561.029662
1014.265992	2565.859087
1014.559204	2565.864129
1014.852380	2564.240877
1015.145521	2567.499983
1015.438628	2562.574776
1015.731699	2564.041752
1016.024736	2563.933367
1016.317737	2562.988150
1016.610703	2564.520661
1016.903635	2561.314487
1017.196531	2558.950186
1017.489393	2562.118551
1017.782219	2559.106462
1018.075011	2562.199210
1018.367768	2563.068809
1018.660490	2564.744992
1018.953177	2564.744992
1019.245829	2564.744992
