Dividing Wavelength (nm)	Counts (n)	Blue Motor Position (mm): 0.000000	Red Motor Position (mm): 4.200000	
326.493990	2107.202308
326.888308	2107.202308
327.282561	2107.202308
327.676750	2021.502692
328.070874	2021.502692
328.464933	2051.749615
328.858929	2061.831923
329.252859	1955.967692
329.646726	2039.146731
330.040528	2084.517115
330.434265	2094.599423
330.827938	2165.175577
331.221547	2152.572692
331.615091	2172.737308
332.008571	2139.969808
332.401986	2185.340192
332.795338	2200.463654
333.188625	2195.422500
333.581847	2220.628269
333.975006	2329.013077
334.368100	2225.669423
334.761129	2278.601538
335.154095	2341.615962
335.546996	2344.136538
335.939833	2344.136538
336.332606	2422.274423
336.725315	2369.342308
337.117960	2429.836154
337.510540	2306.327885
337.903056	2492.850577
338.295508	2389.506923
338.687896	2434.877308
339.080220	2490.330000
339.472480	2553.344423
339.864676	2384.465769
340.256807	2394.548077
340.648875	2492.850577
341.040879	2465.124231
341.432818	2409.671538
341.824694	2442.439038
342.216506	2513.015192
342.608253	2555.865000
342.999937	2457.562500
343.391557	2485.288846
343.783113	2455.041923
344.174605	2515.535769
344.566033	2502.932885
344.957397	2518.056346
345.348697	2472.685962
345.739934	2472.685962
346.131106	2513.015192
346.522215	2495.371154
346.913260	2417.233269
347.304241	2465.124231
347.695159	2495.371154
348.086012	2424.795000
348.476802	2497.891731
348.867528	2392.027500
349.258191	2457.562500
349.648789	2437.397885
350.039324	2432.356731
350.429796	2407.150962
350.820203	2520.576923
351.210548	2432.356731
351.600828	2361.780577
351.991045	2419.753846
352.381198	2467.644808
352.771288	2434.877308
353.161314	2500.412308
353.551276	2434.877308
353.941175	2460.083077
354.331010	2386.986346
354.720782	2472.685962
355.110490	2591.153077
355.500135	2472.685962
355.889717	2470.165385
356.279235	2397.068654
356.668689	2424.795000
357.058080	2414.712692
357.447408	2540.741538
357.836672	2515.535769
358.225873	2397.068654
358.615010	2447.480192
359.004084	2467.644808
359.393095	2500.412308
359.782043	2457.562500
360.170927	2492.850577
360.559748	2447.480192
360.948505	2462.603654
361.337199	2439.918462
361.725830	2487.809423
362.114398	2414.712692
362.502903	2452.521346
362.891344	2429.836154
363.279722	2379.424615
363.668037	2497.891731
364.056289	2412.192115
364.444478	2505.453462
364.832603	2419.753846
365.220665	2500.412308
365.608665	2462.603654
365.996601	2480.247692
366.384474	2487.809423
366.772284	2384.465769
367.160031	2490.330000
367.547715	2485.288846
367.935336	2520.576923
368.322893	2467.644808
368.710388	2462.603654
369.097820	2429.836154
369.485189	2392.027500
369.872495	2404.630385
370.259738	2497.891731
370.646918	2470.165385
371.034035	2424.795000
371.421090	2409.671538
371.808081	2412.192115
372.195010	2502.932885
372.581875	2525.618077
372.968678	2432.356731
373.355418	2490.330000
373.742096	2606.276538
374.128710	2470.165385
374.515262	2467.644808
374.901751	2409.671538
375.288177	2480.247692
375.674540	2497.891731
376.060841	2475.206538
376.447079	2402.109808
376.833254	2530.659231
377.219367	2450.000769
377.605417	2507.974038
377.991404	2432.356731
378.377329	2520.576923
378.763191	2399.589231
379.148991	2455.041923
379.534727	2528.138654
379.920402	2490.330000
380.306013	2434.877308
380.691563	2500.412308
381.077049	2452.521346
381.462474	2457.562500
381.847835	2455.041923
382.233134	2487.809423
382.618371	2434.877308
383.003545	2530.659231
383.388657	2432.356731
383.773706	2467.644808
384.158693	2447.480192
384.543618	2442.439038
384.928480	2455.041923
385.313280	2500.412308
385.698017	2492.850577
386.082692	2452.521346
386.467305	2515.535769
386.851856	2386.986346
387.236344	2439.918462
387.620770	2480.247692
388.005133	2460.083077
388.389435	2507.974038
388.773674	2548.303269
389.157851	2419.753846
389.541965	2424.795000
389.926018	2394.548077
390.310008	2482.768269
390.693936	2482.768269
391.077802	2485.288846
391.461606	2452.521346
391.845348	2472.685962
392.229027	2475.206538
392.612645	2470.165385
392.996200	2528.138654
393.379694	2465.124231
393.763125	2480.247692
394.146494	2467.644808
394.529801	2500.412308
394.913047	2432.356731
395.296230	2432.356731
395.679351	2485.288846
396.062410	2513.015192
396.445408	2470.165385
396.828343	2470.165385
397.211217	2419.753846
397.594028	2487.809423
397.976778	2364.301154
398.359466	2475.206538
398.742092	2434.877308
399.124656	2480.247692
399.507158	2457.562500
399.889598	2487.809423
400.271977	2538.220962
400.654294	2477.727115
401.036549	2545.782692
401.418742	2452.521346
401.800874	2518.056346
402.182944	2507.974038
402.564952	2548.303269
402.946898	2412.192115
403.328783	2465.124231
403.710606	2462.603654
404.092367	2492.850577
404.474067	2538.220962
404.855705	2505.453462
405.237282	2442.439038
405.618797	2515.535769
406.000250	2470.165385
406.381642	2482.768269
406.762972	2502.932885
407.144240	2475.206538
407.525447	2513.015192
407.906593	2505.453462
408.287677	2515.535769
408.668700	2460.083077
409.049661	2528.138654
409.430560	2465.124231
409.811399	2492.850577
410.192176	2437.397885
410.572891	2465.124231
410.953545	2492.850577
411.334138	2432.356731
411.714669	2495.371154
412.095139	2462.603654
412.475547	2386.986346
412.855894	2495.371154
413.236180	2409.671538
413.616405	2447.480192
413.996568	2505.453462
414.376670	2462.603654
414.756711	2528.138654
415.136691	2409.671538
415.516609	2513.015192
415.896466	2507.974038
416.276262	2530.659231
416.655997	2477.727115
417.035670	2505.453462
417.415283	2485.288846
417.794834	2477.727115
418.174324	2495.371154
418.553753	2487.809423
418.933121	2427.315577
419.312428	2507.974038
419.691674	2472.685962
420.070859	2507.974038
420.449983	2518.056346
420.829045	2432.356731
421.208047	2548.303269
421.586988	2576.029615
421.965867	2528.138654
422.344686	2497.891731
422.723444	2424.795000
423.102141	2507.974038
423.480777	2452.521346
423.859352	2417.233269
424.237866	2487.809423
424.616319	2558.385577
424.994712	2492.850577
425.373044	2515.535769
425.751314	2351.698269
426.129524	2487.809423
426.507673	2427.315577
426.885762	2475.206538
427.263789	2437.397885
427.641756	2475.206538
428.019662	2462.603654
428.397508	2397.068654
428.775292	2467.644808
429.153016	2528.138654
429.530679	2477.727115
429.908282	2505.453462
430.285824	2422.274423
430.663305	2397.068654
431.040726	2447.480192
431.418086	2437.397885
431.795385	2452.521346
432.172624	2465.124231
432.549802	2477.727115
432.926920	2492.850577
433.303977	2513.015192
433.680974	2444.959615
434.057910	2442.439038
434.434786	2573.509038
434.811601	2525.618077
435.188355	2490.330000
435.565050	2437.397885
435.941683	2525.618077
436.318257	2470.165385
436.694770	2457.562500
437.071222	2475.206538
437.447614	2502.932885
437.823946	2407.150962
438.200218	2535.700385
438.576429	2432.356731
438.952580	2397.068654
439.328670	2495.371154
439.704700	2513.015192
440.080670	2432.356731
440.456580	2525.618077
440.832429	2407.150962
441.208218	2518.056346
441.583947	2460.083077
441.959616	2515.535769
442.335224	2467.644808
442.710773	2487.809423
443.086261	2447.480192
443.461689	2424.795000
443.837057	2482.768269
444.212365	2427.315577
444.587612	2528.138654
444.962800	2427.315577
445.337927	2548.303269
445.712995	2495.371154
446.088002	2558.385577
446.462949	2407.150962
446.837837	2578.550192
447.212664	2467.644808
447.587431	2427.315577
447.962139	2548.303269
448.336786	2452.521346
448.711374	2467.644808
449.085901	2472.685962
449.460369	2513.015192
449.834776	2533.179808
450.209124	2505.453462
450.583412	2477.727115
450.957640	2490.330000
451.331808	2485.288846
451.705917	2505.453462
452.079965	2513.015192
452.453954	2497.891731
452.827883	2576.029615
453.201752	2432.356731
453.575562	2507.974038
453.949311	2475.206538
454.323001	2427.315577
454.696632	2548.303269
455.070202	2455.041923
455.443713	2437.397885
455.817164	2376.904038
456.190556	2457.562500
456.563888	2513.015192
456.937160	2427.315577
457.310373	2492.850577
457.683526	2447.480192
458.056619	2523.097500
458.429653	2490.330000
458.802628	2533.179808
459.175542	2505.453462
459.548398	2447.480192
459.921194	2475.206538
460.293930	2475.206538
460.666607	2485.288846
461.039224	2407.150962
461.411782	2518.056346
461.784280	2407.150962
462.156719	2497.891731
462.529099	2472.685962
462.901419	2548.303269
463.273680	2558.385577
463.645882	2447.480192
464.018024	2467.644808
464.390106	2495.371154
464.762130	2502.932885
465.134094	2467.644808
465.505999	2523.097500
465.877845	2462.603654
466.249631	2492.850577
466.621358	2525.618077
466.993026	2502.932885
467.364634	2621.400000
467.736184	2510.494615
468.107674	2490.330000
468.479105	2407.150962
468.850477	2505.453462
469.221790	2485.288846
469.593043	2434.877308
469.964238	2495.371154
470.335373	2507.974038
470.706449	2462.603654
471.077467	2548.303269
471.448425	2548.303269
471.819324	2533.179808
472.190164	2568.467885
472.560945	2475.206538
472.931667	2513.015192
473.302330	2417.233269
473.672934	2510.494615
474.043479	2518.056346
474.413965	2573.509038
474.784393	2490.330000
475.154761	2467.644808
475.525070	2505.453462
475.895321	2422.274423
476.265513	2515.535769
476.635645	2409.671538
477.005719	2502.932885
477.375734	2412.192115
477.745691	2535.700385
478.115588	2528.138654
478.485427	2414.712692
478.855207	2530.659231
479.224928	2414.712692
479.594591	2497.891731
479.964194	2417.233269
480.333739	2497.891731
480.703226	2455.041923
481.072653	2447.480192
481.442022	2417.233269
481.811333	2402.109808
482.180584	2533.179808
482.549777	2543.262115
482.918912	2417.233269
483.287988	2447.480192
483.657005	2500.412308
484.025964	2565.947308
484.394864	2444.959615
484.763706	2513.015192
485.132489	2477.727115
485.501213	2480.247692
485.869879	2472.685962
486.238487	2472.685962
486.607036	2540.741538
486.975527	2482.768269
487.343959	2525.618077
487.712333	2455.041923
488.080648	2460.083077
488.448905	2565.947308
488.817104	2535.700385
489.185244	2507.974038
489.553326	2558.385577
489.921350	2450.000769
490.289315	2502.932885
490.657222	2563.426731
491.025070	2533.179808
491.392861	2543.262115
491.760593	2545.782692
492.128267	2525.618077
492.495883	2495.371154
492.863440	2465.124231
493.230939	2434.877308
493.598380	2513.015192
493.965763	2558.385577
494.333088	2422.274423
494.700354	2548.303269
495.067563	2497.891731
495.434713	2540.741538
495.801805	2482.768269
496.168839	2576.029615
496.535815	2467.644808
496.902733	2568.467885
497.269593	2560.906154
497.636395	2495.371154
498.003139	2472.685962
498.369825	2523.097500
498.736453	2432.356731
499.103023	2545.782692
499.469535	2568.467885
499.835989	2560.906154
500.202385	2450.000769
500.568723	2470.165385
500.935003	2487.809423
501.301226	2497.891731
501.667390	2389.506923
502.033497	2485.288846
502.399546	2470.165385
502.765537	2452.521346
503.131470	2497.891731
503.497345	2404.630385
503.863163	2492.850577
504.228923	2485.288846
504.594625	2540.741538
504.960269	2432.356731
505.325856	2533.179808
505.691385	2505.453462
506.056856	2422.274423
506.422270	2495.371154
506.787625	2490.330000
507.152924	2530.659231
507.518164	2563.426731
507.883347	2475.206538
508.248472	2502.932885
508.613540	2450.000769
508.978550	2439.918462
509.343503	2540.741538
509.708398	2518.056346
510.073236	2485.288846
510.438016	2470.165385
510.802738	2515.535769
511.167403	2525.618077
511.532010	2573.509038
511.896561	2497.891731
512.261053	2485.288846
512.625488	2482.768269
512.989866	2518.056346
513.354186	2450.000769
513.718449	2452.521346
514.082655	2497.891731
514.446803	2460.083077
514.810894	2462.603654
515.174927	2485.288846
515.538904	2540.741538
515.902822	2513.015192
516.266684	2525.618077
516.630488	2495.371154
516.994235	2523.097500
517.357925	2576.029615
517.721558	2450.000769
518.085133	2462.603654
518.448651	2507.974038
518.812112	2475.206538
519.175516	2467.644808
519.538863	2434.877308
519.902152	2444.959615
520.265385	2528.138654
520.628560	2467.644808
520.991678	2497.891731
521.354739	2543.262115
521.717743	2467.644808
522.080690	2447.480192
522.443580	2457.562500
522.806413	2477.727115
523.169189	2505.453462
523.531908	2477.727115
523.894569	2477.727115
524.257174	2487.809423
524.619722	2472.685962
524.982213	2427.315577
525.344647	2467.644808
525.707025	2513.015192
526.069345	2518.056346
526.431608	2515.535769
526.793815	2553.344423
527.155964	2432.356731
527.518057	2485.288846
527.880093	2497.891731
528.242072	2477.727115
528.603995	2455.041923
528.965860	2495.371154
529.327669	2502.932885
529.689421	2518.056346
530.051117	2467.644808
530.412755	2502.932885
530.774337	2507.974038
531.135862	2535.700385
531.497331	2528.138654
531.858743	2507.974038
532.220098	2545.782692
532.581396	2523.097500
532.942638	2497.891731
533.303824	2477.727115
533.664953	2518.056346
534.026025	2487.809423
534.387040	2505.453462
534.747999	2558.385577
535.108902	2472.685962
535.469748	2518.056346
535.830537	2472.685962
536.191270	2472.685962
536.551947	2427.315577
536.912567	2444.959615
537.273131	2513.015192
537.633638	2465.124231
537.994089	2525.618077
538.354483	2467.644808
538.714821	2548.303269
539.075103	2495.371154
539.435328	2513.015192
539.795497	2528.138654
540.155609	2528.138654
540.515665	2513.015192
540.875665	2487.809423
541.235609	2404.630385
541.595496	2502.932885
541.955328	2538.220962
542.315102	2505.453462
542.674821	2467.644808
543.034483	2492.850577
543.394090	2596.194231
543.753640	2573.509038
544.113134	2538.220962
544.472571	2477.727115
544.831953	2419.753846
545.191278	2447.480192
545.550548	2515.535769
545.909761	2497.891731
546.268918	2543.262115
546.628019	2475.206538
546.987064	2467.644808
547.346053	2502.932885
547.704986	2518.056346
548.063863	2545.782692
548.422684	2528.138654
548.781449	2467.644808
549.140158	2586.111923
549.498811	2518.056346
549.857408	2507.974038
550.215949	2477.727115
550.574434	2543.262115
550.932864	2472.685962
551.291237	2507.974038
551.649555	2533.179808
552.007817	2513.015192
552.366022	2434.877308
552.724173	2444.959615
553.082267	2518.056346
553.440305	2505.453462
553.798288	2439.918462
554.156215	2442.439038
554.514086	2528.138654
554.871902	2528.138654
555.229661	2487.809423
555.587365	2465.124231
555.945014	2465.124231
556.302606	2573.509038
556.660143	2558.385577
557.017625	2548.303269
557.375050	2487.809423
557.732421	2497.891731
558.089735	2455.041923
558.446994	2472.685962
558.804197	2492.850577
559.161345	2417.233269
559.518437	2518.056346
559.875474	2457.562500
560.232455	2505.453462
560.589381	2490.330000
560.946251	2472.685962
561.303065	2528.138654
561.659825	2563.426731
562.016528	2573.509038
562.373177	2455.041923
562.729770	2450.000769
563.086307	2553.344423
563.442789	2495.371154
563.799216	2424.795000
564.155587	2432.356731
564.511904	2495.371154
564.868164	2485.288846
565.224370	2523.097500
565.580520	2487.809423
565.936615	2505.453462
566.292654	2462.603654
566.648638	2412.192115
567.004567	2555.865000
567.360441	2513.015192
567.716260	2502.932885
568.072023	2465.124231
568.427732	2490.330000
568.783385	2513.015192
569.138982	2485.288846
569.494525	2495.371154
569.850013	2497.891731
570.205445	2495.371154
570.560823	2555.865000
570.916145	2457.562500
571.271412	2467.644808
571.626625	2543.262115
571.981782	2447.480192
572.336884	2497.891731
572.691931	2548.303269
573.046923	2528.138654
573.401860	2586.111923
573.756743	2457.562500
574.111570	2528.138654
574.466342	2563.426731
574.821059	2457.562500
575.175722	2507.974038
575.530330	2518.056346
575.884882	2568.467885
576.239380	2565.947308
576.593823	2497.891731
576.948211	2497.891731
577.302544	2563.426731
577.656823	2563.426731
578.011047	2497.891731
578.365216	2518.056346
578.719330	2437.397885
579.073389	2535.700385
579.427394	2560.906154
579.781344	2538.220962
580.135239	2427.315577
580.489080	2452.521346
580.842866	2487.809423
581.196597	2485.288846
581.550273	2528.138654
581.903895	2477.727115
582.257463	2500.412308
582.610975	2487.809423
582.964434	2558.385577
583.317837	2432.356731
583.671186	2487.809423
584.024481	2465.124231
584.377721	2558.385577
584.730906	2528.138654
585.084037	2480.247692
585.437113	2573.509038
585.790135	2578.550192
586.143103	2492.850577
586.496016	2523.097500
586.848874	2465.124231
587.201679	2460.083077
587.554428	2538.220962
587.907124	2535.700385
588.259765	2374.383462
588.612352	2558.385577
588.964884	2576.029615
589.317362	2442.439038
589.669786	2487.809423
590.022155	2492.850577
590.374470	2467.644808
590.726731	2518.056346
591.078937	2444.959615
591.431090	2518.056346
591.783188	2666.770385
592.135232	2492.850577
592.487222	2487.809423
592.839157	2553.344423
593.191038	2462.603654
593.542866	2497.891731
593.894639	2444.959615
594.246358	2538.220962
594.598022	2515.535769
594.949633	2535.700385
595.301190	2533.179808
595.652692	2497.891731
596.004141	2543.262115
596.355535	2477.727115
596.706876	2467.644808
597.058162	2460.083077
597.409395	2538.220962
597.760573	2530.659231
598.111698	2502.932885
598.462768	2558.385577
598.813785	2530.659231
599.164748	2437.397885
599.515657	2525.618077
599.866511	2520.576923
600.217312	2507.974038
600.568060	2450.000769
600.918753	2518.056346
601.269392	2477.727115
601.619978	2540.741538
601.970510	2583.591346
602.320988	2475.206538
602.671412	2427.315577
603.021783	2513.015192
603.372100	2475.206538
603.722363	2510.494615
604.072572	2502.932885
604.422728	2578.550192
604.772830	2545.782692
605.122878	2538.220962
605.472872	2530.659231
605.822813	2545.782692
606.172701	2507.974038
606.522534	2568.467885
606.872314	2472.685962
607.222041	2485.288846
607.571714	2487.809423
607.921333	2558.385577
608.270899	2492.850577
608.620411	2530.659231
608.969870	2507.974038
609.319276	2477.727115
609.668627	2462.603654
610.017926	2515.535769
610.367171	2480.247692
610.716362	2558.385577
611.065500	2507.974038
611.414585	2550.823846
611.763616	2477.727115
612.112594	2495.371154
612.461518	2452.521346
612.810389	2533.179808
613.159207	2530.659231
613.507971	2518.056346
613.856682	2467.644808
614.205340	2490.330000
614.553945	2510.494615
614.902496	2535.700385
615.250994	2467.644808
615.599439	2452.521346
615.947830	2429.836154
616.296169	2540.741538
616.644454	2528.138654
616.992686	2422.274423
617.340864	2465.124231
617.688990	2495.371154
618.037063	2429.836154
618.385082	2563.426731
618.733048	2535.700385
619.080961	2497.891731
619.428821	2558.385577
619.776628	2495.371154
620.124382	2485.288846
620.472083	2573.509038
620.819731	2482.768269
621.167326	2553.344423
621.514868	2472.685962
621.862357	2437.397885
622.209793	2510.494615
622.557176	2444.959615
622.904506	2520.576923
623.251783	2525.618077
623.599007	2482.768269
623.946179	2520.576923
624.293297	2442.439038
624.640363	2515.535769
624.987376	2482.768269
625.334336	2434.877308
625.681243	2495.371154
626.028097	2460.083077
626.374899	2598.714808
626.721647	2520.576923
627.068343	2523.097500
627.414987	2487.809423
627.761577	2525.618077
628.108115	2442.439038
628.454600	2510.494615
628.801032	2500.412308
629.147412	2518.056346
629.493739	2462.603654
629.840014	2444.959615
630.186236	2540.741538
630.532405	2470.165385
630.878521	2452.521346
631.224585	2510.494615
631.570597	2467.644808
631.916556	2480.247692
632.262462	2480.247692
632.608316	2495.371154
632.954117	2419.753846
633.299866	2528.138654
633.645562	2515.535769
633.991206	2505.453462
634.336797	2502.932885
634.682336	2475.206538
635.027823	2558.385577
635.373257	2412.192115
635.718639	2487.809423
636.063968	2510.494615
636.409245	2543.262115
636.754470	2472.685962
637.099642	2485.288846
637.444762	2482.768269
637.789829	2530.659231
638.134845	2465.124231
638.479808	2560.906154
638.824719	2497.891731
639.169577	2530.659231
639.514383	2404.630385
639.859137	2538.220962
640.203839	2485.288846
640.548489	2467.644808
640.893086	2550.823846
641.237632	2417.233269
641.582125	2472.685962
641.926566	2422.274423
642.270955	2507.974038
642.615292	2404.630385
642.959576	2538.220962
643.303809	2545.782692
643.647990	2510.494615
643.992118	2497.891731
644.336195	2472.685962
644.680219	2482.768269
645.024192	2518.056346
645.368112	2515.535769
645.711981	2598.714808
646.055797	2475.206538
646.399562	2460.083077
646.743274	2462.603654
647.086935	2553.344423
647.430544	2457.562500
647.774101	2462.603654
648.117606	2535.700385
648.461059	2480.247692
648.804460	2576.029615
649.147810	2502.932885
649.491108	2535.700385
649.834354	2497.891731
650.177548	2500.412308
650.520690	2523.097500
650.863781	2495.371154
651.206820	2533.179808
651.549807	2497.891731
651.892742	2530.659231
652.235626	2515.535769
652.578458	2487.809423
652.921238	2510.494615
653.263967	2613.838269
653.606644	2495.371154
653.949269	2523.097500
654.291843	2573.509038
654.634365	2480.247692
654.976836	2450.000769
655.319255	2507.974038
655.661622	2520.576923
656.003938	2419.753846
656.346203	2500.412308
656.688416	2570.988462
657.030577	2462.603654
657.372687	2545.782692
657.714746	2475.206538
658.056753	2510.494615
658.398708	2545.782692
658.740612	2485.288846
659.082465	2462.603654
659.424266	2523.097500
659.766016	2570.988462
660.107715	2407.150962
660.449362	2427.315577
660.790958	2520.576923
661.132503	2576.029615
661.473996	2424.795000
661.815438	2548.303269
662.156829	2462.603654
662.498168	2475.206538
662.839456	2492.850577
663.180693	2548.303269
663.521879	2507.974038
663.863013	2470.165385
664.204097	2548.303269
664.545129	2475.206538
664.886110	2573.509038
665.227040	2573.509038
665.567918	2505.453462
665.908746	2548.303269
666.249522	2497.891731
666.590248	2495.371154
666.930922	2429.836154
667.271545	2573.509038
667.612118	2573.509038
667.952639	2412.192115
668.293109	2497.891731
668.633528	2485.288846
668.973896	2535.700385
669.314213	2409.671538
669.654480	2500.412308
669.994695	2457.562500
670.334859	2492.850577
670.674973	2553.344423
671.015035	2485.288846
671.355047	2495.371154
671.695008	2467.644808
672.034918	2495.371154
672.374777	2515.535769
672.714585	2543.262115
673.054342	2497.891731
673.394049	2533.179808
673.733705	2472.685962
674.073310	2518.056346
674.412864	2470.165385
674.752368	2442.439038
675.091820	2560.906154
675.431223	2515.535769
675.770574	2502.932885
676.109875	2470.165385
676.449125	2570.988462
676.788324	2450.000769
677.127473	2462.603654
677.466571	2586.111923
677.805619	2475.206538
678.144616	2505.453462
678.483562	2485.288846
678.822458	2510.494615
679.161303	2442.439038
679.500098	2518.056346
679.838842	2528.138654
680.177535	2442.439038
680.516179	2475.206538
680.854771	2500.412308
681.193314	2538.220962
681.531805	2447.480192
681.870247	2545.782692
682.208638	2558.385577
682.546978	2530.659231
682.885268	2513.015192
683.223508	2487.809423
683.561697	2518.056346
683.899836	2502.932885
684.237925	2535.700385
684.575963	2525.618077
684.913951	2462.603654
685.251889	2523.097500
685.589776	2450.000769
685.927614	2417.233269
686.265401	2462.603654
686.603137	2439.918462
686.940824	2545.782692
687.278460	2480.247692
687.616046	2518.056346
687.953582	2424.795000
688.291068	2500.412308
688.628504	2412.192115
688.965889	2545.782692
689.303224	2462.603654
689.640510	2467.644808
689.977745	2591.153077
690.314930	2470.165385
690.652065	2437.397885
690.989150	2490.330000
691.326185	2477.727115
691.663170	2465.124231
692.000105	2545.782692
692.336990	2427.315577
692.673825	2500.412308
693.010610	2442.439038
693.347345	2492.850577
693.684030	2427.315577
694.020665	2477.727115
694.357251	2424.795000
694.693786	2515.535769
695.030272	2439.918462
695.366707	2477.727115
695.703093	2386.986346
696.039429	2523.097500
696.375716	2457.562500
696.711952	2465.124231
697.048139	2462.603654
697.384276	2513.015192
697.720363	2495.371154
698.056400	2548.303269
698.392388	2518.056346
698.728326	2480.247692
699.064214	2555.865000
699.400053	2452.521346
699.735842	2507.974038
700.071581	2533.179808
700.407270	2570.988462
700.742910	2543.262115
701.078501	2500.412308
701.414042	2533.179808
701.749533	2480.247692
702.084974	2525.618077
702.420366	2510.494615
702.755709	2485.288846
703.091002	2525.618077
703.426246	2545.782692
703.761440	2568.467885
704.096584	2555.865000
704.431679	2548.303269
704.766725	2442.439038
705.101721	2548.303269
705.436668	2462.603654
705.771565	2523.097500
706.106413	2563.426731
706.441212	2455.041923
706.775961	2513.015192
707.110661	2439.918462
707.445311	2530.659231
707.779913	2515.535769
708.114465	2523.097500
708.448967	2475.206538
708.783421	2515.535769
709.117825	2485.288846
709.452180	2482.768269
709.786485	2535.700385
710.120742	2482.768269
710.454949	2538.220962
710.789107	2482.768269
711.123216	2414.712692
711.457275	2427.315577
711.791286	2545.782692
712.125247	2492.850577
712.459159	2525.618077
712.793023	2472.685962
713.126837	2528.138654
713.460602	2523.097500
713.794318	2530.659231
714.127985	2518.056346
714.461602	2495.371154
714.795171	2502.932885
715.128691	2601.235385
715.462162	2495.371154
715.795584	2442.439038
716.128957	2507.974038
716.462281	2480.247692
716.795556	2480.247692
717.128782	2538.220962
717.461960	2500.412308
717.795088	2533.179808
718.128167	2470.165385
718.461198	2470.165385
718.794180	2497.891731
719.127113	2470.165385
719.459997	2460.083077
719.792833	2535.700385
720.125619	2540.741538
720.458357	2543.262115
720.791046	2490.330000
721.123686	2525.618077
721.456278	2417.233269
721.788821	2439.918462
722.121315	2525.618077
722.453761	2450.000769
722.786158	2548.303269
723.118506	2427.315577
723.450805	2570.988462
723.783056	2462.603654
724.115259	2555.865000
724.447412	2528.138654
724.779518	2467.644808
725.111574	2485.288846
725.443582	2520.576923
725.775542	2528.138654
726.107453	2462.603654
726.439315	2487.809423
726.771129	2487.809423
727.102895	2384.465769
727.434612	2487.809423
727.766281	2465.124231
728.097901	2502.932885
728.429473	2432.356731
728.760996	2502.932885
729.092471	2477.727115
729.423897	2467.644808
729.755276	2470.165385
730.086606	2480.247692
730.417887	2576.029615
730.749120	2518.056346
731.080305	2452.521346
731.411442	2475.206538
731.742530	2510.494615
732.073570	2533.179808
732.404562	2497.891731
732.735506	2389.506923
733.066401	2477.727115
733.397249	2520.576923
733.728048	2450.000769
734.058798	2477.727115
734.389501	2470.165385
734.720156	2417.233269
735.050762	2545.782692
735.381320	2480.247692
735.711831	2523.097500
736.042293	2470.165385
736.372707	2523.097500
736.703073	2502.932885
737.033391	2565.947308
737.363661	2520.576923
737.693883	2465.124231
738.024056	2530.659231
738.354182	2495.371154
738.684260	2518.056346
739.014290	2520.576923
739.344272	2568.467885
739.674207	2495.371154
740.004093	2477.727115
740.333931	2462.603654
740.663722	2470.165385
740.993464	2528.138654
741.323159	2457.562500
741.652806	2538.220962
741.982405	2470.165385
742.311956	2475.206538
742.641460	2457.562500
742.970915	2513.015192
743.300323	2442.439038
743.629683	2586.111923
743.958996	2507.974038
744.288260	2553.344423
744.617477	2515.535769
744.946647	2450.000769
745.275768	2502.932885
745.604842	2492.850577
745.933869	2505.453462
746.262847	2598.714808
746.591778	2535.700385
746.920662	2545.782692
747.249498	2540.741538
747.578286	2533.179808
747.907027	2452.521346
748.235720	2497.891731
748.564365	2502.932885
748.892963	2540.741538
749.221514	2439.918462
749.550017	2525.618077
749.878473	2407.150962
750.206881	2505.453462
750.535242	2480.247692
750.863555	2576.029615
751.191821	2452.521346
751.520039	2558.385577
751.848210	2497.891731
752.176334	2470.165385
752.504411	2397.068654
752.832440	2530.659231
753.160421	2533.179808
753.488356	2392.027500
753.816243	2591.153077
754.144082	2497.891731
754.471875	2419.753846
754.799620	2591.153077
755.127318	2500.412308
755.454969	2480.247692
755.782572	2457.562500
756.110129	2475.206538
756.437638	2480.247692
756.765100	2480.247692
757.092515	2460.083077
757.419882	2553.344423
757.747203	2452.521346
758.074477	2424.795000
758.401703	2399.589231
758.728882	2550.823846
759.056014	2424.795000
759.383099	2535.700385
759.710138	2427.315577
760.037129	2510.494615
760.364073	2525.618077
760.690970	2513.015192
761.017820	2548.303269
761.344623	2573.509038
761.671379	2505.453462
761.998088	2487.809423
762.324751	2480.247692
762.651366	2447.480192
762.977935	2500.412308
763.304456	2523.097500
763.630931	2477.727115
763.957359	2439.918462
764.283740	2502.932885
764.610074	2444.959615
764.936362	2505.453462
765.262602	2502.932885
765.588796	2465.124231
765.914943	2565.947308
766.241044	2437.397885
766.567097	2492.850577
766.893104	2500.412308
767.219064	2442.439038
767.544978	2548.303269
767.870845	2513.015192
768.196665	2510.494615
768.522438	2530.659231
768.848165	2510.494615
769.173846	2477.727115
769.499479	2495.371154
769.825066	2434.877308
770.150607	2530.659231
770.476101	2525.618077
770.801548	2497.891731
771.126949	2407.150962
771.452303	2507.974038
771.777611	2525.618077
772.102872	2563.426731
772.428087	2548.303269
772.753256	2548.303269
773.078378	2437.397885
773.403453	2412.192115
773.728482	2480.247692
774.053465	2422.274423
774.378401	2553.344423
774.703291	2502.932885
775.028135	2505.453462
775.352932	2525.618077
775.677683	2490.330000
776.002388	2545.782692
776.327046	2490.330000
776.651658	2482.768269
776.976224	2452.521346
777.300743	2520.576923
777.625216	2518.056346
777.949643	2465.124231
778.274024	2450.000769
778.598359	2444.959615
778.922647	2424.795000
779.246889	2523.097500
779.571086	2447.480192
779.895236	2525.618077
780.219339	2482.768269
780.543397	2502.932885
780.867409	2439.918462
781.191374	2432.356731
781.515294	2467.644808
781.839167	2515.535769
782.162995	2500.412308
782.486776	2349.177692
782.810511	2495.371154
783.134201	2528.138654
783.457844	2462.603654
783.781441	2555.865000
784.104993	2500.412308
784.428498	2507.974038
784.751958	2533.179808
785.075372	2550.823846
785.398739	2477.727115
785.722061	2485.288846
786.045337	2487.809423
786.368568	2455.041923
786.691752	2485.288846
787.014891	2467.644808
787.337983	2548.303269
787.661030	2442.439038
787.984031	2472.685962
788.306987	2457.562500
788.629897	2533.179808
788.952760	2442.439038
789.275579	2505.453462
789.598351	2450.000769
789.921078	2528.138654
790.243759	2480.247692
790.566395	2455.041923
790.888984	2568.467885
791.211529	2500.412308
791.534027	2472.685962
791.856480	2490.330000
792.178888	2518.056346
792.501249	2578.550192
792.823566	2439.918462
793.145836	2530.659231
793.468062	2465.124231
793.790241	2507.974038
794.112375	2437.397885
794.434464	2535.700385
794.756507	2470.165385
795.078505	2533.179808
795.400457	2568.467885
795.722364	2507.974038
796.044226	2568.467885
796.366042	2485.288846
796.687812	2485.288846
797.009538	2502.932885
797.331218	2573.509038
797.652852	2492.850577
797.974442	2528.138654
798.295986	2507.974038
798.617484	2500.412308
798.938938	2470.165385
799.260346	2510.494615
799.581709	2422.274423
799.903026	2497.891731
800.224299	2470.165385
800.545526	2535.700385
800.866708	2409.671538
801.187845	2460.083077
801.508936	2538.220962
801.829983	2490.330000
802.150984	2492.850577
802.471940	2515.535769
802.792851	2409.671538
803.113717	2533.179808
803.434538	2495.371154
803.755314	2525.618077
804.076045	2452.521346
804.396731	2470.165385
804.717372	2439.918462
805.037967	2482.768269
805.358518	2502.932885
805.679024	2455.041923
805.999485	2540.741538
806.319901	2581.070769
806.640272	2515.535769
806.960598	2530.659231
807.280879	2497.891731
807.601115	2480.247692
807.921306	2500.412308
808.241453	2518.056346
808.561554	2515.535769
808.881611	2497.891731
809.201623	2485.288846
809.521590	2515.535769
809.841513	2487.809423
810.161390	2497.891731
810.481223	2538.220962
810.801011	2573.509038
811.120755	2507.974038
811.440453	2583.591346
811.760107	2502.932885
812.079716	2598.714808
812.399281	2535.700385
812.718801	2533.179808
813.038276	2485.288846
813.357707	2475.206538
813.677093	2528.138654
813.996434	2487.809423
814.315731	2510.494615
814.634983	2482.768269
814.954191	2588.632500
815.273354	2497.891731
815.592473	2492.850577
815.911547	2480.247692
816.230577	2455.041923
816.549562	2427.315577
816.868502	2427.315577
817.187399	2414.712692
817.506250	2485.288846
817.825058	2462.603654
818.143821	2528.138654
818.462539	2543.262115
818.781213	2568.467885
819.099843	2457.562500
819.418429	2540.741538
819.736970	2487.809423
820.055466	2424.795000
820.373919	2487.809423
820.692327	2422.274423
821.010691	2495.371154
821.329011	2452.521346
821.647286	2482.768269
821.965517	2467.644808
822.283704	2510.494615
822.601847	2507.974038
822.919945	2560.906154
823.237999	2596.194231
823.556010	2452.521346
823.873976	2460.083077
824.191897	2497.891731
824.509775	2444.959615
824.827609	2442.439038
825.145398	2495.371154
825.463144	2500.412308
825.780845	2593.673654
826.098502	2497.891731
826.416116	2565.947308
826.733685	2487.809423
827.051210	2495.371154
827.368692	2581.070769
827.686129	2513.015192
828.003522	2568.467885
828.320872	2523.097500
828.638177	2507.974038
828.955439	2465.124231
829.272656	2475.206538
829.589830	2523.097500
829.906960	2480.247692
830.224046	2513.015192
830.541088	2502.932885
830.858086	2447.480192
831.175041	2495.371154
831.491952	2439.918462
831.808819	2465.124231
832.125642	2455.041923
832.442421	2472.685962
832.759157	2528.138654
833.075849	2555.865000
833.392497	2442.439038
833.709101	2502.932885
834.025662	2434.877308
834.342179	2513.015192
834.658653	2533.179808
834.975083	2444.959615
835.291469	2455.041923
835.607811	2502.932885
835.924110	2485.288846
836.240366	2520.576923
836.556578	2472.685962
836.872746	2523.097500
837.188871	2460.083077
837.504952	2578.550192
837.820990	2530.659231
838.136984	2480.247692
838.452935	2515.535769
838.768842	2515.535769
839.084706	2568.467885
839.400526	2515.535769
839.716303	2535.700385
840.032037	2427.315577
840.347727	2477.727115
840.663373	2533.179808
840.978977	2497.891731
841.294537	2467.644808
841.610054	2507.974038
841.925527	2507.974038
842.240957	2550.823846
842.556344	2477.727115
842.871687	2467.644808
843.186987	2502.932885
843.502244	2578.550192
843.817458	2480.247692
844.132629	2417.233269
844.447756	2513.015192
844.762840	2444.959615
845.077881	2467.644808
845.392879	2505.453462
845.707833	2422.274423
846.022745	2450.000769
846.337613	2538.220962
846.652438	2497.891731
846.967221	2518.056346
847.281960	2485.288846
847.596656	2490.330000
847.911309	2477.727115
848.225919	2518.056346
848.540485	2432.356731
848.855009	2497.891731
849.169490	2510.494615
849.483928	2497.891731
849.798323	2487.809423
850.112675	2495.371154
850.426984	2568.467885
850.741251	2550.823846
851.055474	2492.850577
851.369654	2502.932885
851.683792	2502.932885
851.997887	2487.809423
852.311938	2500.412308
852.625947	2429.836154
852.939914	2500.412308
853.253837	2525.618077
853.567718	2523.097500
853.881555	2490.330000
854.195350	2535.700385
854.509103	2540.741538
854.822812	2437.397885
855.136479	2475.206538
855.450103	2535.700385
855.763685	2497.891731
856.077224	2399.589231
856.390720	2492.850577
856.704173	2487.809423
857.017584	2533.179808
857.330953	2497.891731
857.644278	2520.576923
857.957561	2470.165385
858.270802	2472.685962
858.584000	2475.206538
858.897155	2603.755962
859.210268	2465.124231
859.523339	2444.959615
859.836367	2500.412308
860.149352	2543.262115
860.462295	2565.947308
860.775195	2437.397885
861.088054	2447.480192
861.400869	2364.301154
861.713642	2510.494615
862.026373	2417.233269
862.339062	2502.932885
862.651708	2568.467885
862.964312	2492.850577
863.276873	2550.823846
863.589392	2467.644808
863.901869	2505.453462
864.214303	2573.509038
864.526696	2460.083077
864.839045	2565.947308
865.151353	2583.591346
865.463619	2462.603654
865.775842	2455.041923
866.088023	2540.741538
866.400162	2507.974038
866.712258	2515.535769
867.024313	2490.330000
867.336325	2447.480192
867.648296	2540.741538
867.960224	2613.838269
868.272110	2518.056346
868.583954	2490.330000
868.895755	2518.056346
869.207515	2560.906154
869.519233	2470.165385
869.830909	2513.015192
870.142542	2525.618077
870.454134	2558.385577
870.765684	2500.412308
871.077191	2414.712692
871.388657	2530.659231
871.700081	2538.220962
872.011463	2497.891731
872.322803	2555.865000
872.634101	2487.809423
872.945357	2495.371154
873.256571	2513.015192
873.567744	2497.891731
873.878874	2518.056346
874.189963	2548.303269
874.501010	2533.179808
874.812015	2424.795000
875.122979	2467.644808
875.433900	2487.809423
875.744780	2533.179808
876.055618	2500.412308
876.366415	2467.644808
876.677169	2422.274423
876.987882	2482.768269
877.298554	2510.494615
877.609183	2515.535769
877.919771	2457.562500
878.230317	2530.659231
878.540822	2399.589231
878.851285	2565.947308
879.161707	2482.768269
879.472087	2528.138654
879.782425	2475.206538
880.092722	2520.576923
880.402977	2437.397885
880.713191	2495.371154
881.023363	2492.850577
881.333494	2432.356731
881.643583	2505.453462
881.953631	2457.562500
882.263637	2543.262115
882.573602	2450.000769
882.883526	2460.083077
883.193408	2528.138654
883.503248	2467.644808
883.813048	2565.947308
884.122806	2419.753846
884.432522	2530.659231
884.742197	2452.521346
885.051831	2507.974038
885.361424	2472.685962
885.670975	2515.535769
885.980485	2475.206538
886.289954	2470.165385
886.599382	2477.727115
886.908768	2455.041923
887.218113	2518.056346
887.527417	2497.891731
887.836680	2535.700385
888.145901	2502.932885
888.455082	2407.150962
888.764221	2492.850577
889.073319	2477.727115
889.382376	2482.768269
889.691392	2530.659231
890.000366	2442.439038
890.309300	2419.753846
890.618193	2513.015192
890.927044	2540.741538
891.235855	2581.070769
891.544625	2460.083077
891.853353	2500.412308
892.162041	2555.865000
892.470687	2550.823846
892.779293	2495.371154
893.087858	2505.453462
893.396381	2434.877308
893.704864	2467.644808
894.013306	2540.741538
894.321707	2518.056346
894.630068	2518.056346
894.938387	2513.015192
895.246665	2457.562500
895.554903	2450.000769
895.863100	2482.768269
896.171256	2452.521346
896.479371	2505.453462
896.787446	2462.603654
897.095480	2485.288846
897.403473	2525.618077
897.711425	2515.535769
898.019336	2447.480192
898.327207	2515.535769
898.635038	2407.150962
898.942827	2502.932885
899.250576	2467.644808
899.558284	2492.850577
899.865952	2407.150962
900.173579	2482.768269
900.481165	2424.795000
900.788711	2543.262115
901.096216	2475.206538
901.403681	2487.809423
901.711105	2465.124231
902.018489	2518.056346
902.325832	2530.659231
902.633135	2528.138654
902.940397	2482.768269
903.247619	2513.015192
903.554800	2548.303269
903.861941	2550.823846
904.169041	2457.562500
904.476101	2530.659231
904.783121	2525.618077
905.090100	2457.562500
905.397039	2475.206538
905.703938	2472.685962
906.010796	2555.865000
906.317614	2563.426731
906.624391	2492.850577
906.931129	2523.097500
907.237826	2520.576923
907.544483	2613.838269
907.851099	2540.741538
908.157675	2576.029615
908.464211	2460.083077
908.770707	2444.959615
909.077163	2500.412308
909.383578	2525.618077
909.689954	2523.097500
909.996289	2455.041923
910.302584	2518.056346
910.608839	2495.371154
910.915054	2573.509038
911.221229	2439.918462
911.527363	2392.027500
911.833458	2578.550192
912.139513	2472.685962
912.445527	2470.165385
912.751502	2515.535769
913.057436	2450.000769
913.363331	2538.220962
913.669186	2450.000769
913.975000	2495.371154
914.280775	2558.385577
914.586510	2485.288846
914.892205	2472.685962
915.197859	2525.618077
915.503475	2502.932885
915.809050	2533.179808
916.114585	2573.509038
916.420081	2419.753846
916.725536	2573.509038
917.030952	2535.700385
917.336328	2480.247692
917.641665	2450.000769
917.946961	2560.906154
918.252218	2520.576923
918.557435	2422.274423
918.862612	2505.453462
919.167750	2465.124231
919.472848	2434.877308
919.777906	2485.288846
920.082925	2409.671538
920.387904	2482.768269
920.692843	2462.603654
920.997743	2457.562500
921.302603	2422.274423
921.607423	2429.836154
921.912204	2465.124231
922.216946	2490.330000
922.521647	2487.809423
922.826310	2530.659231
923.130932	2434.877308
923.435516	2457.562500
923.740059	2510.494615
924.044564	2487.809423
924.349028	2535.700385
924.653454	2482.768269
924.957840	2427.315577
925.262186	2455.041923
925.566493	2543.262115
925.870761	2523.097500
926.174989	2490.330000
926.479178	2457.562500
926.783328	2442.439038
927.087438	2500.412308
927.391509	2520.576923
927.695541	2550.823846
927.999533	2528.138654
928.303486	2495.371154
928.607400	2475.206538
928.911275	2465.124231
929.215110	2470.165385
929.518906	2462.603654
929.822663	2502.932885
930.126381	2457.562500
930.430060	2518.056346
930.733699	2515.535769
931.037299	2515.535769
931.340861	2505.453462
931.644383	2467.644808
931.947866	2548.303269
932.251309	2457.562500
932.554714	2502.932885
932.858080	2482.768269
933.161407	2513.015192
933.464694	2467.644808
933.767943	2518.056346
934.071153	2540.741538
934.374323	2495.371154
934.677455	2470.165385
934.980548	2553.344423
935.283602	2553.344423
935.586617	2434.877308
935.889593	2482.768269
936.192530	2510.494615
936.495428	2490.330000
936.798287	2510.494615
937.101108	2543.262115
937.403890	2470.165385
937.706632	2465.124231
938.009336	2525.618077
938.312002	2535.700385
938.614628	2485.288846
938.917216	2515.535769
939.219765	2442.439038
939.522275	2492.850577
939.824747	2553.344423
940.127179	2563.426731
940.429573	2462.603654
940.731929	2424.795000
941.034246	2465.124231
941.336524	2530.659231
941.638763	2414.712692
941.940964	2510.494615
942.243126	2513.015192
942.545250	2437.397885
942.847335	2505.453462
943.149381	2533.179808
943.451389	2465.124231
943.753359	2505.453462
944.055290	2477.727115
944.357182	2543.262115
944.659036	2480.247692
944.960851	2442.439038
945.262628	2487.809423
945.564367	2427.315577
945.866067	2520.576923
946.167729	2540.741538
946.469352	2490.330000
946.770937	2598.714808
947.072484	2417.233269
947.373992	2470.165385
947.675462	2369.342308
947.976893	2434.877308
948.278286	2497.891731
948.579641	2502.932885
948.880958	2495.371154
949.182236	2545.782692
949.483476	2472.685962
949.784678	2538.220962
950.085841	2495.371154
950.386967	2366.821731
950.688054	2482.768269
950.989103	2570.988462
951.290114	2482.768269
951.591087	2492.850577
951.892021	2523.097500
952.192917	2470.165385
952.493776	2495.371154
952.794596	2510.494615
953.095378	2510.494615
953.396122	2460.083077
953.696828	2460.083077
953.997496	2407.150962
954.298126	2500.412308
954.598718	2444.959615
954.899272	2540.741538
955.199788	2455.041923
955.500266	2497.891731
955.800706	2434.877308
956.101108	2437.397885
956.401472	2495.371154
956.701798	2497.891731
957.002087	2462.603654
957.302337	2513.015192
957.602550	2492.850577
957.902724	2573.509038
958.202861	2437.397885
958.502960	2475.206538
958.803022	2505.453462
959.103045	2530.659231
959.403031	2475.206538
959.702979	2497.891731
960.002889	2492.850577
960.302762	2538.220962
960.602596	2470.165385
960.902393	2477.727115
961.202153	2452.521346
961.501875	2500.412308
961.801559	2482.768269
962.101205	2404.630385
962.400814	2492.850577
962.700385	2414.712692
962.999918	2515.535769
963.299414	2495.371154
963.598873	2533.179808
963.898293	2520.576923
964.197677	2472.685962
964.497022	2578.550192
964.796331	2482.768269
965.095601	2439.918462
965.394835	2490.330000
965.694030	2490.330000
965.993189	2487.809423
966.292309	2404.630385
966.591393	2404.630385
966.890439	2424.795000
967.189447	2520.576923
967.488419	2442.439038
967.787353	2482.768269
968.086249	2487.809423
968.385108	2482.768269
968.683930	2480.247692
968.982714	2515.535769
969.281462	2470.165385
969.580172	2548.303269
969.878844	2520.576923
970.177480	2500.412308
970.476078	2513.015192
970.774639	2429.836154
971.073162	2533.179808
971.371649	2434.877308
971.670098	2555.865000
971.968510	2540.741538
972.266885	2515.535769
972.565223	2560.906154
972.863524	2452.521346
973.161788	2452.521346
973.460014	2414.712692
973.758204	2563.426731
974.056356	2530.659231
974.354471	2439.918462
974.652550	2450.000769
974.950591	2487.809423
975.248595	2434.877308
975.546563	2545.782692
975.844493	2495.371154
976.142386	2490.330000
976.440243	2492.850577
976.738062	2477.727115
977.035845	2432.356731
977.333590	2507.974038
977.631299	2495.371154
977.928971	2409.671538
978.226606	2452.521346
978.524204	2455.041923
978.821765	2497.891731
979.119290	2502.932885
979.416777	2475.206538
979.714228	2520.576923
980.011642	2442.439038
980.309020	2558.385577
980.606360	2505.453462
980.903664	2523.097500
981.200931	2394.548077
981.498162	2520.576923
981.795356	2553.344423
982.092513	2533.179808
982.389633	2485.288846
982.686717	2492.850577
982.983764	2439.918462
983.280775	2525.618077
983.577749	2485.288846
983.874686	2523.097500
984.171587	2414.712692
984.468451	2455.041923
984.765279	2462.603654
985.062070	2528.138654
985.358824	2540.741538
985.655543	2507.974038
985.952224	2457.562500
986.248869	2429.836154
986.545478	2477.727115
986.842050	2424.795000
987.138586	2472.685962
987.435086	2346.657115
987.731549	2485.288846
988.027975	2492.850577
988.324366	2457.562500
988.620719	2510.494615
988.917037	2492.850577
989.213318	2528.138654
989.509563	2545.782692
989.805772	2407.150962
990.101944	2470.165385
990.398080	2455.041923
990.694180	2457.562500
990.990244	2528.138654
991.286271	2427.315577
991.582262	2475.206538
991.878217	2432.356731
992.174136	2482.768269
992.470019	2487.809423
992.765865	2518.056346
993.061676	2477.727115
993.357450	2455.041923
993.653188	2485.288846
993.948890	2477.727115
994.244556	2507.974038
994.540186	2427.315577
994.835780	2487.809423
995.131337	2523.097500
995.426859	2487.809423
995.722345	2467.644808
996.017795	2412.192115
996.313208	2462.603654
996.608586	2429.836154
996.903928	2477.727115
997.199234	2477.727115
997.494504	2510.494615
997.789738	2475.206538
998.084936	2465.124231
998.380099	2563.426731
998.675225	2502.932885
998.970316	2485.288846
999.265371	2533.179808
999.560390	2533.179808
999.855373	2596.194231
1000.150320	2525.618077
1000.445232	2477.727115
1000.740108	2515.535769
1001.034948	2586.111923
1001.329752	2497.891731
1001.624521	2533.179808
1001.919254	2467.644808
1002.213951	2528.138654
1002.508613	2518.056346
1002.803239	2533.179808
1003.097829	2490.330000
1003.392384	2361.780577
1003.686903	2583.591346
1003.981386	2507.974038
1004.275834	2424.795000
1004.570246	2475.206538
1004.864623	2505.453462
1005.158964	2460.083077
1005.453270	2457.562500
1005.747540	2507.974038
1006.041775	2507.974038
1006.335974	2548.303269
1006.630138	2460.083077
1006.924266	2533.179808
1007.218359	2548.303269
1007.512416	2447.480192
1007.806438	2437.397885
1008.100425	2439.918462
1008.394376	2565.947308
1008.688292	2538.220962
1008.982172	2492.850577
1009.276017	2513.015192
1009.569827	2530.659231
1009.863602	2422.274423
1010.157341	2457.562500
1010.451045	2520.576923
1010.744714	2500.412308
1011.038347	2470.165385
1011.331945	2495.371154
1011.625508	2482.768269
1011.919036	2495.371154
1012.212528	2475.206538
1012.505986	2540.741538
1012.799408	2467.644808
1013.092795	2591.153077
1013.386147	2492.850577
1013.679464	2507.974038
1013.972745	2520.576923
1014.265992	2462.603654
1014.559204	2480.247692
1014.852380	2485.288846
1015.145521	2497.891731
1015.438628	2525.618077
1015.731699	2480.247692
1016.024736	2520.576923
1016.317737	2558.385577
1016.610703	2513.015192
1016.903635	2457.562500
1017.196531	2475.206538
1017.489393	2429.836154
1017.782219	2402.109808
1018.075011	2444.959615
1018.367768	2573.509038
1018.660490	2548.303269
1018.953177	2548.303269
1019.245829	2548.303269
