Dividing Wavelength (nm)	Counts (n)	Blue Motor Position (mm): 0.000000	Red Motor Position (mm): 44.400000	
326.493990	2128.730555
326.888308	2128.730555
327.282561	2128.730555
327.676750	2095.804259
328.070874	2095.605133
328.464933	2096.361306
328.858929	2103.570156
329.252859	2115.275716
329.646726	2125.395832
330.040528	2139.256484
330.434265	2155.713331
330.827938	2172.674293
331.221547	2189.486541
331.615091	2208.993286
332.008571	2225.876110
332.401986	2248.031982
332.795338	2268.433531
333.188625	2286.730399
333.581847	2304.780250
333.975006	2323.830771
334.368100	2342.062104
334.761129	2360.157325
335.154095	2378.481920
335.546996	2397.877759
335.939833	2421.157807
336.332606	2435.898141
336.725315	2447.951540
337.117960	2459.813375
337.510540	2466.261011
337.903056	2478.790799
338.295508	2485.598877
338.687896	2494.826709
339.080220	2505.299706
339.472480	2508.062259
339.864676	2512.793382
340.256807	2517.769000
340.648875	2520.060205
341.040879	2522.616070
341.432818	2523.576410
341.824694	2526.074301
342.216506	2525.532377
342.608253	2525.416431
342.999937	2526.883407
343.391557	2522.331245
343.783113	2523.717562
344.174605	2521.277643
344.566033	2525.539939
344.957397	2520.145904
345.348697	2520.430730
345.739934	2514.840090
346.131106	2512.969822
346.522215	2517.564834
346.913260	2511.361694
347.304241	2513.506705
347.695159	2508.203411
348.086012	2507.686693
348.476802	2508.901611
348.867528	2505.042608
349.258191	2506.930520
349.648789	2500.737462
350.039324	2500.956752
350.429796	2499.903151
350.820203	2498.690754
351.210548	2495.789570
351.600828	2498.403408
351.991045	2497.271669
352.381198	2493.450474
352.771288	2496.807883
353.161314	2494.365444
353.551276	2493.190855
353.941175	2496.686895
354.331010	2495.988695
354.720782	2493.836122
355.110490	2494.320073
355.500135	2495.799652
355.889717	2496.790239
356.279235	2494.080618
356.668689	2497.327122
357.058080	2498.292502
357.447408	2495.855105
357.836672	2492.744713
358.225873	2497.405259
358.615010	2493.800834
359.004084	2499.691423
359.393095	2497.720332
359.782043	2500.790394
360.170927	2501.796104
360.559748	2504.432628
360.948505	2501.652432
361.337199	2501.145796
361.725830	2499.734272
362.114398	2503.242916
362.502903	2502.690909
362.891344	2505.191322
363.279722	2506.249964
363.668037	2508.314316
364.056289	2505.481188
364.444478	2507.041425
364.832603	2505.319871
365.220665	2507.298524
365.608665	2510.907990
365.996601	2510.131652
366.384474	2512.032167
366.772284	2512.601818
367.160031	2511.802795
367.547715	2515.903773
367.935336	2518.255472
368.322893	2521.945596
368.710388	2525.353416
369.097820	2531.130579
369.485189	2534.808100
369.872495	2542.062321
370.259738	2548.555327
370.646918	2552.792417
371.034035	2562.814231
371.421090	2570.794377
371.808081	2583.412385
372.195010	2590.066708
372.581875	2605.890890
372.968678	2616.404217
373.355418	2626.189096
373.742096	2647.959319
374.128710	2659.697646
374.515262	2673.139882
374.901751	2692.097142
375.288177	2702.602906
375.674540	2724.781462
376.060841	2744.147055
376.447079	2764.218409
376.833254	2785.020730
377.219367	2795.332411
377.605417	2833.572083
377.991404	2843.853516
378.377329	2865.021321
378.763191	2879.796943
379.148991	2920.695824
379.534727	2948.119701
379.920402	2972.584421
380.306013	2984.705875
380.691563	3035.435007
381.077049	3057.737071
381.462474	3073.715008
381.847835	3113.151955
382.233134	3134.569297
382.618371	3136.363948
383.003545	3206.332642
383.388657	3212.276163
383.773706	3244.355545
384.158693	3262.468411
384.543618	3285.894653
384.928480	3325.031651
385.313280	3368.672920
385.698017	3366.772405
386.082692	3419.099582
386.467305	3423.727361
386.851856	3456.542752
387.236344	3479.401864
387.620770	3514.606762
388.005133	3539.459650
388.389435	3564.241963
388.773674	3576.076071
389.157851	3618.144500
389.541965	3637.270638
389.926018	3598.978033
390.310008	3668.913961
390.693936	3688.375335
391.077802	3730.965523
391.461606	3720.411868
391.845348	3779.002678
392.229027	3780.124335
392.612645	3793.022127
392.996200	3869.935011
393.379694	3913.102412
393.763125	3977.140189
394.146494	3942.633491
394.529801	4007.359386
394.913047	4051.313206
395.296230	4018.316334
395.679351	4075.747679
396.062410	4098.213581
396.445408	4075.919078
396.828343	4115.061117
397.211217	4137.151453
397.594028	4058.136408
397.976778	4124.266264
398.359466	4149.288031
398.742092	4178.214172
399.124656	4097.588478
399.507158	4180.356662
399.889598	4207.833471
400.271977	4263.639044
400.654294	4235.504365
401.036549	4244.558277
401.418742	4215.392682
401.800874	4318.925379
402.182944	4341.310622
402.564952	4403.730189
402.946898	4393.448756
403.328783	4384.485584
403.710606	4301.137667
404.092367	4495.771576
404.474067	4461.529539
404.855705	4467.457936
405.237282	4391.230648
405.618797	4503.131661
406.000250	4536.718348
406.381642	4617.117190
406.762972	4585.637705
407.144240	4591.182974
407.525447	4590.207511
407.906593	4650.751769
408.287677	4692.182492
408.668700	4619.955360
409.049661	4673.000901
409.430560	4715.066810
409.811399	4640.006549
410.192176	4804.123833
410.572891	4740.799379
410.953545	4846.293085
411.334138	4725.738932
411.714669	4791.382317
412.095139	4684.603117
412.475547	4828.596115
412.855894	4806.785563
413.236180	4817.561029
413.616405	4766.221918
413.996568	4860.793964
414.376670	4801.638545
414.756711	4754.486112
415.136691	4786.830155
415.516609	4867.743195
415.896466	4905.274585
416.276262	4939.390594
416.655997	4917.801853
417.035670	5097.851703
417.415283	5193.550447
417.794834	5136.524915
418.174324	5089.551444
418.553753	4997.338658
418.933121	5182.228016
419.312428	5246.568262
419.691674	5190.709757
420.070859	5313.945804
420.449983	5228.009255
420.829045	5339.915308
421.208047	5249.461885
421.586988	5320.451413
421.965867	5332.582950
422.344686	5464.134380
422.723444	5320.945446
423.102141	5140.474659
423.480777	5438.613539
423.859352	5204.078897
424.237866	5462.924503
424.616319	5455.375375
424.994712	5562.005862
425.373044	5439.757881
425.751314	5583.279531
426.129524	5391.572012
426.507673	5583.796249
426.885762	5665.778013
427.263789	5593.684472
427.641756	5476.497810
428.019662	5595.779072
428.397508	5612.117451
428.775292	5550.136465
429.153016	5654.770654
429.530679	5576.768881
429.908282	5667.227345
430.285824	5533.551069
430.663305	5809.339993
431.040726	5541.347213
431.418086	5545.294437
431.795385	5648.131454
432.172624	5662.201315
432.549802	5657.593700
432.926920	5668.933776
433.303977	5673.455691
433.680974	5714.583944
434.057910	5732.648919
434.434786	5739.603191
434.811601	5710.188058
435.188355	5949.973062
435.565050	5817.675541
435.941683	5795.827180
436.318257	6011.160066
436.694770	5997.463251
437.071222	6031.566657
437.447614	5959.299196
437.823946	5874.375918
438.200218	6030.686976
438.576429	5890.462240
438.952580	5994.398230
439.328670	6038.301639
439.704700	5940.195744
440.080670	5929.881543
440.456580	6204.740374
440.832429	6080.717907
441.208218	5932.165186
441.583947	6089.146716
441.959616	6091.367345
442.335224	6020.266911
442.710773	6160.131204
443.086261	6180.747002
443.461689	5977.941383
443.837057	6122.496470
444.212365	6277.915243
444.587612	6174.160735
444.962800	6326.703530
445.337927	6302.783255
445.712995	5915.418473
446.088002	6494.117728
446.462949	6317.959648
446.837837	6254.937663
447.212664	6427.302275
447.587431	6571.605304
447.962139	7107.898374
448.336786	8038.452524
448.711374	7778.576002
449.085901	6850.736513
449.460369	6776.863445
449.834776	6710.355502
450.209124	7101.687672
450.583412	7249.963130
450.957640	7396.753968
451.331808	7159.335787
451.705917	6713.102931
452.079965	6634.055118
452.453954	6853.655341
452.827883	6724.140537
453.201752	6820.721483
453.575562	6616.393435
453.949311	6823.746175
454.323001	6714.174176
454.696632	6786.166894
455.070202	6922.056237
455.443713	7080.043478
455.817164	7180.503592
456.190556	7260.141220
456.563888	7337.452355
456.937160	7380.831484
457.310373	7039.741974
457.683526	7062.782567
458.056619	6951.327697
458.429653	6941.903260
458.802628	6876.101079
459.175542	6978.595298
459.548398	7337.578384
459.921194	7504.435535
460.293930	7498.068558
460.666607	8035.357255
461.039224	8340.122732
461.411782	8470.638205
461.784280	8490.149991
462.156719	8379.468938
462.529099	8261.329497
462.901419	7845.857762
463.273680	7740.175012
463.645882	7750.590036
464.018024	7613.052236
464.390106	7786.914070
464.762130	8174.414964
465.134094	8635.700705
465.505999	9656.057970
465.877845	10884.413243
466.249631	11532.085565
466.621358	11147.906792
466.993026	10519.625268
467.364634	10263.118757
467.736184	9897.493951
468.107674	9564.303929
468.479105	9599.760884
468.850477	9364.081901
469.221790	9144.219538
469.593043	8807.858630
469.964238	8666.358482
470.335373	8680.816512
470.706449	8738.028567
471.077467	8720.089621
471.448425	10036.569303
471.819324	11103.831984
472.190164	11132.596808
472.560945	9881.324450
472.931667	9091.978060
473.302330	8958.579047
473.672934	8604.750541
474.043479	8962.904357
474.413965	8900.646107
474.784393	8784.472717
475.154761	8935.011653
475.525070	9028.144450
475.895321	8851.615845
476.265513	9025.381898
476.635645	9199.856232
477.005719	9192.879275
477.375734	9312.573912
477.745691	9542.190907
478.115588	9684.139717
478.485427	9925.442108
478.855207	10460.837852
479.224928	11278.828078
479.594591	11908.894171
479.964194	11716.191024
480.333739	11662.716985
480.703226	11576.861094
481.072653	11663.642037
481.442022	11901.352605
481.811333	12095.046339
482.180584	11895.691389
482.549777	11606.959303
482.918912	11434.950092
483.287988	11452.205962
483.657005	11460.521345
484.025964	11142.719445
484.394864	11273.635690
484.763706	11250.257339
485.132489	11008.309681
485.501213	10964.809564
485.869879	11040.454598
486.238487	10883.609178
486.607036	10993.042546
486.975527	10773.482652
487.343959	10962.725047
487.712333	11010.510144
488.080648	10941.965575
488.448905	10981.805814
488.817104	10920.301217
489.185244	11188.931702
489.553326	11339.730258
489.921350	11878.511137
490.289315	12938.948095
490.657222	13293.880614
491.025070	13198.539792
491.392861	13078.593098
491.760593	12687.180269
492.128267	12345.523629
492.495883	12018.869463
492.863440	11679.720797
493.230939	11340.128509
493.598380	11272.337593
493.965763	11139.997222
494.333088	11037.427385
494.700354	10963.493823
495.067563	11028.106292
495.434713	10851.058448
495.801805	10983.287913
496.168839	10900.131560
496.535815	10836.156797
496.902733	10843.700884
497.269593	10778.022211
497.636395	10870.691222
498.003139	10861.062618
498.369825	10728.820550
498.736453	10888.930116
499.103023	10805.640172
499.469535	10839.529329
499.835989	10828.567340
500.202385	10795.104161
500.568723	10639.801334
500.935003	10867.260717
501.301226	10672.770481
501.667390	10928.175499
502.033497	11028.368432
502.399546	10880.176153
502.765537	10792.180292
503.131470	10867.444719
503.497345	11042.297140
503.863163	10648.794753
504.228923	10957.255395
504.594625	11030.442867
504.960269	10777.132447
505.325856	10998.857517
505.691385	10793.455704
506.056856	10945.191914
506.422270	10974.415483
506.787625	10868.969668
507.152924	10971.305091
507.518164	10955.576691
507.883347	10882.353931
508.248472	10794.032916
508.613540	11029.835407
508.978550	10919.454303
509.343503	10889.895497
509.708398	11008.085349
510.073236	11126.454162
510.438016	11131.782662
510.802738	11072.964999
511.167403	11127.560695
511.532010	11025.061435
511.896561	11258.918041
512.261053	11321.083030
512.625488	11200.281860
512.989866	11170.561738
513.354186	11162.695017
513.718449	11064.836139
514.082655	11256.788154
514.446803	11151.564149
514.810894	11281.797318
515.174927	11145.129117
515.538904	11167.148877
515.902822	11323.248205
516.266684	11204.120699
516.630488	11153.333594
516.994235	11210.384333
517.357925	11267.871130
517.721558	11352.857422
518.085133	11371.658406
518.448651	11382.454037
518.812112	11268.944896
519.175516	11277.164497
519.538863	11404.788869
519.902152	11321.100674
520.265385	11480.696043
520.628560	11389.751107
520.991678	11368.613549
521.354739	11425.881057
521.717743	11365.200688
522.080690	11342.240752
522.443580	11476.615229
522.806413	11431.325503
523.169189	11456.342229
523.531908	11516.417659
523.894569	11339.659682
524.257174	11350.677123
524.619722	11463.742642
524.982213	11414.329252
525.344647	11463.180554
525.707025	11408.342882
526.069345	11506.935249
526.431608	11422.490881
526.793815	11533.915504
527.155964	11319.611013
527.518057	11371.615556
527.880093	11327.815491
528.242072	11393.627754
528.603995	11303.451594
528.965860	11221.099305
529.327669	11268.271902
529.689421	11218.775333
530.051117	11191.963956
530.412755	11296.212497
530.774337	11191.598473
531.135862	11170.002170
531.497331	11191.671569
531.858743	11044.742099
532.220098	11206.578261
532.581396	11078.742162
532.942638	11064.667260
533.303824	11030.049657
533.664953	11037.291274
534.026025	10955.632143
534.387040	11054.663090
534.747999	11048.850640
535.108902	11112.054106
535.469748	10871.555780
535.830537	10975.728703
536.191270	10950.054107
536.551947	10970.848866
536.912567	10970.438012
537.273131	10898.336909
537.633638	10877.620288
537.994089	10865.382887
538.354483	10810.888014
538.714821	10962.452825
539.075103	10969.487755
539.435328	10934.582806
539.795497	10763.843966
540.155609	10916.530434
540.515665	11003.334062
540.875665	10740.221119
541.235609	10805.020111
541.595496	10803.790069
541.955328	10958.404778
542.315102	10843.106028
542.674821	10795.383945
543.034483	10793.463265
543.394090	10796.792948
543.753640	10727.323327
544.113134	10946.958838
544.472571	10803.553135
544.831953	10943.903899
545.191278	10755.563871
545.550548	10780.363827
545.909761	10919.822307
546.268918	10892.920190
546.628019	10968.235028
546.987064	10839.640235
547.346053	10760.589901
547.704986	10861.884326
548.063863	10842.690133
548.422684	10836.731489
548.781449	10757.343398
549.140158	10851.930568
549.498811	10735.379091
549.857408	10586.617161
550.215949	10816.289610
550.574434	10667.557928
550.932864	10765.918401
551.291237	10827.924593
551.649555	10774.180852
552.007817	10788.656525
552.366022	10748.591955
552.724173	10740.745399
553.082267	10728.424819
553.440305	10862.607732
553.798288	10660.195322
554.156215	10824.012658
554.514086	10798.678339
554.871902	10640.033227
555.229661	10679.129896
555.587365	10656.739611
555.945014	10551.518128
556.302606	10685.118787
556.660143	10575.209030
557.017625	10731.910777
557.375050	10622.497574
557.732421	10758.943964
558.089735	10667.091621
558.446994	10671.908443
558.804197	10709.036541
559.161345	10714.579290
559.518437	10563.689994
559.875474	10639.292178
560.232455	10677.501603
560.589381	10628.630138
560.946251	10622.699220
561.303065	10726.708306
561.659825	10666.050622
562.016528	10592.197719
562.373177	10476.750254
562.729770	10593.659653
563.086307	10504.716055
563.442789	10603.280695
563.799216	10479.336366
564.155587	10528.817812
564.511904	10476.611623
564.868164	10470.587444
565.224370	10486.507408
565.580520	10410.804400
565.936615	10407.210058
566.292654	10284.455441
566.648638	10417.312530
567.004567	10369.003153
567.360441	10358.255413
567.716260	10264.338717
568.072023	10357.453869
568.427732	10306.553339
568.783385	10220.281553
569.138982	10291.379466
569.494525	10312.794287
569.850013	10184.081027
570.205445	10257.439898
570.560823	10162.688890
570.916145	10079.361138
571.271412	10152.321757
571.626625	10094.910577
571.981782	10071.519623
572.336884	10051.576818
572.691931	10054.145286
573.046923	9999.950362
573.401860	9955.568043
573.756743	9890.249813
574.111570	9936.101628
574.466342	9918.339122
574.821059	9949.090161
575.175722	9836.866514
575.530330	9854.195481
575.884882	9834.635804
576.239380	9771.056772
576.593823	9745.919058
576.948211	9763.863045
577.302544	9644.034818
577.656823	9656.239452
578.011047	9657.955964
578.365216	9629.430595
578.719330	9551.464110
579.073389	9559.454339
579.427394	9510.025825
579.781344	9493.987394
580.135239	9439.159805
580.489080	9447.200446
580.842866	9350.478347
581.196597	9353.366928
581.550273	9397.993743
581.903895	9359.983443
582.257463	9430.950286
582.610975	9312.145413
582.964434	9333.000667
583.317837	9255.583667
583.671186	9240.555988
584.024481	9230.400583
584.377721	9154.687494
584.730906	9130.411817
585.084037	9166.572014
585.437113	9095.474101
585.790135	9119.091906
586.143103	9018.578860
586.496016	8990.671033
586.848874	9045.733036
587.201679	9034.090491
587.554428	8924.468080
587.907124	8968.729411
588.259765	8939.888969
588.612352	8938.548022
588.964884	8825.111979
589.317362	8832.711518
589.669786	8838.496242
590.022155	8890.024396
590.374470	8893.006239
590.726731	8833.283689
591.078937	8689.729272
591.431090	8801.375706
591.783188	8671.240840
592.135232	8663.134664
592.487222	8665.718256
592.839157	8720.210608
593.191038	8649.722675
593.542866	8598.854912
593.894639	8494.959252
594.246358	8548.478661
594.598022	8565.288389
594.949633	8457.175803
595.301190	8433.631094
595.652692	8464.586300
596.004141	8579.476716
596.355535	8352.103034
596.706876	8332.351793
597.058162	8265.332173
597.409395	8339.626178
597.760573	8406.010613
598.111698	8308.978483
598.462768	8302.256105
598.813785	8265.909385
599.164748	8231.576607
599.515657	8228.756082
599.866511	8132.679251
600.217312	8261.831092
600.568060	8116.318186
600.918753	8227.836071
601.269392	8190.990278
601.619978	8095.495700
601.970510	8167.574118
602.320988	8165.235023
602.671412	8218.794762
603.021783	8161.113879
603.372100	8127.096173
603.722363	8131.207234
604.072572	8112.353319
604.422728	8122.332283
604.772830	8046.120119
605.122878	8056.928353
605.472872	8044.156589
605.822813	8082.688649
606.172701	8027.306533
606.522534	8098.898479
606.872314	8100.786391
607.222041	8074.204387
607.571714	8128.822768
607.921333	8082.156807
608.270899	8090.346162
608.620411	8177.739605
608.969870	8081.798885
609.319276	8074.509377
609.668627	8092.322294
610.017926	8127.116338
610.367171	8172.852206
610.716362	8151.901171
611.065500	8140.311558
611.414585	8167.009509
611.763616	8160.138416
612.112594	8138.302658
612.461518	8151.029051
612.810389	8216.836273
613.159207	8150.232549
613.507971	8096.587110
613.856682	8221.854742
614.205340	8173.777258
614.553945	8253.588805
614.902496	8148.137949
615.250994	8202.466464
615.599439	8186.569186
615.947830	8194.440947
616.296169	8170.472781
616.644454	8186.334772
616.992686	8181.336468
617.340864	8241.505160
617.688990	8144.843555
618.037063	8237.905776
618.385082	8186.478445
618.733048	8266.864684
619.080961	8204.004016
619.428821	8221.204433
619.776628	8230.795228
620.124382	8176.791868
620.472083	8160.947521
620.819731	8186.362498
621.167326	8085.932631
621.514868	8090.227694
621.862357	7984.928073
622.209793	7998.929878
622.557176	7930.803725
622.904506	7899.346925
623.251783	7839.515990
623.599007	7789.807693
623.946179	7793.918754
624.293297	7752.737568
624.640363	7673.969539
624.987376	7650.336610
625.334336	7602.904393
625.681243	7545.616721
626.028097	7539.930299
626.374899	7516.955241
626.721647	7502.683734
627.068343	7437.156296
627.414987	7406.911893
627.761577	7361.667538
628.108115	7405.323930
628.454600	7293.238915
628.801032	7342.221287
629.147412	7305.909856
629.493739	7296.848382
629.840014	7226.395736
630.186236	7284.389170
630.532405	7173.584608
630.878521	7222.498924
631.224585	7178.744229
631.570597	7098.743638
631.916556	7129.759337
632.262462	7128.990561
632.608316	7084.726710
632.954117	7058.522792
633.299866	7048.884106
633.645562	7042.053343
633.991206	6962.945036
634.336797	6902.642754
634.682336	6867.493308
635.027823	6829.427556
635.373257	6820.620660
635.718639	6746.765236
636.063968	6767.355828
636.409245	6658.998747
636.754470	6656.402553
637.099642	6616.317818
637.444762	6556.973355
637.789829	6573.503298
638.134845	6505.924111
638.479808	6493.570763
638.824719	6499.894891
639.169577	6431.378048
639.514383	6445.621828
639.859137	6377.687239
640.203839	6385.203599
640.548489	6369.991918
640.893086	6344.597105
641.237632	6321.319577
641.582125	6335.568399
641.926566	6308.895654
642.270955	6318.919988
642.615292	6320.515513
642.959576	6331.273336
643.303809	6315.736499
643.647990	6324.268652
643.992118	6311.098638
644.336195	6260.593838
644.680219	6284.690553
645.024192	6269.302431
645.368112	6368.098964
645.711981	6384.054216
646.055797	6464.866433
646.399562	6419.327170
646.743274	6543.173196
647.086935	6594.497184
647.430544	6590.169353
647.774101	6608.042764
648.117606	6611.374967
648.461059	6600.155879
648.804460	6569.084727
649.147810	6474.885726
649.491108	6446.496468
649.834354	6421.376399
650.177548	6333.463717
650.520690	6249.079843
650.863781	6224.904989
651.206820	6246.324852
651.549807	6165.008520
651.892742	6106.342092
652.235626	6110.382577
652.578458	6100.264981
652.921238	6002.453994
653.263967	6042.364809
653.606644	5983.126210
653.949269	5981.757537
654.291843	5926.244350
654.634365	5972.847297
654.976836	5921.649339
655.319255	5922.347538
655.661622	5898.850720
656.003938	5893.738990
656.346203	5851.242063
656.688416	5882.406477
657.030577	5837.414178
657.372687	5803.535104
657.714746	5789.545902
658.056753	5831.647098
658.398708	5771.816164
658.740612	5763.558754
659.082465	5806.552235
659.424266	5795.239885
659.766016	5794.576974
660.107715	5760.990286
660.449362	5778.135250
660.790958	5776.322956
661.132503	5760.836531
661.473996	5792.212673
661.815438	5776.459067
662.156829	5776.078460
662.498168	5765.418940
662.839456	5737.579168
663.180693	5769.729126
663.521879	5772.234580
663.863013	5760.748311
664.204097	5773.199961
664.545129	5810.973327
664.886110	5803.585516
665.227040	5834.392007
665.567918	5798.435977
665.908746	5822.396581
666.249522	5826.797508
666.590248	5807.943593
666.930922	5830.701882
667.271545	5842.127657
667.612118	5839.405434
667.952639	5818.025901
668.293109	5831.884033
668.633528	5787.237054
668.973896	5792.983969
669.314213	5778.251197
669.654480	5758.275625
669.994695	5753.796560
670.334859	5743.121916
670.674973	5727.060800
671.015035	5732.180092
671.355047	5723.121138
671.695008	5705.943407
672.034918	5677.234036
672.374777	5691.298855
672.714585	5670.463766
673.054342	5668.454866
673.394049	5663.426315
673.733705	5690.013361
674.073310	5668.243138
674.412864	5634.001100
674.752368	5614.559890
675.091820	5621.879646
675.431223	5567.871244
675.770574	5556.284152
676.109875	5506.727089
676.449125	5512.141288
676.788324	5479.109128
677.127473	5421.629892
677.466571	5412.341566
677.805619	5396.693824
678.144616	5380.050455
678.483562	5362.114029
678.822458	5332.610676
679.161303	5321.013502
679.500098	5308.932377
679.838842	5290.360766
680.177535	5289.637360
680.516179	5303.336696
680.854771	5310.734589
681.193314	5383.624633
681.531805	5478.201720
681.870247	5606.494044
682.208638	5695.251119
682.546978	5707.750660
682.885268	5682.101270
683.223508	5597.535914
683.561697	5547.550353
683.899836	5516.695971
684.237925	5473.049661
684.575963	5432.531387
684.913951	5397.029061
685.251889	5439.316780
685.589776	5410.625053
685.927614	5388.562443
686.265401	5436.803765
686.603137	5427.316313
686.940824	5482.141382
687.278460	5503.599053
687.616046	5502.726933
687.953582	5557.786416
688.291068	5540.966606
688.628504	5587.514100
688.965889	5554.350869
689.303224	5496.793495
689.640510	5448.365651
689.977745	5375.841091
690.314930	5288.014109
690.652065	5241.799331
690.989150	5163.293442
691.326185	5084.094395
691.663170	5031.736971
692.000105	4961.876661
692.336990	4894.844438
692.673825	4863.112895
693.010610	4807.322446
693.347345	4750.599382
693.684030	4715.734762
694.020665	4682.944577
694.357251	4606.727372
694.693786	4609.913382
695.030272	4577.206375
695.366707	4543.196231
695.703093	4516.301675
696.039429	4530.006052
696.375716	4502.599819
696.711952	4480.534689
697.048139	4474.071929
697.384276	4449.350111
697.720363	4451.117035
698.056400	4454.877736
698.392388	4408.380654
698.728326	4394.983787
699.064214	4375.900499
699.400053	4363.090928
699.735842	4326.862675
700.071581	4310.264676
700.407270	4281.701499
700.742910	4263.089559
701.078501	4214.586097
701.414042	4209.295406
701.749533	4177.122762
702.084974	4131.666678
702.420366	4167.048016
702.755709	4116.775109
703.091002	4073.743820
703.426246	4100.600567
703.761440	4073.650559
704.096584	4042.642422
704.431679	4047.393709
704.766725	4031.693035
705.101721	4014.454810
705.436668	4038.097821
705.771565	4003.805372
706.106413	4017.910521
706.441212	4038.743089
706.775961	4038.039848
707.110661	4033.074312
707.445311	4059.126995
707.779913	4054.524421
708.114465	4069.337852
708.448967	4088.579936
708.783421	4134.371257
709.117825	4163.115916
709.452180	4166.158253
709.786485	4198.416596
710.120742	4268.193727
710.454949	4254.547323
710.789107	4300.552893
711.123216	4355.539279
711.457275	4351.975183
711.791286	4399.795569
712.125247	4402.263213
712.459159	4341.580324
712.793023	4401.164242
713.126837	4340.191486
713.460602	4332.380218
713.794318	4293.409578
714.127985	4283.917086
714.461602	4204.629818
714.795171	4190.486861
715.128691	4134.346051
715.462162	4080.498966
715.795584	4037.069426
716.128957	4021.157024
716.462281	3990.993280
716.795556	3962.120071
717.128782	3922.615069
717.461960	3866.655741
717.795088	3871.296123
718.128167	3836.572655
718.461198	3797.448260
718.794180	3794.020276
719.127113	3768.784259
719.459997	3746.411619
719.792833	3715.078327
720.125619	3714.586814
720.458357	3674.754137
720.791046	3672.762882
721.123686	3654.690345
721.456278	3624.861838
721.788821	3631.715286
722.121315	3608.122686
722.453761	3591.343206
722.786158	3589.883792
723.118506	3607.323663
723.450805	3579.536823
723.783056	3593.329420
724.115259	3590.786158
724.447412	3589.379676
724.779518	3593.221036
725.111574	3590.226590
725.443582	3613.045373
725.775542	3598.292436
726.107453	3630.124802
726.439315	3629.156901
726.771129	3650.642298
727.102895	3670.305319
727.434612	3695.185934
727.766281	3710.866443
728.097901	3711.302503
728.429473	3708.527348
728.760996	3711.458778
729.092471	3712.348542
729.423897	3693.151828
729.755276	3687.236034
730.086606	3692.902291
730.417887	3723.287846
730.749120	3765.973816
731.080305	3797.110503
731.411442	3818.540448
731.742530	3799.510092
732.073570	3801.067809
732.404562	3828.988239
732.735506	3823.359791
733.066401	3796.850883
733.397249	3752.032505
733.728048	3692.937579
734.058798	3617.867237
734.389501	3565.444278
734.720156	3529.533618
735.050762	3497.287878
735.381320	3481.090651
735.711831	3449.533027
736.042293	3424.201229
736.372707	3433.063578
736.703073	3414.071031
737.033391	3413.299734
737.363661	3419.840631
737.693883	3429.945624
738.024056	3438.082047
738.354182	3442.253601
738.684260	3477.786174
739.014290	3492.982733
739.344272	3494.225377
739.674207	3516.414016
740.004093	3523.937938
740.333931	3518.904346
740.663722	3508.222141
740.993464	3508.968231
741.323159	3490.648678
741.652806	3464.401911
741.982405	3443.924744
742.311956	3421.708379
742.641460	3414.398706
742.970915	3392.411713
743.300323	3363.704863
743.629683	3342.320288
743.958996	3331.191941
744.288260	3311.158396
744.617477	3285.118315
744.946647	3275.061213
745.275768	3256.030858
745.604842	3246.538365
745.933869	3222.592884
746.262847	3217.947461
746.591778	3227.868452
746.920662	3210.839434
747.249498	3201.135213
747.578286	3218.743963
747.907027	3233.133937
748.235720	3240.284814
748.564365	3246.659353
748.892963	3237.935636
749.221514	3229.622773
749.550017	3219.560630
749.878473	3214.345557
750.206881	3192.368646
750.535242	3186.856145
750.863555	3184.602749
751.191821	3179.158303
751.520039	3173.847447
751.848210	3159.079387
752.176334	3173.892817
752.504411	3169.617919
752.832440	3151.416833
753.160421	3144.802839
753.488356	3141.251346
753.816243	3142.718322
754.144082	3120.960702
754.471875	3114.500463
754.799620	3118.170423
755.127318	3115.178499
755.454969	3113.053652
755.782572	3115.042387
756.110129	3103.215841
756.437638	3098.393977
756.765100	3100.085284
757.092515	3105.968311
757.419882	3108.899742
757.747203	3094.318204
758.074477	3096.639655
758.401703	3104.082919
758.728882	3113.973663
759.056014	3112.388220
759.383099	3118.908953
759.710138	3120.539766
760.037129	3131.227012
760.364073	3138.297230
760.690970	3127.607463
761.017820	3123.214098
761.344623	3130.523771
761.671379	3153.153511
761.998088	3178.263498
762.324751	3251.513984
762.651366	3408.404774
762.977935	3721.669636
763.304456	3975.146413
763.630931	4003.891072
763.957359	3794.627735
764.283740	3586.049994
764.610074	3451.829273
764.936362	3326.647341
765.262602	3240.889752
765.588796	3174.694361
765.914943	3121.215280
766.241044	3072.870615
766.567097	3049.777089
766.893104	3022.249869
767.219064	3003.247239
767.544978	2985.512460
767.870845	2960.780559
768.196665	2950.055504
768.522438	2946.307407
768.848165	2936.741817
769.173846	2917.114085
769.499479	2913.945719
769.825066	2903.404667
770.150607	2891.983933
770.476101	2892.538460
770.801548	2890.683315
771.126949	2867.884697
771.452303	2859.735672
771.777611	2855.183510
772.102872	2856.010259
772.428087	2845.270081
772.753256	2839.291272
773.078378	2831.606033
773.403453	2815.471820
773.728482	2807.683237
774.053465	2813.959474
774.378401	2809.913948
774.703291	2796.081022
775.028135	2796.138995
775.352932	2787.548869
775.677683	2782.797582
776.002388	2782.089299
776.327046	2779.538476
776.651658	2774.628392
776.976224	2766.887700
777.300743	2765.808893
777.625216	2759.691453
777.949643	2760.861001
778.274024	2759.227667
778.598359	2751.723909
778.922647	2748.820205
779.246889	2751.968405
779.571086	2744.290728
779.895236	2745.203177
780.219339	2747.902715
780.543397	2753.700042
780.867409	2751.628127
781.191374	2752.447315
781.515294	2748.943713
781.839167	2753.006883
782.162995	2743.839545
782.486776	2747.723754
782.810511	2743.617734
783.134201	2740.628330
783.457844	2739.700757
783.781441	2737.812845
784.104993	2727.322204
784.428498	2727.145764
784.751958	2730.717421
785.075372	2727.791031
785.398739	2721.529918
785.722061	2724.756257
786.045337	2728.965620
786.368568	2730.157853
786.691752	2721.781976
787.014891	2740.545151
787.337983	2758.063160
787.661030	2781.318003
787.984031	2812.805050
788.306987	2835.147444
788.629897	2830.030672
788.952760	2817.543734
789.275579	2803.756179
789.598351	2775.629061
789.921078	2757.468304
790.243759	2746.239134
790.566395	2731.259345
790.888984	2725.895557
791.211529	2716.055225
791.534027	2713.020451
791.856480	2706.280428
792.178888	2700.914120
792.501249	2696.321628
792.823566	2694.368181
793.145836	2692.006401
793.468062	2691.620752
793.790241	2688.144877
794.112375	2690.524302
794.434464	2697.221474
794.756507	2697.002184
795.078505	2700.803214
795.400457	2712.564226
795.722364	2724.204250
796.044226	2739.534399
796.366042	2746.274422
796.687812	2736.613051
797.009538	2742.145717
797.331218	2732.081053
797.652852	2726.934035
797.974442	2718.583364
798.295986	2715.122612
798.617484	2710.714123
798.938938	2704.700026
799.260346	2698.411187
799.581709	2692.639066
799.903026	2691.023376
800.224299	2687.615556
800.545526	2683.428877
800.866708	2676.003258
801.187845	2675.345387
801.508936	2671.932526
801.829983	2672.431600
802.150984	2665.615960
802.471940	2665.260559
802.792851	2661.502379
803.113717	2664.098573
803.434538	2662.893737
803.755314	2659.004487
804.076045	2659.864004
804.396731	2656.781338
804.717372	2658.780156
805.037967	2658.306287
805.358518	2656.975423
805.679024	2663.208809
805.999485	2662.172852
806.319901	2665.641166
806.640272	2662.750064
806.960598	2665.474808
807.280879	2666.767864
807.601115	2671.201559
807.921306	2664.166629
808.241453	2666.200734
808.561554	2665.537822
808.881611	2664.317863
809.201623	2664.496824
809.521590	2663.602019
809.841513	2658.820485
810.161390	2661.557832
810.481223	2651.825884
810.801011	2653.252531
811.120755	2648.738177
811.440453	2653.106337
811.760107	2648.760862
812.079716	2644.559061
812.399281	2639.621251
812.718801	2639.923720
813.038276	2635.580766
813.357707	2637.284676
813.677093	2639.084368
813.996434	2638.418935
814.315731	2635.558081
814.634983	2630.516927
814.954191	2637.307361
815.273354	2640.332053
815.592473	2640.871457
815.911547	2642.991262
816.230577	2645.758855
816.549562	2652.045174
816.868502	2649.562406
817.187399	2652.766059
817.506250	2658.502892
817.825058	2652.486275
818.143821	2657.408962
818.462539	2663.518840
818.781213	2670.243740
819.099843	2687.650844
819.418429	2708.052393
819.736970	2734.493245
820.055466	2762.935435
820.373919	2794.803089
820.692327	2838.202383
821.010691	2909.416243
821.329011	3118.147738
821.647286	3586.198708
821.965517	4292.424033
822.283704	4670.175335
822.601847	4630.430878
822.919945	4254.156634
823.237999	3919.424019
823.556010	3616.198615
823.873976	3376.814383
824.191897	3201.803166
824.509775	3074.715677
824.827609	2971.709781
825.145398	2926.309149
825.463144	2924.378387
825.780845	2951.870320
826.098502	3000.756909
826.416116	3128.555200
826.733685	3263.179214
827.051210	3293.385808
827.368692	3224.889130
827.686129	3096.768205
828.003522	2969.557208
828.320872	2867.357896
828.638177	2803.017650
828.955439	2754.161307
829.272656	2722.845659
829.589830	2697.786084
829.906960	2680.658763
830.224046	2667.282062
830.541088	2655.334527
830.858086	2649.711120
831.175041	2644.233906
831.491952	2641.622589
831.808819	2642.968577
832.125642	2651.813281
832.442421	2665.258038
832.759157	2700.236084
833.075849	2770.320726
833.392497	2867.246991
833.709101	2933.192845
834.025662	2918.954106
834.342179	2857.625949
834.658653	2787.589198
834.975083	2735.682958
835.291469	2704.838658
835.607811	2670.266425
835.924110	2652.244300
836.240366	2638.492032
836.556578	2627.638428
836.872746	2616.512601
837.188871	2609.603700
837.504952	2605.671600
837.820990	2600.247318
838.136984	2597.096597
838.452935	2595.604416
838.768842	2593.923191
839.084706	2602.417535
839.400526	2626.731020
839.716303	2676.383865
840.032037	2707.512990
840.347727	2698.131403
840.663373	2673.959070
840.978977	2643.994452
841.294537	2618.261882
841.610054	2608.817280
841.925527	2598.281268
842.240957	2590.296081
842.556344	2585.925400
842.871687	2580.730491
843.186987	2579.790316
843.502244	2572.001733
843.817458	2569.521486
844.132629	2571.505180
844.447756	2568.142730
844.762840	2562.032852
845.077881	2563.577965
845.392879	2560.850701
845.707833	2561.821123
846.022745	2560.444888
846.337613	2562.572255
846.652438	2560.838098
846.967221	2561.735424
847.281960	2560.162584
847.596656	2565.780950
847.911309	2562.100907
848.225919	2562.118551
848.540485	2558.350289
848.855009	2559.020762
849.169490	2558.735937
849.483928	2561.531257
849.798323	2558.937583
850.112675	2559.051009
850.426984	2558.042778
850.741251	2558.020093
851.055474	2556.180072
851.369654	2556.270813
851.683792	2560.591082
851.997887	2558.246945
852.311938	2557.722665
852.625947	2558.435988
852.939914	2559.769374
853.253837	2559.643345
853.567718	2560.245763
853.881555	2557.155535
854.195350	2559.711400
854.509103	2556.064126
854.822812	2557.369784
855.136479	2557.160577
855.450103	2557.528581
855.763685	2558.536812
856.077224	2556.989177
856.390720	2557.155535
856.704173	2557.047151
857.017584	2560.782646
857.330953	2556.792572
857.644278	2558.340207
857.957561	2562.421021
858.270802	2561.564024
858.584000	2561.672409
858.897155	2559.156873
859.210268	2559.408931
859.523339	2557.989846
859.836367	2558.748540
860.149352	2557.059753
860.462295	2559.973540
860.775195	2551.753939
861.088054	2553.846018
861.400869	2554.703014
861.713642	2552.217725
862.026373	2552.114382
862.339062	2555.277706
862.651708	2560.197872
862.964312	2555.159238
863.276873	2558.118396
863.589392	2559.224929
863.901869	2559.305587
864.214303	2562.998233
864.526696	2559.124106
864.839045	2561.919426
865.151353	2562.360527
865.463619	2563.204920
865.775842	2562.970506
866.088023	2560.888510
866.400162	2561.150650
866.712258	2560.099569
867.024313	2563.008315
867.336325	2560.656617
867.648296	2560.873386
867.960224	2561.332131
868.272110	2560.611246
868.583954	2560.875907
868.895755	2560.596123
869.207515	2561.314487
869.519233	2562.060578
869.830909	2561.803479
870.142542	2561.846329
870.454134	2563.537636
870.765684	2561.916905
871.077191	2563.588048
871.388657	2564.969324
871.700081	2565.213820
872.011463	2562.113510
872.322803	2564.200548
872.634101	2566.322874
872.945357	2568.629202
873.256571	2569.776064
873.567744	2569.029973
873.878874	2570.381002
874.189963	2568.876218
874.501010	2569.307237
874.812015	2569.090467
875.122979	2570.534758
875.433900	2567.573080
875.744780	2570.943091
876.055618	2570.648184
876.366415	2568.241033
876.677169	2568.999726
876.987882	2568.394788
877.298554	2565.478480
877.609183	2568.954356
877.919771	2567.215158
878.230317	2569.329922
878.540822	2575.233113
878.851285	2581.990780
879.161707	2587.031934
879.472087	2591.727768
879.782425	2613.553444
880.092722	2640.662249
880.402977	2693.947245
880.713191	2796.108748
881.023363	2931.861980
881.333494	3021.743233
881.643583	3058.478121
881.953631	3031.230684
882.263637	2962.766774
882.573602	2888.699621
882.883526	2832.672237
883.193408	2785.386214
883.503248	2747.930441
883.813048	2715.205791
884.122806	2680.900739
884.432522	2660.852070
884.742197	2637.763585
885.051831	2627.358644
885.361424	2617.036881
885.670975	2606.412650
885.980485	2599.221444
886.289954	2595.659868
886.599382	2590.724579
886.908768	2587.208374
887.218113	2581.650502
887.527417	2577.305027
887.836680	2574.827300
888.145901	2573.030129
888.455082	2571.853019
888.764221	2568.626681
889.073319	2565.312122
889.382376	2566.842112
889.691392	2566.942936
890.000366	2567.114335
890.309300	2566.451423
890.618193	2568.319171
890.927044	2567.865467
891.235855	2568.460323
891.544625	2566.890003
891.853353	2568.830848
892.162041	2572.014336
892.470687	2576.049780
892.779293	2574.671024
893.087858	2582.449525
893.396381	2584.891964
893.704864	2597.893100
894.013306	2617.316665
894.321707	2647.049391
894.630068	2663.140754
894.938387	2667.803821
895.246665	2662.432472
895.554903	2649.060811
895.863100	2632.722432
896.171256	2618.279526
896.479371	2606.508432
896.787446	2595.581731
897.095480	2590.984198
897.403473	2586.984043
897.711425	2578.091447
898.019336	2578.436766
898.327207	2574.101374
898.635038	2573.511559
898.942827	2572.173133
899.250576	2568.321691
899.558284	2566.559808
899.865952	2567.656259
900.173579	2563.240208
900.481165	2564.659293
900.788711	2562.012687
901.096216	2560.296174
901.403681	2557.523540
901.711105	2560.306257
902.018489	2561.614436
902.325832	2564.959242
902.633135	2562.085784
902.940397	2567.517627
903.247619	2572.863771
903.554800	2595.717842
903.861941	2634.973307
904.169041	2673.399502
904.476101	2692.306349
904.783121	2688.971626
905.090100	2670.463030
905.397039	2646.038639
905.703938	2623.212295
906.010796	2605.764861
906.317614	2597.126844
906.624391	2584.559248
906.931129	2578.449369
907.237826	2571.094326
907.544483	2563.278017
907.851099	2561.062430
908.157675	2557.904147
908.464211	2554.113199
908.770707	2549.102292
909.077163	2551.554813
909.383578	2547.259750
909.689954	2543.781354
909.996289	2544.366128
910.302584	2552.716799
910.608839	2549.684545
910.915054	2547.990718
911.221229	2548.862837
911.527363	2548.129349
911.833458	2548.507436
912.139513	2549.094730
912.445527	2550.438198
912.751502	2553.127653
913.057436	2553.926676
913.363331	2556.779969
913.669186	2558.564538
913.975000	2559.812223
914.280775	2567.174829
914.586510	2573.372927
914.892205	2587.309197
915.197859	2603.876949
915.503475	2627.028448
915.809050	2647.722385
916.114585	2655.803354
916.420081	2663.057575
916.725536	2660.484066
917.030952	2649.199443
917.336328	2635.842906
917.641665	2621.868827
917.946961	2609.137393
918.252218	2597.109200
918.557435	2590.601071
918.862612	2583.349371
919.167750	2578.272929
919.472848	2574.630695
919.777906	2568.772874
920.082925	2567.091650
920.387904	2562.829354
920.692843	2564.160219
920.997743	2558.788869
921.302603	2558.171328
921.607423	2558.141081
921.912204	2553.634289
922.216946	2552.983981
922.521647	2553.999773
922.826310	2552.701676
923.130932	2552.699155
923.435516	2548.210008
923.740059	2550.430636
924.044564	2548.946016
924.349028	2548.489792
924.653454	2543.040305
924.957840	2544.040974
925.262186	2542.090047
925.566493	2542.316899
925.870761	2542.977290
926.174989	2542.818494
926.479178	2545.104657
926.783328	2544.749256
927.087438	2542.939482
927.391509	2545.233207
927.695541	2540.756662
927.999533	2542.142979
928.303486	2542.934440
928.607400	2541.540561
928.911275	2540.736497
929.215110	2542.069883
929.518906	2541.084337
929.822663	2541.701878
930.126381	2540.612989
930.430060	2542.846220
930.733699	2542.145500
931.037299	2540.552495
931.340861	2542.969728
931.644383	2542.929399
931.947866	2542.715150
932.251309	2542.518545
932.554714	2540.091230
932.858080	2543.839327
933.161407	2538.755324
933.464694	2540.013092
933.767943	2541.527958
934.071153	2540.239944
934.374323	2539.093081
934.677455	2543.272198
934.980548	2537.570653
935.283602	2539.675334
935.586617	2538.583925
935.889593	2538.999820
936.192530	2541.273380
936.495428	2539.564429
936.798287	2540.398740
937.101108	2538.546116
937.403890	2541.563247
937.706632	2539.884542
938.009336	2545.901159
938.312002	2546.092723
938.614628	2545.530635
938.917216	2545.422250
939.219765	2545.838145
939.522275	2544.784544
939.824747	2546.445604
940.127179	2542.256405
940.429573	2539.549306
940.731929	2543.430994
941.034246	2542.175747
941.336524	2540.474357
941.638763	2545.079451
941.940964	2544.494677
942.243126	2540.928061
942.545250	2543.062990
942.847335	2542.274049
943.149381	2542.916796
943.451389	2540.416384
943.753359	2540.696168
944.055290	2541.107022
944.357182	2539.022505
944.659036	2540.262629
944.960851	2538.107536
945.262628	2540.877650
945.564367	2543.529297
945.866067	2538.737680
946.167729	2540.973432
946.469352	2540.156765
946.770937	2540.305479
947.072484	2540.234903
947.373992	2540.232382
947.675462	2539.345139
947.976893	2538.914120
948.278286	2540.469316
948.579641	2538.452855
948.880958	2538.513348
949.182236	2539.304810
949.483476	2539.090561
949.784678	2536.887576
950.085841	2539.435880
950.386967	2540.111394
950.688054	2537.847916
950.989103	2540.244985
951.290114	2536.486805
951.591087	2541.185160
951.892021	2540.459234
952.192917	2541.548123
952.493776	2542.909235
952.794596	2540.766744
953.095378	2539.264480
953.396122	2542.304296
953.696828	2539.745911
953.997496	2537.948739
954.298126	2539.403112
954.598718	2538.422608
954.899272	2539.798843
955.199788	2538.074768
955.500266	2539.776158
955.800706	2539.612320
956.101108	2531.448171
956.401472	2536.186856
956.701798	2532.791639
957.002087	2534.820703
957.302337	2533.615868
957.602550	2535.874304
957.902724	2534.596372
958.202861	2535.473533
958.502960	2535.687782
958.803022	2535.720549
959.103045	2534.072092
959.403031	2536.325488
959.702979	2536.138965
960.002889	2534.616537
960.302762	2533.923378
960.602596	2533.719211
960.902393	2534.871115
961.202153	2534.296423
961.501875	2533.094108
961.801559	2532.884900
962.101205	2535.692823
962.400814	2536.244829
962.700385	2533.741896
962.999918	2534.228368
963.299414	2534.858512
963.598873	2536.759027
963.898293	2531.712832
964.197677	2532.920188
964.497022	2534.351876
964.796331	2534.548481
965.095601	2531.939684
965.394835	2532.907585
965.694030	2534.606454
965.993189	2534.871115
966.292309	2535.967566
966.591393	2534.450178
966.890439	2532.153933
967.189447	2535.256763
967.488419	2532.839530
967.787353	2532.776515
968.086249	2534.833306
968.385108	2531.223840
968.683930	2536.194418
968.982714	2535.110570
969.281462	2530.291227
969.580172	2533.746937
969.878844	2533.159643
970.177480	2534.170394
970.476078	2532.383305
970.774639	2532.058151
971.073162	2532.779036
971.371649	2534.109901
971.670098	2530.863397
971.968510	2531.443130
972.266885	2530.525640
972.565223	2534.780374
972.863524	2531.289375
973.161788	2534.026722
973.460014	2531.037317
973.758204	2533.789787
974.056356	2534.553522
974.354471	2533.595703
974.652550	2533.336083
974.950591	2535.440765
975.248595	2532.479087
975.546563	2534.581248
975.844493	2533.613347
976.142386	2530.999509
976.440243	2531.808614
976.738062	2533.998995
977.035845	2533.000847
977.333590	2530.434899
977.631299	2531.092770
977.928971	2531.664941
978.226606	2531.980013
978.524204	2530.916330
978.821765	2533.104190
979.119290	2530.810465
979.416777	2532.411032
979.714228	2532.017822
980.011642	2534.205682
980.309020	2533.749458
980.606360	2532.668131
980.903664	2533.565456
981.200931	2530.649148
981.498162	2532.917668
981.795356	2531.896834
982.092513	2539.047711
982.389633	2531.463295
982.686717	2533.903213
982.983764	2536.582587
983.280775	2539.705581
983.577749	2536.688451
983.874686	2534.694674
984.171587	2535.052596
984.468451	2534.999664
984.765279	2533.434386
985.062070	2535.226516
985.358824	2532.562266
985.655543	2533.658717
985.952224	2533.767102
986.248869	2532.834489
986.545478	2528.262162
986.842050	2527.440454
987.138586	2528.355423
987.435086	2530.286185
987.731549	2527.478263
988.027975	2532.884900
988.324366	2529.353572
988.620719	2531.475898
988.917037	2529.940866
989.213318	2531.450692
989.509563	2530.129910
989.805772	2529.051103
990.101944	2527.576565
990.398080	2529.729138
990.694180	2531.228881
990.990244	2531.112935
991.286271	2529.005732
991.582262	2530.092101
991.878217	2529.814838
992.174136	2532.829447
992.470019	2530.984385
992.765865	2531.017153
993.061676	2529.885414
993.357450	2530.281144
993.653188	2529.522451
993.948890	2529.280475
994.244556	2531.422966
994.540186	2529.643438
994.835780	2530.200486
995.131337	2532.005219
995.426859	2529.802235
995.722345	2531.123017
996.017795	2533.754499
996.313208	2530.409694
996.608586	2530.893644
996.903928	2532.577390
997.199234	2531.314581
997.494504	2531.463295
997.789738	2529.139323
998.084936	2532.466484
998.380099	2529.981196
998.675225	2531.599406
998.970316	2528.481452
999.265371	2528.216792
999.560390	2530.830630
999.855373	2529.804755
1000.150320	2532.405991
1000.445232	2531.662420
1000.740108	2530.530681
1001.034948	2533.477236
1001.329752	2530.596216
1001.624521	2533.046217
1001.919254	2525.217305
1002.213951	2529.358613
1002.508613	2529.151926
1002.803239	2528.292409
1003.097829	2526.054137
1003.392384	2530.132430
1003.686903	2529.603109
1003.981386	2532.786598
1004.275834	2528.829292
1004.570246	2529.688809
1004.864623	2529.111597
1005.158964	2531.576721
1005.453270	2531.937163
1005.747540	2528.622605
1006.041775	2528.403314
1006.335974	2530.646628
1006.630138	2529.121679
1006.924266	2531.062523
1007.218359	2526.888448
1007.512416	2529.366175
1007.806438	2527.637059
1008.100425	2532.635363
1008.394376	2529.935825
1008.688292	2529.749303
1008.982172	2526.855680
1009.276017	2529.862728
1009.569827	2530.298788
1009.863602	2530.565969
1010.157341	2530.170239
1010.451045	2528.554549
1010.744714	2528.741072
1011.038347	2528.925074
1011.331945	2528.854498
1011.625508	2528.063037
1011.919036	2527.271575
1012.212528	2529.898017
1012.505986	2527.632018
1012.799408	2530.119827
1013.092795	2528.935156
1013.386147	2529.613191
1013.679464	2529.406504
1013.972745	2530.082019
1014.265992	2528.292409
1014.559204	2528.088242
1014.852380	2528.925074
1015.145521	2528.335259
1015.438628	2527.062367
1015.731699	2527.753006
1016.024736	2528.259642
1016.317737	2528.279806
1016.610703	2531.370033
1016.903635	2525.809641
1017.196531	2524.226718
1017.489393	2528.602440
1017.782219	2526.008766
1018.075011	2527.269055
1018.367768	2528.365506
1018.660490	2529.550177
1018.953177	2529.550177
1019.245829	2529.550177
