Dividing Wavelength (nm)	Counts (n)	Blue Motor Position (mm): 0.000000	Red Motor Position (mm): 11.500000	
326.493990	2083.765983
326.888308	2083.765983
327.282561	2083.765983
327.676750	2060.798487
328.070874	2064.188663
328.464933	2065.753941
328.858929	2078.883626
329.252859	2094.221337
329.646726	2107.575353
330.040528	2122.212343
330.434265	2141.615744
330.827938	2157.485297
331.221547	2180.944306
331.615091	2202.573377
332.008571	2221.097097
332.401986	2243.217680
332.795338	2261.703591
333.188625	2281.621190
333.581847	2301.652214
333.975006	2320.758188
334.368100	2336.174036
334.761129	2353.056860
335.154095	2372.866074
335.546996	2387.984495
335.939833	2398.081926
336.332606	2415.912487
336.725315	2424.777356
337.117960	2434.622729
337.510540	2443.202773
337.903056	2449.574792
338.295508	2457.159208
338.687896	2466.082050
339.080220	2471.705457
339.472480	2476.207208
339.864676	2480.214925
340.256807	2481.961685
340.648875	2485.165338
341.040879	2486.029896
341.432818	2485.165338
341.824694	2487.653147
342.216506	2485.760194
342.608253	2488.280771
342.999937	2484.530152
343.391557	2486.755822
343.783113	2482.548979
344.174605	2480.623258
344.566033	2481.006386
344.957397	2478.871457
345.348697	2477.447331
345.739934	2476.837352
346.131106	2474.745273
346.522215	2470.775364
346.913260	2473.847948
347.304241	2467.092801
347.695159	2467.412915
348.086012	2470.808132
348.476802	2467.672534
348.867528	2461.108952
349.258191	2462.896041
349.648789	2463.800928
350.039324	2459.137861
350.429796	2461.481997
350.820203	2460.569548
351.210548	2460.990485
351.600828	2458.643828
351.991045	2458.285906
352.381198	2458.248097
352.771288	2459.064764
353.161314	2458.008642
353.551276	2459.384877
353.941175	2459.170628
354.331010	2458.348920
354.720782	2459.147943
355.110490	2458.331276
355.500135	2460.748509
355.889717	2459.594085
356.279235	2461.459312
356.668689	2461.378653
357.058080	2459.483180
357.447408	2457.781790
357.836672	2455.992181
358.225873	2462.623818
358.615010	2459.463015
359.004084	2462.626339
359.393095	2463.339662
359.782043	2466.019036
360.170927	2465.945939
360.559748	2466.787812
360.948505	2469.721763
361.337199	2470.883749
361.725830	2469.101701
362.114398	2468.791670
362.502903	2471.007257
362.891344	2473.661425
363.279722	2471.279480
363.668037	2472.723770
364.056289	2472.544809
364.444478	2476.111426
364.832603	2475.577063
365.220665	2474.410036
365.608665	2474.657053
365.996601	2477.059163
366.384474	2475.985397
366.772284	2476.965901
367.160031	2476.464306
367.547715	2478.054790
367.935336	2478.856334
368.322893	2479.332723
368.710388	2480.562764
369.097820	2481.487816
369.485189	2482.559061
369.872495	2484.671305
370.259738	2484.189875
370.646918	2485.402272
371.034035	2485.089721
371.421090	2488.613487
371.808081	2491.411328
372.195010	2493.059785
372.581875	2498.080774
372.968678	2502.436331
373.355418	2509.325068
373.742096	2517.769000
374.128710	2526.255783
374.515262	2536.829603
374.901751	2550.271840
375.288177	2563.608212
375.674540	2581.544638
376.060841	2599.508789
376.447079	2621.394959
376.833254	2645.920172
377.219367	2663.047492
377.605417	2697.178625
377.991404	2720.771225
378.377329	2757.879158
378.763191	2788.025258
379.148991	2830.411280
379.534727	2876.769730
379.920402	2919.047367
380.306013	2966.235088
380.691563	3024.188192
381.077049	3075.194587
381.462474	3130.027217
381.847835	3200.283258
382.233134	3265.425048
382.618371	3321.812874
383.003545	3400.843043
383.388657	3480.173161
383.773706	3563.881520
384.158693	3631.299391
384.543618	3724.328844
384.928480	3794.385759
385.313280	3895.970050
385.698017	3989.276767
386.082692	4104.850260
386.467305	4166.191020
386.851856	4285.331129
387.236344	4429.409827
387.620770	4486.783199
388.005133	4600.627576
388.389435	4733.151949
388.773674	4816.625895
389.157851	4936.191982
389.541965	5065.958844
389.926018	5086.166309
390.310008	5254.054376
390.693936	5368.261716
391.077802	5471.391121
391.461606	5595.895018
391.845348	5698.464855
392.229027	5807.810002
392.612645	6004.916597
392.996200	6104.517194
393.379694	6260.152737
393.763125	6450.463857
394.146494	6521.609661
394.529801	6628.895497
394.913047	6824.930847
395.296230	6802.969060
395.679351	6827.738769
396.062410	7024.807555
396.445408	6900.338946
396.828343	7008.834659
397.211217	7081.162614
397.594028	6935.180881
397.976778	7066.316416
398.359466	7158.201527
398.742092	7084.517502
399.124656	7144.413972
399.507158	7248.549087
399.889598	7198.797939
400.271977	7304.306769
400.654294	7254.086794
401.036549	7341.535690
401.418742	7286.380426
401.800874	7426.375788
402.182944	7403.700678
402.564952	7582.759942
402.946898	7362.592589
403.328783	7306.739125
403.710606	7342.009558
404.092367	7409.165289
404.474067	7548.714510
404.855705	7301.259391
405.237282	7156.328739
405.618797	7303.341388
406.000250	7337.270874
406.381642	7422.274810
406.762972	7266.243537
407.144240	7034.494132
407.525447	7040.646861
407.906593	6880.595267
408.287677	6889.908799
408.668700	6828.931002
409.049661	6687.516554
409.430560	6631.418594
409.811399	6486.422407
410.192176	6427.826555
410.572891	6319.028373
410.953545	6367.501588
411.334138	6038.715013
411.714669	6122.057889
412.095139	5749.057875
412.475547	5781.782525
412.855894	5614.353203
413.236180	5581.084108
413.616405	5359.585891
413.996568	5316.541998
414.376670	5192.244789
414.756711	5038.708887
415.136691	4990.444880
415.516609	4915.508128
415.896466	4815.267304
416.276262	4763.955920
416.655997	4741.164863
417.035670	4637.249038
417.415283	4642.512003
417.794834	4540.128689
418.174324	4396.100403
418.553753	4273.386115
418.933121	4240.119541
419.312428	4109.835961
419.691674	4003.245804
420.070859	3969.563335
420.449983	3839.932584
420.829045	3808.874035
421.208047	3702.929146
421.586988	3664.724762
421.965867	3608.049590
422.344686	3533.309443
422.723444	3502.185359
423.102141	3346.017974
423.480777	3355.880992
423.859352	3268.258176
424.237866	3268.202724
424.616319	3198.032383
424.994712	3179.193591
425.373044	3119.309724
425.751314	3096.425406
426.129524	3016.883560
426.507673	3013.687469
426.885762	2966.000674
427.263789	2934.032197
427.641756	2904.866601
428.019662	2875.892570
428.397508	2848.950123
428.775292	2828.722493
429.153016	2801.979172
429.530679	2781.479320
429.908282	2762.670775
430.285824	2739.388206
430.663305	2730.636763
431.040726	2714.129504
431.418086	2696.309026
431.795385	2693.967410
432.172624	2685.037006
432.549802	2670.495797
432.926920	2666.004129
433.303977	2656.539363
433.680974	2651.694814
434.057910	2648.009731
434.434786	2643.616365
434.811601	2638.605458
435.188355	2638.045890
435.565050	2633.518934
435.941683	2626.468880
436.318257	2626.297481
436.694770	2622.642644
437.071222	2624.699435
437.447614	2615.063270
437.823946	2612.381376
438.200218	2611.138731
438.576429	2609.084461
438.952580	2609.092023
439.328670	2607.506580
439.704700	2603.350149
440.080670	2602.092381
440.456580	2604.839810
440.832429	2605.099429
441.208218	2597.197420
441.583947	2599.813779
441.959616	2594.669282
442.335224	2596.040476
442.710773	2596.973089
443.086261	2597.457040
443.461689	2592.985536
443.837057	2595.105342
444.212365	2594.452512
444.587612	2597.451999
444.962800	2594.407142
445.337927	2594.107193
445.712995	2587.974629
446.088002	2598.727411
446.462949	2597.686412
446.837837	2596.562235
447.212664	2598.349324
447.587431	2608.255191
447.962139	2623.000566
448.336786	2628.923922
448.711374	2625.614405
449.085901	2610.380038
449.460369	2606.705037
449.834776	2608.338370
450.209124	2616.978908
450.583412	2617.843466
450.957640	2613.901284
451.331808	2611.630244
451.705917	2608.313165
452.079965	2606.586569
452.453954	2605.449789
452.827883	2607.199070
453.201752	2606.258894
453.575562	2605.971549
453.949311	2612.593104
454.323001	2611.796602
454.696632	2609.023967
455.070202	2617.525873
455.443713	2615.491768
455.817164	2618.322376
456.190556	2617.546038
456.563888	2613.097220
456.937160	2616.749536
457.310373	2613.714761
457.683526	2617.596449
458.056619	2614.811212
458.429653	2611.932713
458.802628	2617.571244
459.175542	2620.384207
459.548398	2621.188272
459.921194	2630.088429
460.293930	2630.842081
460.666607	2641.045377
461.039224	2644.775830
461.411782	2647.493012
461.784280	2645.171561
462.156719	2642.300624
462.529099	2639.132259
462.901419	2634.070940
463.273680	2631.353758
463.645882	2630.897534
464.018024	2630.985754
464.390106	2637.017495
464.762130	2648.405461
465.134094	2664.244767
465.505999	2685.034485
465.877845	2703.265818
466.249631	2709.335367
466.621358	2702.575180
466.993026	2693.962368
467.364634	2690.365505
467.736184	2680.744463
468.107674	2677.563495
468.479105	2672.232475
468.850477	2668.559994
469.221790	2668.134017
469.593043	2658.926349
469.964238	2657.759322
470.335373	2655.856287
470.706449	2662.805517
471.077467	2674.160716
471.448425	2697.236598
471.819324	2711.513146
472.190164	2701.115766
472.560945	2686.811492
472.931667	2674.906807
473.302330	2669.893379
473.672934	2667.662669
474.043479	2668.844819
474.413965	2664.186793
474.784393	2659.589261
475.154761	2663.642349
475.525070	2666.210817
475.895321	2661.061278
476.265513	2663.599499
476.635645	2670.521003
477.005719	2666.684685
477.375734	2670.377330
477.745691	2673.825479
478.115588	2678.917045
478.485427	2685.042047
478.855207	2697.826413
479.224928	2708.140614
479.594591	2716.599670
479.964194	2707.981817
480.333739	2707.654142
480.703226	2705.375541
481.072653	2708.327136
481.442022	2706.663556
481.811333	2706.532486
482.180584	2699.006043
482.549777	2694.481607
482.918912	2691.071267
483.287988	2689.334589
483.657005	2683.116326
484.025964	2681.495595
484.394864	2676.351097
484.763706	2676.167095
485.132489	2670.584017
485.501213	2668.945642
485.869879	2668.542350
486.238487	2667.181239
486.607036	2664.229643
486.975527	2661.139416
487.343959	2664.970693
487.712333	2661.956083
488.080648	2660.184117
488.448905	2659.685043
488.817104	2657.577841
489.185244	2662.371978
489.553326	2666.223419
489.921350	2674.213648
490.289315	2682.045081
490.657222	2685.551203
491.025070	2685.241172
491.392861	2681.659432
491.760593	2676.204904
492.128267	2669.848009
492.495883	2661.867862
492.863440	2660.390804
493.230939	2653.786893
493.598380	2651.082314
493.965763	2645.433701
494.333088	2643.540748
494.700354	2638.245016
495.067563	2639.394399
495.434713	2637.483801
495.801805	2639.114615
496.168839	2639.495222
496.535815	2638.129069
496.902733	2637.070427
497.269593	2636.508338
497.636395	2633.891979
498.003139	2634.436424
498.369825	2633.647483
498.736453	2635.923564
499.103023	2633.445837
499.469535	2630.733696
499.835989	2629.843933
500.202385	2627.406535
500.568723	2627.419138
500.935003	2628.694550
501.301226	2627.131792
501.667390	2630.834519
502.033497	2631.633542
502.399546	2624.890999
502.765537	2624.865793
503.131470	2625.110289
503.497345	2626.942749
503.863163	2623.358488
504.228923	2624.404528
504.594625	2622.020062
504.960269	2621.442850
505.325856	2623.363529
505.691385	2622.027624
506.056856	2622.592233
506.422270	2621.881430
506.787625	2618.939917
507.152924	2619.189454
507.518164	2618.203908
507.883347	2617.311624
508.248472	2614.680142
508.613540	2618.050153
508.978550	2617.755246
509.343503	2615.685852
509.708398	2615.227107
510.073236	2616.247941
510.438016	2615.569906
510.802738	2616.167282
511.167403	2616.031171
511.532010	2616.499998
511.896561	2615.486727
512.261053	2616.893208
512.625488	2611.194184
512.989866	2610.863988
513.354186	2609.535644
513.718449	2609.943978
514.082655	2614.942282
514.446803	2611.584873
514.810894	2613.936572
515.174927	2612.356170
515.538904	2613.235851
515.902822	2612.577981
516.266684	2610.538834
516.630488	2611.395830
516.994235	2612.013372
517.357925	2609.112187
517.721558	2608.857609
518.085133	2611.383227
518.448651	2608.751745
518.812112	2611.007661
519.175516	2610.188474
519.538863	2608.209821
519.902152	2607.980448
520.265385	2606.170674
520.628560	2607.141096
520.991678	2607.279728
521.354739	2606.016919
521.717743	2605.313678
522.080690	2607.456168
522.443580	2601.585745
522.806413	2605.313678
523.169189	2602.667072
523.531908	2602.387288
523.894569	2605.336363
524.257174	2604.106322
524.619722	2603.156064
524.982213	2604.885180
525.344647	2602.581373
525.707025	2602.871239
526.069345	2603.246805
526.431608	2602.150354
526.793815	2598.510641
527.155964	2602.500714
527.518057	2601.182452
527.880093	2600.063316
528.242072	2604.219748
528.603995	2598.820672
528.965860	2598.664396
529.327669	2600.285127
529.689421	2597.325970
530.051117	2598.130034
530.412755	2596.824375
530.774337	2596.174066
531.135862	2594.908737
531.497331	2596.824375
531.858743	2590.475042
532.220098	2594.351689
532.581396	2590.046544
532.942638	2589.673498
533.303824	2591.740371
533.664953	2593.540063
534.026025	2591.203488
534.387040	2593.333376
534.747999	2592.720876
535.108902	2593.204827
535.469748	2589.534867
535.830537	2590.921184
536.191270	2588.415730
536.551947	2591.594178
536.912567	2590.974116
537.273131	2590.480083
537.633638	2587.727613
537.994089	2587.674681
538.354483	2586.053950
538.714821	2592.002511
539.075103	2587.735175
539.435328	2589.368508
539.795497	2586.875658
540.155609	2587.485637
540.515665	2587.374732
540.875665	2586.777355
541.235609	2586.343816
541.595496	2583.404823
541.955328	2588.302304
542.315102	2584.715523
542.674821	2584.944896
543.034483	2587.972109
543.394090	2582.126891
543.753640	2583.571182
544.113134	2586.036306
544.472571	2581.930286
544.831953	2585.116295
545.191278	2583.472879
545.550548	2582.336099
545.909761	2585.605287
546.268918	2583.596387
546.628019	2585.985894
546.987064	2583.243507
547.346053	2582.202508
547.704986	2583.354412
548.063863	2583.251068
548.422684	2581.279977
548.781449	2578.749318
549.140158	2583.205698
549.498811	2581.436253
549.857408	2579.505491
550.215949	2580.319637
550.574434	2574.897876
550.932864	2575.976683
551.291237	2577.912486
551.649555	2580.826273
552.007817	2579.296283
552.366022	2580.813670
552.724173	2579.203022
553.082267	2579.036664
553.440305	2580.105388
553.798288	2580.480954
554.156215	2582.872982
554.514086	2579.825604
554.871902	2579.913824
555.229661	2581.073290
555.587365	2579.487847
555.945014	2577.448700
556.302606	2575.994327
556.660143	2577.428536
557.017625	2575.172619
557.375050	2577.652867
557.732421	2578.303176
558.089735	2578.194791
558.446994	2577.844431
558.804197	2580.899370
559.161345	2578.184709
559.518437	2577.567167
559.875474	2575.139852
560.232455	2578.804771
560.589381	2579.447518
560.946251	2577.655387
561.303065	2576.828638
561.659825	2575.412074
562.016528	2576.165727
562.373177	2576.011971
562.729770	2575.275963
563.086307	2576.987435
563.442789	2573.231775
563.799216	2575.888463
564.155587	2573.935016
564.511904	2575.694379
564.868164	2572.760427
565.224370	2577.058011
565.580520	2574.575242
565.936615	2572.624316
566.292654	2575.283525
566.648638	2572.899059
567.004567	2575.636405
567.360441	2573.841755
567.716260	2573.133472
568.072023	2574.986097
568.427732	2570.267577
568.783385	2573.282187
569.138982	2569.758420
569.494525	2572.911662
569.850013	2570.542319
570.205445	2571.094326
570.560823	2571.467371
570.916145	2571.356466
571.271412	2571.913513
571.626625	2572.523493
571.981782	2571.253122
572.336884	2573.108267
572.691931	2569.710529
573.046923	2568.873697
573.401860	2573.624985
573.756743	2570.615416
574.111570	2568.417473
574.466342	2571.863102
574.821059	2569.841599
575.175722	2567.933522
575.530330	2568.576269
575.884882	2570.479305
576.239380	2567.399160
576.593823	2571.177505
576.948211	2568.251115
577.302544	2567.663821
577.656823	2568.540981
578.011047	2568.881259
578.365216	2568.193142
578.719330	2568.082236
579.073389	2566.065775
579.427394	2564.235836
579.781344	2566.761454
580.135239	2566.794222
580.489080	2565.317163
580.842866	2564.339180
581.196597	2564.770198
581.550273	2566.060734
581.903895	2564.886145
582.257463	2566.247256
582.610975	2566.554767
582.964434	2566.385888
583.317837	2565.070147
583.671186	2567.240364
584.024481	2564.268603
584.377721	2564.903789
584.730906	2562.332800
585.084037	2561.937070
585.437113	2561.440516
585.790135	2565.176011
586.143103	2561.697615
586.496016	2563.608212
586.848874	2556.895916
587.201679	2560.170145
587.554428	2557.044630
587.907124	2561.175856
588.259765	2558.917419
588.612352	2563.257852
588.964884	2560.444888
589.317362	2562.809189
589.669786	2560.465053
590.022155	2563.794735
590.374470	2558.693087
590.726731	2561.710218
591.078937	2561.190979
591.431090	2558.698128
591.783188	2558.773746
592.135232	2560.205433
592.487222	2559.189641
592.839157	2560.041596
593.191038	2558.098231
593.542866	2559.781977
593.894639	2557.934394
594.246358	2559.479507
594.598022	2557.667213
594.949633	2560.870866
595.301190	2560.220557
595.652692	2557.629404
596.004141	2557.400031
596.355535	2555.650751
596.706876	2556.666543
597.058162	2554.236707
597.409395	2556.056564
597.760573	2557.142933
598.111698	2555.998591
598.462768	2557.795762
598.813785	2555.534804
599.164748	2555.653272
599.515657	2556.185113
599.866511	2556.018755
600.217312	2556.013714
600.568060	2553.568754
600.918753	2558.264589
601.269392	2556.341389
601.619978	2555.764177
601.970510	2556.429609
602.320988	2555.801986
602.671412	2556.890875
603.021783	2554.574465
603.372100	2554.788714
603.722363	2555.262582
604.072572	2555.131512
604.422728	2554.453477
604.772830	2550.675132
605.122878	2551.174206
605.472872	2554.264434
605.822813	2549.747560
606.172701	2551.973229
606.522534	2552.189999
606.872314	2554.188816
607.222041	2551.133877
607.571714	2553.334341
607.921333	2550.947354
608.270899	2553.203271
608.620411	2553.170503
608.969870	2556.394321
609.319276	2555.691080
609.668627	2554.760987
610.017926	2552.689073
610.367171	2554.047664
610.716362	2554.130843
611.065500	2556.303580
611.414585	2553.747715
611.763616	2556.764846
612.112594	2553.170503
612.461518	2553.888868
612.810389	2551.131357
613.159207	2554.697973
613.507971	2556.928683
613.856682	2554.440874
614.205340	2554.960113
614.553945	2554.024979
614.902496	2553.064639
615.250994	2554.619835
615.599439	2550.959957
615.947830	2557.596636
616.296169	2553.987170
616.644454	2555.060936
616.992686	2552.273178
617.340864	2553.437684
617.688990	2553.530946
618.037063	2552.865513
618.385082	2552.830225
618.733048	2555.562531
619.080961	2555.580175
619.428821	2555.837274
619.776628	2555.892726
620.124382	2553.722510
620.472083	2552.641182
620.819731	2552.074052
621.167326	2553.324258
621.514868	2553.649413
621.862357	2552.386604
622.209793	2551.529608
622.557176	2551.015410
622.904506	2548.169679
623.251783	2547.002652
623.599007	2547.647919
623.946179	2545.185316
624.293297	2548.850234
624.640363	2549.845862
624.987376	2547.980635
625.334336	2551.481717
625.681243	2549.303938
626.028097	2549.051881
626.374899	2551.716130
626.721647	2549.520708
627.068343	2549.399720
627.414987	2549.319062
627.761577	2548.356201
628.108115	2548.066335
628.454600	2547.761345
628.801032	2548.247817
629.147412	2547.431150
629.493739	2547.910059
629.840014	2545.666746
630.186236	2550.024823
630.532405	2547.932744
630.878521	2546.997610
631.224585	2547.859648
631.570597	2545.344112
631.916556	2547.363094
632.262462	2548.494833
632.608316	2546.450645
632.954117	2545.999462
633.299866	2544.625747
633.645562	2546.405275
633.991206	2546.067518
634.336797	2543.312527
634.682336	2545.535676
635.027823	2542.014430
635.373257	2544.618186
635.718639	2543.950233
636.063968	2543.468803
636.409245	2542.326981
636.754470	2544.063659
637.099642	2540.239944
637.444762	2544.587939
637.789829	2542.453010
638.134845	2543.945192
638.479808	2541.190201
638.824719	2539.327495
639.169577	2541.817825
639.514383	2539.680376
639.859137	2542.309337
640.203839	2539.377906
640.548489	2538.934285
640.893086	2538.541075
641.237632	2536.552340
641.582125	2538.415046
641.926566	2537.497556
642.270955	2538.717515
642.615292	2539.788760
642.959576	2540.000489
643.303809	2541.192722
643.647990	2542.745397
643.992118	2538.551157
644.336195	2541.540561
644.680219	2541.999306
645.024192	2543.708257
645.368112	2540.063503
645.711981	2539.788760
646.055797	2541.326312
646.399562	2540.096271
646.743274	2542.183308
647.086935	2540.849923
647.430544	2541.848072
647.774101	2540.887732
648.117606	2543.075593
648.461059	2542.609286
648.804460	2544.600542
649.147810	2540.489481
649.491108	2543.010058
649.834354	2541.107022
650.177548	2539.256919
650.520690	2541.631302
650.863781	2539.445962
651.206820	2540.587783
651.549807	2537.235416
651.892742	2538.478060
652.235626	2536.965714
652.578458	2539.894625
652.921238	2537.948739
653.263967	2538.672145
653.606644	2536.680889
653.949269	2537.679038
654.291843	2534.919006
654.634365	2539.645087
654.976836	2536.539737
655.319255	2536.365817
655.661622	2536.181815
656.003938	2540.131559
656.346203	2534.482946
656.688416	2536.824562
657.030577	2536.096115
657.372687	2537.091743
657.714746	2538.304141
658.056753	2536.010416
658.398708	2532.673172
658.740612	2536.960673
659.082465	2533.860363
659.424266	2533.643594
659.766016	2532.244674
660.107715	2534.296423
660.449362	2535.176105
660.790958	2535.234078
661.132503	2536.343132
661.473996	2538.944367
661.815438	2536.348173
662.156829	2537.863040
662.498168	2535.791125
662.839456	2535.821372
663.180693	2534.208203
663.521879	2537.295910
663.863013	2537.008564
664.204097	2534.442617
664.545129	2536.383461
664.886110	2538.838503
665.227040	2535.274407
665.567918	2537.278266
665.908746	2535.581918
666.249522	2534.669469
666.590248	2537.200128
666.930922	2536.474202
667.271545	2535.274407
667.612118	2536.176774
667.952639	2536.280117
668.293109	2535.896990
668.633528	2538.326826
668.973896	2534.256094
669.314213	2535.236598
669.654480	2536.408667
669.994695	2536.317926
670.334859	2533.721732
670.674973	2536.017977
671.015035	2534.719880
671.355047	2535.985210
671.695008	2535.496218
672.034918	2537.701723
672.374777	2534.823224
672.714585	2536.441434
673.054342	2536.958152
673.394049	2535.972607
673.733705	2536.718698
674.073310	2535.294572
674.412864	2535.589479
674.752368	2535.755837
675.091820	2536.426311
675.431223	2536.030580
675.770574	2534.689633
676.109875	2529.819879
676.449125	2534.366999
676.788324	2529.565300
677.127473	2531.100332
677.466571	2527.654703
677.805619	2531.927081
678.144616	2532.274921
678.483562	2533.784746
678.822458	2532.852133
679.161303	2536.015457
679.500098	2531.916999
679.838842	2533.630991
680.177535	2531.992616
680.516179	2533.787267
680.854771	2531.758202
681.193314	2535.528985
681.531805	2536.789274
681.870247	2535.327339
682.208638	2535.413039
682.546978	2536.328008
682.885268	2536.958152
683.223508	2536.343132
683.561697	2537.905889
683.899836	2536.270035
684.237925	2534.513193
684.575963	2533.769623
684.913951	2535.531506
685.251889	2535.874304
685.589776	2532.917668
685.927614	2534.016639
686.265401	2533.389016
686.603137	2532.837009
686.940824	2533.570497
687.278460	2537.689120
687.616046	2535.080323
687.953582	2539.244316
688.291068	2535.990251
688.628504	2536.030580
688.965889	2533.968748
689.303224	2535.266845
689.640510	2538.236085
689.977745	2534.987061
690.314930	2537.134593
690.652065	2536.635519
690.989150	2531.727955
691.326185	2533.661238
691.663170	2531.042358
692.000105	2530.969262
692.336990	2529.935825
692.673825	2530.553367
693.010610	2528.713345
693.347345	2528.877183
693.684030	2527.982378
694.020665	2526.036493
694.357251	2526.996832
694.693786	2525.330731
695.030272	2530.129910
695.366707	2526.754857
695.703093	2529.212420
696.039429	2526.507841
696.375716	2529.008253
696.711952	2524.461132
697.048139	2529.895496
697.384276	2528.138654
697.720363	2529.875331
698.056400	2523.770494
698.392388	2528.231915
698.728326	2527.468180
699.064214	2527.173273
699.400053	2528.302491
699.735842	2525.759229
700.071581	2525.814682
700.407270	2529.451874
700.742910	2527.569003
701.078501	2525.229908
701.414042	2524.372912
701.749533	2524.322500
702.084974	2526.737213
702.420366	2523.904085
702.755709	2527.115300
703.091002	2526.621267
703.426246	2525.378622
703.761440	2524.156142
704.096584	2526.114631
704.431679	2524.851822
704.766725	2527.813499
705.101721	2523.485669
705.436668	2525.804600
705.771565	2524.103210
706.106413	2523.851153
706.441212	2522.719413
706.775961	2526.091945
707.110661	2527.372398
707.445311	2526.175124
707.779913	2528.305012
708.114465	2526.717048
708.448967	2525.532377
708.783421	2526.013807
709.117825	2524.998015
709.452180	2526.480114
709.786485	2527.080012
710.120742	2527.185876
710.454949	2527.664785
710.789107	2526.487676
711.123216	2525.703777
711.457275	2527.632018
711.791286	2527.430372
712.125247	2527.042203
712.459159	2527.823582
712.793023	2529.434230
713.126837	2528.294930
713.460602	2527.823582
713.794318	2531.541433
714.127985	2527.788294
714.461602	2527.929446
714.795171	2524.935001
715.128691	2529.197296
715.462162	2526.853160
715.795584	2526.215454
716.128957	2522.953827
716.462281	2523.989784
716.795556	2526.893489
717.128782	2524.183869
717.461960	2526.303674
717.795088	2526.016328
718.128167	2523.412572
718.461198	2524.866945
718.794180	2525.015659
719.127113	2522.825278
719.459997	2523.508354
719.792833	2522.905936
720.125619	2527.264014
720.458357	2520.095493
720.791046	2521.932993
721.123686	2522.613549
721.456278	2521.597757
721.788821	2524.342665
722.121315	2525.560104
722.453761	2519.414937
722.786158	2522.767304
723.118506	2523.621780
723.450805	2522.691687
723.783056	2521.968282
724.115259	2520.861748
724.447412	2522.210257
724.779518	2525.512213
725.111574	2525.875176
725.443582	2522.043899
725.775542	2522.820237
726.107453	2522.106913
726.439315	2520.408044
726.771129	2525.751668
727.102895	2520.700431
727.434612	2523.019362
727.766281	2522.502644
728.097901	2520.622293
728.429473	2518.467200
728.760996	2521.534742
729.092471	2520.430730
729.423897	2523.135309
729.755276	2523.415093
730.086606	2523.462984
730.417887	2523.034486
730.749120	2525.325690
731.080305	2525.746626
731.411442	2526.795186
731.742530	2525.000536
732.073570	2526.228057
732.404562	2525.464322
732.735506	2523.102541
733.066401	2525.734023
733.397249	2527.127902
733.728048	2523.417613
734.058798	2523.382325
734.389501	2522.694208
734.720156	2524.277130
735.050762	2524.526667
735.381320	2522.868127
735.711831	2523.077335
736.042293	2521.282685
736.372707	2520.355112
736.703073	2521.232273
737.033391	2518.827643
737.363661	2523.205885
737.693883	2521.111285
738.024056	2524.861904
738.354182	2522.028775
738.684260	2523.168076
739.014290	2522.459794
739.344272	2524.289733
739.674207	2523.697397
740.004093	2524.249404
740.333931	2520.672705
740.663722	2521.111285
740.993464	2524.319980
741.323159	2522.303518
741.652806	2524.935001
741.982405	2524.773684
742.311956	2524.917357
742.641460	2523.508354
742.970915	2522.643796
743.300323	2525.267717
743.629683	2519.727489
743.958996	2523.798220
744.288260	2519.009124
744.617477	2520.292098
744.946647	2515.893691
745.275768	2517.451408
745.604842	2515.674401
745.933869	2519.730009
746.262847	2514.207425
746.591778	2519.036851
746.920662	2515.984432
747.249498	2519.966943
747.578286	2520.493744
747.907027	2522.386697
748.235720	2520.960051
748.564365	2521.280164
748.892963	2523.155473
749.221514	2517.950482
749.550017	2519.934176
749.878473	2521.983405
750.206881	2519.238497
750.535242	2520.493744
750.863555	2521.116327
751.191821	2521.338137
751.520039	2520.282016
751.848210	2520.506347
752.176334	2520.995339
752.504411	2520.476100
752.832440	2517.093486
753.160421	2517.648013
753.488356	2518.315966
753.816243	2520.592047
754.144082	2516.977539
754.471875	2521.532222
754.799620	2516.705317
755.127318	2517.915194
755.454969	2519.044412
755.782572	2517.043074
756.110129	2516.576768
756.437638	2522.921060
756.765100	2519.125071
757.092515	2521.496934
757.419882	2520.599608
757.747203	2520.566841
758.074477	2518.505009
758.401703	2518.855369
758.728882	2521.393590
759.056014	2519.467869
759.383099	2518.923425
759.710138	2521.915349
760.037129	2520.778569
760.364073	2520.224042
760.690970	2520.518950
761.017820	2520.148425
761.344623	2517.769000
761.671379	2520.914680
761.998088	2517.748836
762.324751	2520.183713
762.651366	2525.111441
762.977935	2528.904909
763.304456	2530.505476
763.630931	2533.683923
763.957359	2532.605116
764.283740	2533.058820
764.610074	2528.554549
764.936362	2526.686802
765.262602	2523.699918
765.588796	2523.546163
765.914943	2523.173117
766.241044	2520.642458
766.567097	2519.157838
766.893104	2518.618435
767.219064	2520.138343
767.544978	2520.924763
767.870845	2518.792355
768.196665	2518.142046
768.522438	2519.059536
768.848165	2516.969978
769.173846	2516.594412
769.499479	2517.582478
769.825066	2514.076355
770.150607	2514.814884
770.476101	2516.964936
770.801548	2515.240862
771.126949	2517.234638
771.452303	2516.274298
771.777611	2514.187261
772.102872	2515.460152
772.428087	2513.899915
772.753256	2515.775224
773.078378	2514.709020
773.403453	2513.723474
773.728482	2515.114833
774.053465	2513.058042
774.378401	2513.030316
774.703291	2513.239524
775.028135	2513.113495
775.352932	2515.535769
775.677683	2513.751201
776.002388	2514.489730
776.327046	2515.344205
776.651658	2514.870337
776.976224	2514.744308
777.300743	2514.638444
777.625216	2514.968639
777.949643	2511.563340
778.274024	2515.480317
778.598359	2509.798936
778.922647	2510.171982
779.246889	2510.686179
779.571086	2509.249450
779.895236	2510.867661
780.219339	2512.687517
780.543397	2517.032992
780.867409	2511.079389
781.191374	2512.579132
781.515294	2513.471417
781.839167	2513.272291
782.162995	2513.867147
782.486776	2513.121057
782.810511	2511.797754
783.134201	2517.043074
783.457844	2512.425377
783.781441	2515.132477
784.104993	2512.054853
784.428498	2512.132990
784.751958	2512.690038
785.075372	2515.102230
785.398739	2514.542662
785.722061	2512.286746
786.045337	2513.983094
786.368568	2513.030316
786.691752	2514.209946
787.014891	2513.378155
787.337983	2513.892353
787.661030	2514.865296
787.984031	2512.667353
788.306987	2517.040554
788.629897	2516.284381
788.952760	2516.796058
789.275579	2516.632220
789.598351	2515.382014
789.921078	2513.567199
790.243759	2516.307066
790.566395	2515.198012
790.888984	2514.373783
791.211529	2513.612569
791.534027	2515.974350
791.856480	2515.462672
792.178888	2512.967301
792.501249	2514.023423
792.823566	2515.218177
793.145836	2514.956037
793.468062	2512.627023
793.790241	2511.061745
794.112375	2513.836900
794.434464	2512.279184
794.756507	2513.983094
795.078505	2513.282373
795.400457	2513.930162
795.722364	2510.068638
796.044226	2511.835562
796.366042	2506.648215
796.687812	2514.870337
797.009538	2514.766993
797.331218	2513.728516
797.652852	2512.170799
797.974442	2514.643485
798.295986	2513.461334
798.617484	2514.966119
798.938938	2512.097702
799.260346	2516.453259
799.581709	2513.700789
799.903026	2514.691376
800.224299	2513.960409
800.545526	2512.959740
800.866708	2508.793226
801.187845	2513.720954
801.508936	2511.825480
801.829983	2512.402692
802.150984	2513.917559
802.471940	2511.525531
802.792851	2516.319669
803.113717	2514.270440
803.434538	2511.772548
803.755314	2513.778927
804.076045	2512.967301
804.396731	2511.490243
804.717372	2511.339009
805.037967	2514.756911
805.358518	2511.069307
805.679024	2514.227590
805.999485	2513.957888
806.319901	2512.695079
806.640272	2513.710872
806.960598	2512.543844
807.280879	2509.806498
807.601115	2513.231962
807.921306	2512.843793
808.241453	2512.811026
808.561554	2510.650891
808.881611	2514.058711
809.201623	2513.882271
809.521590	2514.056191
809.841513	2511.402023
810.161390	2513.655419
810.481223	2512.783299
810.801011	2513.075686
811.120755	2508.934378
811.440453	2510.887825
811.760107	2513.554596
812.079716	2511.885974
812.399281	2507.175016
812.718801	2507.968997
813.038276	2509.751045
813.357707	2510.880264
813.677093	2513.552075
813.996434	2512.291787
814.315731	2511.885974
814.634983	2510.378669
814.954191	2513.158865
815.273354	2513.942765
815.592473	2512.838752
815.911547	2516.206243
816.230577	2511.182733
816.549562	2513.632734
816.868502	2510.494615
817.187399	2512.848834
817.506250	2511.424708
817.825058	2513.680625
818.143821	2511.207939
818.462539	2514.088958
818.781213	2514.431757
819.099843	2515.109792
819.418429	2515.477796
819.736970	2518.726820
820.055466	2518.915863
820.373919	2524.206554
820.692327	2525.852491
821.010691	2533.078985
821.329011	2544.928217
821.647286	2567.079047
821.965517	2586.525298
822.283704	2599.995261
822.601847	2601.784870
822.919945	2592.456215
823.237999	2579.636561
823.556010	2572.594069
823.873976	2560.291133
824.191897	2553.351985
824.509775	2546.564071
824.827609	2539.849254
825.145398	2534.230888
825.463144	2535.178625
825.780845	2534.898841
826.098502	2538.377237
826.416116	2541.868236
826.733685	2547.088351
827.051210	2547.385779
827.368692	2544.721529
827.686129	2540.255067
828.003522	2535.823893
828.320872	2524.889630
828.638177	2528.274765
828.955439	2521.121368
829.272656	2516.798578
829.589830	2516.022241
829.906960	2514.550224
830.224046	2518.431912
830.541088	2516.899401
830.858086	2513.909997
831.175041	2512.843793
831.491952	2513.148783
831.808819	2513.186592
832.125642	2516.039885
832.442421	2517.423681
832.759157	2519.614063
833.075849	2525.222346
833.392497	2527.921884
833.709101	2531.455733
834.025662	2529.862728
834.342179	2526.727131
834.658653	2524.894671
834.975083	2522.273271
835.291469	2528.446164
835.607811	2514.555265
835.924110	2517.242200
836.240366	2517.244720
836.556578	2515.180368
836.872746	2513.799092
837.188871	2511.175171
837.504952	2513.267250
837.820990	2510.499657
838.136984	2508.863802
838.452935	2512.077538
838.768842	2511.449914
839.084706	2511.059225
839.400526	2513.549555
839.716303	2517.108609
840.032037	2519.006604
840.347727	2519.142715
840.663373	2514.522497
840.978977	2514.424195
841.294537	2514.804802
841.610054	2513.642816
841.925527	2513.194153
842.240957	2509.118380
842.556344	2511.946468
842.871687	2509.204080
843.186987	2511.336488
843.502244	2509.188957
843.817458	2508.397495
844.132629	2508.170643
844.447756	2510.194667
844.762840	2504.719974
845.077881	2506.862464
845.392879	2506.260046
845.707833	2507.875736
846.022745	2504.518328
846.337613	2508.387413
846.652438	2507.800119
846.967221	2507.971518
847.281960	2509.176354
847.596656	2510.313134
847.911309	2506.587721
848.225919	2506.202073
848.540485	2508.702485
848.855009	2508.130314
849.169490	2508.483195
849.483928	2509.801457
849.798323	2505.975221
850.112675	2509.667866
850.426984	2507.464882
850.741251	2508.069820
851.055474	2508.352125
851.369654	2509.640140
851.683792	2507.648884
851.997887	2505.955056
852.311938	2507.749707
852.625947	2509.289780
852.939914	2510.091323
853.253837	2507.051507
853.567718	2505.619820
853.881555	2509.551920
854.195350	2506.736435
854.509103	2503.641167
854.822812	2509.705675
855.136479	2505.952536
855.450103	2508.752897
855.763685	2508.664677
856.077224	2509.408247
856.390720	2507.782475
856.704173	2509.433453
857.017584	2508.795747
857.330953	2508.626868
857.644278	2506.801970
857.957561	2510.862620
858.270802	2507.784995
858.584000	2508.465551
858.897155	2507.840448
859.210268	2508.871364
859.523339	2506.696106
859.836367	2507.447238
860.149352	2510.093844
860.462295	2510.408916
860.775195	2504.031856
861.088054	2505.763492
861.400869	2503.807525
861.713642	2501.675117
862.026373	2506.862464
862.339062	2506.335663
862.651708	2508.521004
862.964312	2507.583349
863.276873	2506.343225
863.589392	2508.717609
863.901869	2509.287259
864.214303	2508.914214
864.526696	2509.612413
864.839045	2508.226096
865.151353	2506.381034
865.463619	2510.227434
865.775842	2508.641991
866.088023	2509.262053
866.400162	2509.400685
866.712258	2509.819101
867.024313	2509.796416
867.336325	2508.032012
867.648296	2505.602176
867.960224	2507.353977
868.272110	2510.335819
868.583954	2506.050838
868.895755	2508.074862
869.207515	2507.946312
869.519233	2507.127125
869.830909	2507.772392
870.142542	2509.030160
870.454134	2507.732063
870.765684	2508.957063
871.077191	2507.696775
871.388657	2509.680469
871.700081	2508.016888
872.011463	2510.008144
872.322803	2508.427742
872.634101	2506.459172
872.945357	2507.653925
873.256571	2506.557474
873.567744	2508.405057
873.878874	2511.028978
874.189963	2508.400016
874.501010	2509.418329
874.812015	2508.904131
875.122979	2510.832373
875.433900	2509.390603
875.744780	2510.298010
876.055618	2509.677948
876.366415	2508.309275
876.677169	2511.044101
876.987882	2507.384223
877.298554	2507.202742
877.609183	2507.016219
877.919771	2505.294665
878.230317	2508.889008
878.540822	2510.940758
878.851285	2512.624503
879.161707	2514.832528
879.472087	2515.964267
879.782425	2517.879906
880.092722	2520.506347
880.402977	2530.659231
880.713191	2538.455375
881.023363	2547.055584
881.333494	2553.732592
881.643583	2551.930379
881.953631	2554.370298
882.263637	2549.651778
882.573602	2546.057435
882.883526	2541.396888
883.193408	2538.510828
883.503248	2535.397915
883.813048	2530.699560
884.122806	2531.483459
884.432522	2525.124044
884.742197	2521.249917
885.051831	2521.824609
885.361424	2521.002901
885.670975	2517.637930
885.980485	2514.557785
886.289954	2515.129956
886.599382	2511.480161
886.908768	2512.957219
887.218113	2514.426715
887.527417	2515.800430
887.836680	2510.613082
888.145901	2512.158196
888.455082	2509.153668
888.764221	2509.622496
889.073319	2510.114008
889.382376	2510.701303
889.691392	2510.164420
890.000366	2509.330109
890.309300	2513.567199
890.618193	2510.408916
890.927044	2512.742970
891.235855	2510.202228
891.544625	2510.209790
891.853353	2509.788854
892.162041	2509.125942
892.470687	2509.882115
892.779293	2508.621827
893.087858	2508.936899
893.396381	2510.608041
893.704864	2514.968639
894.013306	2513.068124
894.321707	2521.227232
894.630068	2523.808303
894.938387	2521.872500
895.246665	2521.895185
895.554903	2521.093641
895.863100	2521.012983
896.171256	2517.325379
896.479371	2515.074504
896.787446	2518.381501
897.095480	2514.237672
897.403473	2513.552075
897.711425	2511.523011
898.019336	2511.212980
898.327207	2512.679956
898.635038	2511.608710
898.942827	2512.064935
899.250576	2510.847496
899.558284	2510.300531
899.865952	2511.041581
900.173579	2508.599142
900.481165	2509.234327
900.788711	2512.155676
901.096216	2506.181908
901.403681	2508.813391
901.711105	2504.654439
902.018489	2509.095695
902.325832	2512.553927
902.633135	2510.124091
902.940397	2510.930675
903.247619	2511.119718
903.554800	2515.525687
903.861941	2519.233456
904.169041	2525.214785
904.476101	2526.674199
904.783121	2523.687315
905.090100	2521.655730
905.397039	2519.704803
905.703938	2517.955523
906.010796	2515.593743
906.317614	2516.596932
906.624391	2516.286901
906.931129	2512.500995
907.237826	2510.603000
907.544483	2514.083917
907.851099	2508.667197
908.157675	2511.202898
908.464211	2510.963443
908.770707	2506.718791
909.077163	2505.609737
909.383578	2505.377844
909.689954	2503.104284
909.996289	2501.286948
910.302584	2507.512773
910.608839	2508.095026
910.915054	2506.713750
911.221229	2508.127794
911.527363	2508.213493
911.833458	2506.915396
912.139513	2509.509070
912.445527	2506.073523
912.751502	2508.641991
913.057436	2511.510408
913.363331	2506.693585
913.669186	2506.640653
913.975000	2511.568381
914.280775	2508.861282
914.586510	2511.999400
914.892205	2515.807992
915.197859	2516.982580
915.503475	2518.164731
915.809050	2522.253107
916.114585	2523.178158
916.420081	2521.968282
916.725536	2523.175638
917.030952	2523.185720
917.336328	2521.176820
917.641665	2522.338806
917.946961	2518.434433
918.252218	2518.245389
918.557435	2518.595750
918.862612	2515.313958
919.167750	2512.891684
919.472848	2513.985614
919.777906	2511.855727
920.082925	2515.863444
920.387904	2510.066117
920.692843	2512.034688
920.997743	2510.020747
921.302603	2507.822804
921.607423	2508.352125
921.912204	2507.989162
922.216946	2505.987824
922.521647	2506.917917
922.826310	2507.394306
923.130932	2508.026971
923.435516	2506.955725
923.740059	2508.621827
924.044564	2508.306755
924.349028	2505.352638
924.653454	2503.424397
924.957840	2503.822648
925.262186	2504.069665
925.566493	2504.122597
925.870761	2500.074550
926.174989	2505.158554
926.479178	2504.656959
926.783328	2506.005468
927.087438	2504.795591
927.391509	2506.766682
927.695541	2504.793070
927.999533	2504.641836
928.303486	2502.683347
928.607400	2508.039573
928.911275	2504.324243
929.215110	2504.674603
929.518906	2505.508914
929.822663	2504.316681
930.126381	2501.508759
930.430060	2505.133348
930.733699	2503.989006
931.037299	2507.903462
931.340861	2500.830723
931.644383	2507.376662
931.947866	2503.898266
932.251309	2504.649397
932.554714	2504.155364
932.858080	2503.850375
933.161407	2504.243585
933.464694	2505.203924
933.767943	2503.351300
934.071153	2504.558657
934.374323	2504.588904
934.677455	2504.225941
934.980548	2506.018071
935.283602	2505.176198
935.586617	2504.369613
935.889593	2503.779798
936.192530	2502.821979
936.495428	2505.627381
936.798287	2503.900786
937.101108	2504.346928
937.403890	2505.019922
937.706632	2506.267608
938.009336	2502.789212
938.312002	2505.660149
938.614628	2506.050838
938.917216	2505.304747
939.219765	2505.544202
939.522275	2505.697957
939.824747	2504.992196
940.127179	2502.524551
940.429573	2501.173522
940.731929	2503.308451
941.034246	2503.421877
941.336524	2504.780468
941.638763	2504.276352
941.940964	2504.886332
942.243126	2505.647546
942.545250	2505.317350
942.847335	2505.014881
943.149381	2504.604027
943.451389	2502.287617
943.753359	2502.824500
944.055290	2507.270798
944.357182	2504.598986
944.659036	2501.395333
944.960851	2506.728873
945.262628	2505.730725
945.564367	2507.752228
945.866067	2502.680827
946.167729	2504.425066
946.469352	2507.122083
946.770937	2504.697288
947.072484	2505.975221
947.373992	2502.953049
947.675462	2501.748213
947.976893	2505.622340
948.278286	2504.541013
948.579641	2503.797443
948.880958	2506.567557
949.182236	2504.755262
949.483476	2506.902793
949.784678	2506.386075
950.085841	2504.480519
950.386967	2505.108142
950.688054	2504.601507
950.989103	2504.861126
951.290114	2500.419869
951.591087	2507.341374
951.892021	2504.099912
952.192917	2503.472288
952.493776	2503.169819
952.794596	2505.629902
953.095378	2504.641836
953.396122	2506.673421
953.696828	2504.528410
953.997496	2502.091012
954.298126	2503.810045
954.598718	2504.757782
954.899272	2503.245436
955.199788	2504.311640
955.500266	2506.978411
955.800706	2501.549088
956.101108	2500.382061
956.401472	2502.610251
956.701798	2500.676968
957.002087	2498.113542
957.302337	2504.127638
957.602550	2504.921620
957.902724	2502.862308
958.202861	2503.474809
958.502960	2501.123110
958.803022	2505.022443
959.103045	2500.742503
959.403031	2503.489932
959.702979	2502.358193
960.002889	2501.264263
960.302762	2501.387771
960.602596	2503.119407
960.902393	2501.738131
961.202153	2504.140241
961.501875	2501.168481
961.801559	2499.880466
962.101205	2501.780981
962.400814	2502.411125
962.700385	2502.370796
962.999918	2503.928513
963.299414	2504.152844
963.598873	2501.990189
963.898293	2501.954901
964.197677	2503.684017
964.497022	2501.107987
964.796331	2502.950529
965.095601	2502.446413
965.394835	2502.275014
965.694030	2502.877432
965.993189	2502.632936
966.292309	2503.666372
966.591393	2501.982627
966.890439	2501.828872
967.189447	2503.724346
967.488419	2503.583193
967.787353	2503.593276
968.086249	2502.963132
968.385108	2504.014212
968.683930	2502.217041
968.982714	2501.765857
969.281462	2501.909530
969.580172	2503.396671
969.878844	2500.792915
970.177480	2501.665034
970.476078	2502.915241
970.774639	2503.477329
971.073162	2502.307782
971.371649	2499.956083
971.670098	2499.532626
971.968510	2499.991371
972.266885	2495.812255
972.565223	2502.806856
972.863524	2499.741834
973.161788	2504.251146
973.460014	2501.236536
973.758204	2505.027484
974.056356	2502.753924
974.354471	2504.505725
974.652550	2504.636795
974.950591	2506.010509
975.248595	2500.119921
975.546563	2503.464726
975.844493	2500.631598
976.142386	2501.723008
976.440243	2500.981958
976.738062	2500.258553
977.035845	2501.856598
977.333590	2502.239726
977.631299	2499.961124
977.928971	2503.573111
978.226606	2502.143944
978.524204	2501.564211
978.821765	2501.833913
979.119290	2502.249808
979.416777	2504.064624
979.714228	2506.330622
980.011642	2501.715446
980.309020	2506.847341
980.606360	2501.027328
980.903664	2503.409274
981.200931	2503.308451
981.498162	2502.212000
981.795356	2502.166629
982.092513	2506.151661
982.389633	2504.777947
982.686717	2504.561177
982.983764	2504.150323
983.280775	2503.245436
983.577749	2507.240551
983.874686	2504.730056
984.171587	2505.639984
984.468451	2503.258039
984.765279	2504.621671
985.062070	2502.857267
985.358824	2503.815087
985.655543	2505.433297
985.952224	2503.230313
986.248869	2504.072185
986.545478	2497.669920
986.842050	2500.815600
987.138586	2500.346773
987.435086	2498.899962
987.731549	2496.243273
988.027975	2504.460354
988.324366	2501.856598
988.620719	2502.388440
988.917037	2502.635457
989.213318	2501.400374
989.509563	2503.391630
989.805772	2498.834427
990.101944	2499.552791
990.398080	2501.385250
990.694180	2504.369613
990.990244	2502.842144
991.286271	2501.881804
991.582262	2503.220230
991.878217	2500.843326
992.174136	2500.775271
992.470019	2500.845847
992.765865	2501.334839
993.061676	2503.290807
993.357450	2505.624861
993.653188	2501.087822
993.948890	2503.366424
994.244556	2500.306443
994.540186	2502.922802
994.835780	2502.617813
995.131337	2499.525065
995.426859	2502.529592
995.722345	2502.673265
996.017795	2504.057062
996.313208	2504.026815
996.608586	2504.286434
996.903928	2501.349962
997.199234	2504.682165
997.494504	2503.520179
997.789738	2500.248470
998.084936	2503.396671
998.380099	2504.462875
998.675225	2501.196207
998.970316	2500.029180
999.265371	2502.103615
999.560390	2504.228461
999.855373	2506.461692
1000.150320	2500.739983
1000.445232	2499.172184
1000.740108	2501.460868
1001.034948	2503.184942
1001.329752	2498.655466
1001.624521	2500.981958
1001.919254	2495.809734
1002.213951	2498.713439
1002.508613	2498.395846
1002.803239	2501.566732
1003.097829	2496.596154
1003.392384	2500.225785
1003.686903	2501.042452
1003.981386	2501.067658
1004.275834	2499.956083
1004.570246	2502.489263
1004.864623	2503.260560
1005.158964	2502.625374
1005.453270	2501.642349
1005.747540	2499.383912
1006.041775	2500.213182
1006.335974	2500.099756
1006.630138	2501.599499
1006.924266	2505.120745
1007.218359	2498.577328
1007.512416	2503.563029
1007.806438	2501.080261
1008.100425	2501.173522
1008.394376	2503.578152
1008.688292	2501.957421
1008.982172	2500.850888
1009.276017	2503.386588
1009.569827	2500.815600
1009.863602	2504.188132
1010.157341	2500.412308
1010.451045	2501.113028
1010.744714	2502.451454
1011.038347	2499.580517
1011.331945	2502.196876
1011.625508	2500.384581
1011.919036	2503.023625
1012.212528	2502.821979
1012.505986	2500.303923
1012.799408	2498.234529
1013.092795	2503.137051
1013.386147	2502.456496
1013.679464	2501.218892
1013.972745	2501.528923
1014.265992	2499.451968
1014.559204	2499.096567
1014.852380	2503.341218
1015.145521	2499.031032
1015.438628	2500.961793
1015.731699	2500.523213
1016.024736	2498.660507
1016.317737	2500.256032
1016.610703	2502.766527
1016.903635	2498.416011
1017.196531	2497.642194
1017.489393	2498.572287
1017.782219	2497.574138
1018.075011	2499.308295
1018.367768	2500.966835
1018.660490	2502.312823
1018.953177	2502.312823
1019.245829	2502.312823
