Dividing Wavelength (nm)	Counts (n)	Blue Motor Position (mm): 0.000000	Red Motor Position (mm): 29.000000	
326.493990	2077.179716
326.888308	2077.179716
327.282561	2077.179716
327.676750	2055.245656
328.070874	2057.826726
328.464933	2066.091698
328.858929	2073.519838
329.252859	2087.143557
329.646726	2101.682244
330.040528	2117.571961
330.434265	2136.476288
330.827938	2156.403969
331.221547	2175.731753
331.615091	2194.510051
332.008571	2217.205326
332.401986	2238.884808
332.795338	2255.621439
333.188625	2274.251023
333.581847	2296.802624
333.975006	2313.143525
334.368100	2329.136585
334.761129	2345.595953
335.154095	2364.888448
335.546996	2386.051212
335.939833	2419.375760
336.332606	2430.516710
336.725315	2441.095571
337.117960	2448.642178
337.510540	2456.584516
337.903056	2466.003912
338.295508	2474.132773
338.687896	2480.330871
339.080220	2488.031234
339.472480	2491.297902
339.864676	2496.681854
340.256807	2498.526916
340.648875	2498.521875
341.040879	2503.747031
341.432818	2501.695281
341.824694	2503.467247
342.216506	2504.717453
342.608253	2503.338698
342.999937	2502.567401
343.391557	2504.162926
343.783113	2499.204951
344.174605	2498.451299
344.566033	2498.075733
344.957397	2496.754951
345.348697	2495.245125
345.739934	2493.906699
346.131106	2489.291522
346.522215	2492.316215
346.913260	2486.213898
347.304241	2488.552993
347.695159	2485.447643
348.086012	2485.888743
348.476802	2483.320276
348.867528	2482.783393
349.258191	2478.130408
349.648789	2484.676346
350.039324	2478.768114
350.429796	2477.974132
350.820203	2477.759883
351.210548	2477.379276
351.600828	2477.245685
351.991045	2479.612507
352.381198	2475.267032
352.771288	2476.862558
353.161314	2473.363997
353.551276	2478.039667
353.941175	2478.064873
354.331010	2476.739049
354.720782	2477.049080
355.110490	2478.896663
355.500135	2477.172588
355.889717	2479.156282
356.279235	2479.806591
356.668689	2477.845582
357.058080	2476.900366
357.447408	2477.270891
357.836672	2477.540593
358.225873	2480.444297
358.615010	2476.746611
359.004084	2486.589464
359.393095	2484.084010
359.782043	2486.738178
360.170927	2487.161635
360.559748	2487.595174
360.948505	2488.555514
361.337199	2490.047695
361.725830	2489.838488
362.114398	2489.846049
362.502903	2490.927377
362.891344	2493.478201
363.279722	2487.423775
363.668037	2493.783190
364.056289	2494.020125
364.444478	2495.018273
364.832603	2495.368633
365.220665	2497.203613
365.608665	2498.070692
365.996601	2497.685043
366.384474	2499.794766
366.772284	2498.012718
367.160031	2499.913233
367.547715	2502.721156
367.935336	2503.426918
368.322893	2502.590086
368.710388	2503.555467
369.097820	2506.635612
369.485189	2508.586539
369.872495	2507.018740
370.259738	2507.510252
370.646918	2510.681138
371.034035	2510.265243
371.421090	2516.342354
371.808081	2517.373270
372.195010	2523.034486
372.581875	2525.645803
372.968678	2533.318439
373.355418	2536.867412
373.742096	2547.680687
374.128710	2557.828529
374.515262	2568.772874
374.901751	2579.649164
375.288177	2596.978130
375.674540	2610.798453
376.060841	2631.308388
376.447079	2653.345792
376.833254	2676.736746
377.219367	2696.203161
377.605417	2729.852863
377.991404	2750.642582
378.377329	2788.433592
378.763191	2822.836946
379.148991	2866.382433
379.534727	2912.703075
379.920402	2956.167903
380.306013	3001.969307
380.691563	3061.447360
381.077049	3118.253602
381.462474	3166.832682
381.847835	3236.652662
382.233134	3303.311840
382.618371	3362.288298
383.003545	3443.486163
383.388657	3520.451980
383.773706	3607.565639
384.158693	3672.997295
384.543618	3761.252776
384.928480	3837.853108
385.313280	3938.739200
385.698017	4035.685629
386.082692	4149.945902
386.467305	4211.155592
386.851856	4330.832584
387.236344	4477.023525
387.620770	4539.312022
388.005133	4649.551974
388.389435	4790.616062
388.773674	4875.940111
389.157851	4998.959388
389.541965	5122.293738
389.926018	5149.415146
390.310008	5320.479140
390.693936	5435.752684
391.077802	5548.677051
391.461606	5677.423079
391.845348	5786.450634
392.229027	5904.693418
392.612645	6113.853411
392.996200	6232.186936
393.379694	6400.080044
393.763125	6615.680112
394.146494	6711.421706
394.529801	6836.389389
394.913047	7070.845893
395.296230	7068.053094
395.679351	7124.957638
396.062410	7369.851851
396.445408	7276.716534
396.828343	7423.136847
397.211217	7557.188690
397.594028	7449.126516
397.976778	7648.458780
398.359466	7810.801578
398.742092	7795.443703
399.124656	7932.270700
399.507158	8125.505689
399.889598	8146.252558
400.271977	8353.443981
400.654294	8385.157880
401.036549	8582.062828
401.418742	8609.043084
401.800874	8903.592662
402.182944	8987.853028
402.564952	9345.535496
402.946898	9180.286473
403.328783	9235.156912
403.710606	9428.621273
404.092367	9678.977576
404.474067	10031.311380
404.855705	9835.457512
405.237282	9795.541656
405.618797	10211.812414
406.000250	10454.120515
406.381642	10813.201903
406.762972	10765.381518
407.144240	10579.708260
407.525447	10828.569861
407.906593	10777.644125
408.287677	11039.471573
408.668700	11191.003617
409.049661	11165.749956
409.430560	11329.884884
409.811399	11312.881072
410.192176	11465.386059
410.572891	11541.225177
410.953545	12018.594720
411.334138	11513.168635
411.714669	12084.553177
412.095139	11440.608787
412.475547	11911.434913
412.855894	11781.993205
413.236180	12100.377359
413.616405	11793.761779
413.996568	12075.385839
414.376670	12051.909185
414.756711	11935.317379
415.136691	12217.044782
415.516609	12374.361550
415.896466	12461.039149
416.276262	12753.516813
416.655997	13210.999004
417.035670	13258.884924
417.415283	13875.491136
417.794834	13960.051451
418.174324	13711.290673
418.553753	13619.922280
418.933121	14110.976035
419.312428	13930.943829
419.691674	13847.316128
420.070859	14310.451972
420.449983	13966.957832
420.829045	14516.748591
421.208047	14269.858081
421.586988	14720.847266
421.965867	14965.645697
422.344686	14971.498476
422.723444	15543.659356
423.102141	14242.333381
423.480777	15430.803044
423.859352	14936.591007
424.237866	16032.779828
424.616319	15756.930410
424.994712	16402.939152
425.373044	16186.169537
425.751314	16872.323507
426.129524	16015.818866
426.507673	17087.905931
426.885762	16819.615723
427.263789	16992.461765
427.641756	17174.444898
428.019662	17235.964619
428.397508	17297.834701
428.775292	17573.059015
429.153016	17572.340651
429.530679	17636.302811
429.908282	17663.693920
430.285824	17404.888644
430.663305	18114.642776
431.040726	17724.313795
431.418086	17561.234989
431.795385	18199.266105
432.172624	18634.370614
432.549802	18198.666208
432.926920	18407.899298
433.303977	18298.922155
433.680974	18542.097334
434.057910	18844.349795
434.434786	18897.420542
434.811601	18821.299119
435.188355	19860.187666
435.565050	19530.236585
435.941683	19494.189814
436.318257	20393.171218
436.694770	20184.961482
437.071222	20778.622882
437.447614	19855.723724
437.823946	19895.100177
438.200218	20060.076977
438.576429	19841.084213
438.952580	20148.730709
439.328670	20122.229363
439.704700	20535.089781
440.080670	20105.449883
440.456580	20723.021476
440.832429	20885.462576
441.208218	19896.748634
441.583947	20336.594348
441.959616	20461.521702
442.335224	20710.317768
442.710773	20856.722958
443.086261	21398.405021
443.461689	20737.229968
443.837057	20909.259343
444.212365	21550.244575
444.587612	21556.576264
444.962800	21149.934110
445.337927	21582.976787
445.712995	20290.987029
446.088002	22193.962112
446.462949	22394.791599
446.837837	22592.460283
447.212664	22598.176951
447.587431	25565.742903
447.962139	28534.932107
448.336786	30844.725785
448.711374	29147.903647
449.085901	25436.520486
449.460369	25448.145387
449.834776	25445.725633
450.209124	28001.799841
450.583412	27478.006313
450.957640	27976.783115
451.331808	26618.698790
451.705917	25244.507978
452.079965	25287.171262
452.453954	25655.389742
452.827883	25583.036582
453.201752	25366.592121
453.575562	25537.467072
453.949311	26665.367271
454.323001	26744.959529
454.696632	26513.053849
455.070202	28114.807387
455.443713	28290.375652
455.817164	28890.197342
456.190556	29443.151425
456.563888	28834.117026
456.937160	29282.341138
457.310373	27573.662207
457.683526	28009.553136
458.056619	27999.062495
458.429653	27980.649680
458.802628	28601.898795
459.175542	28739.552542
459.548398	30104.293711
459.921194	31732.783008
460.293930	32465.257621
460.666607	34551.907145
461.039224	36351.321804
461.411782	36689.948711
461.784280	35398.745373
462.156719	34841.007235
462.529099	34265.932569
462.901419	32917.068514
463.273680	31879.513353
463.645882	32012.849352
464.018024	32001.368124
464.390106	32937.487708
464.762130	35824.856464
465.134094	40134.594340
465.505999	45596.921466
465.877845	50115.549634
466.249631	51115.311265
466.621358	49238.335933
466.993026	46996.751587
467.364634	44838.779819
467.736184	42876.639234
468.107674	41582.713673
468.479105	40789.583897
468.850477	40056.363194
469.221790	38594.635266
469.593043	36811.435478
469.964238	35881.748406
470.335373	35827.308985
470.706449	37645.408682
471.077467	40358.381241
471.448425	44962.653572
471.819324	47665.919390
472.190164	45651.796947
472.560945	42006.183199
472.931667	38860.301553
473.302330	37733.903617
473.672934	36854.053392
474.043479	37343.451128
474.413965	36528.639350
474.784393	36128.535572
475.154761	36986.383681
475.525070	36993.526996
475.895321	36467.190205
476.265513	37032.104425
476.635645	37944.603683
477.005719	37737.601303
477.375734	38163.833382
477.745691	38803.018922
478.115588	40060.738915
478.485427	42026.768751
478.855207	45311.105687
479.224928	47790.902196
479.594591	49230.746476
479.964194	48059.746931
480.333739	48103.907439
480.703226	48052.863235
481.072653	48575.073842
481.442022	48914.230070
481.811333	49011.650368
482.180584	47596.353987
482.549777	46957.944785
482.918912	46291.448793
483.287988	45838.664958
483.657005	44899.699642
484.025964	44105.261687
484.394864	43946.114981
484.763706	43382.352664
485.132489	42387.080181
485.501213	42067.465986
485.869879	42041.793910
486.238487	41487.766061
486.607036	41477.282982
486.975527	40787.454010
487.343959	40811.016363
487.712333	40693.824659
488.080648	40396.875492
488.448905	40608.964396
488.817104	40208.467408
489.185244	40908.005642
489.553326	42232.102509
489.921350	44514.084141
490.289315	46992.844693
490.657222	47281.546532
491.025070	47253.295906
491.392861	46038.302212
491.760593	44541.082040
492.128267	42686.560007
492.495883	41042.942207
492.863440	39539.604595
493.230939	38097.244780
493.598380	36891.806593
493.965763	36349.784252
494.333088	35388.015278
494.700354	34717.992999
495.067563	34185.042215
495.434713	33796.994356
495.801805	33576.416149
496.168839	32979.903976
496.535815	32420.983688
496.902733	32146.848262
497.269593	31528.618798
497.636395	31176.771466
498.003139	31165.696051
498.369825	30465.623454
498.736453	30388.254346
499.103023	29747.798435
499.469535	29340.816002
499.835989	29088.372662
500.202385	28521.593214
500.568723	28230.632938
500.935003	28021.236010
501.301226	27564.404128
501.667390	27653.206573
502.033497	27486.009144
502.399546	26785.291280
502.765537	26027.444540
503.131470	25944.550327
503.497345	25826.725959
503.863163	24674.348436
504.228923	24726.632763
504.594625	24634.084741
504.960269	23877.669688
505.325856	23945.740389
505.691385	23259.011727
506.056856	22995.225790
506.422270	22895.204256
506.787625	22333.859173
507.152924	22109.641253
507.518164	21822.368580
507.883347	21082.286866
508.248472	20865.930625
508.613540	20784.526073
508.978550	20609.713981
509.343503	20153.484517
509.708398	19919.320400
510.073236	19841.318627
510.438016	19504.751031
510.802738	18928.655532
511.167403	18886.627432
511.532010	18652.193613
511.896561	18453.688098
512.261053	18477.648703
512.625488	17958.147717
512.989866	17581.064368
513.354186	17196.447014
513.718449	16881.994961
514.082655	16832.100141
514.446803	16405.532826
514.810894	16280.970955
515.174927	15948.985769
515.538904	15626.183044
515.902822	15542.194900
516.266684	15079.212811
516.630488	14923.337813
516.994235	14598.001908
517.357925	14494.098687
517.721558	14274.029636
518.085133	14082.501078
518.448651	13843.842772
518.812112	13512.144932
519.175516	13273.380762
519.538863	13099.103033
519.902152	12826.742093
520.265385	12688.528778
520.628560	12431.440014
520.991678	12137.833132
521.354739	11951.716252
521.717743	11783.639142
522.080690	11529.204546
522.443580	11423.630181
522.806413	11202.570544
523.169189	10974.123096
523.531908	10793.485951
523.894569	10548.679958
524.257174	10373.870387
524.619722	10207.804697
524.982213	10008.101908
525.344647	9804.366196
525.707025	9619.597825
526.069345	9502.809414
526.431608	9300.996902
526.793815	9162.327362
527.155964	8923.129653
527.518057	8772.298330
527.880093	8569.157474
528.242072	8474.792116
528.603995	8269.380220
528.965860	8116.424050
529.327669	7973.782082
529.689421	7814.123698
530.051117	7655.743247
530.412755	7532.799587
530.774337	7398.911582
531.135862	7243.361739
531.497331	7122.787422
531.858743	6993.418811
532.220098	6899.159316
532.581396	6749.429485
532.942638	6600.927175
533.303824	6518.171594
533.664953	6397.108284
534.026025	6268.505929
534.387040	6204.178285
534.747999	6096.773982
535.108902	6004.420044
535.469748	5869.317121
535.830537	5785.432321
536.191270	5706.205547
536.551947	5598.289566
536.912567	5529.981932
537.273131	5450.929078
537.633638	5340.855483
537.994089	5282.080671
538.354483	5178.553015
538.714821	5136.983660
539.075103	5082.733283
539.435328	5004.449205
539.795497	4922.840486
540.155609	4858.792626
540.515665	4815.899969
540.875665	4724.007296
541.235609	4677.885779
541.595496	4615.660297
541.955328	4587.371862
542.315102	4503.066126
542.674821	4438.708235
543.034483	4385.743352
543.394090	4331.235876
543.753640	4283.972538
544.113134	4270.840333
544.472571	4190.141542
544.831953	4185.922096
545.191278	4117.516159
545.550548	4065.652768
545.909761	4037.442471
546.268918	4004.377543
546.628019	3979.499449
546.987064	3927.925925
547.346053	3866.900237
547.704986	3860.142570
548.063863	3816.155982
548.422684	3791.421561
548.781449	3753.663318
549.140158	3739.941298
549.498811	3705.490052
549.857408	3667.560411
550.215949	3656.411899
550.574434	3629.537508
550.932864	3603.903241
551.291237	3598.095831
551.649555	3568.277406
552.007817	3552.062535
552.366022	3526.188813
552.724173	3508.310361
553.082267	3498.149915
553.440305	3486.202381
553.798288	3457.916466
554.156215	3445.694189
554.514086	3435.949638
554.871902	3416.538676
555.229661	3401.014442
555.587365	3384.759242
555.945014	3376.209445
556.302606	3362.981457
556.660143	3355.860827
557.017625	3342.882377
557.375050	3330.886951
557.732421	3325.261023
558.089735	3314.127635
558.446994	3301.812096
558.804197	3301.156746
559.161345	3292.901857
559.518437	3270.993002
559.875474	3266.095521
560.232455	3261.399687
560.589381	3258.937083
560.946251	3245.825042
561.303065	3246.069538
561.659825	3235.173084
562.016528	3222.151783
562.373177	3215.074003
562.729770	3212.626523
563.086307	3198.017259
563.442789	3199.930377
563.799216	3197.492979
564.155587	3186.989735
564.511904	3179.927079
564.868164	3174.928775
565.224370	3174.180163
565.580520	3167.523320
565.936615	3162.991322
566.292654	3154.156700
566.648638	3150.849703
567.004567	3148.283756
567.360441	3141.790750
567.716260	3135.859832
568.072023	3135.063330
568.427732	3125.875827
568.783385	3120.479272
569.138982	3120.549848
569.494525	3112.988117
569.850013	3106.530399
570.205445	3108.125924
570.560823	3098.830037
570.916145	3096.818616
571.271412	3090.867534
571.626625	3088.432657
571.981782	3083.383941
572.336884	3078.546954
572.691931	3077.513518
573.046923	3070.047569
573.401860	3063.002556
573.756743	3061.603636
574.111570	3058.402503
574.466342	3057.129612
574.821059	3054.982081
575.175722	3048.647871
575.530330	3043.251316
575.884882	3035.639173
576.239380	3034.905685
576.593823	3034.421735
576.948211	3028.548790
577.302544	3018.710979
577.656823	3017.135618
578.011047	3017.944723
578.365216	3013.538755
578.719330	3007.781757
579.073389	3004.913341
579.427394	3006.234123
579.781344	3003.373268
580.135239	2999.063082
580.489080	2992.005466
580.842866	2989.250476
581.196597	2993.812720
581.550273	2989.520177
581.903895	2987.256699
582.257463	2989.424395
582.610975	2983.780824
582.964434	2980.597335
583.317837	2977.023157
583.671186	2974.794967
584.024481	2975.334370
584.377721	2970.194914
584.730906	2971.641725
585.084037	2969.791622
585.437113	2964.712659
585.790135	2961.937504
586.143103	2956.919035
586.496016	2956.936679
586.848874	2953.692697
587.201679	2953.672532
587.554428	2946.592232
587.907124	2948.175154
588.259765	2943.013013
588.612352	2950.156328
588.964884	2941.561160
589.317362	2943.257508
589.669786	2938.344904
590.022155	2942.665173
590.374470	2938.687703
590.726731	2935.695778
591.078937	2925.895775
591.431090	2929.628749
591.783188	2925.431988
592.135232	2921.956113
592.487222	2921.320928
592.839157	2921.935948
593.191038	2918.578540
593.542866	2915.505957
593.894639	2909.464134
594.246358	2908.803743
594.598022	2910.260636
594.949633	2904.944739
595.301190	2904.561612
595.652692	2903.258473
596.004141	2906.681417
596.355535	2894.055847
596.706876	2892.508213
597.058162	2892.540980
597.409395	2895.064078
597.760573	2896.420148
598.111698	2889.672564
598.462768	2890.801782
598.813785	2889.813716
599.164748	2882.718292
599.515657	2886.756256
599.866511	2879.494474
600.217312	2886.675598
600.568060	2876.873074
600.918753	2884.366749
601.269392	2882.332644
601.619978	2878.075389
601.970510	2878.206459
602.320988	2879.605379
602.671412	2880.588404
603.021783	2880.169989
603.372100	2875.640512
603.722363	2874.836448
604.072572	2877.062117
604.422728	2876.701675
604.772830	2871.234543
605.122878	2870.352342
605.472872	2868.653473
605.822813	2868.406456
606.172701	2868.721528
606.522534	2871.010212
606.872314	2871.872249
607.222041	2869.674306
607.571714	2873.634133
607.921333	2866.737834
608.270899	2866.936960
608.620411	2870.349821
608.969870	2866.967207
609.319276	2866.936960
609.668627	2865.381764
610.017926	2868.547608
610.367171	2871.892414
610.716362	2869.250849
611.065500	2866.851260
611.414585	2871.431148
611.763616	2871.378216
612.112594	2869.931405
612.461518	2872.336036
612.810389	2871.723535
613.159207	2870.964842
613.507971	2866.102649
613.856682	2875.007847
614.205340	2866.523585
614.553945	2875.582539
614.902496	2869.046683
615.250994	2872.572970
615.599439	2869.946529
615.947830	2873.462733
616.296169	2871.050541
616.644454	2874.660007
616.992686	2871.708412
617.340864	2875.305275
617.688990	2870.798484
618.037063	2876.053887
618.385082	2877.432642
618.733048	2878.123280
619.080961	2875.602703
619.428821	2875.141438
619.776628	2871.733618
620.124382	2872.457023
620.472083	2869.099615
620.819731	2872.237733
621.167326	2865.999305
621.514868	2867.103318
621.862357	2859.413038
622.209793	2860.766587
622.557176	2860.690970
622.904506	2853.449353
623.251783	2850.197808
623.599007	2847.773013
623.946179	2845.202025
624.293297	2844.460975
624.640363	2841.224555
624.987376	2842.389061
625.334336	2835.875890
625.681243	2835.664162
626.028097	2834.000581
626.374899	2831.737103
626.721647	2831.059068
627.068343	2829.108141
627.414987	2828.170487
627.761577	2823.278047
628.108115	2825.816268
628.454600	2826.015393
628.801032	2820.969198
629.147412	2822.486586
629.493739	2821.856442
629.840014	2818.710762
630.186236	2818.846873
630.532405	2817.122798
630.878521	2816.364104
631.224585	2814.347643
631.570597	2809.888742
631.916556	2811.229689
632.262462	2808.951088
632.608316	2809.127528
632.954117	2807.786581
633.299866	2811.048208
633.645562	2808.351190
633.991206	2804.484625
634.336797	2798.155457
634.682336	2799.335087
635.027823	2794.838377
635.373257	2794.389715
635.718639	2789.426699
636.063968	2788.713376
636.409245	2785.388735
636.754470	2786.152469
637.099642	2784.914866
637.444762	2783.387397
637.789829	2783.140380
638.134845	2777.998403
638.479808	2773.000099
638.824719	2775.399688
639.169577	2773.889863
639.514383	2774.482198
639.859137	2768.079933
640.203839	2772.987496
640.548489	2766.832247
640.893086	2767.356527
641.237632	2762.083480
641.582125	2764.699839
641.926566	2762.504417
642.270955	2766.164294
642.615292	2762.907709
642.959576	2763.555497
643.303809	2763.542894
643.647990	2762.396032
643.992118	2763.638676
644.336195	2761.445774
644.680219	2763.023656
645.024192	2762.869900
645.368112	2767.590941
645.711981	2766.842330
646.055797	2769.839296
646.399562	2771.699481
646.743274	2774.141920
647.086935	2779.445214
647.430544	2776.662497
647.774101	2776.173505
648.117606	2776.236520
648.461059	2779.513270
648.804460	2777.847168
649.147810	2773.027825
649.491108	2769.970366
649.834354	2768.200921
650.177548	2764.248656
650.520690	2757.014600
650.863781	2762.728748
651.206820	2760.729931
651.549807	2755.431678
651.892742	2750.594691
652.235626	2750.839187
652.578458	2745.495564
652.921238	2744.504977
653.263967	2745.944226
653.606644	2745.586304
653.949269	2745.346850
654.291843	2741.954153
654.634365	2743.277456
654.976836	2740.106570
655.319255	2742.886767
655.661622	2738.992475
656.003938	2738.024574
656.346203	2738.818555
656.688416	2737.933833
657.030577	2737.860736
657.372687	2732.015518
657.714746	2737.439800
658.056753	2735.118348
658.398708	2726.404714
658.740612	2730.994685
659.082465	2730.087277
659.424266	2728.479149
659.766016	2727.571741
660.107715	2732.693553
660.449362	2732.628018
660.790958	2731.912175
661.132503	2731.660117
661.473996	2733.293451
661.815438	2734.037021
662.156829	2735.309912
662.498168	2731.854201
662.839456	2731.710528
663.180693	2730.253635
663.521879	2734.856208
663.863013	2733.772360
664.204097	2734.397463
664.545129	2732.922926
664.886110	2735.362844
665.227040	2735.440982
665.567918	2734.079871
665.908746	2735.325036
666.249522	2736.008112
666.590248	2734.614233
666.930922	2735.448544
667.271545	2734.165570
667.612118	2736.171950
667.952639	2733.197669
668.293109	2732.527195
668.633528	2734.316805
668.973896	2734.911661
669.314213	2732.983420
669.654480	2730.072153
669.994695	2729.721793
670.334859	2730.936711
670.674973	2728.065774
671.015035	2731.249263
671.355047	2728.806824
671.695008	2729.074005
672.034918	2727.266751
672.374777	2728.678274
672.714585	2727.430589
673.054342	2724.912532
673.394049	2726.182903
673.733705	2729.293295
674.073310	2726.608881
674.412864	2727.105434
674.752368	2721.464383
675.091820	2726.437482
675.431223	2723.707697
675.770574	2722.268447
676.109875	2716.768548
676.449125	2714.258054
676.788324	2717.194526
677.127473	2712.559185
677.466571	2707.807897
677.805619	2712.271839
678.144616	2714.202601
678.483562	2710.835110
678.822458	2709.829400
679.161303	2710.572970
679.500098	2710.325954
679.838842	2708.680017
680.177535	2707.941488
680.516179	2711.308979
680.854771	2711.515666
681.193314	2718.792572
681.531805	2721.474466
681.870247	2727.188613
682.208638	2728.474108
682.546978	2729.618450
682.885268	2733.348903
683.223508	2728.567369
683.561697	2728.111145
683.899836	2725.789693
684.237925	2722.623849
684.575963	2721.048488
684.913951	2720.637634
685.251889	2723.385063
685.589776	2720.010010
685.927614	2720.269630
686.265401	2719.387428
686.603137	2721.320710
686.940824	2723.044785
687.278460	2726.750033
687.616046	2726.039230
687.953582	2730.394787
688.291068	2729.686505
688.628504	2729.459653
688.965889	2731.955024
689.303224	2729.255487
689.640510	2723.616956
689.977745	2722.129816
690.314930	2714.525235
690.652065	2713.847200
690.989150	2709.060624
691.326185	2705.710778
691.663170	2701.287165
692.000105	2697.682740
692.336990	2689.843746
692.673825	2689.546318
693.010610	2689.047243
693.347345	2682.680266
693.684030	2675.163906
694.020665	2673.772547
694.357251	2671.279697
694.693786	2671.451096
695.030272	2671.579645
695.366707	2668.262566
695.703093	2666.571259
696.039429	2664.484221
696.375716	2664.978254
696.711952	2662.926505
697.048139	2665.736948
697.384276	2664.164108
697.720363	2661.517502
698.056400	2663.418017
698.392388	2663.521361
698.728326	2659.780825
699.064214	2661.812410
699.400053	2662.858449
699.735842	2657.875269
700.071581	2656.521719
700.407270	2654.732109
700.742910	2654.011224
701.078501	2650.583240
701.414042	2651.147849
701.749533	2644.964874
702.084974	2647.515697
702.420366	2646.404123
702.755709	2643.911272
703.091002	2644.362456
703.426246	2644.087713
703.761440	2640.226189
704.096584	2644.100316
704.431679	2640.190901
704.766725	2642.000675
705.101721	2637.584624
705.436668	2641.947743
705.771565	2635.981538
706.106413	2639.127217
706.441212	2641.562095
706.775961	2642.504791
707.110661	2640.707619
707.445311	2643.346663
707.779913	2640.853813
708.114465	2644.712816
708.448967	2642.729122
708.783421	2650.931079
709.117825	2651.099958
709.452180	2651.866213
709.786485	2652.821512
710.120742	2660.902482
710.454949	2659.412821
710.789107	2658.671771
711.123216	2663.402894
711.457275	2669.099398
711.791286	2670.016888
712.125247	2670.359686
712.459159	2670.165602
712.793023	2676.860254
713.126837	2666.926660
713.460602	2671.483863
713.794318	2669.762309
714.127985	2665.258038
714.461602	2657.497182
714.795171	2660.438695
715.128691	2654.149856
715.462162	2652.420740
715.795584	2650.056439
716.128957	2644.916983
716.462281	2642.325830
716.795556	2641.012609
717.128782	2637.294758
717.461960	2636.606641
717.795088	2635.157309
718.128167	2631.625981
718.461198	2626.945269
718.794180	2630.562297
719.127113	2625.223715
719.459997	2624.701956
719.792833	2624.770011
720.125619	2621.316821
720.458357	2625.044754
720.791046	2621.190792
721.123686	2618.697942
721.456278	2619.121398
721.788821	2621.044599
722.121315	2617.969495
722.453761	2618.130812
722.786158	2615.985801
723.118506	2615.988321
723.450805	2615.469082
723.783056	2616.371449
724.115259	2615.995883
724.447412	2616.752056
724.779518	2618.584516
725.111574	2615.867334
725.443582	2618.297170
725.775542	2616.588219
726.107453	2622.743467
726.439315	2621.142901
726.771129	2631.230250
727.102895	2625.816051
727.434612	2630.070785
727.766281	2629.123048
728.097901	2629.455764
728.429473	2628.923922
728.760996	2630.942904
729.092471	2628.205558
729.423897	2631.010960
729.755276	2630.012811
730.086606	2628.913840
730.417887	2636.442803
730.749120	2640.390027
731.080305	2638.340797
731.411442	2643.845737
731.742530	2645.640388
732.073570	2643.777682
732.404562	2644.455717
732.735506	2644.480923
733.066401	2641.272228
733.397249	2640.188380
733.728048	2632.891310
734.058798	2630.547174
734.389501	2626.171452
734.720156	2622.070473
735.050762	2613.308948
735.381320	2616.021089
735.711831	2615.277519
736.042293	2610.601848
736.372707	2613.732405
736.703073	2612.925820
737.033391	2613.336674
737.363661	2610.659822
737.693883	2612.872888
738.024056	2616.008486
738.354182	2617.427571
738.684260	2619.436471
739.014290	2618.261882
739.344272	2621.906636
739.674207	2622.907305
740.004093	2623.940742
740.333931	2623.527367
740.663722	2622.718262
740.993464	2623.648355
741.323159	2625.632049
741.652806	2621.699949
741.982405	2620.837911
742.311956	2618.513939
742.641460	2618.418157
742.970915	2616.704165
743.300323	2615.174175
743.629683	2608.247630
743.958996	2608.592949
744.288260	2608.597990
744.617477	2603.768564
744.946647	2597.976279
745.275768	2599.833944
745.604842	2598.268666
745.933869	2600.282607
746.262847	2596.254725
746.591778	2599.660024
746.920662	2595.193562
747.249498	2599.700353
747.578286	2598.707246
747.907027	2597.416711
748.235720	2601.023656
748.564365	2603.072885
748.892963	2603.534151
749.221514	2602.614140
749.550017	2601.618512
749.878473	2600.217072
750.206881	2599.153388
750.535242	2601.651280
750.863555	2600.053234
751.191821	2592.993098
751.520039	2595.067533
751.848210	2599.145826
752.176334	2596.567276
752.504411	2595.112903
752.832440	2592.927563
753.160421	2594.583582
753.488356	2596.194231
753.816243	2595.120465
754.144082	2594.815475
754.471875	2593.953438
754.799620	2592.559559
755.127318	2593.557707
755.454969	2593.051071
755.782572	2590.865731
756.110129	2592.955289
756.437638	2588.907243
756.765100	2591.175762
757.092515	2594.651638
757.419882	2592.143664
757.747203	2593.066195
758.074477	2595.622060
758.401703	2594.621391
758.728882	2593.482090
759.056014	2597.560383
759.383099	2596.138778
759.710138	2596.219437
760.037129	2594.225660
760.364073	2598.893769
760.690970	2595.501072
761.017820	2597.625918
761.344623	2598.069540
761.671379	2605.023812
761.998088	2604.446600
762.324751	2617.344392
762.651366	2641.897332
762.977935	2672.093843
763.304456	2685.299146
763.630931	2694.375743
763.957359	2687.063549
764.283740	2668.885149
764.610074	2659.869045
764.936362	2642.930768
765.262602	2629.816206
765.588796	2616.124432
765.914943	2609.162599
766.241044	2601.631115
766.567097	2593.179621
766.893104	2589.736513
767.219064	2586.850452
767.544978	2581.264854
767.870845	2579.399627
768.196665	2577.877198
768.522438	2573.899728
768.848165	2575.666652
769.173846	2571.396795
769.499479	2573.340160
769.825066	2571.096846
770.150607	2569.778585
770.476101	2568.483008
770.801548	2568.830848
771.126949	2567.220199
771.452303	2566.481670
771.777611	2564.006463
772.102872	2566.640466
772.428087	2563.532595
772.753256	2563.530074
773.078378	2557.889023
773.403453	2561.818603
773.728482	2559.910526
774.053465	2562.123592
774.378401	2558.476318
774.703291	2557.258879
775.028135	2557.611760
775.352932	2552.961295
775.677683	2557.049671
776.002388	2556.099414
776.327046	2554.592109
776.651658	2553.727551
776.976224	2552.923487
777.300743	2554.574465
777.625216	2554.219063
777.949643	2553.881306
778.274024	2554.471121
778.598359	2551.267468
778.922647	2548.217570
779.246889	2551.791748
779.571086	2547.239586
779.895236	2552.227807
780.219339	2549.714792
780.543397	2553.354505
780.867409	2552.295863
781.191374	2554.448436
781.515294	2552.033723
781.839167	2552.169834
782.162995	2549.124977
782.486776	2553.435164
782.810511	2553.417520
783.134201	2551.096068
783.457844	2553.815771
783.781441	2551.322920
784.104993	2551.217056
784.428498	2551.229659
784.751958	2549.193033
785.075372	2549.397200
785.398739	2548.013403
785.722061	2548.189843
786.045337	2547.060625
786.368568	2548.920811
786.691752	2551.015410
787.014891	2554.224104
787.337983	2557.745350
787.661030	2562.231977
787.984031	2563.756926
788.306987	2567.121897
788.629897	2567.883111
788.952760	2566.582493
789.275579	2566.895045
789.598351	2564.631567
789.921078	2560.969168
790.243759	2558.526729
790.566395	2556.583364
790.888984	2554.304763
791.211529	2554.851728
791.534027	2551.469114
791.856480	2548.830070
792.178888	2550.758311
792.501249	2548.041129
792.823566	2547.557178
793.145836	2548.527601
793.468062	2546.533824
793.790241	2547.968032
794.112375	2551.282591
794.434464	2549.848383
794.756507	2548.570450
795.078505	2549.805533
795.400457	2550.476007
795.722364	2551.630431
796.044226	2554.551779
796.366042	2557.276523
796.687812	2558.698128
797.009538	2558.912377
797.331218	2558.325083
797.652852	2556.578323
797.974442	2556.696790
798.295986	2553.692263
798.617484	2553.367108
798.938938	2554.433312
799.260346	2550.788558
799.581709	2550.299566
799.903026	2553.851059
800.224299	2550.196222
800.545526	2551.413661
800.866708	2547.947868
801.187845	2547.610111
801.508936	2546.541386
801.829983	2546.894267
802.150984	2547.950388
802.471940	2545.210521
802.792851	2544.023330
803.113717	2543.874616
803.434538	2544.562733
803.755314	2548.545245
804.076045	2543.927548
804.396731	2543.594832
804.717372	2541.016281
805.037967	2545.255892
805.358518	2543.176416
805.679024	2545.656663
805.999485	2546.206149
806.319901	2546.236396
806.640272	2545.840666
806.960598	2548.013403
807.280879	2544.378731
807.601115	2547.713454
807.921306	2545.061807
808.241453	2546.942158
808.561554	2545.538196
808.881611	2544.764379
809.201623	2547.589946
809.521590	2547.930224
809.841513	2546.385110
810.161390	2546.354863
810.481223	2545.366797
810.801011	2545.263453
811.120755	2543.546941
811.440453	2545.006355
811.760107	2544.111550
812.079716	2541.076775
812.399281	2538.830941
812.718801	2542.760521
813.038276	2536.761548
813.357707	2542.717671
813.677093	2541.374203
813.996434	2544.993752
814.315731	2541.969059
814.634983	2544.469472
814.954191	2541.843031
815.273354	2545.013916
815.592473	2546.894267
815.911547	2545.434853
816.230577	2544.736653
816.549562	2547.479041
816.868502	2547.927703
817.187399	2549.951727
817.506250	2551.527087
817.825058	2548.472148
818.143821	2551.827036
818.462539	2557.289126
818.781213	2558.579661
819.099843	2565.705332
819.418429	2574.431570
819.736970	2582.744432
820.055466	2589.101327
820.373919	2604.139089
820.692327	2627.338479
821.010691	2664.320384
821.329011	2744.199987
821.647286	2868.502238
821.965517	3004.779750
822.283704	3077.221131
822.601847	3099.689553
822.919945	3042.631254
823.237999	2975.777992
823.556010	2910.898342
823.873976	2850.331399
824.191897	2796.012966
824.509775	2754.567120
824.827609	2718.316183
825.145398	2695.015970
825.463144	2688.129753
825.780845	2688.598581
826.098502	2703.414532
826.416116	2735.105746
826.733685	2764.092380
827.051210	2769.357865
827.368692	2754.163828
827.686129	2720.312480
828.003522	2689.737882
828.320872	2656.569610
828.638177	2635.006074
828.955439	2616.706686
829.272656	2601.091712
829.589830	2584.715523
829.906960	2578.426684
830.224046	2571.472412
830.541088	2567.757082
830.858086	2563.184755
831.175041	2560.616288
831.491952	2557.568910
831.808819	2560.066802
832.125642	2564.679458
832.442421	2572.813359
832.759157	2589.988570
833.075849	2614.196191
833.392497	2642.751807
833.709101	2656.483910
834.025662	2652.781183
834.342179	2638.295427
834.658653	2621.447891
834.975083	2605.701847
835.291469	2594.981833
835.607811	2578.393917
835.924110	2571.094326
836.240366	2563.608212
836.556578	2558.879610
836.872746	2552.661347
837.188871	2546.087682
837.504952	2542.868905
837.820990	2539.801363
838.136984	2538.319264
838.452935	2535.544109
838.768842	2537.926054
839.084706	2542.919317
839.400526	2556.606050
839.716303	2567.411763
840.032037	2578.829976
840.347727	2574.529872
840.663373	2565.869170
840.978977	2555.809547
841.294537	2554.040102
841.610054	2543.141128
841.925527	2543.645243
842.240957	2535.786084
842.556344	2534.119983
842.871687	2529.272913
843.186987	2529.845084
843.502244	2527.674868
843.817458	2524.935001
844.132629	2522.943745
844.447756	2522.648837
844.762840	2521.000380
845.077881	2520.047602
845.392879	2518.923425
845.707833	2520.304701
846.022745	2511.485202
846.337613	2520.067767
846.652438	2521.711183
846.967221	2521.577592
847.281960	2519.687159
847.596656	2521.534742
847.911309	2517.524504
848.225919	2517.111130
848.540485	2519.490554
848.855009	2516.811181
849.169490	2519.402334
849.483928	2515.704648
849.798323	2516.498630
850.112675	2519.435102
850.426984	2517.020389
850.741251	2518.169772
851.055474	2516.796058
851.369654	2516.896881
851.683792	2517.892509
851.997887	2516.279339
852.311938	2518.021058
852.625947	2520.042561
852.939914	2518.396624
853.253837	2518.419309
853.567718	2517.214473
853.881555	2518.031140
854.195350	2518.144566
854.509103	2518.620955
854.822812	2517.622807
855.136479	2517.058198
855.450103	2517.655574
855.763685	2514.570388
856.077224	2516.380162
856.390720	2518.625997
856.704173	2518.847807
857.017584	2516.375121
857.330953	2520.294618
857.644278	2517.947961
857.957561	2518.300842
858.270802	2517.141377
858.584000	2519.074659
858.897155	2518.452077
859.210268	2517.980729
859.523339	2517.186747
859.836367	2519.321676
860.149352	2518.691532
860.462295	2519.593898
860.775195	2515.467714
861.088054	2515.195491
861.400869	2513.131139
861.713642	2511.785151
862.026373	2517.378311
862.339062	2518.250431
862.651708	2517.600122
862.964312	2516.833866
863.276873	2518.104237
863.589392	2518.739422
863.901869	2516.070132
864.214303	2518.933507
864.526696	2523.089938
864.839045	2519.573733
865.151353	2523.528519
865.463619	2520.060205
865.775842	2520.269413
866.088023	2520.675226
866.400162	2522.787469
866.712258	2521.512057
867.024313	2522.900895
867.336325	2521.501975
867.648296	2522.585823
867.960224	2522.399300
868.272110	2519.750174
868.583954	2520.881913
868.895755	2522.618590
869.207515	2523.694877
869.519233	2523.155473
869.830909	2524.020031
870.142542	2526.283509
870.454134	2522.537932
870.765684	2523.891482
871.077191	2527.647141
871.388657	2523.672192
871.700081	2523.984743
872.011463	2526.149919
872.322803	2526.737213
872.634101	2524.559435
872.945357	2526.686802
873.256571	2529.212420
873.567744	2524.864424
873.878874	2530.021525
874.189963	2526.152439
874.501010	2530.039169
874.812015	2527.238808
875.122979	2529.159487
875.433900	2528.819210
875.744780	2530.671834
876.055618	2530.571011
876.366415	2528.562111
876.677169	2530.286185
876.987882	2529.139323
877.298554	2527.974816
877.609183	2530.223171
877.919771	2531.362472
878.230317	2531.904396
878.540822	2541.117104
878.851285	2541.996786
879.161707	2551.766542
879.472087	2560.255845
879.782425	2575.064234
880.092722	2605.338884
880.402977	2649.900163
880.713191	2696.440096
881.023363	2743.894997
881.333494	2773.574791
881.643583	2782.817746
881.953631	2775.848351
882.263637	2760.460229
882.573602	2740.230078
882.883526	2721.829867
883.193408	2703.722042
883.503248	2684.240503
883.813048	2666.135199
884.122806	2645.796664
884.432522	2629.639766
884.742197	2614.297014
885.051831	2601.545416
885.361424	2587.473035
885.670975	2578.008268
885.980485	2569.390416
886.289954	2562.925136
886.599382	2559.592933
886.908768	2554.760987
887.218113	2550.322251
887.527417	2545.092054
887.836680	2542.440407
888.145901	2539.501415
888.455082	2537.346321
888.764221	2535.027391
889.073319	2534.427493
889.382376	2531.395239
889.691392	2533.308357
890.000366	2532.569828
890.309300	2532.431196
890.618193	2532.413552
890.927044	2530.147554
891.235855	2532.287523
891.544625	2533.588141
891.853353	2533.547812
892.162041	2534.442617
892.470687	2539.377906
892.779293	2536.882535
893.087858	2543.642723
893.396381	2549.366953
893.704864	2562.368088
894.013306	2574.643298
894.321707	2594.235742
894.630068	2600.075919
894.938387	2604.035746
895.246665	2599.443254
895.554903	2592.637697
895.863100	2584.743250
896.171256	2578.093968
896.479371	2573.009964
896.787446	2567.482339
897.095480	2559.613098
897.403473	2556.835422
897.711425	2553.140256
898.019336	2547.232024
898.327207	2546.624565
898.635038	2540.930582
898.942827	2538.485622
899.250576	2537.230375
899.558284	2533.530168
899.865952	2530.840712
900.173579	2527.047244
900.481165	2529.729138
900.788711	2526.482635
901.096216	2526.785104
901.403681	2525.844929
901.711105	2527.334590
902.018489	2527.301822
902.325832	2528.902389
902.633135	2530.966741
902.940397	2535.014788
903.247619	2548.174720
903.554800	2568.679613
903.861941	2594.313880
904.169041	2615.842128
904.476101	2618.682818
904.783121	2617.301542
905.090100	2604.701178
905.397039	2595.957297
905.703938	2583.026737
906.010796	2573.067938
906.317614	2566.416135
906.624391	2558.499003
906.931129	2553.586398
907.237826	2546.659853
907.544483	2541.278421
907.851099	2537.535365
908.157675	2532.683254
908.464211	2531.370033
908.770707	2522.933663
909.077163	2519.394772
909.383578	2516.329751
909.689954	2517.602642
909.996289	2514.048629
910.302584	2517.446367
910.608839	2517.970647
910.915054	2513.630213
911.221229	2517.718589
911.527363	2516.080214
911.833458	2517.380832
912.139513	2516.957375
912.445527	2518.999042
912.751502	2518.797396
913.057436	2520.753363
913.363331	2523.311749
913.669186	2524.924918
913.975000	2532.771474
914.280775	2535.453368
914.586510	2541.885880
914.892205	2557.929352
915.197859	2572.180694
915.503475	2587.178127
915.809050	2604.436517
916.114585	2611.889863
916.420081	2614.687704
916.725536	2616.925976
917.030952	2610.407764
917.336328	2603.115735
917.641665	2595.009560
917.946961	2588.224167
918.252218	2583.666963
918.557435	2575.691858
918.862612	2570.585169
919.167750	2565.881773
919.472848	2559.182079
919.777906	2554.912222
920.082925	2548.754452
920.387904	2542.422763
920.692843	2535.503780
920.997743	2535.168543
921.302603	2530.702081
921.607423	2530.762574
921.912204	2527.011956
922.216946	2525.408869
922.521647	2525.166894
922.826310	2521.464166
923.130932	2520.813857
923.435516	2519.546007
923.740059	2519.493075
924.044564	2517.030471
924.349028	2520.040040
924.653454	2513.834380
924.957840	2512.349760
925.262186	2511.588546
925.566493	2512.737929
925.870761	2508.831035
926.174989	2512.032167
926.479178	2512.581653
926.783328	2510.466889
927.087438	2510.355984
927.391509	2510.731550
927.695541	2510.030829
927.999533	2510.121570
928.303486	2507.905983
928.607400	2509.516632
928.911275	2509.073010
929.215110	2507.323730
929.518906	2505.763493
929.822663	2507.991683
930.126381	2507.480005
930.430060	2510.247599
930.733699	2508.702485
931.037299	2506.476816
931.340861	2508.848679
931.644383	2507.613596
931.947866	2510.134173
932.251309	2508.037053
932.554714	2504.490601
932.858080	2510.716426
933.161407	2505.453462
933.464694	2507.900942
933.767943	2511.893536
934.071153	2509.506549
934.374323	2507.361538
934.677455	2507.472444
934.980548	2507.296003
935.283602	2507.066631
935.586617	2507.207783
935.889593	2506.948164
936.192530	2508.394975
936.495428	2510.850017
936.798287	2507.530417
937.101108	2511.162568
937.403890	2508.145438
937.706632	2511.845645
938.009336	2512.977384
938.312002	2512.349760
938.614628	2510.386231
938.917216	2514.683814
939.219765	2515.689524
939.522275	2516.349916
939.824747	2514.893022
940.127179	2511.560819
940.429573	2509.085613
940.731929	2513.489061
941.034246	2508.296672
941.336524	2510.570233
941.638763	2510.915552
941.940964	2513.279853
942.243126	2512.448062
942.545250	2512.435460
942.847335	2512.453104
943.149381	2511.586025
943.451389	2509.811539
943.753359	2509.899759
944.055290	2508.808349
944.357182	2509.350273
944.659036	2507.142248
944.960851	2511.850686
945.262628	2510.603000
945.564367	2511.253309
945.866067	2510.179543
946.167729	2512.616941
946.469352	2509.383041
946.770937	2510.570233
947.072484	2509.234327
947.373992	2508.253822
947.675462	2511.313803
947.976893	2508.394975
948.278286	2509.075531
948.579641	2509.146107
948.880958	2508.677279
949.182236	2507.094357
949.483476	2508.342043
949.784678	2509.481343
950.085841	2507.074192
950.386967	2510.739111
950.688054	2508.977228
950.989103	2510.507218
951.290114	2509.970335
951.591087	2511.147445
951.892021	2511.580984
952.192917	2512.730367
952.493776	2511.626354
952.794596	2510.587877
953.095378	2510.681138
953.396122	2510.260202
953.696828	2511.951509
953.997496	2511.538134
954.298126	2511.056704
954.598718	2509.075531
954.899272	2509.924965
955.199788	2508.115191
955.500266	2510.192146
955.800706	2506.839779
956.101108	2505.607217
956.401472	2506.635612
956.701798	2500.871053
957.002087	2501.488594
957.302337	2504.021774
957.602550	2505.035046
957.902724	2504.992196
958.202861	2504.961949
958.502960	2503.336177
958.803022	2503.414315
959.103045	2500.624036
959.403031	2504.278873
959.702979	2500.359376
960.002889	2502.766527
960.302762	2500.631598
960.602596	2502.524551
960.902393	2501.042452
961.202153	2501.286948
961.501875	2499.459530
961.801559	2501.765858
962.101205	2502.693430
962.400814	2503.195025
962.700385	2501.675117
962.999918	2500.334170
963.299414	2500.845847
963.598873	2499.666217
963.898293	2499.023470
964.197677	2502.186794
964.497022	2499.928357
964.796331	2502.713594
965.095601	2499.348624
965.394835	2501.995230
965.694030	2498.065651
965.993189	2500.079592
966.292309	2499.530106
966.591393	2501.133193
966.890439	2501.160919
967.189447	2500.253511
967.488419	2500.094715
967.787353	2501.702843
968.086249	2500.361896
968.385108	2502.194356
968.683930	2499.585558
968.982714	2500.109838
969.281462	2498.496669
969.580172	2502.448934
969.878844	2501.828872
970.177480	2501.962463
970.476078	2497.644714
970.774639	2502.680827
971.073162	2499.716628
971.371649	2500.044303
971.670098	2496.122286
971.968510	2498.209323
972.266885	2497.942142
972.565223	2500.860970
972.863524	2499.671258
973.161788	2503.197545
973.460014	2501.453306
973.758204	2500.656804
974.056356	2501.107987
974.354471	2503.671414
974.652550	2501.171001
974.950591	2502.955570
975.248595	2501.964983
975.546563	2503.346259
975.844493	2499.683861
976.142386	2502.751403
976.440243	2500.477843
976.738062	2505.067813
977.035845	2500.281238
977.333590	2501.158398
977.631299	2498.635301
977.928971	2499.656135
978.226606	2496.465084
978.524204	2501.475991
978.821765	2501.879283
979.119290	2499.444406
979.416777	2499.736793
979.714228	2500.434993
980.011642	2500.888697
980.309020	2503.036228
980.606360	2501.604541
980.903664	2499.736793
981.200931	2503.452123
981.498162	2501.327277
981.795356	2505.239213
982.092513	2505.476147
982.389633	2508.568895
982.686717	2510.030829
982.983764	2511.603669
983.280775	2511.119718
983.577749	2509.073010
983.874686	2513.368073
984.171587	2512.112826
984.468451	2510.277846
984.765279	2511.417147
985.062070	2508.460510
985.358824	2507.147289
985.655543	2507.424553
985.952224	2505.080416
986.248869	2504.024294
986.545478	2498.564725
986.842050	2502.340549
987.138586	2496.328973
987.435086	2499.386433
987.731549	2494.985506
988.027975	2500.593789
988.324366	2500.641680
988.620719	2500.762668
988.917037	2497.516165
989.213318	2498.978099
989.509563	2500.727380
989.805772	2497.090187
990.101944	2498.698315
990.398080	2501.496156
990.694180	2496.646566
990.990244	2500.069509
991.286271	2497.674961
991.582262	2500.303923
991.878217	2498.965497
992.174136	2497.448109
992.470019	2496.109683
992.765865	2498.176556
993.061676	2497.571618
993.357450	2500.208141
993.653188	2500.757627
993.948890	2499.131855
994.244556	2499.812410
994.540186	2501.047493
994.835780	2501.445744
995.131337	2501.470950
995.426859	2501.876763
995.722345	2502.590086
996.017795	2504.233502
996.313208	2505.027484
996.608586	2507.301044
996.903928	2506.368431
997.199234	2505.332474
997.494504	2505.508914
997.789738	2503.880622
998.084936	2505.975221
998.380099	2504.803153
998.675225	2507.938750
998.970316	2503.840292
999.265371	2502.411125
999.560390	2501.276866
999.855373	2501.869201
1000.150320	2502.106135
1000.445232	2497.395177
1000.740108	2497.178408
1001.034948	2499.930878
1001.329752	2501.244098
1001.624521	2494.599857
1001.919254	2493.573983
1002.213951	2495.512306
1002.508613	2495.441730
1002.803239	2495.572800
1003.097829	2493.538694
1003.392384	2499.048676
1003.686903	2499.371309
1003.981386	2499.411639
1004.275834	2498.095897
1004.570246	2498.317708
1004.864623	2497.609426
1005.158964	2496.717142
1005.453270	2495.892913
1005.747540	2496.432317
1006.041775	2497.541371
1006.335974	2496.586072
1006.630138	2494.183962
1006.924266	2497.896772
1007.218359	2495.580362
1007.512416	2497.425424
1007.806438	2496.674292
1008.100425	2496.850733
1008.394376	2497.473315
1008.688292	2497.211175
1008.982172	2497.685043
1009.276017	2495.025835
1009.569827	2494.400732
1009.863602	2496.840650
1010.157341	2496.457522
1010.451045	2495.466936
1010.744714	2495.703870
1011.038347	2496.838130
1011.331945	2496.376864
1011.625508	2497.909375
1011.919036	2496.127327
1012.212528	2496.427276
1012.505986	2496.170177
1012.799408	2497.480877
1013.092795	2495.724035
1013.386147	2495.086329
1013.679464	2497.178408
1013.972745	2495.456853
1014.265992	2496.926350
1014.559204	2497.584220
1014.852380	2495.645897
1015.145521	2496.391988
1015.438628	2497.727893
1015.731699	2493.957110
1016.024736	2498.226968
1016.317737	2496.649086
1016.610703	2494.554487
1016.903635	2494.073057
1017.196531	2492.081801
1017.489393	2494.446102
1017.782219	2491.083653
1018.075011	2494.602378
1018.367768	2495.804693
1018.660490	2496.969200
1018.953177	2496.969200
1019.245829	2496.969200
