Dividing Wavelength (nm)	Counts (n)	Blue Motor Position (mm): 0.000000	Red Motor Position (mm): 35.500000	
326.493990	2144.128760
326.888308	2144.128760
327.282561	2144.128760
327.676750	2117.851745
328.070874	2117.324945
328.464933	2123.674278
328.858929	2133.111318
329.252859	2144.748822
329.646726	2159.862201
330.040528	2173.042298
330.434265	2190.948476
330.827938	2210.160313
331.221547	2230.574466
331.615091	2247.613566
332.008571	2270.707092
332.401986	2292.555452
332.795338	2309.108081
333.188625	2329.141626
333.581847	2349.850686
333.975006	2367.648480
334.368100	2386.381408
334.761129	2403.120559
335.154095	2421.939186
335.546996	2438.368307
335.939833	2458.807665
336.332606	2472.012968
336.725315	2484.636017
337.117960	2492.598519
337.510540	2501.385250
337.903056	2509.380520
338.295508	2518.164731
338.687896	2521.852335
339.080220	2531.362472
339.472480	2537.043852
339.864676	2540.663401
340.256807	2545.921324
340.648875	2546.632127
341.040879	2546.674977
341.432818	2546.077600
341.824694	2545.528114
342.216506	2548.189843
342.608253	2547.418547
342.999937	2548.356201
343.391557	2547.022816
343.783113	2544.167003
344.174605	2544.338402
344.566033	2545.437373
344.957397	2541.003678
345.348697	2541.064172
345.739934	2538.110056
346.131106	2538.621733
346.522215	2534.729963
346.913260	2533.565456
347.304241	2531.763243
347.695159	2529.794673
348.086012	2527.286699
348.476802	2525.166894
348.867528	2524.998015
349.258191	2527.271575
349.648789	2523.498272
350.039324	2522.200175
350.429796	2522.825278
350.820203	2519.742612
351.210548	2519.760256
351.600828	2515.828156
351.991045	2518.880575
352.381198	2518.066428
352.771288	2517.355626
353.161314	2517.736233
353.551276	2514.625841
353.941175	2517.186747
354.331010	2517.816891
354.720782	2518.678929
355.110490	2521.103724
355.500135	2516.869154
355.889717	2519.515760
356.279235	2518.091634
356.668689	2519.430061
357.058080	2521.098683
357.447408	2518.557941
357.836672	2515.510563
358.225873	2516.493588
358.615010	2515.319000
359.004084	2521.892664
359.393095	2523.011800
359.782043	2523.152953
360.170927	2522.961389
360.559748	2524.897192
360.948505	2527.321987
361.337199	2522.351409
361.725830	2526.510361
362.114398	2525.212264
362.502903	2524.708149
362.891344	2524.937521
363.279722	2525.239990
363.668037	2526.207892
364.056289	2525.698735
364.444478	2530.820548
364.832603	2531.246525
365.220665	2529.882893
365.608665	2531.334745
365.996601	2532.426155
366.384474	2533.484798
366.772284	2533.731814
367.160031	2530.097142
367.547715	2533.547812
367.935336	2530.412214
368.322893	2534.414890
368.710388	2531.662420
369.097820	2536.627957
369.485189	2533.386495
369.872495	2532.514375
370.259738	2531.138140
370.646918	2535.188707
371.034035	2535.597041
371.421090	2538.190715
371.808081	2534.891279
372.195010	2538.636857
372.581875	2535.715508
372.968678	2539.239275
373.355418	2539.151054
373.742096	2537.863040
374.128710	2538.452855
374.515262	2541.628782
374.901751	2541.333874
375.288177	2543.315048
375.674540	2543.967877
376.060841	2544.146838
376.447079	2546.254040
376.833254	2551.698486
377.219367	2546.523742
377.605417	2554.660164
377.991404	2555.839794
378.377329	2555.416337
378.763191	2557.644527
379.148991	2566.993347
379.534727	2568.213306
379.920402	2570.489387
380.306013	2577.163875
380.691563	2582.341140
381.077049	2582.850297
381.462474	2588.967737
381.847835	2593.708942
382.233134	2597.862853
382.618371	2606.054728
383.003545	2608.905500
383.388657	2616.981429
383.773706	2621.316821
384.158693	2629.390229
384.543618	2634.577576
384.928480	2640.344656
385.313280	2649.658188
385.698017	2658.908705
386.082692	2667.917247
386.467305	2671.360355
386.851856	2680.426870
387.236344	2691.038499
387.620770	2698.814479
388.005133	2704.747917
388.389435	2717.076059
388.773674	2723.818602
389.157851	2735.196486
389.541965	2743.869792
389.926018	2746.720564
390.310008	2760.722369
390.693936	2769.357865
391.077802	2776.619647
391.461606	2786.258334
391.845348	2795.665127
392.229027	2804.895479
392.612645	2819.524908
392.996200	2827.353820
393.379694	2839.407219
393.763125	2857.172245
394.146494	2867.592310
394.529801	2876.515152
394.913047	2895.926115
395.296230	2897.899727
395.679351	2899.376785
396.062410	2917.169537
396.445408	2916.214239
396.828343	2929.555652
397.211217	2934.904317
397.594028	2929.117072
397.976778	2940.847837
398.359466	2956.863583
398.742092	2954.582461
399.124656	2969.582414
399.507158	2982.265957
399.889598	2989.668891
400.271977	3001.046776
400.654294	3008.611027
401.036549	3021.128212
401.418742	3024.949407
401.800874	3051.995197
402.182944	3057.353943
402.564952	3084.556010
402.946898	3073.767940
403.328783	3084.099785
403.710606	3102.719287
404.092367	3123.972792
404.474067	3150.942965
404.855705	3139.060965
405.237282	3141.468116
405.618797	3173.043383
406.000250	3194.430478
406.381642	3227.024058
406.762972	3227.850808
407.144240	3218.007955
407.525447	3242.303796
407.906593	3241.280442
408.287677	3262.337341
408.668700	3281.420629
409.049661	3281.443314
409.430560	3296.246663
409.811399	3301.998619
410.192176	3319.917400
410.572891	3329.908967
410.953545	3365.247456
411.334138	3335.817200
411.714669	3385.369221
412.095139	3332.343845
412.475547	3387.388203
412.855894	3374.233313
413.236180	3405.047365
413.616405	3387.874675
413.996568	3406.630288
414.376670	3410.222110
414.756711	3406.889907
415.136691	3432.047785
415.516609	3451.239458
415.896466	3460.721868
416.276262	3488.211280
416.655997	3519.473996
417.035670	3524.636138
417.415283	3594.015017
417.794834	3610.900362
418.174324	3596.596088
418.553753	3598.118517
418.933121	3642.573932
419.312428	3632.738641
419.691674	3624.811426
420.070859	3668.888755
420.449983	3645.545692
420.829045	3694.525543
421.208047	3675.722039
421.586988	3722.140983
421.965867	3753.161724
422.344686	3764.484155
422.723444	3801.602171
423.102141	3704.078529
423.480777	3809.131134
423.859352	3774.732821
424.237866	3874.517420
424.616319	3858.332796
424.994712	3917.130294
425.373044	3905.298706
425.751314	3972.192297
426.129524	3906.793408
426.507673	4004.780836
426.885762	3984.931292
427.263789	4004.813603
427.641756	4010.074047
428.019662	4039.844581
428.397508	4040.817524
428.775292	4077.040735
429.153016	4086.908793
429.530679	4099.579734
429.908282	4107.804376
430.285824	4087.652364
430.663305	4158.082324
431.040726	4118.519349
431.418086	4108.094242
431.795385	4182.864636
432.172624	4216.163978
432.549802	4185.707847
432.926920	4200.773335
433.303977	4195.192778
433.680974	4236.187441
434.057910	4258.665946
434.434786	4263.931431
434.811601	4257.067900
435.188355	4365.825753
435.565050	4333.380887
435.941683	4330.451977
436.318257	4416.196963
436.694770	4425.074435
437.071222	4484.066017
437.447614	4415.909617
437.823946	4420.857509
438.200218	4437.901651
438.576429	4417.580759
438.952580	4449.186273
439.328670	4451.512766
439.704700	4494.365094
440.080670	4458.719095
440.456580	4516.573898
440.832429	4554.188467
441.208218	4455.495278
441.583947	4504.901106
441.959616	4523.203015
442.335224	4552.182088
442.710773	4571.567845
443.086261	4622.642295
443.461689	4579.701747
443.837057	4588.072583
444.212365	4660.783665
444.587612	4668.199202
444.962800	4636.702073
445.337927	4678.871325
445.712995	4566.962751
446.088002	4753.659363
446.462949	4775.094349
446.837837	4791.296617
447.212664	4780.246408
447.587431	5008.789638
447.962139	5301.234535
448.336786	5637.008148
448.711374	5632.093023
449.085901	5276.676554
449.460369	5207.282551
449.834776	5146.329959
450.209124	5380.718408
450.583412	5386.304006
450.957640	5511.143140
451.331808	5375.223550
451.705917	5224.646805
452.079965	5217.190938
452.453954	5254.283748
452.827883	5220.316454
453.201752	5227.900870
453.575562	5257.978914
453.949311	5392.093771
454.323001	5397.938989
454.696632	5387.967587
455.070202	5545.473397
455.443713	5571.926852
455.817164	5664.878167
456.190556	5739.217543
456.563888	5709.517585
456.937160	5791.010357
457.310373	5633.532273
457.683526	5686.555129
458.056619	5681.009860
458.429653	5661.414895
458.802628	5707.634714
459.175542	5735.986163
459.548398	5876.074787
459.921194	6060.255864
460.293930	6124.495287
460.666607	6373.009048
461.039224	6582.007725
461.411782	6714.159053
461.784280	6634.365149
462.156719	6637.425129
462.529099	6600.634788
462.901419	6456.394774
463.273680	6325.143292
463.645882	6314.123330
464.018024	6318.748589
464.390106	6381.326952
464.762130	6639.348329
465.134094	7018.463263
465.505999	7649.121692
465.877845	8356.196451
466.249631	8711.554947
466.621358	8644.298393
466.993026	8451.370915
467.364634	8236.552226
467.736184	7952.911705
468.107674	7791.987992
468.479105	7709.771814
468.850477	7650.997001
469.221790	7477.349416
469.593043	7258.253308
469.964238	7150.601988
470.335373	7132.375696
470.706449	7280.820033
471.077467	7459.972558
471.448425	8118.553938
471.819324	8700.096404
472.190164	8743.793126
472.560945	8266.479036
472.931667	7793.336500
473.302330	7600.192252
473.672934	7480.442163
474.043479	7560.483084
474.413965	7460.464071
474.784393	7410.523880
475.154761	7569.597490
475.525070	7574.308448
475.895321	7529.500152
476.265513	7619.139429
476.635645	7784.781662
477.005719	7774.532997
477.375734	7858.417797
477.745691	7967.556257
478.115588	8174.331785
478.485427	8404.417608
478.855207	8878.134835
479.224928	9307.996544
479.594591	9695.920894
479.964194	9700.581441
480.333739	9784.995562
480.703226	9790.069483
481.072653	9876.953770
481.442022	10003.131330
481.811333	10150.403598
482.180584	9995.219239
482.549777	9929.653992
482.918912	9872.149550
483.287988	9861.651347
483.657005	9766.464280
484.025964	9683.774234
484.394864	9742.576773
484.763706	9704.321977
485.132489	9610.075085
485.501213	9606.942008
485.869879	9666.304115
486.238487	9602.994785
486.607036	9681.573770
486.975527	9625.654771
487.343959	9675.617647
487.712333	9722.323937
488.080648	9762.312890
488.448905	9863.365340
488.817104	9872.177277
489.185244	10028.974805
489.553326	10240.448688
489.921350	10705.875738
490.289315	11332.065183
490.657222	11624.999072
491.025070	11805.331227
491.392861	11717.726056
491.760593	11569.979919
492.128267	11313.460805
492.495883	11075.150339
492.863440	10848.633653
493.230939	10610.915523
493.598380	10439.662486
493.965763	10408.447661
494.333088	10282.141551
494.700354	10212.533299
495.067563	10185.391727
495.434713	10191.620072
495.801805	10234.880734
496.168839	10193.568478
496.535815	10163.011524
496.902733	10200.941166
497.269593	10159.124795
497.636395	10172.050313
498.003139	10273.571590
498.369825	10203.161794
498.736453	10294.719230
499.103023	10229.756401
499.469535	10244.030428
499.835989	10287.754876
500.202385	10263.774107
500.568723	10281.473598
500.935003	10340.629018
501.301226	10308.650459
501.667390	10482.353497
502.033497	10588.361401
502.399546	10507.453402
502.765537	10418.461913
503.131470	10518.090237
503.497345	10611.626326
503.863163	10381.177539
504.228923	10514.334577
504.594625	10630.402103
504.960269	10538.998422
505.325856	10684.153406
505.691385	10562.896012
506.056856	10630.520570
506.422270	10730.824408
506.787625	10667.104224
507.152924	10718.589528
507.518164	10780.028590
507.883347	10648.396502
508.248472	10715.713550
508.613540	10830.246044
508.978550	10902.853783
509.343503	10882.338808
509.708398	10933.113309
510.073236	11053.546475
510.438016	11077.446585
510.802738	10985.833696
511.167403	11111.386153
511.532010	11170.539052
511.896561	11271.102510
512.261053	11465.136522
512.625488	11376.727286
512.989866	11368.701769
513.354186	11340.486431
513.718449	11345.288130
514.082655	11482.704943
514.446803	11435.917994
514.810894	11551.438555
515.174927	11545.547967
515.538904	11526.147086
515.902822	11684.804800
516.266684	11553.591128
516.630488	11657.005357
516.994235	11642.242338
517.357925	11750.859039
517.721558	11806.626804
518.085133	11871.698018
518.448651	11903.510219
518.812112	11861.426667
519.175516	11869.797503
519.538863	11955.406377
519.902152	11958.766306
520.265385	12064.950650
520.628560	12085.173239
520.991678	12027.958663
521.354739	12086.461254
521.717743	12156.840803
522.080690	12115.004267
522.443580	12247.752971
522.806413	12260.139086
523.169189	12257.505083
523.531908	12309.839822
523.894569	12270.871702
524.257174	12275.701128
524.619722	12374.328782
524.982213	12351.890607
525.344647	12340.686642
525.707025	12353.957480
526.069345	12451.612191
526.431608	12431.863471
526.793815	12500.788647
527.155964	12399.040518
527.518057	12419.575659
527.880093	12375.039585
528.242072	12477.904329
528.603995	12400.686455
528.965860	12407.300449
529.327669	12436.667691
529.689421	12379.982436
530.051117	12391.816545
530.412755	12420.450299
530.774337	12414.920153
531.135862	12368.332330
531.497331	12427.870877
531.858743	12385.676420
532.220098	12462.763224
532.581396	12381.857746
532.942638	12295.381792
533.303824	12355.575690
533.664953	12333.439983
534.026025	12281.669854
534.387040	12368.977597
534.747999	12339.048267
535.108902	12375.158052
535.469748	12249.356058
535.830537	12263.380548
536.191270	12290.247377
536.551947	12218.627705
536.912567	12266.576639
537.273131	12285.130606
537.633638	12174.568020
537.994089	12212.404400
538.354483	12123.138168
538.714821	12228.132800
539.075103	12288.666976
539.435328	12210.985315
539.795497	12180.440964
540.155609	12169.955364
540.515665	12247.369843
540.875665	12105.738626
541.235609	12182.676716
541.595496	12129.275773
541.955328	12268.656115
542.315102	12125.827624
542.674821	12046.989019
543.034483	12049.103783
543.394090	12033.420753
543.753640	11991.432983
544.113134	12195.803881
544.472571	11971.356588
544.831953	12194.596524
545.191278	12023.519927
545.550548	11946.728031
545.909761	12028.067048
546.268918	12043.855942
546.628019	12087.529978
546.987064	11962.910135
547.346053	11810.596712
547.704986	11960.397119
548.063863	11846.804800
548.422684	11869.369004
548.781449	11812.449336
549.140158	11866.903880
549.498811	11806.583954
549.857408	11671.695280
550.215949	11813.076960
550.574434	11757.226017
550.932864	11687.597600
551.291237	11827.310658
551.649555	11710.532329
552.007817	11739.831515
552.366022	11640.389714
552.724173	11643.391722
553.082267	11687.065758
553.440305	11729.608055
553.798288	11563.232334
554.156215	11590.797363
554.514086	11601.804723
554.871902	11523.795388
555.229661	11507.638490
555.587365	11434.148549
555.945014	11409.293140
556.302606	11367.507016
556.660143	11386.469316
557.017625	11377.385157
557.375050	11313.203706
557.732421	11357.104595
558.089735	11313.022225
558.446994	11251.633574
558.804197	11309.301853
559.161345	11272.496389
559.518437	11086.664335
559.875474	11121.831424
560.232455	11106.624783
560.589381	11100.194792
560.946251	11021.227637
561.303065	11113.022008
561.659825	11035.226922
562.016528	10923.693913
562.373177	10847.383447
562.729770	10899.120809
563.086307	10752.493808
563.442789	10803.351489
563.799216	10785.616709
564.155587	10693.731598
564.511904	10673.740903
564.868164	10634.563576
565.224370	10639.370316
565.580520	10551.734897
565.936615	10555.397296
566.292654	10462.745929
566.648638	10460.805085
567.004567	10412.614175
567.360441	10366.641372
567.716260	10290.356112
568.072023	10300.057812
568.427732	10241.043545
568.783385	10120.345719
569.138982	10155.354012
569.494525	10094.812274
569.850013	10016.029122
570.205445	9960.084917
570.560823	9920.496736
570.916145	9836.851391
571.271412	9791.642323
571.626625	9708.947236
571.981782	9657.537549
572.336884	9572.967152
572.691931	9579.941588
573.046923	9455.336868
573.401860	9395.309328
573.756743	9332.642745
574.111570	9302.035379
574.466342	9235.013239
574.821059	9219.264674
575.175722	9091.731044
575.530330	9048.233448
575.884882	8957.613666
576.239380	8900.809945
576.593823	8840.023712
576.948211	8779.544989
577.302544	8666.860077
577.656823	8612.176161
578.011047	8597.360210
578.365216	8509.646653
578.719330	8431.284437
579.073389	8363.367492
579.427394	8311.458731
579.781344	8253.588805
580.135239	8166.240733
580.489080	8121.487889
580.842866	8014.950665
581.196597	8010.012854
581.550273	7954.008156
581.903895	7883.951241
582.257463	7890.189669
582.610975	7753.619770
582.964434	7737.614106
583.317837	7650.076990
583.671186	7573.884991
584.024481	7546.781228
584.377721	7438.459434
584.730906	7423.391425
585.084037	7385.421455
585.437113	7295.525079
585.790135	7256.294819
586.143103	7163.081364
586.496016	7120.786083
586.848874	7081.759991
587.201679	7029.647063
587.554428	6926.379027
587.907124	6895.317957
588.259765	6825.581155
588.612352	6811.012221
588.964884	6704.716971
589.317362	6676.814185
589.669786	6627.529344
590.022155	6556.333128
590.374470	6555.529064
590.726731	6467.071938
591.078937	6370.927052
591.431090	6336.465724
591.783188	6266.063490
592.135232	6191.575401
592.487222	6170.705024
592.839157	6127.656091
593.191038	6059.000616
593.542866	5992.064176
593.894639	5900.826853
594.246358	5877.675354
594.598022	5839.944838
594.949633	5766.681749
595.301190	5714.964552
595.652692	5668.182644
596.004141	5646.687164
596.355535	5542.315115
596.706876	5494.983721
597.058162	5445.497234
597.409395	5434.726809
597.760573	5402.062653
598.111698	5329.326365
598.462768	5290.678359
598.813785	5253.197380
599.164748	5177.259959
599.515657	5162.219676
599.866511	5092.238379
600.217312	5093.745684
600.568060	4988.163758
600.918753	5000.479296
601.269392	4959.610662
601.619978	4901.405500
601.970510	4874.609247
602.320988	4850.061348
602.671412	4837.067774
603.021783	4784.087767
603.372100	4735.120520
603.722363	4701.743040
604.072572	4669.625849
604.422728	4640.649297
604.772830	4590.184826
605.122878	4561.992173
605.472872	4525.542110
605.822813	4506.158874
606.172701	4466.308552
606.522534	4447.638639
606.872314	4428.013427
607.222041	4379.562898
607.571714	4369.878841
607.921333	4314.312723
608.270899	4294.599291
608.620411	4273.991054
608.969870	4240.674068
609.319276	4209.741548
609.668627	4185.778423
610.017926	4172.961290
610.367171	4151.841376
610.716362	4123.862972
611.065500	4094.563786
611.414585	4071.765167
611.763616	4055.267991
612.112594	4025.436963
612.461518	4005.113552
612.810389	3991.424298
613.159207	3958.649237
613.507971	3936.400104
613.856682	3924.918876
614.205340	3897.081625
614.553945	3896.945514
614.902496	3858.007641
615.250994	3843.728573
615.599439	3819.412568
615.947830	3807.568377
616.296169	3782.130714
616.644454	3764.015328
616.992686	3746.222575
617.340864	3739.490114
617.688990	3711.231927
618.037063	3708.265207
618.385082	3685.779141
618.733048	3676.092564
619.080961	3654.723112
619.428821	3637.873056
619.776628	3618.734315
620.124382	3597.727827
620.472083	3577.175043
620.819731	3557.207032
621.167326	3530.544370
621.514868	3512.376051
621.862357	3480.311792
622.209793	3461.198258
622.557176	3432.859411
622.904506	3406.239598
623.251783	3378.742625
623.599007	3357.264789
623.946179	3338.020184
624.293297	3315.214004
624.640363	3291.782721
624.987376	3275.759413
625.334336	3254.606732
625.681243	3234.467322
626.028097	3216.097357
626.374899	3204.583362
626.721647	3185.106864
627.068343	3173.769309
627.414987	3156.573933
627.761577	3142.398209
628.108115	3134.702887
628.454600	3117.777213
628.801032	3104.473608
629.147412	3091.538008
629.493739	3086.423757
629.840014	3069.039338
630.186236	3066.349882
630.532405	3053.036195
630.878521	3041.219731
631.224585	3035.281251
631.570597	3021.690301
631.916556	3016.172758
632.262462	3007.035666
632.608316	2999.852022
632.954117	2991.135867
633.299866	2982.661688
633.645562	2972.299596
633.991206	2957.377780
634.336797	2946.325051
634.682336	2937.402208
635.027823	2927.869386
635.373257	2913.217273
635.718639	2905.063206
636.063968	2894.272617
636.409245	2880.268291
636.754470	2874.564226
637.099642	2864.865046
637.444762	2855.692666
637.789829	2848.526666
638.134845	2842.252950
638.479808	2835.727176
638.824719	2827.316011
639.169577	2821.811071
639.514383	2815.391162
639.859137	2809.883701
640.203839	2806.173412
640.548489	2800.096301
640.893086	2793.550363
641.237632	2784.650206
641.582125	2780.430760
641.926566	2774.852723
642.270955	2772.667383
642.615292	2771.628905
642.959576	2768.639501
643.303809	2764.407452
643.647990	2760.876124
643.992118	2756.996956
644.336195	2753.987387
644.680219	2750.360277
645.024192	2747.585122
645.368112	2748.104361
645.711981	2744.361304
646.055797	2746.912128
646.399562	2744.149576
646.743274	2744.777199
647.086935	2748.094278
647.430544	2742.105388
647.774101	2743.063207
648.117606	2743.189236
648.461059	2742.140676
648.804460	2738.044738
649.147810	2733.752196
649.491108	2727.349930
649.834354	2721.038406
650.177548	2717.010524
650.520690	2714.179916
650.863781	2707.197918
651.206820	2710.114225
651.549807	2704.601724
651.892742	2699.860518
652.235626	2697.269365
652.578458	2694.249714
652.921238	2691.819878
653.263967	2689.269054
653.606644	2690.980526
653.949269	2689.342151
654.291843	2681.674556
654.634365	2683.433919
654.976836	2679.159020
655.319255	2678.612055
655.661622	2678.859072
656.003938	2675.678103
656.346203	2672.892866
656.688416	2673.848165
657.030577	2668.912875
657.372687	2667.947494
657.714746	2665.515137
658.056753	2667.498831
658.398708	2662.387101
658.740612	2658.709580
659.082465	2659.657317
659.424266	2657.744199
659.766016	2657.066163
660.107715	2657.512306
660.449362	2658.296205
660.790958	2656.970382
661.132503	2655.959630
661.473996	2655.944507
661.815438	2656.650268
662.156829	2655.941986
662.498168	2654.348982
662.839456	2652.818991
663.180693	2653.570123
663.521879	2653.701193
663.863013	2650.348826
664.204097	2651.404948
664.545129	2650.658857
664.886110	2650.250523
665.227040	2647.316572
665.567918	2648.231541
665.908746	2648.617190
666.249522	2650.744557
666.590248	2647.969401
666.930922	2648.728095
667.271545	2644.554020
667.612118	2648.629792
667.952639	2646.562919
668.293109	2646.358753
668.633528	2643.918834
668.973896	2642.434214
669.314213	2644.218783
669.654480	2639.565798
669.994695	2641.804070
670.334859	2640.107722
670.674973	2640.538741
671.015035	2642.212404
671.355047	2639.180150
671.695008	2639.182670
672.034918	2638.739049
672.374777	2638.481950
672.714585	2635.192597
673.054342	2634.943060
673.394049	2635.449696
673.733705	2639.154944
674.073310	2637.128400
674.412864	2638.832310
674.752368	2632.117493
675.091820	2637.128400
675.431223	2633.531537
675.770574	2633.685292
676.109875	2629.564149
676.449125	2627.449385
676.788324	2628.722276
677.127473	2625.833695
677.466571	2627.535084
677.805619	2629.115486
678.144616	2629.042389
678.483562	2628.684467
678.822458	2625.926956
679.161303	2626.179014
679.500098	2626.763788
679.838842	2626.075670
680.177535	2627.088942
680.516179	2625.811010
680.854771	2622.627521
681.193314	2627.635907
681.531805	2626.191617
681.870247	2627.998870
682.208638	2631.769653
682.546978	2633.161012
682.885268	2632.256125
683.223508	2627.474590
683.561697	2630.632873
683.899836	2628.772687
684.237925	2629.221350
684.575963	2628.200517
684.913951	2627.807307
685.251889	2627.504837
685.589776	2627.396452
685.927614	2626.642800
686.265401	2624.623818
686.603137	2627.338479
686.940824	2626.945269
687.278460	2628.233284
687.616046	2624.870834
687.953582	2627.973665
688.291068	2626.824282
688.628504	2628.263531
688.965889	2627.134312
689.303224	2626.852008
689.640510	2626.431072
689.977745	2623.943262
690.314930	2623.232459
690.652065	2623.991153
690.989150	2621.589043
691.326185	2622.982922
691.663170	2619.149125
692.000105	2618.846656
692.336990	2620.253138
692.673825	2617.102416
693.010610	2618.962602
693.347345	2611.111005
693.684030	2610.155706
694.020665	2609.666714
694.357251	2608.403905
694.693786	2611.957919
695.030272	2610.932044
695.366707	2609.850717
695.703093	2609.243257
696.039429	2606.090016
696.375716	2610.498505
696.711952	2607.725870
697.048139	2609.016406
697.384276	2609.195367
697.720363	2608.787033
698.056400	2606.553802
698.392388	2607.103288
698.728326	2606.253853
699.064214	2609.696961
699.400053	2607.264605
699.735842	2608.940788
700.071581	2605.772423
700.407270	2604.547423
700.742910	2606.485746
701.078501	2603.387957
701.414042	2606.447938
701.749533	2604.799480
702.084974	2604.141610
702.420366	2601.926023
702.755709	2601.774788
703.091002	2603.985334
703.426246	2601.464757
703.761440	2601.847885
704.096584	2601.457195
704.431679	2601.656321
704.766725	2600.925354
705.101721	2602.357041
705.436668	2599.211361
705.771565	2602.893924
706.106413	2600.764037
706.441212	2601.973914
706.775961	2601.431990
707.110661	2600.196907
707.445311	2600.920312
707.779913	2602.833430
708.114465	2600.842175
708.448967	2599.889397
708.783421	2603.589603
709.117825	2602.614140
709.452180	2602.155395
709.786485	2603.992896
710.120742	2605.389295
710.454949	2606.775613
710.789107	2601.520210
711.123216	2601.621033
711.457275	2606.889039
711.791286	2605.696806
712.125247	2605.414501
712.459159	2605.805191
712.793023	2609.533124
713.126837	2609.696961
713.460602	2608.484564
713.794318	2608.338370
714.127985	2608.282918
714.461602	2606.742845
714.795171	2608.812239
715.128691	2605.001127
715.462162	2604.940633
715.795584	2603.319902
716.128957	2603.529110
716.462281	2602.815786
716.795556	2603.264449
717.128782	2598.926536
717.461960	2599.740682
717.795088	2599.937288
718.128167	2600.038111
718.461198	2598.742534
718.794180	2600.078440
719.127113	2600.607761
719.459997	2597.714139
719.792833	2596.612647
720.125619	2597.893100
720.458357	2595.939653
720.791046	2596.731114
721.123686	2595.453181
721.456278	2596.161463
721.788821	2596.494179
722.121315	2598.770260
722.453761	2596.174066
722.786158	2594.336566
723.118506	2594.381936
723.450805	2594.394539
723.783056	2592.602409
724.115259	2596.138778
724.447412	2594.591144
724.779518	2596.113572
725.111574	2596.143819
725.443582	2593.035948
725.775542	2595.221288
726.107453	2595.669951
726.439315	2593.986205
726.771129	2601.341249
727.102895	2596.151381
727.434612	2599.024839
727.766281	2597.363778
728.097901	2595.929570
728.429473	2594.742378
728.760996	2598.140116
729.092471	2596.905033
729.423897	2597.716659
729.755276	2599.901999
730.086606	2598.447627
730.417887	2596.554673
730.749120	2598.755137
731.080305	2600.963162
731.411442	2601.938626
731.742530	2600.378388
732.073570	2600.264962
732.404562	2601.300920
732.735506	2600.905189
733.066401	2603.009871
733.397249	2601.774788
733.728048	2599.095415
734.058798	2600.272524
734.389501	2597.497369
734.720156	2597.895620
735.050762	2595.130547
735.381320	2593.976123
735.711831	2595.153232
736.042293	2593.124168
736.372707	2594.044179
736.703073	2595.090218
737.033391	2593.232553
737.363661	2594.223140
737.693883	2593.877821
738.024056	2599.952411
738.354182	2596.743717
738.684260	2595.765733
739.014290	2594.071905
739.344272	2594.790269
739.674207	2594.533171
740.004093	2597.759509
740.333931	2594.386977
740.663722	2594.470156
740.993464	2597.872935
741.323159	2597.802359
741.652806	2596.000146
741.982405	2596.053078
742.311956	2594.686926
742.641460	2593.817327
742.970915	2596.007708
743.300323	2592.735999
743.629683	2591.982347
743.958996	2593.257759
744.288260	2592.158787
744.617477	2590.540577
744.946647	2586.890781
745.275768	2588.289702
745.604842	2587.785586
745.933869	2586.306007
746.262847	2586.855493
746.591778	2592.642738
746.920662	2589.340782
747.249498	2591.921853
747.578286	2588.929928
747.907027	2589.083683
748.235720	2594.457553
748.564365	2592.597367
748.892963	2589.723910
749.221514	2593.784559
749.550017	2591.742892
749.878473	2593.325814
750.206881	2590.497727
750.535242	2591.022007
750.863555	2588.526636
751.191821	2589.915474
751.520039	2588.952613
751.848210	2590.971595
752.176334	2590.054105
752.504411	2589.744074
752.832440	2589.048395
753.160421	2590.568303
753.488356	2590.908581
753.816243	2591.553849
754.144082	2589.585278
754.471875	2590.225505
754.799620	2590.666606
755.127318	2585.189392
755.454969	2589.756677
755.782572	2592.088211
756.110129	2586.338775
756.437638	2592.057964
756.765100	2588.665268
757.092515	2587.873806
757.419882	2589.872624
757.747203	2589.696183
758.074477	2588.990422
758.401703	2587.097469
758.728882	2590.948910
759.056014	2588.622418
759.383099	2591.553849
759.710138	2591.631987
760.037129	2589.643251
760.364073	2592.806575
760.690970	2590.175093
761.017820	2593.779518
761.344623	2591.445464
761.671379	2592.652820
761.998088	2590.396904
762.324751	2591.253900
762.651366	2595.130547
762.977935	2602.682196
763.304456	2608.323247
763.630931	2614.309617
763.957359	2614.680142
764.283740	2611.768876
764.610074	2608.149327
764.936362	2603.965169
765.262602	2600.799325
765.588796	2598.102307
765.914943	2594.639035
766.241044	2591.798345
766.567097	2590.205340
766.893104	2589.199630
767.219064	2588.508992
767.544978	2589.577716
767.870845	2586.177458
768.196665	2587.072263
768.522438	2583.672005
768.848165	2587.127716
769.173846	2586.676532
769.499479	2586.585792
769.825066	2586.200143
770.150607	2580.879205
770.476101	2584.982705
770.801548	2583.044381
771.126949	2582.063877
771.452303	2580.745615
771.777611	2582.729309
772.102872	2582.041191
772.428087	2581.050605
772.753256	2583.707293
773.078378	2580.748135
773.403453	2583.382138
773.728482	2581.864751
774.053465	2583.031778
774.378401	2578.088927
774.703291	2578.436766
775.028135	2580.740574
775.352932	2577.728484
775.677683	2581.350553
776.002388	2579.213104
776.327046	2583.452714
776.651658	2581.554720
776.976224	2578.751838
777.300743	2579.714699
777.625216	2579.956674
777.949643	2578.918197
778.274024	2581.025399
778.598359	2576.314441
778.922647	2575.346539
779.246889	2575.023905
779.571086	2576.143041
779.895236	2575.555747
780.219339	2578.310737
780.543397	2580.170923
780.867409	2575.361662
781.191374	2579.865933
781.515294	2581.600090
781.839167	2578.071283
782.162995	2582.560430
782.486776	2579.797878
782.810511	2579.855851
783.134201	2578.585480
783.457844	2579.268557
783.781441	2580.488516
784.104993	2577.257136
784.428498	2578.945923
784.751958	2580.697724
785.075372	2579.896180
785.398739	2576.614389
785.722061	2577.978021
786.045337	2578.784606
786.368568	2577.811663
786.691752	2579.749987
787.014891	2579.162693
787.337983	2579.699575
787.661030	2580.455748
787.984031	2581.592529
788.306987	2583.800554
788.629897	2584.017324
788.952760	2581.174113
789.275579	2580.543969
789.598351	2585.897674
789.921078	2580.677559
790.243759	2582.383990
790.566395	2580.465831
790.888984	2581.738722
791.211529	2581.002714
791.534027	2581.821901
791.856480	2578.219997
792.178888	2578.204873
792.501249	2576.465675
792.823566	2580.866602
793.145836	2579.651684
793.468062	2577.378124
793.790241	2579.717219
794.112375	2580.501119
794.434464	2578.018351
794.756507	2579.417271
795.078505	2577.632702
795.400457	2574.539954
795.722364	2575.170099
796.044226	2578.151941
796.366042	2574.260170
796.687812	2575.021385
797.009538	2579.944071
797.331218	2579.865933
797.652852	2582.162179
797.974442	2580.407857
798.295986	2580.112950
798.617484	2581.337950
798.938938	2581.761407
799.260346	2580.072621
799.581709	2578.719071
799.903026	2579.724781
800.224299	2579.049267
800.545526	2580.123032
800.866708	2578.368711
801.187845	2577.675552
801.508936	2575.782599
801.829983	2577.494071
802.150984	2573.473750
802.471940	2577.920048
802.792851	2574.731518
803.113717	2577.627661
803.434538	2574.741601
803.755314	2578.431725
804.076045	2577.589852
804.396731	2578.882908
804.717372	2576.591704
805.037967	2576.644636
805.358518	2573.393092
805.679024	2576.813515
805.999485	2577.050449
806.319901	2577.284863
806.640272	2577.766293
806.960598	2578.862744
807.280879	2579.749987
807.601115	2577.841910
807.921306	2576.432908
808.241453	2577.993145
808.561554	2575.303689
808.881611	2577.640264
809.201623	2575.986766
809.521590	2575.752352
809.841513	2577.894842
810.161390	2576.629513
810.481223	2577.322671
810.801011	2577.032805
811.120755	2575.321333
811.440453	2578.174626
811.760107	2578.298135
812.079716	2575.628844
812.399281	2574.053483
812.718801	2574.804615
813.038276	2572.926785
813.357707	2576.745459
813.677093	2575.999368
813.996434	2575.598597
814.315731	2577.093299
814.634983	2575.989286
814.954191	2574.391240
815.273354	2576.591704
815.592473	2578.925758
815.911547	2579.555903
816.230577	2579.684452
816.549562	2579.901222
816.868502	2576.934503
817.187399	2577.549523
817.506250	2580.362487
817.825058	2574.547516
818.143821	2581.017837
818.462539	2579.628999
818.781213	2580.213773
819.099843	2581.862230
819.418429	2584.465986
819.736970	2585.481779
820.055466	2587.538570
820.373919	2592.630135
820.692327	2596.612647
821.010691	2602.021805
821.329011	2619.549897
821.647286	2650.376552
821.965517	2680.116839
822.283704	2705.640201
822.601847	2720.194012
822.919945	2713.151521
823.237999	2703.981662
823.556010	2689.004394
823.873976	2670.389933
824.191897	2659.377532
824.509775	2648.821356
824.827609	2637.075468
825.145398	2630.821917
825.463144	2624.618777
825.780845	2622.226749
826.098502	2622.985443
826.416116	2626.110958
826.733685	2635.011115
827.051210	2640.722743
827.368692	2636.954480
827.686129	2630.252266
828.003522	2622.806482
828.320872	2612.618310
828.638177	2608.373658
828.955439	2601.469798
829.272656	2596.237081
829.589830	2591.261462
829.906960	2593.330855
830.224046	2587.125195
830.541088	2585.713672
830.858086	2582.358784
831.175041	2584.770976
831.491952	2580.561613
831.808819	2580.700244
832.125642	2584.375246
832.442421	2584.826429
832.759157	2586.754670
833.075849	2594.775146
833.392497	2600.191866
833.709101	2606.155551
834.025662	2609.439862
834.342179	2605.238061
834.658653	2603.962649
834.975083	2598.256063
835.291469	2596.811772
835.607811	2590.195258
835.924110	2589.799527
836.240366	2587.939341
836.556578	2583.553537
836.872746	2581.516911
837.188871	2580.266705
837.504952	2580.453228
837.820990	2575.896025
838.136984	2573.882084
838.452935	2575.223031
838.768842	2577.708320
839.084706	2575.946436
839.400526	2576.992476
839.716303	2583.072107
840.032037	2584.987746
840.347727	2586.863055
840.663373	2583.835842
840.978977	2582.411716
841.294537	2578.993814
841.610054	2578.343505
841.925527	2576.445511
842.240957	2573.133472
842.556344	2575.938875
842.871687	2574.494584
843.186987	2571.749676
843.502244	2573.526683
843.817458	2572.420149
844.132629	2569.783626
844.447756	2574.260170
844.762840	2570.323029
845.077881	2566.630384
845.392879	2568.450241
845.707833	2568.732545
846.022745	2564.760116
846.337613	2569.234140
846.652438	2570.197000
846.967221	2570.552402
847.281960	2571.180025
847.596656	2572.805797
847.911309	2569.244222
848.225919	2566.733728
848.540485	2569.539130
848.855009	2568.505693
849.169490	2569.246743
849.483928	2568.483008
849.798323	2568.377144
850.112675	2569.433266
850.426984	2569.413101
850.741251	2570.270097
851.055474	2568.795560
851.369654	2571.520303
851.683792	2566.063254
851.997887	2568.339335
852.311938	2571.469892
852.625947	2570.401167
852.939914	2568.845971
853.253837	2572.261353
853.567718	2568.006619
853.881555	2569.062741
854.195350	2566.884962
854.509103	2568.178018
854.822812	2568.742627
855.136479	2571.401836
855.450103	2568.724983
855.763685	2570.572566
856.077224	2569.387895
856.390720	2569.690364
856.704173	2566.842112
857.017584	2569.219017
857.330953	2567.074006
857.644278	2568.157854
857.957561	2571.424521
858.270802	2569.188770
858.584000	2569.221537
858.897155	2568.561146
859.210268	2569.677762
859.523339	2570.239850
859.836367	2570.391085
860.149352	2569.576938
860.462295	2569.682803
860.775195	2564.566032
861.088054	2563.424210
861.400869	2566.496793
861.713642	2563.514951
862.026373	2566.511917
862.339062	2570.113821
862.651708	2570.020560
862.964312	2569.100549
863.276873	2570.920406
863.589392	2570.227247
863.901869	2569.186249
864.214303	2570.116342
864.526696	2567.918399
864.839045	2570.108780
865.151353	2570.633060
865.463619	2569.435786
865.775842	2568.195662
866.088023	2571.795046
866.400162	2569.072823
866.712258	2569.309757
867.024313	2571.961404
867.336325	2567.694067
867.648296	2570.365879
867.960224	2571.979048
868.272110	2571.966445
868.583954	2570.058369
868.895755	2570.426373
869.207515	2569.518965
869.519233	2570.118862
869.830909	2571.369069
870.142542	2571.517783
870.454134	2572.697413
870.765684	2572.752865
871.077191	2570.340673
871.388657	2570.701116
871.700081	2570.302865
872.011463	2570.154151
872.322803	2573.287228
872.634101	2571.273287
872.945357	2571.248081
873.256571	2571.956363
873.567744	2572.304203
873.878874	2573.125911
874.189963	2570.260015
874.501010	2572.004254
874.812015	2573.138514
875.122979	2571.636250
875.433900	2573.060376
875.744780	2572.102557
876.055618	2573.002402
876.366415	2572.526013
876.677169	2573.393092
876.987882	2573.612382
877.298554	2568.787998
877.609183	2569.937381
877.919771	2569.534089
878.230317	2572.183215
878.540822	2577.138669
878.851285	2574.976014
879.161707	2577.385686
879.472087	2580.417940
879.782425	2582.492375
880.092722	2590.331369
880.402977	2596.347986
880.713191	2613.508074
881.023363	2626.841926
881.333494	2635.820221
881.643583	2642.741725
881.953631	2646.086530
882.263637	2643.281128
882.573602	2641.733494
882.883526	2635.237967
883.193408	2631.709160
883.503248	2625.589199
883.813048	2622.806482
884.122806	2617.631737
884.432522	2613.387086
884.742197	2607.970366
885.051831	2603.682865
885.361424	2597.562904
885.670975	2591.382449
885.980485	2590.885896
886.289954	2589.083683
886.599382	2583.051943
886.908768	2583.107395
887.218113	2579.195460
887.527417	2580.044894
887.836680	2576.647157
888.145901	2578.076324
888.455082	2578.151941
888.764221	2575.800243
889.073319	2573.574573
889.382376	2574.643298
889.691392	2572.410067
890.000366	2571.520303
890.309300	2573.924934
890.618193	2574.799574
890.927044	2572.412587
891.235855	2573.168761
891.544625	2576.372414
891.853353	2574.083730
892.162041	2573.080540
892.470687	2574.595407
892.779293	2573.410736
893.087858	2574.935685
893.396381	2572.962073
893.704864	2578.141859
894.013306	2579.692014
894.321707	2590.550659
894.630068	2593.494693
894.938387	2598.150198
895.246665	2595.556525
895.554903	2592.589806
895.863100	2593.477049
896.171256	2590.008735
896.479371	2590.943869
896.787446	2588.695514
897.095480	2583.372056
897.403473	2583.974474
897.711425	2581.927765
898.019336	2583.374577
898.327207	2582.573033
898.635038	2579.006417
898.942827	2577.610017
899.250576	2577.519276
899.558284	2576.959708
899.865952	2573.720767
900.173579	2575.248237
900.481165	2574.061045
900.788711	2572.659604
901.096216	2573.887125
901.403681	2571.716908
901.711105	2570.930488
902.018489	2571.396795
902.325832	2576.279152
902.633135	2573.166240
902.940397	2575.759914
903.247619	2574.449214
903.554800	2576.672363
903.861941	2586.013621
904.169041	2594.956627
904.476101	2597.179776
904.783121	2596.332863
905.090100	2597.520054
905.397039	2593.671133
905.703938	2594.407142
906.010796	2589.829774
906.317614	2586.237952
906.624391	2585.605287
906.931129	2585.348188
907.237826	2585.370873
907.544483	2580.367528
907.851099	2579.634040
908.157675	2575.606158
908.464211	2575.959039
908.770707	2570.348235
909.077163	2569.622309
909.383578	2566.529561
909.689954	2565.017215
909.996289	2564.283727
910.302584	2570.098698
910.608839	2570.696075
910.915054	2570.645663
911.221229	2566.164077
911.527363	2569.289593
911.833458	2567.159705
912.139513	2569.783626
912.445527	2568.911506
912.751502	2572.160530
913.057436	2567.820096
913.363331	2570.444017
913.669186	2569.566856
913.975000	2573.730849
914.280775	2574.849985
914.586510	2577.373083
914.892205	2578.545151
915.197859	2583.367015
915.503475	2585.486820
915.809050	2590.785073
916.114585	2595.269179
916.420081	2599.433172
916.725536	2598.316557
917.030952	2598.699684
917.336328	2599.866711
917.641665	2597.671289
917.946961	2595.243973
918.252218	2592.912440
918.557435	2589.955803
918.862612	2592.887234
919.167750	2586.137129
919.472848	2586.621080
919.777906	2582.247879
920.082925	2579.729822
920.387904	2579.530697
920.692843	2579.883577
920.997743	2576.679924
921.302603	2576.773186
921.607423	2574.008113
921.912204	2574.056004
922.216946	2574.449214
922.521647	2572.057186
922.826310	2570.827145
923.130932	2569.276990
923.435516	2571.346383
923.740059	2567.910837
924.044564	2568.598955
924.349028	2570.413770
924.653454	2565.188614
924.957840	2562.068140
925.262186	2564.487894
925.566493	2563.756926
925.870761	2563.663665
926.174989	2567.845302
926.479178	2565.314643
926.783328	2565.544015
927.087438	2564.316494
927.391509	2567.172308
927.695541	2563.492266
927.999533	2564.621484
928.303486	2567.169787
928.607400	2563.948490
928.911275	2566.738769
929.215110	2564.918912
929.518906	2567.356310
929.822663	2564.616443
930.126381	2565.881773
930.430060	2568.036866
930.733699	2567.406722
931.037299	2563.804817
931.340861	2563.865311
931.644383	2566.665672
931.947866	2563.696433
932.251309	2563.456978
932.554714	2564.800445
932.858080	2566.229612
933.161407	2566.975703
933.464694	2564.616443
933.767943	2565.100394
934.071153	2563.681309
934.374323	2566.280024
934.677455	2563.993861
934.980548	2562.935218
935.283602	2565.168449
935.586617	2563.875393
935.889593	2565.879252
936.192530	2563.472101
936.495428	2563.951011
936.798287	2563.048644
937.101108	2564.969324
937.403890	2564.714746
937.706632	2568.215827
938.009336	2567.643656
938.312002	2564.923953
938.614628	2566.146433
938.917216	2565.559139
939.219765	2568.422514
939.522275	2566.670713
939.824747	2569.526527
940.127179	2565.632236
940.429573	2564.071998
940.731929	2566.322874
941.034246	2563.880435
941.336524	2562.758778
941.638763	2567.963769
941.940964	2568.258677
942.243126	2567.658779
942.545250	2567.671382
942.847335	2568.651887
943.149381	2566.945456
943.451389	2565.153326
943.753359	2566.194324
944.055290	2566.181721
944.357182	2565.801114
944.659036	2564.140054
944.960851	2564.114848
945.262628	2563.943449
945.564367	2564.966803
945.866067	2566.295147
946.167729	2568.150292
946.469352	2568.583831
946.770937	2564.951680
947.072484	2564.467729
947.373992	2566.484191
947.675462	2562.819272
947.976893	2567.557956
948.278286	2567.074006
948.579641	2568.646846
948.880958	2564.404715
949.182236	2565.528892
949.483476	2563.376319
949.784678	2564.291289
950.085841	2564.099725
950.386967	2564.891186
950.688054	2565.566701
950.989103	2564.089643
951.290114	2563.126782
951.591087	2565.644838
951.892021	2565.980075
952.192917	2564.903789
952.493776	2566.932853
952.794596	2565.697771
953.095378	2566.872359
953.396122	2563.429251
953.696828	2567.038717
953.997496	2566.902606
954.298126	2563.320867
954.598718	2566.632905
954.899272	2566.290106
955.199788	2565.130641
955.500266	2564.644169
955.800706	2562.189127
956.101108	2562.446226
956.401472	2560.933880
956.701798	2560.575958
957.002087	2561.261555
957.302337	2564.364385
957.602550	2564.001422
957.902724	2564.989488
958.202861	2563.575445
958.502960	2564.858418
958.803022	2563.076371
959.103045	2562.602502
959.403031	2563.552760
959.702979	2559.603016
960.002889	2562.599982
960.302762	2564.278686
960.602596	2558.859445
960.902393	2562.138716
961.202153	2562.642831
961.501875	2560.838098
961.801559	2561.783315
962.101205	2562.617626
962.400814	2559.512275
962.700385	2561.538819
962.999918	2564.601320
963.299414	2560.381874
963.598873	2561.964796
963.898293	2561.861452
964.197677	2560.122254
964.497022	2559.144271
964.796331	2562.778943
965.095601	2559.928170
965.394835	2560.933880
965.694030	2559.650907
965.993189	2560.351627
966.292309	2558.688046
966.591393	2560.656617
966.890439	2562.030331
967.189447	2564.109807
967.488419	2561.120403
967.787353	2560.696946
968.086249	2562.627708
968.385108	2559.265258
968.683930	2561.561504
968.982714	2559.222408
969.281462	2560.550752
969.580172	2562.773901
969.878844	2560.722152
970.177480	2559.275341
970.476078	2561.110321
970.774639	2560.868345
971.073162	2559.703839
971.371649	2559.756771
971.670098	2556.936245
971.968510	2559.328273
972.266885	2556.417006
972.565223	2560.402038
972.863524	2563.545198
973.161788	2562.118551
973.460014	2562.378171
973.758204	2562.441185
974.056356	2560.336503
974.354471	2561.614436
974.652550	2560.240722
974.950591	2562.221895
975.248595	2560.964127
975.546563	2558.236863
975.844493	2562.458829
976.142386	2563.671227
976.440243	2562.345403
976.738062	2563.477142
977.035845	2561.712738
977.333590	2562.912533
977.631299	2559.025803
977.928971	2561.019580
978.226606	2561.692574
978.524204	2559.885320
978.821765	2561.896741
979.119290	2562.602502
979.416777	2560.162584
979.714228	2562.025290
980.011642	2561.122923
980.309020	2565.125600
980.606360	2562.325239
980.903664	2561.690053
981.200931	2561.327090
981.498162	2561.329611
981.795356	2560.568397
982.092513	2562.899930
982.389633	2563.320867
982.686717	2564.445044
982.983764	2565.337328
983.280775	2563.456978
983.577749	2568.329253
983.874686	2566.620302
984.171587	2567.762123
984.468451	2564.765157
984.765279	2565.992678
985.062070	2562.869683
985.358824	2564.263562
985.655543	2562.859601
985.952224	2563.144426
986.248869	2563.146947
986.545478	2556.043961
986.842050	2561.201061
987.138586	2557.737789
987.435086	2555.368446
987.731549	2557.435319
988.027975	2561.770712
988.324366	2559.476987
988.620719	2563.386402
988.917037	2561.248952
989.213318	2558.435988
989.509563	2559.310629
989.805772	2560.170145
990.101944	2560.863304
990.398080	2559.794579
990.694180	2561.233829
990.990244	2559.897923
991.286271	2558.186451
991.582262	2559.799621
991.878217	2558.700649
992.174136	2560.046637
992.470019	2559.920608
992.765865	2557.394990
993.061676	2560.593602
993.357450	2564.850857
993.653188	2559.237532
993.948890	2558.985474
994.244556	2558.521688
994.540186	2558.708211
994.835780	2558.516647
995.131337	2561.120403
995.426859	2558.604867
995.722345	2559.451781
996.017795	2560.409600
996.313208	2562.690722
996.608586	2561.034703
996.903928	2559.832388
997.199234	2561.374981
997.494504	2560.011349
997.789738	2562.105948
998.084936	2561.992522
998.380099	2563.661144
998.675225	2560.916236
998.970316	2562.534447
999.265371	2562.579817
999.560390	2559.139229
999.855373	2560.951524
1000.150320	2559.839950
1000.445232	2561.687533
1000.740108	2563.010836
1001.034948	2559.882800
1001.329752	2558.410783
1001.624521	2560.752399
1001.919254	2555.287788
1002.213951	2553.956923
1002.508613	2553.964485
1002.803239	2559.013201
1003.097829	2554.483724
1003.392384	2558.292316
1003.686903	2555.980947
1003.981386	2559.408931
1004.275834	2555.809547
1004.570246	2560.752399
1004.864623	2557.241235
1005.158964	2559.590413
1005.453270	2561.382543
1005.747540	2559.406411
1006.041775	2557.158056
1006.335974	2558.617470
1006.630138	2558.388098
1006.924266	2559.910526
1007.218359	2557.208467
1007.512416	2560.898592
1007.806438	2558.718293
1008.100425	2559.217367
1008.394376	2559.310629
1008.688292	2556.205278
1008.982172	2559.199723
1009.276017	2559.938252
1009.569827	2556.406924
1009.863602	2561.387584
1010.157341	2557.485731
1010.451045	2555.754095
1010.744714	2557.062274
1011.038347	2557.712583
1011.331945	2559.660989
1011.625508	2560.336503
1011.919036	2555.754095
1012.212528	2558.166287
1012.505986	2559.028324
1012.799408	2556.749722
1013.092795	2558.350289
1013.386147	2559.383725
1013.679464	2560.248283
1013.972745	2557.921791
1014.265992	2556.381718
1014.559204	2560.293654
1014.852380	2558.017573
1015.145521	2558.675443
1015.438628	2556.154866
1015.731699	2559.774415
1016.024736	2558.194013
1016.317737	2559.807182
1016.610703	2557.531101
1016.903635	2554.536656
1017.196531	2554.070349
1017.489393	2556.056564
1017.782219	2555.970864
1018.075011	2555.166800
1018.367768	2558.090669
1018.660490	2555.716286
1018.953177	2555.716286
1019.245829	2555.716286
