Dividing Wavelength (nm)	Counts (n)	Blue Motor Position (mm): 0.000000	Red Motor Position (mm): 42.500000	
326.493990	2129.635442
326.888308	2129.635442
327.282561	2129.635442
327.676750	2096.809969
328.070874	2093.762592
328.464933	2096.628488
328.858929	2102.786257
329.252859	2113.115581
329.646726	2124.372478
330.040528	2138.840589
330.434265	2155.060502
330.827938	2170.995589
331.221547	2188.160718
331.615091	2212.002855
332.008571	2227.489280
332.401986	2247.278329
332.795338	2264.750968
333.188625	2287.620163
333.581847	2306.491722
333.975006	2321.501758
334.368100	2340.605210
334.761129	2361.420134
335.154095	2375.961343
335.546996	2397.333314
335.939833	2417.117323
336.332606	2435.343614
336.725315	2446.398865
337.117960	2455.455298
337.510540	2463.725311
337.903056	2479.783906
338.295508	2482.286839
338.687896	2491.978457
339.080220	2500.969355
339.472480	2506.474295
339.864676	2511.656601
340.256807	2515.830677
340.648875	2517.257323
341.040879	2521.242355
341.432818	2519.939217
341.824694	2525.255114
342.216506	2524.020031
342.608253	2525.555063
342.999937	2522.847963
343.391557	2526.752337
343.783113	2521.494413
344.174605	2522.497603
344.566033	2518.951151
344.957397	2517.242200
345.348697	2515.233300
345.739934	2513.589884
346.131106	2515.334123
346.522215	2511.112157
346.913260	2508.188288
347.304241	2511.016375
347.695159	2504.825838
348.086012	2508.941940
348.476802	2502.295179
348.867528	2501.057575
349.258191	2501.581855
349.648789	2499.204951
350.039324	2496.873418
350.429796	2497.798469
350.820203	2495.749240
351.210548	2492.961482
351.600828	2493.916781
351.991045	2493.868890
352.381198	2492.439723
352.771288	2493.281596
353.161314	2494.632625
353.551276	2493.160608
353.941175	2491.645741
354.331010	2492.964003
354.720782	2492.893427
355.110490	2491.053406
355.500135	2491.713797
355.889717	2490.972747
356.279235	2490.859321
356.668689	2495.096411
357.058080	2494.761174
357.447408	2490.675319
357.836672	2490.607263
358.225873	2494.236894
358.615010	2490.768580
359.004084	2496.780156
359.393095	2497.102790
359.782043	2497.070023
360.170927	2497.322080
360.559748	2499.071361
360.948505	2502.814417
361.337199	2501.173522
361.725830	2501.221413
362.114398	2501.924654
362.502903	2502.985817
362.891344	2505.826507
363.279722	2506.239882
363.668037	2501.901969
364.056289	2502.464057
364.444478	2503.673934
364.832603	2504.936743
365.220665	2506.759120
365.608665	2506.297855
365.996601	2506.807011
366.384474	2509.312465
366.772284	2509.914883
367.160031	2508.455469
367.547715	2513.441170
367.935336	2516.571726
368.322893	2518.726820
368.710388	2520.786131
369.097820	2529.280475
369.485189	2527.884076
369.872495	2537.051414
370.259738	2546.556509
370.646918	2552.721841
371.034035	2553.377191
371.421090	2567.532751
371.808081	2576.538772
372.195010	2588.723241
372.581875	2600.146495
372.968678	2614.725512
373.355418	2625.478293
373.742096	2642.729122
374.128710	2655.984836
374.515262	2673.308761
374.901751	2686.887109
375.288177	2699.056454
375.674540	2722.419682
376.060841	2739.620099
376.447079	2761.077770
376.833254	2782.401851
377.219367	2794.185548
377.605417	2832.452947
377.991404	2840.042404
378.377329	2863.135930
378.763191	2877.732591
379.148991	2919.065011
379.534727	2942.337498
379.920402	2970.777167
380.306013	2981.532469
380.691563	3031.555839
381.077049	3053.787327
381.462474	3073.399936
381.847835	3113.073817
382.233134	3134.579379
382.618371	3131.940335
383.003545	3201.697302
383.388657	3206.801470
383.773706	3239.969742
384.158693	3258.833739
384.543618	3283.023716
384.928480	3321.333965
385.313280	3367.347096
385.698017	3362.600850
386.082692	3418.615631
386.467305	3421.990683
386.851856	3452.487144
387.236344	3476.505721
387.620770	3509.648787
388.005133	3535.386398
388.389435	3564.524267
388.773674	3575.052717
389.157851	3613.282307
389.541965	3631.019607
389.926018	3591.184409
390.310008	3665.380112
390.693936	3685.630427
391.077802	3726.131057
391.461606	3713.142524
391.845348	3775.438582
392.229027	3779.869757
392.612645	3792.702014
392.996200	3867.159856
393.379694	3910.075199
393.763125	3972.330928
394.146494	3940.773305
394.529801	4000.763036
394.913047	4050.241961
395.296230	4016.894728
395.679351	4070.966144
396.062410	4097.462449
396.445408	4077.539809
396.828343	4108.101804
397.211217	4132.566524
397.594028	4054.216911
397.976778	4120.641674
398.359466	4142.598420
398.742092	4173.104963
399.124656	4095.075463
399.507158	4174.760982
399.889598	4201.456412
400.271977	4266.207512
400.654294	4235.012852
401.036549	4243.265221
401.418742	4211.251374
401.800874	4315.860357
402.182944	4336.392977
402.564952	4399.135177
402.946898	4389.577150
403.328783	4382.874936
403.710606	4298.848983
404.092367	4490.422912
404.474067	4453.476295
404.855705	4465.176813
405.237282	4392.294332
405.618797	4498.566896
406.000250	4534.061660
406.381642	4617.432263
406.762972	4574.544646
407.144240	4583.737190
407.525447	4589.791616
407.906593	4643.316067
408.287677	4689.906411
408.668700	4615.796408
409.049661	4668.864635
409.430560	4711.913568
409.811399	4637.949759
410.192176	4796.045384
410.572891	4739.634873
410.953545	4842.295450
411.334138	4724.498808
411.714669	4783.437459
412.095139	4685.462634
412.475547	4825.208459
412.855894	4805.026200
413.236180	4817.145134
413.616405	4768.082104
413.996568	4854.588304
414.376670	4796.418430
414.756711	4751.902521
415.136691	4779.207931
415.516609	4860.771279
415.896466	4898.544645
416.276262	4932.637968
416.655997	4914.018467
417.035670	5095.923462
417.415283	5188.476526
417.794834	5126.775324
418.174324	5082.135906
418.553753	4991.818594
418.933121	5176.337428
419.312428	5242.106841
419.691674	5184.189025
420.070859	5306.313497
420.449983	5218.378130
420.829045	5334.455739
421.208047	5241.703549
421.586988	5313.787008
421.965867	5323.130787
422.344686	5457.021312
422.723444	5312.526719
423.102141	5134.130367
423.480777	5429.403351
423.859352	5198.359708
424.237866	5452.431342
424.616319	5446.661741
424.994712	5556.276590
425.373044	5435.888795
425.751314	5573.610598
426.129524	5384.204365
426.507673	5578.908850
426.885762	5663.098640
427.263789	5585.288431
427.641756	5469.863652
428.019662	5591.073155
428.397508	5603.716368
428.775292	5547.799890
429.153016	5642.301360
429.530679	5577.101597
429.908282	5662.133259
430.285824	5526.478330
430.663305	5800.447397
431.040726	5535.796903
431.418086	5539.303025
431.795385	5642.308922
432.172624	5655.700747
432.549802	5646.150281
432.926920	5660.986397
433.303977	5669.392521
433.680974	5710.631680
434.057910	5727.196911
434.434786	5728.497529
434.811601	5702.107089
435.188355	5934.665598
435.565050	5810.249921
435.941683	5792.941119
436.318257	6004.440208
436.694770	5989.261294
437.071222	6025.146748
437.447614	5950.527588
437.823946	5867.225042
438.200218	6022.570718
438.576429	5888.216406
438.952580	5982.833823
439.328670	6029.920720
439.704700	5939.976453
440.080670	5923.317961
440.456580	6193.249064
440.832429	6078.724131
441.208218	5921.561118
441.583947	6082.389050
441.959616	6087.732673
442.335224	6013.068143
442.710773	6147.281303
443.086261	6175.272309
443.461689	5970.450228
443.837057	6119.885152
444.212365	6270.784531
444.587612	6166.046998
444.962800	6320.815462
445.337927	6300.287883
445.712995	5908.108799
446.088002	6484.652962
446.462949	6317.594165
446.837837	6250.745944
447.212664	6421.910761
447.587431	6561.117183
447.962139	7100.800429
448.336786	8031.939353
448.711374	7771.462934
449.085901	6846.965730
449.460369	6768.689214
449.834776	6699.774120
450.209124	7092.938750
450.583412	7244.334682
450.957640	7395.455871
451.331808	7153.699777
451.705917	6710.042950
452.079965	6631.221989
452.453954	6840.984401
452.827883	6715.119392
453.201752	6811.017262
453.575562	6613.305729
453.949311	6813.994063
454.323001	6703.771755
454.696632	6773.223732
455.070202	6916.518530
455.443713	7072.769093
455.817164	7174.161820
456.190556	7252.445898
456.563888	7328.148906
456.937160	7369.637602
457.310373	7027.844851
457.683526	7055.409880
458.056619	6943.085410
458.429653	6931.717608
458.802628	6868.771241
459.175542	6976.294011
459.548398	7332.156623
459.921194	7493.468505
460.293930	7498.852457
460.666607	8021.360492
461.039224	8329.266607
461.411782	8458.725958
461.784280	8475.379410
462.156719	8368.544757
462.529099	8246.092610
462.901419	7835.190680
463.273680	7731.252170
463.645882	7740.580825
464.018024	7605.190557
464.390106	7776.327647
464.762130	8160.060278
465.134094	8627.344993
465.505999	9650.384151
465.877845	10877.663138
466.249631	11522.091478
466.621358	11138.225256
466.993026	10507.715542
467.364634	10251.965204
467.736184	9885.496005
468.107674	9554.566940
468.479105	9582.081558
468.850477	9352.925828
469.221790	9127.195561
469.593043	8795.681722
469.964238	8662.025611
470.335373	8664.294130
470.706449	8729.274603
471.077467	8708.005975
471.448425	10020.447693
471.819324	11094.647002
472.190164	11112.056627
472.560945	9866.861380
472.931667	9076.708405
473.302330	8943.979866
473.672934	8588.626411
474.043479	8942.611192
474.413965	8885.996514
474.784393	8771.864791
475.154761	8924.957072
475.525070	9013.288169
475.895321	8843.295421
476.265513	9020.970888
476.635645	9180.233541
477.005719	9179.132049
477.375734	9299.529926
477.745691	9533.129433
478.115588	9664.189351
478.485427	9920.317775
478.855207	10450.896697
479.224928	11269.297777
479.594591	11895.230124
479.964194	11695.519773
480.333739	11647.016311
480.703226	11560.250492
481.072653	11654.270532
481.442022	11892.412119
481.811333	12079.653175
482.180584	11884.084132
482.549777	11591.029257
482.918912	11415.029973
483.287988	11441.221288
483.657005	11451.936260
484.025964	11133.743671
484.394864	11264.291911
484.763706	11232.429298
485.132489	10992.941723
485.501213	10954.523090
485.869879	11032.731550
486.238487	10868.815913
486.607036	10981.674744
486.975527	10761.144428
487.343959	10952.980497
487.712333	10996.021868
488.080648	10929.823956
488.448905	10974.662499
488.817104	10905.714638
489.185244	11176.790083
489.553326	11332.566778
489.921350	11874.833615
490.289315	12932.492898
490.657222	13273.380762
491.025070	13179.171679
491.392861	13060.770099
491.760593	12672.298783
492.128267	12326.216010
492.495883	12000.441525
492.863440	11662.245637
493.230939	11328.085192
493.598380	11262.245203
493.965763	11126.928031
494.333088	11032.492096
494.700354	10945.716194
495.067563	11009.819506
495.434713	10839.259628
495.801805	10971.501696
496.168839	10892.736188
496.535815	10827.793523
496.902733	10824.612555
497.269593	10761.759449
497.636395	10857.548934
498.003139	10847.885042
498.369825	10717.230937
498.736453	10870.471932
499.103023	10801.680346
499.469535	10831.100520
499.835989	10818.845475
500.202385	10782.092943
500.568723	10627.657195
500.935003	10848.439569
501.301226	10657.742801
501.667390	10920.384396
502.033497	11014.958963
502.399546	10878.643642
502.765537	10783.159147
503.131470	10853.884015
503.497345	11031.284739
503.863163	10645.278548
504.228923	10951.677358
504.594625	11018.104642
504.960269	10761.290622
505.325856	10990.146403
505.691385	10775.615060
506.056856	10933.191447
506.422270	10961.792433
506.787625	10848.827738
507.152924	10962.702362
507.518164	10943.523292
507.883347	10869.861952
508.248472	10785.772985
508.613540	11015.589107
508.978550	10902.218598
509.343503	10882.409384
509.708398	10990.388379
510.073236	11103.499268
510.438016	11109.843560
510.802738	11062.444111
511.167403	11116.777667
511.532010	11009.688436
511.896561	11240.941287
512.261053	11308.064250
512.625488	11177.379898
512.989866	11158.760397
513.354186	11147.503500
513.718449	11056.026722
514.082655	11250.501835
514.446803	11140.650051
514.810894	11270.875658
515.174927	11137.466563
515.538904	11158.372228
515.902822	11313.395270
516.266684	11199.956706
516.630488	11139.919084
516.994235	11201.335461
517.357925	11260.034657
517.721558	11345.504900
518.085133	11362.980059
518.448651	11367.799403
518.812112	11249.816238
519.175516	11267.856007
519.538863	11388.624409
519.902152	11306.435957
520.265385	11465.837242
520.628560	11370.017510
520.991678	11350.374654
521.354739	11417.674058
521.717743	11347.297030
522.080690	11326.063690
522.443580	11461.771551
522.806413	11414.871177
523.169189	11444.596340
523.531908	11503.724034
523.894569	11323.623771
524.257174	11324.750469
524.619722	11444.687081
524.982213	11390.270346
525.344647	11446.461567
525.707025	11389.365459
526.069345	11480.627987
526.431608	11405.121585
526.793815	11516.069819
527.155964	11298.523866
527.518057	11352.290293
527.880093	11313.773357
528.242072	11378.761392
528.603995	11278.155084
528.965860	11204.034999
529.327669	11252.818245
529.689421	11202.930987
530.051117	11171.824547
530.412755	11280.511824
530.774337	11162.125367
531.135862	11144.912347
531.497331	11174.135916
531.858743	11020.574808
532.220098	11191.943792
532.581396	11056.218286
532.942638	11039.857221
533.303824	11001.983033
533.664953	11021.575477
534.026025	10932.342013
534.387040	11029.875737
534.747999	11037.656758
535.108902	11089.895714
535.469748	10854.229334
535.830537	10950.076792
536.191270	10927.116857
536.551947	10947.793149
536.912567	10951.823552
537.273131	10876.778415
537.633638	10850.887049
537.994089	10836.849956
538.354483	10795.603235
538.714821	10935.923753
539.075103	10942.048754
539.435328	10912.618498
539.795497	10734.385983
540.155609	10891.359953
540.515665	10979.461678
540.875665	10711.181552
541.235609	10785.594024
541.595496	10780.144537
541.955328	10937.874679
542.315102	10815.286420
542.674821	10769.457291
543.034483	10773.926274
543.394090	10777.974320
543.753640	10705.469925
544.113134	10927.149624
544.472571	10776.822417
544.831953	10921.339694
545.191278	10730.773997
545.550548	10758.714592
545.909761	10901.026365
546.268918	10877.123734
546.628019	10955.589294
546.987064	10813.895062
547.346053	10728.704603
547.704986	10834.147898
548.063863	10825.373769
548.422684	10810.852726
548.781449	10730.826929
549.140158	10833.295943
549.498811	10718.506349
549.857408	10570.929091
550.215949	10787.923037
550.574434	10651.015381
550.932864	10746.570452
551.291237	10802.681015
551.649555	10748.682696
552.007817	10762.835735
552.366022	10723.671011
552.724173	10723.282842
553.082267	10707.136026
553.440305	10841.223157
553.798288	10647.100925
554.156215	10793.382607
554.514086	10770.992322
554.871902	10628.083172
555.229661	10662.541979
555.587365	10636.602722
555.945014	10526.665239
556.302606	10662.909984
556.660143	10549.645339
557.017625	10708.597961
557.375050	10609.493917
557.732421	10739.172559
558.089735	10653.225927
558.446994	10658.284725
558.804197	10694.593636
559.161345	10689.572646
559.518437	10545.423373
559.875474	10629.466969
560.232455	10659.237503
560.589381	10607.497621
560.946251	10606.073495
561.303065	10715.494259
561.659825	10639.939966
562.016528	10574.326828
562.373177	10453.651687
562.729770	10571.791128
563.086307	10485.461368
563.442789	10579.332694
563.799216	10458.801226
564.155587	10508.325522
564.511904	10458.697882
564.868164	10453.480288
565.224370	10465.470673
565.580520	10380.723835
565.936615	10394.370239
566.292654	10259.053067
566.648638	10395.963243
567.004567	10351.832983
567.360441	10336.512916
567.716260	10246.246015
568.072023	10339.590541
568.427732	10290.338467
568.783385	10204.013749
569.138982	10273.803483
569.494525	10288.609352
569.850013	10166.880610
570.205445	10244.184183
570.560823	10147.744390
570.916145	10066.806144
571.271412	10130.904415
571.626625	10074.713194
571.981782	10052.068331
572.336884	10029.894816
572.691931	10026.786944
573.046923	9974.144695
573.401860	9933.011401
573.756743	9870.526299
574.111570	9917.822404
574.466342	9903.991998
574.821059	9927.715668
575.175722	9817.856323
575.530330	9823.192385
575.884882	9819.514863
576.239380	9745.167926
576.593823	9727.236542
576.948211	9738.385053
577.302544	9619.796950
577.656823	9636.241194
578.011047	9632.316656
578.365216	9613.666907
578.719330	9533.394094
579.073389	9547.002689
579.427394	9489.725099
579.781344	9465.635945
580.135239	9417.071990
580.489080	9427.764277
580.842866	9325.396086
581.196597	9330.139812
581.550273	9378.018171
581.903895	9344.572636
582.257463	9411.695599
582.610975	9283.206670
582.964434	9316.405188
583.317837	9228.971416
583.671186	9217.636382
584.024481	9213.762255
584.377721	9134.628743
584.730906	9106.534392
585.084037	9136.100759
585.437113	9077.991379
585.790135	9091.012679
586.143103	8993.403338
586.496016	8966.128175
586.848874	9025.593626
587.201679	9016.360753
587.554428	8896.618225
587.907124	8940.592210
588.259765	8921.098068
588.612352	8914.806708
588.964884	8793.519067
589.317362	8804.138258
589.669786	8811.402561
590.022155	8857.080456
590.374470	8872.942446
590.726731	8814.626379
591.078937	8664.354624
591.431090	8773.674565
591.783188	8650.448601
592.135232	8644.215214
592.487222	8642.468454
592.839157	8691.486114
593.191038	8627.738203
593.542866	8571.020181
593.894639	8465.874314
594.246358	8519.121502
594.598022	8541.191673
594.949633	8434.525899
595.301190	8410.547651
595.652692	8439.564533
596.004141	8547.397334
596.355535	8325.616812
596.706876	8300.620250
597.058162	8236.216989
597.409395	8313.558372
597.760573	8373.318730
598.111698	8284.085266
598.462768	8265.483408
598.813785	8229.534940
599.164748	8201.158285
599.515657	8188.943569
599.866511	8101.088860
600.217312	8225.207109
600.568060	8084.717713
600.918753	8188.066408
601.269392	8156.470977
601.619978	8068.079385
601.970510	8134.486505
602.320988	8129.863767
602.671412	8182.788320
603.021783	8111.032536
603.372100	8096.307326
603.722363	8093.275072
604.072572	8068.011329
604.422728	8078.222187
604.772830	8005.276690
605.122878	8015.716920
605.472872	8011.931013
605.822813	8039.962349
606.172701	7976.615210
606.522534	8051.821664
606.872314	8055.310142
607.222041	8023.681943
607.571714	8079.611024
607.921333	8034.724591
608.270899	8040.161475
608.620411	8125.661965
608.969870	8031.117645
609.319276	8019.777569
609.668627	8039.044859
610.017926	8071.290600
610.367171	8111.955067
610.716362	8093.685926
611.065500	8082.686128
611.414585	8102.512986
611.763616	8091.535874
612.112594	8076.888801
612.461518	8087.336593
612.810389	8140.074624
613.159207	8083.288546
613.507971	8030.973972
613.856682	8145.927403
614.205340	8104.108512
614.553945	8171.818769
614.902496	8070.804129
615.250994	8124.487376
615.599439	8097.239939
615.947830	8112.164275
616.296169	8083.641427
616.644454	8092.264321
616.992686	8090.328517
617.340864	8142.728791
617.688990	8041.608286
618.037063	8130.675392
618.385082	8076.644305
618.733048	8157.204464
619.080961	8090.739372
619.428821	8104.100950
619.776628	8105.903162
620.124382	8051.804020
620.472083	8035.657204
620.819731	8062.461019
621.167326	7948.702341
621.514868	7957.617622
621.862357	7849.918411
622.209793	7861.568518
622.557176	7793.437323
622.904506	7759.412056
623.251783	7691.232970
623.599007	7643.470558
623.946179	7648.476424
624.293297	7596.771830
624.640363	7513.489448
624.987376	7496.921695
625.334336	7445.862369
625.681243	7387.979840
626.028097	7376.942234
626.374899	7350.080446
626.721647	7340.444280
627.068343	7269.956346
627.414987	7235.096767
627.761577	7185.975764
628.108115	7220.278296
628.454600	7106.229752
628.801032	7149.354302
629.147412	7111.084383
629.493739	7093.425221
629.840014	7029.352156
630.186236	7076.877633
630.532405	6956.658717
630.878521	7001.784606
631.224585	6952.449354
631.570597	6879.032510
631.916556	6899.429018
632.262462	6890.889303
632.608316	6846.443971
632.954117	6817.795093
633.299866	6804.050387
633.645562	6787.530526
633.991206	6710.562189
634.336797	6649.087839
634.682336	6607.926817
635.027823	6569.813174
635.373257	6557.318674
635.718639	6487.443241
636.063968	6491.841647
636.409245	6390.814404
636.754470	6381.054730
637.099642	6336.589232
637.444762	6280.760974
637.789829	6286.457478
638.134845	6226.263580
638.479808	6201.922369
638.824719	6205.012596
639.169577	6130.398478
639.514383	6144.017155
639.859137	6071.663995
640.203839	6073.937555
640.548489	6054.287137
640.893086	6026.926275
641.237632	5993.934444
641.582125	6010.419017
641.926566	5973.694211
642.270955	5977.827957
642.615292	5968.171627
642.959576	5972.567513
643.303809	5957.630574
643.647990	5956.955060
643.992118	5942.703718
644.336195	5892.604731
644.680219	5900.393313
645.024192	5892.972735
645.368112	5962.681810
645.711981	5976.000539
646.055797	6038.803233
646.399562	5984.444472
646.743274	6088.062868
647.086935	6125.785823
647.430544	6112.555314
647.774101	6113.261076
648.117606	6119.817096
648.461059	6105.686742
648.804460	6056.512807
649.147810	5981.076981
649.491108	5945.609943
649.834354	5916.827475
650.177548	5836.821843
650.520690	5759.611531
650.863781	5733.447942
651.206820	5742.902626
651.549807	5674.721020
651.892742	5606.705773
652.235626	5609.861535
652.578458	5589.046611
652.921238	5500.604608
653.263967	5530.407909
653.606644	5477.253983
653.949269	5465.175378
654.291843	5415.320887
654.634365	5445.340959
654.976836	5395.158793
655.319255	5395.998145
655.661622	5363.974215
656.003938	5349.735476
656.346203	5311.697450
656.688416	5325.951312
657.030577	5287.046207
657.372687	5250.321402
657.714746	5238.784721
658.056753	5265.686838
658.398708	5202.453125
658.740612	5196.721333
659.082465	5222.285024
659.424266	5212.404363
659.766016	5202.485893
660.107715	5172.007077
660.449362	5177.764074
660.790958	5164.319317
661.132503	5140.963651
661.473996	5161.365201
661.815438	5146.032531
662.156829	5141.848374
662.498168	5125.875478
662.839456	5102.197178
663.180693	5117.519765
663.521879	5110.084063
663.863013	5093.387762
664.204097	5093.675108
664.545129	5118.361638
664.886110	5102.474442
665.227040	5118.676710
665.567918	5094.418678
665.908746	5099.411941
666.249522	5099.525367
666.590248	5080.074074
666.930922	5088.076906
667.271545	5085.826031
667.612118	5087.353501
667.952639	5057.746804
668.293109	5057.446855
668.633528	5019.310527
668.973896	5016.684085
669.314213	5007.340307
669.654480	4976.392663
669.994695	4968.974605
670.334859	4953.984734
670.674973	4932.970685
671.015035	4933.532773
671.355047	4919.024333
671.695008	4902.874996
672.034918	4881.560998
672.374777	4877.883476
672.714585	4863.410323
673.054342	4853.307851
673.394049	4837.534081
673.733705	4853.723746
674.073310	4827.396320
674.412864	4804.645593
674.752368	4782.353611
675.091820	4777.688023
675.431223	4730.454932
675.770574	4718.623344
676.109875	4680.376109
676.449125	4674.669523
676.788324	4643.747086
677.127473	4602.530612
677.466571	4587.807922
677.805619	4572.649172
678.144616	4553.712078
678.483562	4529.771638
678.822458	4508.208103
679.161303	4491.920135
679.500098	4478.634174
679.838842	4464.707986
680.177535	4456.170792
680.516179	4464.418120
680.854771	4459.954178
681.193314	4503.204758
681.531805	4566.998039
681.870247	4646.991068
682.208638	4703.373853
682.546978	4704.417372
682.885268	4683.060524
683.223508	4614.228609
683.561697	4575.948607
683.899836	4546.233526
684.237925	4512.094832
684.575963	4487.957788
684.913951	4453.504022
685.251889	4470.074294
685.589776	4460.246565
685.927614	4441.380047
686.265401	4465.726299
686.603137	4450.751552
686.940824	4480.844720
687.278460	4493.084641
687.616046	4491.065659
687.953582	4524.460783
688.291068	4508.147609
688.628504	4527.551010
688.965889	4500.427082
689.303224	4471.468173
689.640510	4428.346143
689.977745	4375.925705
690.314930	4309.531188
690.652065	4278.848206
690.989150	4220.741346
691.326185	4160.141635
691.663170	4116.974235
692.000105	4067.543201
692.336990	4022.248434
692.673825	3991.799864
693.010610	3952.914924
693.347345	3918.009975
693.684030	3884.992938
694.020665	3864.016697
694.357251	3814.462154
694.693786	3815.281342
695.030272	3787.917959
695.366707	3764.390894
695.703093	3739.532964
696.039429	3746.754417
696.375716	3724.825398
696.711952	3710.490877
697.048139	3701.709187
697.384276	3685.612783
697.720363	3687.341898
698.056400	3680.286804
698.392388	3654.516425
698.728326	3641.169970
699.064214	3626.250676
699.400053	3615.865899
699.735842	3590.246755
700.071581	3578.274014
700.407270	3557.398596
700.742910	3541.897048
701.078501	3516.477030
701.414042	3503.816172
701.749533	3481.584684
702.084974	3454.720375
702.420366	3467.202272
702.755709	3436.375616
703.091002	3412.881318
703.426246	3418.479520
703.761440	3404.565935
704.096584	3384.565157
704.431679	3382.586504
704.766725	3375.937223
705.101721	3362.051364
705.436668	3366.233001
705.771565	3346.784230
706.106413	3354.701362
706.441212	3360.992722
706.775961	3360.433154
707.110661	3355.565920
707.445311	3370.132334
707.779913	3364.143443
708.114465	3373.091491
708.448967	3384.779406
708.783421	3405.238929
709.117825	3423.074532
709.452180	3425.617794
709.786485	3441.646142
710.120742	3476.349445
710.454949	3473.488591
710.789107	3497.073629
711.123216	3526.806354
711.457275	3525.999770
711.791286	3549.410888
712.125247	3549.128583
712.459159	3520.600694
712.793023	3550.802247
713.126837	3506.994620
713.460602	3501.489680
713.794318	3477.617296
714.127985	3465.841160
714.461602	3413.761000
714.795171	3402.667941
715.128691	3364.289637
715.462162	3334.317456
715.795584	3309.162099
716.128957	3294.641055
716.462281	3275.817387
716.795556	3261.838267
717.128782	3235.467991
717.461960	3204.439689
717.795088	3201.535985
718.128167	3181.633509
718.461198	3159.623832
718.794180	3152.362049
719.127113	3136.479894
719.459997	3123.075466
719.792833	3106.419494
720.125619	3101.827003
720.458357	3082.368149
720.791046	3079.308168
721.123686	3068.285686
721.456278	3051.407903
721.788821	3053.772204
722.121315	3043.039587
722.453761	3034.762013
722.786158	3028.195910
723.118506	3034.978782
723.450805	3020.044364
723.783056	3027.099459
724.115259	3022.164169
724.447412	3021.294570
724.779518	3022.625435
725.111574	3023.563089
725.443582	3030.933256
725.775542	3023.079138
726.107453	3037.428783
726.439315	3034.845192
726.771129	3048.133673
727.102895	3059.428378
727.434612	3070.798701
727.766281	3068.883062
728.097901	3071.801890
728.429473	3069.031776
728.760996	3066.254101
729.092471	3062.266548
729.423897	3054.535938
729.755276	3048.910011
730.086606	3046.588559
730.417887	3059.234294
730.749120	3080.802871
731.080305	3090.996084
731.411442	3096.387598
731.742530	3086.184302
732.073570	3085.506267
732.404562	3093.335179
732.735506	3090.670929
733.066401	3080.215576
733.397249	3051.538973
733.728048	3024.737678
734.058798	2984.423571
734.389501	2957.997842
734.720156	2943.509566
735.050762	2923.954930
735.381320	2914.283477
735.711831	2904.211251
736.042293	2895.419479
736.372707	2897.012484
736.703073	2888.094683
737.033391	2887.978736
737.363661	2889.937224
737.693883	2894.131464
738.024056	2899.059192
738.354182	2900.392577
738.684260	2915.521080
739.014290	2921.472162
739.344272	2922.341761
739.674207	2936.388936
740.004093	2935.171498
740.333931	2931.272165
740.663722	2928.365940
740.993464	2926.566248
741.323159	2916.801533
741.652806	2905.335429
741.982405	2893.682802
742.311956	2878.513970
742.641460	2876.484905
742.970915	2863.211547
743.300323	2848.718230
743.629683	2837.761282
743.958996	2829.962617
744.288260	2822.209322
744.617477	2810.723053
744.946647	2802.087557
745.275768	2794.876186
745.604842	2791.599436
745.933869	2780.579474
746.262847	2779.309103
746.591778	2779.581325
746.920662	2777.728701
747.249498	2768.387443
747.578286	2776.730553
747.907027	2783.152983
748.235720	2784.057870
748.564365	2787.533746
748.892963	2783.687345
749.221514	2779.228445
749.550017	2772.916920
749.878473	2771.712084
750.206881	2761.627256
750.535242	2761.798655
750.863555	2756.218098
751.191821	2755.401431
751.520039	2753.909249
751.848210	2748.812643
752.176334	2747.864906
752.504411	2747.731315
752.832440	2745.379617
753.160421	2741.976838
753.488356	2739.176477
753.816243	2736.807135
754.144082	2733.457288
754.471875	2730.362020
754.799620	2731.657596
755.127318	2725.005794
755.454969	2728.295147
755.782572	2727.168449
756.110129	2721.996225
756.437638	2719.631924
756.765100	2717.315514
757.092515	2722.739795
757.419882	2723.405227
757.747203	2717.587736
758.074477	2719.256358
758.401703	2721.572768
758.728882	2723.523695
759.056014	2726.442523
759.383099	2724.889847
759.710138	2725.325907
760.037129	2730.223388
760.364073	2728.877400
760.690970	2726.971844
761.017820	2723.692573
761.344623	2726.734910
761.671379	2727.715414
761.998088	2733.477453
762.324751	2755.240114
762.651366	2809.379586
762.977935	2911.772982
763.304456	2991.692915
763.630931	2995.022597
763.957359	2922.979467
764.283740	2855.029754
764.610074	2807.864719
764.936362	2773.567229
765.262602	2744.767117
765.588796	2725.124261
765.914943	2708.881663
766.241044	2695.769622
766.567097	2685.553724
766.893104	2676.890501
767.219064	2673.182732
767.544978	2667.657628
767.870845	2659.700166
768.196665	2658.737306
768.522438	2654.878303
768.848165	2653.217242
769.173846	2647.598877
769.499479	2642.807260
769.825066	2640.195942
770.150607	2636.210910
770.476101	2635.270735
770.801548	2635.764768
771.126949	2630.700929
771.452303	2626.171452
771.777611	2625.090125
772.102872	2623.005607
772.428087	2619.007972
772.753256	2621.989815
773.078378	2616.482354
773.403453	2615.302724
773.728482	2610.690069
774.053465	2612.325923
774.378401	2609.641509
774.703291	2607.723350
775.028135	2604.164295
775.352932	2603.526589
775.677683	2599.954932
776.002388	2602.324274
776.327046	2601.762185
776.651658	2598.661876
776.976224	2597.444437
777.300743	2597.439396
777.625216	2593.789600
777.949643	2598.508120
778.274024	2595.100300
778.598359	2590.679208
778.922647	2588.559403
779.246889	2589.028231
779.571086	2589.418920
779.895236	2587.110072
780.219339	2592.383118
780.543397	2592.045361
780.867409	2592.698191
781.191374	2590.464959
781.515294	2592.201637
781.839167	2590.096955
782.162995	2587.251224
782.486776	2589.534867
782.810511	2588.849270
783.134201	2587.377253
783.457844	2586.958837
783.781441	2586.205184
784.104993	2582.890626
784.428498	2583.568661
784.751958	2586.885740
785.075372	2582.820050
785.398739	2579.271077
785.722061	2583.268712
786.045337	2582.867941
786.368568	2586.311049
786.691752	2583.248548
787.014891	2585.660740
787.337983	2588.826584
787.661030	2597.520054
787.984031	2609.389451
788.306987	2609.570932
788.629897	2611.136211
788.952760	2603.881990
789.275579	2601.323605
789.598351	2592.705752
789.921078	2590.147367
790.243759	2585.547314
790.566395	2580.980028
790.888984	2582.308372
791.211529	2579.114802
791.534027	2581.481623
791.856480	2575.439800
792.178888	2575.661611
792.501249	2576.500963
792.823566	2574.741601
793.145836	2571.616085
793.468062	2572.825962
793.790241	2572.097515
794.112375	2572.717577
794.434464	2574.255129
794.756507	2574.633216
795.078505	2575.701940
795.400457	2577.118505
795.722364	2577.567167
796.044226	2586.265678
796.366042	2585.980853
796.687812	2581.383321
797.009538	2584.319793
797.331218	2583.780389
797.652852	2579.255954
797.974442	2579.175295
798.295986	2577.032805
798.617484	2577.105902
798.938938	2572.957032
799.260346	2574.532393
799.581709	2573.030129
799.903026	2574.116497
800.224299	2571.182546
800.545526	2569.536609
800.866708	2569.650035
801.187845	2568.354459
801.508936	2565.823799
801.829983	2566.511917
802.150984	2567.283213
802.471940	2563.905640
802.792851	2566.355641
803.113717	2565.395301
803.434538	2568.558625
803.755314	2566.718604
804.076045	2563.648542
804.396731	2564.417318
804.717372	2563.603171
805.037967	2566.751372
805.358518	2563.847667
805.679024	2565.395301
805.999485	2564.760116
806.319901	2566.159036
806.640272	2567.885631
806.960598	2565.700291
807.280879	2566.247256
807.601115	2569.037535
807.921306	2565.493604
808.241453	2567.802452
808.561554	2567.053841
808.881611	2565.914540
809.201623	2568.213306
809.521590	2565.415466
809.841513	2565.196176
810.161390	2564.129972
810.481223	2562.594940
810.801011	2563.971175
811.120755	2563.333469
811.440453	2563.036041
811.760107	2562.055537
812.079716	2559.875238
812.399281	2555.698642
812.718801	2558.604867
813.038276	2555.053374
813.357707	2560.591082
813.677093	2559.388767
813.996434	2563.146947
814.315731	2561.014539
814.634983	2557.949517
814.954191	2557.614280
815.273354	2560.147460
815.592473	2560.918757
815.911547	2563.635939
816.230577	2562.683161
816.549562	2565.176011
816.868502	2562.330280
817.187399	2562.529405
817.506250	2563.126782
817.825058	2565.740620
818.143821	2565.544015
818.462539	2567.794891
818.781213	2568.311609
819.099843	2571.704305
819.418429	2578.678742
819.736970	2585.232242
820.055466	2589.406317
820.373919	2601.283276
820.692327	2609.485233
821.010691	2626.055506
821.329011	2675.899914
821.647286	2787.901750
821.965517	2961.962710
822.283704	3056.335630
822.601847	3043.490770
822.919945	2951.361163
823.237999	2868.950901
823.556010	2798.220992
823.873976	2744.757035
824.191897	2699.409335
824.509775	2671.632577
824.827609	2648.781027
825.145398	2634.935498
825.463144	2632.545991
825.780845	2638.106384
826.098502	2650.255565
826.416116	2676.812363
826.733685	2708.700182
827.051210	2714.956254
827.368692	2701.882021
827.686129	2672.582835
828.003522	2643.848258
828.320872	2616.502519
828.638177	2602.198245
828.955439	2591.188365
829.272656	2582.038671
829.589830	2577.085737
829.906960	2575.898545
830.224046	2569.445868
830.541088	2565.859088
830.858086	2564.583676
831.175041	2563.459498
831.491952	2563.315825
831.808819	2564.714746
832.125642	2567.048800
832.442421	2569.115673
832.759157	2579.540779
833.075849	2594.586103
833.392497	2617.513270
833.709101	2631.752009
834.025662	2628.858387
834.342179	2617.301542
834.658653	2599.720518
834.975083	2590.268354
835.291469	2587.147880
835.607811	2573.745973
835.924110	2565.730538
836.240366	2562.652914
836.556578	2559.219888
836.872746	2558.597305
837.188871	2557.674774
837.504952	2554.110678
837.820990	2553.382232
838.136984	2553.336861
838.452935	2553.583878
838.768842	2552.114382
839.084706	2552.235369
839.400526	2560.747357
839.716303	2573.856878
840.032037	2581.476582
840.347727	2577.922569
840.663373	2574.487022
840.978977	2565.738100
841.294537	2559.897923
841.610054	2557.115206
841.925527	2554.680329
842.240957	2552.792417
842.556344	2550.367622
842.871687	2549.843342
843.186987	2549.387117
843.502244	2548.149514
843.817458	2547.763866
844.132629	2546.506098
844.447756	2545.205480
844.762840	2541.202804
845.077881	2543.587270
845.392879	2541.177598
845.707833	2545.195398
846.022745	2540.028215
846.337613	2544.673638
846.652438	2544.366128
846.967221	2544.363608
847.281960	2544.850079
847.596656	2544.396375
847.911309	2542.425284
848.225919	2544.938299
848.540485	2541.422094
848.855009	2547.594987
849.169490	2545.023999
849.483928	2545.613814
849.798323	2543.244471
850.112675	2543.773793
850.426984	2540.045859
850.741251	2542.634492
851.055474	2544.892929
851.369654	2542.445448
851.683792	2542.397558
851.997887	2542.994934
852.311938	2540.454193
852.625947	2544.164482
852.939914	2541.205325
853.253837	2545.689431
853.567718	2539.811446
853.881555	2544.119112
854.195350	2543.594832
854.509103	2542.425284
854.822812	2541.641384
855.136479	2544.625748
855.450103	2543.282280
855.763685	2543.103319
856.077224	2542.878988
856.390720	2540.305479
856.704173	2541.568288
857.017584	2543.282280
857.330953	2544.630789
857.644278	2541.774975
857.957561	2545.928886
858.270802	2545.288659
858.584000	2545.727240
858.897155	2542.579039
859.210268	2543.040305
859.523339	2540.834800
859.836367	2543.907383
860.149352	2540.270191
860.462295	2543.849410
860.775195	2539.047711
861.088054	2539.473688
861.400869	2541.157434
861.713642	2536.958152
862.026373	2541.863195
862.339062	2542.374872
862.651708	2545.535676
862.964312	2541.182639
863.276873	2543.012578
863.589392	2546.551468
863.901869	2546.473330
864.214303	2545.974256
864.526696	2544.688762
864.839045	2543.892260
865.151353	2545.825542
865.463619	2544.199770
865.775842	2542.745397
866.088023	2543.806560
866.400162	2546.072559
866.712258	2547.050543
867.024313	2543.259595
867.336325	2543.443597
867.648296	2543.988042
867.960224	2543.262115
868.272110	2547.531973
868.583954	2545.462579
868.895755	2545.878474
869.207515	2544.792106
869.519233	2547.489123
869.830909	2544.663556
870.142542	2544.010727
870.454134	2546.566592
870.765684	2546.309493
871.077191	2546.788403
871.388657	2549.167827
871.700081	2546.266643
872.011463	2544.434184
872.322803	2545.853268
872.634101	2547.393341
872.945357	2545.961653
873.256571	2550.165976
873.567744	2546.448125
873.878874	2549.147663
874.189963	2550.402910
874.501010	2549.833259
874.812015	2549.495502
875.122979	2550.652447
875.433900	2550.624721
875.744780	2550.223949
876.055618	2549.122457
876.366415	2546.433001
876.677169	2547.647919
876.987882	2548.192364
877.298554	2545.893598
877.609183	2548.794782
877.919771	2546.145655
878.230317	2547.773948
878.540822	2554.713096
878.851285	2554.902140
879.161707	2557.984805
879.472087	2561.054868
879.782425	2565.972513
880.092722	2578.860223
880.402977	2596.463932
880.713191	2628.099693
881.023363	2664.179232
881.333494	2691.323324
881.643583	2699.537885
881.953631	2692.749971
882.263637	2682.771007
882.573602	2663.218892
882.883526	2647.556027
883.193408	2631.434417
883.503248	2615.582508
883.813048	2606.425252
884.122806	2595.906885
884.432522	2587.974629
884.742197	2579.583629
885.051831	2574.149265
885.361424	2568.362020
885.670975	2566.164077
885.980485	2563.716597
886.289954	2561.556463
886.599382	2557.548745
886.908768	2557.578992
887.218113	2553.309135
887.527417	2557.538663
887.836680	2553.331820
888.145901	2553.213353
888.455082	2548.177240
888.764221	2553.044474
889.073319	2551.239741
889.382376	2548.008362
889.691392	2548.807385
890.000366	2550.760832
890.309300	2549.404761
890.618193	2549.477858
890.927044	2547.892415
891.235855	2547.731098
891.544625	2550.755791
891.853353	2550.234031
892.162041	2550.594474
892.470687	2554.251831
892.779293	2553.856100
893.087858	2553.783003
893.396381	2555.512119
893.704864	2561.175856
894.013306	2564.475291
894.321707	2577.783937
894.630068	2588.241811
894.938387	2593.603078
895.246665	2592.418407
895.554903	2583.077148
895.863100	2578.497260
896.171256	2574.746642
896.479371	2567.507545
896.787446	2563.381360
897.095480	2563.225085
897.403473	2559.010680
897.711425	2555.915412
898.019336	2556.197716
898.327207	2556.169990
898.635038	2554.027499
898.942827	2552.094217
899.250576	2553.447767
899.558284	2551.269988
899.865952	2549.389638
900.173579	2549.528270
900.481165	2549.835780
900.788711	2549.084648
901.096216	2546.422919
901.403681	2548.888043
901.711105	2546.110367
902.018489	2550.097920
902.325832	2548.487271
902.633135	2547.302600
902.940397	2551.784186
903.247619	2555.060936
903.554800	2565.334807
903.861941	2576.047259
904.169041	2598.253542
904.476101	2605.913575
904.783121	2604.376023
905.090100	2599.912082
905.397039	2585.650658
905.703938	2575.283525
906.010796	2568.704819
906.317614	2562.973027
906.624391	2558.786349
906.931129	2553.296532
907.237826	2552.389124
907.544483	2549.626572
907.851099	2546.533824
908.157675	2547.481561
908.464211	2544.280428
908.770707	2542.410160
909.077163	2540.522248
909.383578	2539.115766
909.689954	2538.989738
909.996289	2538.815818
910.302584	2542.112732
910.608839	2543.211704
910.915054	2542.198432
911.221229	2543.330171
911.527363	2545.492826
911.833458	2544.310675
912.139513	2545.245809
912.445527	2542.959646
912.751502	2542.200952
913.057436	2545.114739
913.363331	2544.141797
913.669186	2548.774617
913.975000	2547.620193
914.280775	2551.494320
914.586510	2553.054557
914.892205	2560.676781
915.197859	2570.048286
915.503475	2580.370049
915.809050	2587.520926
916.114585	2594.694487
916.420081	2599.034921
916.725536	2597.199941
917.030952	2591.745412
917.336328	2582.943558
917.641665	2580.581777
917.946961	2572.105077
918.252218	2567.633574
918.557435	2564.379509
918.862612	2560.371792
919.167750	2559.824826
919.472848	2554.718137
919.777906	2552.421892
920.082925	2553.281409
920.387904	2550.082797
920.692843	2548.867878
920.997743	2550.574309
921.302603	2546.029709
921.607423	2549.155224
921.912204	2545.507949
922.216946	2546.485933
922.521647	2545.505429
922.826310	2545.666746
923.130932	2539.927392
923.435516	2541.548123
923.740059	2540.534851
924.044564	2540.287835
924.349028	2538.747762
924.653454	2535.937319
924.957840	2540.575180
925.262186	2536.673327
925.566493	2540.552495
925.870761	2535.846578
926.174989	2539.413194
926.479178	2538.609130
926.783328	2536.426311
927.087438	2537.447144
927.391509	2535.962525
927.695541	2537.268183
927.999533	2538.286497
928.303486	2538.553678
928.607400	2536.103677
928.911275	2539.503935
929.215110	2537.827752
929.518906	2539.781199
929.822663	2537.137113
930.126381	2537.515200
930.430060	2537.303472
930.733699	2538.838503
931.037299	2535.697864
931.340861	2537.948739
931.644383	2539.067875
931.947866	2538.248688
932.251309	2536.378420
932.554714	2537.797505
932.858080	2537.699202
933.161407	2539.665252
933.464694	2535.362627
933.767943	2537.767258
934.071153	2533.320960
934.374323	2536.496887
934.677455	2539.307330
934.980548	2539.889583
935.283602	2536.043183
935.586617	2537.109387
935.889593	2537.837834
936.192530	2535.360107
936.495428	2537.472350
936.798287	2537.545447
937.101108	2538.898997
937.403890	2537.316074
937.706632	2540.486960
938.009336	2543.010058
938.312002	2540.683565
938.614628	2539.420756
938.917216	2539.887063
939.219765	2540.136600
939.522275	2543.574667
939.824747	2540.630633
940.127179	2537.681558
940.429573	2535.511341
940.731929	2538.505787
941.034246	2535.110570
941.336524	2539.917310
941.638763	2539.995448
941.940964	2541.769934
942.243126	2537.318595
942.545250	2541.114584
942.847335	2539.387989
943.149381	2537.389171
943.451389	2539.390509
943.753359	2540.630633
944.055290	2536.824562
944.357182	2538.394881
944.659036	2539.327495
944.960851	2535.191228
945.262628	2538.389840
945.564367	2538.152906
945.866067	2537.391692
946.167729	2538.382278
946.469352	2535.556712
946.770937	2535.367668
947.072484	2536.201979
947.373992	2537.885725
947.675462	2538.256250
947.976893	2537.106867
948.278286	2537.739531
948.579641	2537.757175
948.880958	2536.902700
949.182236	2536.567463
949.483476	2539.166178
949.784678	2533.935981
950.085841	2536.290200
950.386967	2538.591486
950.688054	2539.884542
950.989103	2537.452186
951.290114	2536.504449
951.591087	2536.632998
951.892021	2536.320447
952.192917	2538.694830
952.493776	2536.338091
952.794596	2537.553009
953.095378	2536.587628
953.396122	2539.796322
953.696828	2535.607123
953.997496	2539.763555
954.298126	2536.224665
954.598718	2538.682227
954.899272	2535.866743
955.199788	2535.665097
955.500266	2534.966897
955.800706	2534.735004
956.101108	2531.614529
956.401472	2531.675023
956.701798	2532.862215
957.002087	2533.124355
957.302337	2534.939170
957.602550	2535.581918
957.902724	2535.544109
958.202861	2535.402957
958.502960	2532.426155
958.803022	2532.955476
959.103045	2531.896834
959.403031	2535.455889
959.702979	2530.351720
960.002889	2533.996475
960.302762	2532.514375
960.602596	2532.116124
960.902393	2531.841381
961.202153	2531.859025
961.501875	2532.690816
961.801559	2530.825589
962.101205	2532.978162
962.400814	2529.996319
962.700385	2532.597554
962.999918	2531.662420
963.299414	2533.429345
963.598873	2529.542615
963.898293	2532.169056
964.197677	2532.164015
964.497022	2532.579910
964.796331	2533.991433
965.095601	2530.926412
965.394835	2531.448171
965.694030	2528.725948
965.993189	2535.402957
966.292309	2533.888090
966.591393	2534.422452
966.890439	2533.736855
967.189447	2534.419932
967.488419	2532.557225
967.787353	2531.188552
968.086249	2528.426000
968.385108	2531.896834
968.683930	2531.057482
968.982714	2531.624612
969.281462	2528.912471
969.580172	2533.966228
969.878844	2533.341125
970.177480	2531.485980
970.476078	2531.730476
970.774639	2531.395239
971.073162	2531.301978
971.371649	2529.194776
971.670098	2530.298788
971.968510	2531.206196
972.266885	2527.455578
972.565223	2532.262318
972.863524	2530.628984
973.161788	2532.781557
973.460014	2529.340969
973.758204	2530.409694
974.056356	2534.515713
974.354471	2530.026566
974.652550	2534.177956
974.950591	2532.262318
975.248595	2529.867770
975.546563	2530.167718
975.844493	2532.852133
976.142386	2532.337935
976.440243	2534.059489
976.738062	2533.585621
977.035845	2529.744261
977.333590	2532.106042
977.631299	2530.520599
977.928971	2529.968593
978.226606	2529.935825
978.524204	2529.272913
978.821765	2531.057482
979.119290	2533.696526
979.416777	2531.735517
979.714228	2531.992616
980.011642	2530.308871
980.309020	2532.748789
980.606360	2528.471370
980.903664	2534.283820
981.200931	2530.485311
981.498162	2528.899868
981.795356	2532.572349
982.092513	2535.092926
982.389633	2533.023532
982.686717	2535.705426
982.983764	2532.559746
983.280775	2532.839530
983.577749	2535.980169
983.874686	2535.269366
984.171587	2533.956145
984.468451	2535.193749
984.765279	2529.179652
985.062070	2532.632842
985.358824	2533.215096
985.655543	2529.227543
985.952224	2531.029756
986.248869	2527.722759
986.545478	2526.520443
986.842050	2528.995650
987.138586	2526.003725
987.435086	2525.020700
987.731549	2526.616225
988.027975	2530.291227
988.324366	2530.591175
988.620719	2528.930115
988.917037	2529.035979
989.213318	2529.663603
989.509563	2532.063192
989.805772	2530.187883
990.101944	2526.971627
990.398080	2530.384488
990.694180	2528.141174
990.990244	2533.346166
991.286271	2531.561597
991.582262	2528.478932
991.878217	2529.603109
992.174136	2529.567821
992.470019	2526.903571
992.765865	2530.087060
993.061676	2528.567152
993.357450	2531.347348
993.653188	2528.037831
993.948890	2529.845084
994.244556	2527.931967
994.540186	2531.896834
994.835780	2531.259128
995.131337	2529.555218
995.426859	2531.385157
995.722345	2528.794004
996.017795	2528.615043
996.313208	2532.824406
996.608586	2529.812317
996.903928	2528.123530
997.199234	2528.899868
997.494504	2532.310209
997.789738	2530.349200
998.084936	2531.959848
998.380099	2526.936339
998.675225	2531.180990
998.970316	2531.180990
999.265371	2529.787111
999.560390	2529.240146
999.855373	2530.848274
1000.150320	2527.768129
1000.445232	2531.110414
1000.740108	2527.243849
1001.034948	2529.315763
1001.329752	2528.252080
1001.624521	2527.780732
1001.919254	2525.565145
1002.213951	2527.347193
1002.508613	2526.553211
1002.803239	2528.544467
1003.097829	2525.658406
1003.392384	2529.411545
1003.686903	2529.522451
1003.981386	2529.658562
1004.275834	2531.085208
1004.570246	2529.530012
1004.864623	2527.009435
1005.158964	2525.981040
1005.453270	2528.035310
1005.747540	2529.688809
1006.041775	2530.155115
1006.335974	2529.645959
1006.630138	2528.166380
1006.924266	2531.007070
1007.218359	2529.600588
1007.512416	2528.380629
1007.806438	2527.821061
1008.100425	2528.680578
1008.394376	2524.211595
1008.688292	2530.001360
1008.982172	2528.478932
1009.276017	2528.027748
1009.569827	2526.278468
1009.863602	2531.223840
1010.157341	2529.434230
1010.451045	2526.638911
1010.744714	2526.706966
1011.038347	2529.023376
1011.331945	2528.776360
1011.625508	2528.846936
1011.919036	2526.452388
1012.212528	2528.368026
1012.505986	2527.538757
1012.799408	2526.810310
1013.092795	2528.703263
1013.386147	2528.678057
1013.679464	2531.228881
1013.972745	2525.333252
1014.265992	2526.147398
1014.559204	2528.978006
1014.852380	2528.184024
1015.145521	2526.306194
1015.438628	2526.611184
1015.731699	2525.592871
1016.024736	2526.361647
1016.317737	2525.802079
1016.610703	2528.320135
1016.903635	2524.204033
1017.196531	2522.416944
1017.489393	2524.758560
1017.782219	2522.119516
1018.075011	2528.287368
1018.367768	2526.081863
1018.660490	2526.737213
1018.953177	2526.737213
1019.245829	2526.737213
