Dividing Wavelength (nm)	Counts (n)	Blue Motor Position (mm): 0.000000	Red Motor Position (mm): 7.500000	
326.493990	2128.959928
326.888308	2128.959928
327.282561	2128.959928
327.676750	2095.116141
328.070874	2094.848960
328.464933	2097.911461
328.858929	2101.871288
329.252859	2113.924686
329.646726	2125.521861
330.040528	2139.379993
330.434265	2154.019503
330.827938	2171.809735
331.221547	2188.596778
331.615091	2211.702906
332.008571	2229.225957
332.401986	2246.764131
332.795338	2265.383633
333.188625	2287.128650
333.581847	2305.574232
333.975006	2323.253559
334.368100	2343.274501
334.761129	2358.871831
335.154095	2376.336909
335.546996	2393.804507
335.939833	2409.913514
336.332606	2424.253076
336.725315	2436.419901
337.117960	2446.161931
337.510540	2455.510750
337.903056	2461.938222
338.295508	2470.840899
338.687896	2480.648464
339.080220	2491.885196
339.472480	2494.297388
339.864676	2501.470950
340.256807	2501.680158
340.648875	2505.627381
341.040879	2510.940757
341.432818	2513.678104
341.824694	2514.678773
342.216506	2513.085768
342.608253	2514.202384
342.999937	2511.137363
343.391557	2513.254647
343.783113	2512.682476
344.174605	2510.497136
344.566033	2513.060563
344.957397	2508.538648
345.348697	2504.810714
345.739934	2502.758965
346.131106	2502.123779
346.522215	2502.206958
346.913260	2500.525734
347.304241	2495.419045
347.695159	2497.289313
348.086012	2493.021976
348.476802	2489.697335
348.867528	2488.293374
349.258191	2487.620380
349.648789	2489.757829
350.039324	2486.362612
350.429796	2486.284474
350.820203	2487.827067
351.210548	2481.931438
351.600828	2482.856489
351.991045	2484.247848
352.381198	2480.966057
352.771288	2483.353043
353.161314	2482.150728
353.551276	2479.667960
353.941175	2476.991107
354.331010	2480.361118
354.720782	2480.769452
355.110490	2478.178299
355.500135	2478.453042
355.889717	2481.104688
356.279235	2479.831797
356.668689	2483.476551
357.058080	2482.707775
357.447408	2477.775006
357.836672	2478.329533
358.225873	2478.503453
358.615010	2478.548823
359.004084	2483.060656
359.393095	2479.420943
359.782043	2486.191213
360.170927	2481.160141
360.559748	2483.811788
360.948505	2485.321614
361.337199	2485.573671
361.725830	2484.719196
362.114398	2489.102479
362.502903	2487.653147
362.891344	2488.782366
363.279722	2488.195071
363.668037	2486.435709
364.056289	2488.033754
364.444478	2490.529126
364.832603	2490.763539
365.220665	2487.781697
365.608665	2493.682367
365.996601	2488.757160
366.384474	2493.586585
366.772284	2494.599857
367.160031	2497.153202
367.547715	2496.185300
367.935336	2499.731752
368.322893	2503.154695
368.710388	2508.468072
369.097820	2510.061076
369.485189	2514.227590
369.872495	2517.428723
370.259738	2527.090094
370.646918	2534.031763
371.034035	2538.621733
371.421090	2552.915925
371.808081	2558.788869
372.195010	2570.577608
372.581875	2581.113619
372.968678	2593.204827
373.355418	2600.970724
373.742096	2620.633745
374.128710	2631.051289
374.515262	2639.885911
374.901751	2653.928045
375.288177	2661.008346
375.674540	2680.121881
376.060841	2692.991946
376.447079	2704.584080
376.833254	2717.330637
377.219367	2723.390104
377.605417	2744.968763
377.991404	2745.873650
378.377329	2751.192067
378.763191	2760.041813
379.148991	2778.736932
379.534727	2783.851183
379.920402	2798.374747
380.306013	2795.813841
380.691563	2816.220432
381.077049	2815.905359
381.462474	2814.037612
381.847835	2825.415496
382.233134	2823.603201
382.618371	2805.944039
383.003545	2824.934066
383.388657	2815.123981
383.773706	2813.737663
384.158693	2807.612661
384.543618	2801.706950
384.928480	2798.142854
385.313280	2796.912812
385.698017	2777.988321
386.082692	2780.271963
386.467305	2763.948707
386.851856	2758.025352
387.236344	2746.657550
387.620770	2737.462485
388.005133	2723.823643
388.389435	2716.844166
388.773674	2699.283306
389.157851	2691.950948
389.541965	2677.122394
389.926018	2660.988181
390.310008	2652.125833
390.693936	2642.038484
391.077802	2635.936167
391.461606	2621.886471
391.845348	2613.545882
392.229027	2605.646394
392.612645	2594.530650
392.996200	2589.678539
393.379694	2581.617734
393.763125	2575.739749
394.146494	2565.876732
394.529801	2562.297512
394.913047	2556.580844
395.296230	2548.076417
395.679351	2544.083823
396.062410	2540.600386
396.445408	2533.358769
396.828343	2531.667462
397.211217	2523.226049
397.594028	2521.703621
397.976778	2519.379649
398.359466	2520.236645
398.742092	2513.504184
399.124656	2519.656913
399.507158	2521.078518
399.889598	2516.203722
400.271977	2516.201202
400.654294	2517.287570
401.036549	2514.207425
401.418742	2519.248579
401.800874	2514.958557
402.182944	2516.440656
402.564952	2515.014010
402.946898	2517.327899
403.328783	2514.076355
403.710606	2514.275481
404.092367	2515.324041
404.474067	2515.717251
404.855705	2516.420492
405.237282	2515.293794
405.618797	2514.222549
406.000250	2515.429905
406.381642	2514.898063
406.762972	2516.327230
407.144240	2515.981911
407.525447	2517.552231
407.906593	2514.734226
408.287677	2517.620286
408.668700	2515.941582
409.049661	2516.352436
409.430560	2513.035357
409.811399	2517.227076
410.192176	2515.485358
410.572891	2519.200688
410.953545	2515.308917
411.334138	2517.274967
411.714669	2518.938548
412.095139	2517.862262
412.475547	2518.517612
412.855894	2518.694052
413.236180	2521.189423
413.616405	2520.077849
413.996568	2516.284381
414.376670	2518.063908
414.756711	2520.423168
415.136691	2519.556089
415.516609	2518.966274
415.896466	2519.122550
416.276262	2520.546676
416.655997	2517.204391
417.035670	2515.472755
417.415283	2522.396780
417.794834	2514.419154
418.174324	2518.041223
418.553753	2520.874351
418.933121	2519.472910
419.312428	2519.914011
419.691674	2517.668177
420.070859	2521.131450
420.449983	2519.450225
420.829045	2522.384177
421.208047	2523.256296
421.586988	2523.304187
421.965867	2522.893333
422.344686	2520.556758
422.723444	2521.045750
423.102141	2520.831501
423.480777	2519.553569
423.859352	2523.248735
424.237866	2522.447191
424.616319	2522.469876
424.994712	2524.284692
425.373044	2521.464166
425.751314	2521.454084
426.129524	2524.158663
426.507673	2523.745288
426.885762	2523.193282
427.263789	2523.069774
427.641756	2522.827798
428.019662	2523.228570
428.397508	2524.246883
428.775292	2526.611184
429.153016	2522.616070
429.530679	2525.050947
429.908282	2523.478107
430.285824	2524.009949
430.663305	2525.509692
431.040726	2522.396780
431.418086	2524.665299
431.795385	2523.057171
432.172624	2523.430216
432.549802	2524.990453
432.926920	2524.985412
433.303977	2524.773684
433.680974	2524.014990
434.057910	2525.439116
434.434786	2528.748633
434.811601	2528.478932
435.188355	2522.986595
435.565050	2526.565814
435.941683	2525.749147
436.318257	2522.018693
436.694770	2519.939217
437.071222	2522.847963
437.447614	2522.041378
437.823946	2522.807634
438.200218	2525.197141
438.576429	2524.940042
438.952580	2526.923736
439.328670	2525.429034
439.704700	2524.327542
440.080670	2525.726462
440.456580	2524.756040
440.832429	2526.890968
441.208218	2527.899199
441.583947	2528.846936
441.959616	2525.655886
442.335224	2526.142357
442.710773	2526.996833
443.086261	2527.203520
443.461689	2526.623787
443.837057	2523.954496
444.212365	2528.872142
444.587612	2526.006246
444.962800	2528.927594
445.337927	2529.295599
445.712995	2526.664116
446.088002	2528.864580
446.462949	2528.027748
446.837837	2529.343490
447.212664	2527.863911
447.587431	2529.378778
447.962139	2527.989940
448.336786	2531.145702
448.711374	2529.144364
449.085901	2529.048582
449.460369	2526.807789
449.834776	2529.829961
450.209124	2527.367357
450.583412	2530.167718
450.957640	2530.881042
451.331808	2530.598737
451.705917	2529.008253
452.079965	2529.799714
452.453954	2529.807276
452.827883	2527.536236
453.201752	2528.594878
453.575562	2534.314067
453.949311	2530.686957
454.323001	2528.846936
454.696632	2532.249715
455.070202	2528.665454
455.443713	2533.368851
455.817164	2527.362316
456.190556	2525.292923
456.563888	2527.130423
456.937160	2525.812161
457.310373	2529.141843
457.683526	2529.073788
458.056619	2528.733510
458.429653	2533.686444
458.802628	2532.784077
459.175542	2530.455064
459.548398	2530.518078
459.921194	2533.472195
460.293930	2530.712163
460.666607	2531.692667
461.039224	2533.003367
461.411782	2531.954807
461.784280	2531.460774
462.156719	2532.670651
462.529099	2533.820034
462.901419	2530.586134
463.273680	2533.416742
463.645882	2532.297606
464.018024	2533.878007
464.390106	2530.099663
464.762130	2532.930271
465.134094	2530.979344
465.505999	2536.040662
465.877845	2535.294572
466.249631	2534.432534
466.621358	2534.044366
466.993026	2537.878163
467.364634	2539.755993
467.736184	2537.542926
468.107674	2532.068233
468.479105	2532.912627
468.850477	2535.609644
469.221790	2531.763243
469.593043	2532.819365
469.964238	2530.931453
470.335373	2535.211393
470.706449	2533.280631
471.077467	2533.358769
471.448425	2538.236085
471.819324	2535.150899
472.190164	2537.137113
472.560945	2535.826413
472.931667	2535.874304
473.302330	2532.897503
473.672934	2535.617206
474.043479	2532.655528
474.413965	2534.314067
474.784393	2528.521782
475.154761	2531.796011
475.525070	2532.227030
475.895321	2531.632173
476.265513	2530.056813
476.635645	2538.137783
477.005719	2534.654345
477.375734	2538.016795
477.745691	2533.474715
478.115588	2537.681558
478.485427	2536.738862
478.855207	2536.287679
479.224928	2537.290869
479.594591	2538.674665
479.964194	2538.518390
480.333739	2536.504449
480.703226	2537.898328
481.072653	2536.191897
481.442022	2536.854809
481.811333	2537.179963
482.180584	2538.334388
482.549777	2536.658204
482.918912	2538.309182
483.287988	2533.182328
483.657005	2538.785571
484.025964	2535.987730
484.394864	2536.522093
484.763706	2541.515356
485.132489	2538.102494
485.501213	2538.261291
485.869879	2536.698533
486.238487	2537.074099
486.607036	2536.832124
486.975527	2537.353883
487.343959	2537.981507
487.712333	2540.323123
488.080648	2534.407329
488.448905	2539.819007
488.817104	2536.350693
489.185244	2538.208359
489.553326	2536.575025
489.921350	2536.801877
490.289315	2536.663245
490.657222	2539.864378
491.025070	2536.900179
491.392861	2538.004192
491.760593	2539.264480
492.128267	2540.728936
492.495883	2537.810107
492.863440	2538.697351
493.230939	2535.193749
493.598380	2538.916641
493.965763	2533.958666
494.333088	2537.666435
494.700354	2536.363296
495.067563	2537.777340
495.434713	2532.277441
495.801805	2539.559388
496.168839	2536.716177
496.535815	2536.489325
496.902733	2535.256763
497.269593	2537.948739
497.636395	2533.908254
498.003139	2537.542926
498.369825	2539.856816
498.736453	2538.515869
499.103023	2538.364634
499.469535	2538.009233
499.835989	2537.101825
500.202385	2540.602907
500.568723	2538.278935
500.935003	2539.241795
501.301226	2536.794315
501.667390	2539.776158
502.033497	2540.242464
502.399546	2538.929244
502.765537	2538.626774
503.131470	2539.962680
503.497345	2538.513348
503.863163	2540.615510
504.228923	2537.013605
504.594625	2538.193235
504.960269	2539.267001
505.325856	2538.203317
505.691385	2540.640715
506.056856	2538.425128
506.422270	2540.975952
506.787625	2539.617361
507.152924	2539.677855
507.518164	2539.085519
507.883347	2538.596527
508.248472	2538.936805
508.613540	2538.223482
508.978550	2540.139121
509.343503	2540.678524
509.708398	2540.257588
510.073236	2540.607948
510.438016	2542.528628
510.802738	2537.953780
511.167403	2542.725233
511.532010	2538.530992
511.896561	2540.103833
512.261053	2541.492670
512.625488	2535.465971
512.989866	2537.421939
513.354186	2536.290200
513.718449	2538.278935
514.082655	2539.733308
514.446803	2541.280942
514.810894	2540.146682
515.174927	2542.614327
515.538904	2543.277239
515.902822	2540.290355
516.266684	2539.672814
516.630488	2541.553164
516.994235	2539.279604
517.357925	2542.034594
517.721558	2541.167516
518.085133	2542.021992
518.448651	2540.479398
518.812112	2542.072403
519.175516	2539.566950
519.538863	2542.763041
519.902152	2539.332536
520.265385	2540.315561
520.628560	2540.852444
520.991678	2539.798843
521.354739	2538.367155
521.717743	2539.869419
522.080690	2541.051569
522.443580	2542.823535
522.806413	2537.946219
523.169189	2541.898483
523.531908	2541.991745
523.894569	2542.044677
524.257174	2542.079965
524.619722	2540.035777
524.982213	2542.185829
525.344647	2541.868236
525.707025	2539.887063
526.069345	2542.107691
526.431608	2542.004347
526.793815	2543.098278
527.155964	2543.332692
527.518057	2539.965201
527.880093	2543.501570
528.242072	2540.865047
528.603995	2542.208514
528.965860	2541.268339
529.327669	2543.461241
529.689421	2540.570139
530.051117	2544.731612
530.412755	2540.973432
530.774337	2540.693648
531.135862	2542.581560
531.497331	2543.473844
531.858743	2535.791125
532.220098	2540.605427
532.581396	2538.835982
532.942638	2538.856147
533.303824	2542.324461
533.664953	2535.697864
534.026025	2542.694986
534.387040	2541.618699
534.747999	2542.485778
535.108902	2543.352856
535.469748	2540.033256
535.830537	2542.309337
536.191270	2541.313709
536.551947	2543.705737
536.912567	2542.238761
537.273131	2541.336395
537.633638	2540.635674
537.994089	2541.175078
538.354483	2540.960829
538.714821	2542.150541
539.075103	2542.856302
539.435328	2540.665921
539.795497	2542.972249
540.155609	2540.474357
540.515665	2542.304296
540.875665	2543.312527
541.235609	2540.726415
541.595496	2541.878319
541.955328	2541.802701
542.315102	2542.117773
542.674821	2541.495191
543.034483	2543.864533
543.394090	2539.357742
543.753640	2546.216232
544.113134	2543.793957
544.472571	2540.920499
544.831953	2545.520552
545.191278	2543.874616
545.550548	2544.315717
545.909761	2542.722712
546.268918	2543.108360
546.628019	2544.918134
546.987064	2542.563916
547.346053	2541.777496
547.704986	2544.139276
548.063863	2543.804039
548.422684	2543.579708
548.781449	2542.135418
549.140158	2542.374872
549.498811	2545.049204
549.857408	2542.064841
550.215949	2538.392361
550.574434	2538.558719
550.932864	2538.427649
551.291237	2538.551157
551.649555	2544.116591
552.007817	2542.319420
552.366022	2543.050387
552.724173	2541.321271
553.082267	2540.938143
553.440305	2540.396219
553.798288	2544.471992
554.156215	2544.073741
554.514086	2541.096940
554.871902	2539.987886
555.229661	2543.015099
555.587365	2539.942516
555.945014	2542.884029
556.302606	2544.449307
556.660143	2542.392516
557.017625	2537.663914
557.375050	2542.064841
557.732421	2540.373534
558.089735	2544.078782
558.446994	2540.149203
558.804197	2543.118443
559.161345	2541.812784
559.518437	2543.804039
559.875474	2541.457382
560.232455	2541.883360
560.589381	2543.506611
560.946251	2545.691952
561.303065	2542.165664
561.659825	2545.283618
562.016528	2542.868905
562.373177	2543.625078
562.729770	2542.760521
563.086307	2543.126004
563.442789	2542.440407
563.799216	2544.696324
564.155587	2542.705068
564.511904	2540.670962
564.868164	2542.488298
565.224370	2541.568288
565.580520	2542.594163
565.936615	2543.189019
566.292654	2543.821683
566.648638	2540.910417
567.004567	2543.365459
567.360441	2545.828063
567.716260	2542.558874
568.072023	2543.730943
568.427732	2537.273225
568.783385	2539.496373
569.138982	2539.098122
569.494525	2540.895294
569.850013	2537.258101
570.205445	2545.044163
570.560823	2541.858154
570.916145	2542.853782
571.271412	2543.403268
571.626625	2543.216745
571.981782	2543.869574
572.336884	2542.127856
572.691931	2540.887732
573.046923	2542.090047
573.401860	2543.849410
573.756743	2544.129194
574.111570	2544.325799
574.466342	2545.031560
574.821059	2542.430325
575.175722	2543.902342
575.530330	2543.191539
575.884882	2540.486960
576.239380	2540.877650
576.593823	2542.715150
576.948211	2543.927548
577.302544	2544.988711
577.656823	2542.415202
578.011047	2544.106509
578.365216	2540.262629
578.719330	2543.423432
579.073389	2543.027702
579.427394	2545.815460
579.781344	2544.640871
580.135239	2542.062321
580.489080	2544.048535
580.842866	2544.265305
581.196597	2543.088196
581.550273	2542.248843
581.903895	2542.357228
582.257463	2544.918134
582.610975	2539.597197
582.964434	2543.665408
583.317837	2541.427135
583.671186	2542.347146
584.024481	2540.524769
584.377721	2544.862682
584.730906	2542.195911
585.084037	2545.417209
585.437113	2540.446631
585.790135	2540.552495
586.143103	2542.730274
586.496016	2543.650284
586.848874	2539.022505
587.201679	2538.571322
587.554428	2537.653832
587.907124	2541.772454
588.259765	2539.554347
588.612352	2543.773793
588.964884	2540.492001
589.317362	2541.855633
589.669786	2543.390665
590.022155	2545.500388
590.374470	2544.361087
590.726731	2540.527289
591.078937	2541.228010
591.431090	2543.390665
591.783188	2541.603576
592.135232	2542.488298
592.487222	2541.714481
592.839157	2542.140459
593.191038	2541.543082
593.542866	2542.178267
593.894639	2541.986703
594.246358	2546.803526
594.598022	2542.639533
594.949633	2543.947712
595.301190	2539.408153
595.652692	2543.138607
596.004141	2543.428473
596.355535	2542.732794
596.706876	2544.461910
597.058162	2542.231199
597.409395	2543.972918
597.760573	2542.321940
598.111698	2541.013761
598.462768	2543.529297
598.813785	2539.791281
599.164748	2542.750438
599.515657	2541.772454
599.866511	2541.638864
600.217312	2541.812784
600.568060	2540.875129
600.918753	2543.945192
601.269392	2541.406971
601.619978	2544.126673
601.970510	2542.034594
602.320988	2540.789429
602.671412	2541.976621
603.021783	2542.269008
603.372100	2542.758000
603.722363	2540.923020
604.072572	2541.076775
604.422728	2543.315048
604.772830	2538.818338
605.122878	2539.093081
605.472872	2541.359080
605.822813	2534.477905
606.172701	2540.151723
606.522534	2542.334543
606.872314	2541.807742
607.222041	2541.858154
607.571714	2544.222455
607.921333	2540.292876
608.270899	2542.813453
608.620411	2541.782537
608.969870	2544.308155
609.319276	2543.902342
609.668627	2547.511808
610.017926	2548.840152
610.367171	2549.238403
610.716362	2550.609597
611.065500	2546.339740
611.414585	2543.473844
611.763616	2545.800336
612.112594	2546.168341
612.461518	2546.001983
612.810389	2545.150027
613.159207	2542.374872
613.507971	2541.653987
613.856682	2542.339584
614.205340	2545.049204
614.553945	2544.169523
614.902496	2539.191384
615.250994	2542.664739
615.599439	2542.558874
615.947830	2544.938299
616.296169	2540.917979
616.644454	2544.116591
616.992686	2540.237423
617.340864	2541.303627
617.688990	2541.154913
618.037063	2541.636343
618.385082	2540.028215
618.733048	2543.191539
619.080961	2541.424615
619.428821	2543.625078
619.776628	2542.319420
620.124382	2540.149203
620.472083	2543.453679
620.819731	2540.653318
621.167326	2543.955274
621.514868	2540.376055
621.862357	2539.357742
622.209793	2539.672814
622.557176	2541.933771
622.904506	2539.037628
623.251783	2536.701054
623.599007	2540.539892
623.946179	2539.473688
624.293297	2538.447813
624.640363	2542.624409
624.987376	2541.182639
625.334336	2540.759183
625.681243	2539.629964
626.028097	2542.344625
626.374899	2540.066024
626.721647	2541.023843
627.068343	2543.728422
627.414987	2538.462937
627.761577	2540.610468
628.108115	2538.261291
628.454600	2540.043339
628.801032	2539.667773
629.147412	2540.975952
629.493739	2538.291538
629.840014	2543.345294
630.186236	2541.291024
630.532405	2544.131714
630.878521	2541.046528
631.224585	2541.006199
631.570597	2541.953936
631.916556	2539.120808
632.262462	2541.520397
632.608316	2542.309337
632.954117	2540.028215
633.299866	2538.427649
633.645562	2538.485622
633.991206	2543.204142
634.336797	2539.897145
634.682336	2542.357228
635.027823	2541.170037
635.373257	2541.175078
635.718639	2539.589635
636.063968	2541.611137
636.409245	2539.138452
636.754470	2538.364634
637.099642	2537.825231
637.444762	2540.562578
637.789829	2540.502084
638.134845	2540.910417
638.479808	2539.128369
638.824719	2540.834800
639.169577	2539.733308
639.514383	2540.534851
639.859137	2535.927237
640.203839	2539.579552
640.548489	2538.049562
640.893086	2540.507125
641.237632	2539.549306
641.582125	2538.236085
641.926566	2534.845909
642.270955	2540.222300
642.615292	2539.705581
642.959576	2541.016281
643.303809	2539.148534
643.647990	2541.384286
643.992118	2540.408822
644.336195	2538.528472
644.680219	2541.522917
645.024192	2542.493339
645.368112	2541.311189
645.711981	2539.692978
646.055797	2539.070396
646.399562	2539.561908
646.743274	2537.618544
647.086935	2540.892773
647.430544	2538.541075
647.774101	2538.949408
648.117606	2541.684234
648.461059	2542.049718
648.804460	2540.998637
649.147810	2542.667259
649.491108	2541.548123
649.834354	2537.835313
650.177548	2540.623071
650.520690	2540.262629
650.863781	2538.896476
651.206820	2541.901004
651.549807	2537.638708
651.892742	2540.060983
652.235626	2539.100643
652.578458	2536.963194
652.921238	2537.414377
653.263967	2537.021167
653.606644	2538.634336
653.949269	2538.180632
654.291843	2539.377906
654.634365	2538.566281
654.976836	2539.403112
655.319255	2539.203987
655.661622	2540.469316
656.003938	2539.062834
656.346203	2536.317926
656.688416	2538.130221
657.030577	2539.438400
657.372687	2538.657021
657.714746	2536.554860
658.056753	2539.607279
658.398708	2533.837678
658.740612	2539.458565
659.082465	2536.358255
659.424266	2536.789274
659.766016	2535.435724
660.107715	2539.607279
660.449362	2539.214069
660.790958	2540.118956
661.132503	2539.942516
661.473996	2540.847403
661.815438	2538.828421
662.156829	2538.016795
662.498168	2536.151568
662.839456	2539.423277
663.180693	2538.314223
663.521879	2539.579552
663.863013	2539.166178
664.204097	2537.888245
664.545129	2538.379758
664.886110	2539.763555
665.227040	2540.048380
665.567918	2541.742208
665.908746	2538.861188
666.249522	2536.985879
666.590248	2540.088709
666.930922	2540.885211
667.271545	2539.738349
667.612118	2540.270191
667.952639	2540.111394
668.293109	2541.154913
668.633528	2540.461754
668.973896	2537.081661
669.314213	2537.464788
669.654480	2539.425797
669.994695	2535.602082
670.334859	2536.229706
670.674973	2540.292876
671.015035	2539.380427
671.355047	2537.661393
671.695008	2536.474202
672.034918	2536.854809
672.374777	2537.880684
672.714585	2539.408153
673.054342	2541.104502
673.394049	2538.936805
673.733705	2537.220293
674.073310	2540.187012
674.412864	2538.586445
674.752368	2537.550488
675.091820	2540.731456
675.431223	2538.349511
675.770574	2539.743390
676.109875	2532.519417
676.449125	2539.214069
676.788324	2537.621064
677.127473	2537.588297
677.466571	2532.789118
677.805619	2538.533513
678.144616	2537.878163
678.483562	2537.996630
678.822458	2538.609130
679.161303	2539.246836
679.500098	2536.406146
679.838842	2537.956301
680.177535	2537.661393
680.516179	2539.264480
680.854771	2536.564942
681.193314	2539.340098
681.531805	2536.476722
681.870247	2537.154758
682.208638	2538.546116
682.546978	2537.353883
682.885268	2538.624254
683.223508	2538.236085
683.561697	2541.689275
683.899836	2536.680889
684.237925	2538.402443
684.575963	2538.415046
684.913951	2537.976466
685.251889	2540.741538
685.589776	2540.431508
685.927614	2535.518903
686.265401	2535.927237
686.603137	2537.794984
686.940824	2538.410005
687.278460	2534.593851
687.616046	2537.588297
687.953582	2538.891435
688.291068	2536.471681
688.628504	2539.234233
688.965889	2538.125180
689.303224	2540.066024
689.640510	2539.347659
689.977745	2538.120138
690.314930	2538.465457
690.652065	2540.033256
690.989150	2539.708102
691.326185	2538.072247
691.663170	2538.528472
692.000105	2538.888914
692.336990	2539.229192
692.673825	2535.816331
693.010610	2538.231044
693.347345	2534.815662
693.684030	2533.840199
694.020665	2534.490508
694.357251	2536.227185
694.693786	2536.620395
695.030272	2535.387833
695.366707	2535.571835
695.703093	2538.762886
696.039429	2537.447144
696.375716	2538.543595
696.711952	2534.631660
697.048139	2534.871115
697.384276	2537.303472
697.720363	2537.472350
698.056400	2537.021167
698.392388	2539.889583
698.728326	2537.661393
699.064214	2536.247350
699.400053	2536.600231
699.735842	2538.571322
700.071581	2536.385982
700.407270	2538.667104
700.742910	2536.620395
701.078501	2537.711805
701.414042	2536.849768
701.749533	2536.587628
702.084974	2541.948895
702.420366	2536.123842
702.755709	2536.446475
703.091002	2535.806249
703.426246	2534.729963
703.761440	2536.776671
704.096584	2537.386651
704.431679	2534.732483
704.766725	2536.345652
705.101721	2538.752803
705.436668	2537.018646
705.771565	2534.707277
706.106413	2535.909593
706.441212	2534.175436
706.775961	2538.762886
707.110661	2537.416897
707.445311	2539.277083
707.779913	2536.456558
708.114465	2541.598535
708.448967	2536.461599
708.783421	2535.939839
709.117825	2539.927392
709.452180	2542.437887
709.786485	2536.880015
710.120742	2536.592669
710.454949	2537.164840
710.789107	2536.670807
711.123216	2531.750641
711.457275	2533.348686
711.791286	2531.649817
712.125247	2535.158461
712.459159	2537.303472
712.793023	2537.280786
713.126837	2536.345652
713.460602	2535.397915
713.794318	2538.226003
714.127985	2536.867412
714.461602	2537.580735
714.795171	2536.557381
715.128691	2536.020498
715.462162	2535.561753
715.795584	2536.776671
716.128957	2537.744572
716.462281	2536.408667
716.795556	2539.443441
717.128782	2536.448996
717.461960	2539.695499
717.795088	2537.610982
718.128167	2536.181815
718.461198	2535.239119
718.794180	2535.226516
719.127113	2534.792977
719.459997	2537.172402
719.792833	2536.282638
720.125619	2538.195756
720.458357	2533.494880
720.791046	2537.540406
721.123686	2535.092926
721.456278	2536.998482
721.788821	2534.924047
722.121315	2538.896476
722.453761	2537.787422
722.786158	2538.954449
723.118506	2535.370189
723.450805	2534.399767
723.783056	2535.216434
724.115259	2535.155940
724.447412	2533.946063
724.779518	2534.828265
725.111574	2536.675848
725.443582	2536.098636
725.775542	2536.275076
726.107453	2537.409336
726.439315	2535.012267
726.771129	2541.369162
727.102895	2536.086033
727.434612	2537.479912
727.766281	2537.285828
728.097901	2534.543440
728.429473	2534.896321
728.760996	2534.994623
729.092471	2532.060672
729.423897	2537.109387
729.755276	2536.917823
730.086606	2535.062679
730.417887	2536.559901
730.749120	2535.357586
731.080305	2535.617206
731.411442	2539.377906
731.742530	2535.413039
732.073570	2537.777340
732.404562	2536.665766
732.735506	2536.678368
733.066401	2536.738862
733.397249	2537.048893
733.728048	2536.166691
734.058798	2534.654345
734.389501	2535.687782
734.720156	2536.771630
735.050762	2538.654501
735.381320	2536.678368
735.711831	2536.131403
736.042293	2537.794984
736.372707	2534.306506
736.703073	2535.760878
737.033391	2537.033770
737.363661	2536.696013
737.693883	2535.781043
738.024056	2536.731301
738.354182	2535.937319
738.684260	2539.052752
739.014290	2536.204500
739.344272	2534.740045
739.674207	2535.765920
740.004093	2535.458409
740.333931	2533.038655
740.663722	2534.999664
740.993464	2537.185004
741.323159	2533.777184
741.652806	2537.641229
741.982405	2540.837320
742.311956	2533.792308
742.641460	2537.537885
742.970915	2536.194418
743.300323	2535.082843
743.629683	2535.188707
743.958996	2535.471012
744.288260	2535.080323
744.617477	2537.883204
744.946647	2529.313243
745.275768	2532.796680
745.604842	2531.301978
745.933869	2531.153264
746.262847	2529.446833
746.591778	2535.818852
746.920662	2535.559232
747.249498	2538.427649
747.578286	2535.904551
747.907027	2534.979500
748.235720	2535.687782
748.564365	2533.928419
748.892963	2535.095446
749.221514	2536.907741
749.550017	2534.798018
749.878473	2538.072248
750.206881	2536.572504
750.535242	2534.162833
750.863555	2535.105528
751.191821	2535.844057
751.520039	2536.267514
751.848210	2536.166691
752.176334	2535.521424
752.504411	2537.096784
752.832440	2537.119469
753.160421	2536.189377
753.488356	2534.578728
753.816243	2534.208203
754.144082	2535.478574
754.471875	2534.775333
754.799620	2537.454706
755.127318	2534.263656
755.454969	2535.360107
755.782572	2535.312216
756.110129	2535.140817
756.437638	2535.725590
756.765100	2534.815662
757.092515	2537.603420
757.419882	2535.859181
757.747203	2534.051927
758.074477	2534.598893
758.401703	2533.721732
758.728882	2535.339942
759.056014	2535.793646
759.383099	2535.418080
759.710138	2539.090561
760.037129	2534.999664
760.364073	2535.899510
760.690970	2536.106197
761.017820	2534.190559
761.344623	2534.717360
761.671379	2534.182997
761.998088	2527.649662
762.324751	2533.709129
762.651366	2531.803573
762.977935	2534.566125
763.304456	2531.929602
763.630931	2536.645601
763.957359	2537.653832
764.283740	2536.454037
764.610074	2535.773481
764.936362	2535.612164
765.262602	2537.444624
765.588796	2532.090918
765.914943	2535.899510
766.241044	2535.629808
766.567097	2536.882535
766.893104	2534.656866
767.219064	2531.735517
767.544978	2535.748276
767.870845	2534.364479
768.196665	2536.736342
768.522438	2534.543440
768.848165	2534.422452
769.173846	2534.246012
769.499479	2535.942360
769.825066	2533.038655
770.150607	2533.915816
770.476101	2535.710467
770.801548	2535.581918
771.126949	2537.053934
771.452303	2534.493028
771.777611	2533.396577
772.102872	2536.164171
772.428087	2530.248377
772.753256	2533.847761
773.078378	2536.113759
773.403453	2533.275590
773.728482	2533.076464
774.053465	2532.663089
774.378401	2535.778523
774.703291	2534.898841
775.028135	2533.729293
775.352932	2534.001516
775.677683	2534.671989
776.002388	2535.682741
776.327046	2534.233409
776.651658	2533.883049
776.976224	2534.467822
777.300743	2533.575538
777.625216	2531.042358
777.949643	2531.735517
778.274024	2534.780374
778.598359	2531.327184
778.922647	2526.704446
779.246889	2533.782226
779.571086	2529.484642
779.895236	2532.310209
780.219339	2536.219623
780.543397	2532.995806
780.867409	2533.547812
781.191374	2534.493028
781.515294	2534.689633
781.839167	2533.499921
782.162995	2532.441279
782.486776	2530.969262
782.810511	2535.105528
783.134201	2531.483459
783.457844	2536.159130
783.781441	2534.538399
784.104993	2532.388347
784.428498	2535.163502
784.751958	2532.380785
785.075372	2534.172915
785.398739	2531.682585
785.722061	2533.242822
786.045337	2531.375075
786.368568	2533.759540
786.691752	2531.488501
787.014891	2533.441948
787.337983	2532.557225
787.661030	2533.812473
787.984031	2533.721732
788.306987	2535.682741
788.629897	2534.188038
788.952760	2534.417411
789.275579	2534.198121
789.598351	2535.685261
789.921078	2535.360107
790.243759	2532.796680
790.566395	2534.669469
790.888984	2532.834489
791.211529	2533.041176
791.534027	2533.499921
791.856480	2531.788449
792.178888	2533.205013
792.501249	2532.622760
792.823566	2535.024870
793.145836	2535.024870
793.468062	2534.021680
793.790241	2532.695857
794.112375	2532.675692
794.434464	2532.768954
794.756507	2532.131248
795.078505	2533.872966
795.400457	2527.921884
795.722364	2531.624612
796.044226	2531.682585
796.366042	2529.895496
796.687812	2529.832482
797.009538	2530.881042
797.331218	2533.174767
797.652852	2530.923891
797.974442	2531.869108
798.295986	2533.439427
798.617484	2536.023018
798.938938	2531.034797
799.260346	2532.486649
799.581709	2532.398429
799.903026	2530.886083
800.224299	2533.820034
800.545526	2533.383974
800.866708	2532.232071
801.187845	2533.900693
801.508936	2531.528830
801.829983	2534.430014
802.150984	2535.803728
802.471940	2533.746938
802.792851	2532.577390
803.113717	2532.602596
803.434538	2533.938501
803.755314	2535.234078
804.076045	2532.383305
804.396731	2532.244674
804.717372	2534.346835
805.037967	2533.260466
805.358518	2530.626463
805.679024	2534.321629
805.999485	2531.125538
806.319901	2534.974458
806.640272	2532.469005
806.960598	2532.607637
807.280879	2532.975641
807.601115	2532.310209
807.921306	2532.882380
808.241453	2532.171577
808.561554	2532.423635
808.881611	2534.777853
809.201623	2533.484798
809.521590	2536.234747
809.841513	2532.315250
810.161390	2536.083512
810.481223	2531.859025
810.801011	2530.886083
811.120755	2533.348686
811.440453	2533.346166
811.760107	2529.686288
812.079716	2528.441123
812.399281	2526.470032
812.718801	2527.876514
813.038276	2526.880886
813.357707	2533.938501
813.677093	2532.229550
813.996434	2531.571680
814.315731	2534.180477
814.634983	2531.614529
814.954191	2532.960517
815.273354	2532.224509
815.592473	2532.607637
815.911547	2532.700898
816.230577	2535.138296
816.549562	2533.850281
816.868502	2534.079654
817.187399	2533.303316
817.506250	2532.524458
817.825058	2532.486649
818.143821	2530.782739
818.462539	2532.221988
818.781213	2532.227030
819.099843	2531.478418
819.418429	2533.351207
819.736970	2534.545960
820.055466	2532.390867
820.373919	2532.814324
820.692327	2533.777184
821.010691	2536.580066
821.329011	2534.157792
821.647286	2536.622916
821.965517	2541.454862
822.283704	2542.873947
822.601847	2541.200283
822.919945	2539.297248
823.237999	2540.413863
823.556010	2537.462268
823.873976	2535.642411
824.191897	2535.236598
824.509775	2532.615198
824.827609	2536.088553
825.145398	2533.174767
825.463144	2533.714170
825.780845	2537.139634
826.098502	2535.256763
826.416116	2532.806762
826.733685	2536.028060
827.051210	2536.819521
827.368692	2535.314736
827.686129	2537.144675
828.003522	2533.578059
828.320872	2530.213089
828.638177	2532.244674
828.955439	2530.024045
829.272656	2530.008922
829.589830	2527.508510
829.906960	2534.999664
830.224046	2534.273738
830.541088	2532.310209
830.858086	2531.153264
831.175041	2534.571166
831.491952	2532.063192
831.808819	2531.080167
832.125642	2534.278779
832.442421	2534.414890
832.759157	2533.696526
833.075849	2533.724252
833.392497	2535.024870
833.709101	2535.284489
834.025662	2533.008408
834.342179	2532.350538
834.658653	2533.731814
834.975083	2532.494211
835.291469	2535.700385
835.607811	2532.080836
835.924110	2533.860363
836.240366	2531.942204
836.556578	2529.492204
836.872746	2534.803059
837.188871	2532.564787
837.504952	2532.748789
837.820990	2531.284334
838.136984	2528.057995
838.452935	2533.063861
838.768842	2532.542102
839.084706	2532.428676
839.400526	2532.385826
839.716303	2530.689478
840.032037	2531.924560
840.347727	2529.207378
840.663373	2532.408511
840.978977	2528.138654
841.294537	2533.131917
841.610054	2530.860877
841.925527	2532.277441
842.240957	2530.571011
842.556344	2529.910619
842.871687	2531.491021
843.186987	2531.327184
843.502244	2531.801052
843.817458	2527.785773
844.132629	2530.056813
844.447756	2531.717873
844.762840	2527.710156
845.077881	2528.305012
845.392879	2528.443644
845.707833	2529.769467
846.022745	2529.630835
846.337613	2532.022863
846.652438	2531.327184
846.967221	2530.931453
847.281960	2528.816689
847.596656	2532.791639
847.911309	2529.887934
848.225919	2533.182328
848.540485	2529.696370
848.855009	2533.663758
849.169490	2530.850795
849.483928	2531.145702
849.798323	2529.882893
850.112675	2532.458923
850.426984	2531.980013
850.741251	2529.938346
851.055474	2530.039169
851.369654	2530.298788
851.683792	2528.723428
851.997887	2532.285003
852.311938	2530.228212
852.625947	2532.103521
852.939914	2531.440610
853.253837	2532.055630
853.567718	2531.990095
853.881555	2529.162008
854.195350	2533.981351
854.509103	2530.162677
854.822812	2531.314581
855.136479	2533.522606
855.450103	2530.306350
855.763685	2530.366844
856.077224	2530.939015
856.390720	2533.091588
856.704173	2530.049251
857.017584	2534.218285
857.330953	2529.305681
857.644278	2532.852133
857.957561	2534.949253
858.270802	2531.876669
858.584000	2532.327853
858.897155	2532.511855
859.210268	2530.956659
859.523339	2531.614529
859.836367	2532.229550
860.149352	2532.642925
860.462295	2531.629653
860.775195	2526.727131
861.088054	2525.658406
861.400869	2527.213602
861.713642	2528.259642
862.026373	2527.407687
862.339062	2529.724097
862.651708	2531.123017
862.964312	2529.149405
863.276873	2531.100332
863.589392	2530.865918
863.901869	2528.862059
864.214303	2528.521782
864.526696	2530.674354
864.839045	2528.214271
865.151353	2532.186700
865.463619	2529.484642
865.775842	2530.137471
866.088023	2532.426155
866.400162	2531.654859
866.712258	2530.568490
867.024313	2531.085208
867.336325	2532.489170
867.648296	2530.480270
867.960224	2530.848274
868.272110	2531.354910
868.583954	2529.237625
868.895755	2530.291227
869.207515	2530.588655
869.519233	2531.576721
869.830909	2532.537061
870.142542	2530.689478
870.454134	2529.993798
870.765684	2529.555218
871.077191	2530.717204
871.388657	2533.759540
871.700081	2529.759385
872.011463	2530.175280
872.322803	2530.321473
872.634101	2532.375744
872.945357	2528.660413
873.256571	2532.501773
873.567744	2531.538912
873.878874	2529.807276
874.189963	2531.765764
874.501010	2533.000847
874.812015	2530.513037
875.122979	2531.990095
875.433900	2532.305168
875.744780	2530.797863
876.055618	2529.434230
876.366415	2532.156453
876.677169	2531.170908
876.987882	2526.948942
877.298554	2526.802748
877.609183	2525.308046
877.919771	2526.845598
878.230317	2526.817872
878.540822	2532.400949
878.851285	2531.130579
879.161707	2530.477749
879.472087	2530.669313
879.782425	2530.525640
880.092722	2531.760723
880.402977	2532.640404
880.713191	2536.524613
881.023363	2534.445137
881.333494	2536.542257
881.643583	2536.239788
881.953631	2535.874304
882.263637	2535.695343
882.573602	2535.859181
882.883526	2531.042358
883.193408	2534.125024
883.503248	2534.500590
883.813048	2533.295754
884.122806	2532.509334
884.432522	2530.533202
884.742197	2531.493542
885.051831	2530.719725
885.361424	2530.215609
885.670975	2532.126207
885.980485	2531.682585
886.289954	2532.053110
886.599382	2530.013963
886.908768	2531.438089
887.218113	2530.523120
887.527417	2530.200486
887.836680	2531.367513
888.145901	2530.346679
888.455082	2529.048582
888.764221	2528.962882
889.073319	2528.360465
889.382376	2532.123686
889.691392	2528.499096
890.000366	2529.739220
890.309300	2531.528830
890.618193	2529.766947
890.927044	2530.994467
891.235855	2529.535053
891.544625	2529.451874
891.853353	2530.477749
892.162041	2532.877338
892.470687	2532.219468
892.779293	2529.313243
893.087858	2527.228726
893.396381	2528.320135
893.704864	2528.252080
894.013306	2525.862573
894.321707	2530.739889
894.630068	2532.907585
894.938387	2528.678057
895.246665	2528.786442
895.554903	2533.235260
895.863100	2529.656041
896.171256	2528.143695
896.479371	2531.536392
896.787446	2530.873480
897.095480	2531.944725
897.403473	2531.619571
897.711425	2529.635877
898.019336	2529.855167
898.327207	2529.431710
898.635038	2530.964221
898.942827	2529.530012
899.250576	2528.738551
899.558284	2530.845753
899.865952	2530.364323
900.173579	2528.983047
900.481165	2529.411545
900.788711	2528.678057
901.096216	2529.383819
901.403681	2530.691998
901.711105	2529.663603
902.018489	2528.483973
902.325832	2530.457585
902.633135	2530.679395
902.940397	2531.049920
903.247619	2529.393901
903.554800	2529.935825
903.861941	2532.247194
904.169041	2530.777698
904.476101	2530.066895
904.783121	2532.027904
905.090100	2531.818696
905.397039	2530.540764
905.703938	2530.379447
906.010796	2530.752492
906.317614	2530.802904
906.624391	2531.992616
906.931129	2531.382636
907.237826	2530.475229
907.544483	2530.293747
907.851099	2530.001360
908.157675	2528.713345
908.464211	2530.344159
908.770707	2525.227387
909.077163	2528.796524
909.383578	2524.561955
909.689954	2525.058509
909.996289	2527.059847
910.302584	2527.833664
910.608839	2526.623787
910.915054	2529.955990
911.221229	2529.298119
911.527363	2529.240146
911.833458	2531.604447
912.139513	2527.508510
912.445527	2530.538243
912.751502	2529.628315
913.057436	2530.800383
913.363331	2530.019004
913.669186	2527.745444
913.975000	2531.516227
914.280775	2526.041534
914.586510	2529.696370
914.892205	2531.664941
915.197859	2530.250897
915.503475	2531.773326
915.809050	2531.291896
916.114585	2530.210568
916.420081	2533.227699
916.725536	2530.470188
917.030952	2531.334745
917.336328	2530.918850
917.641665	2532.698378
917.946961	2528.035310
918.252218	2528.693181
918.557435	2532.101001
918.862612	2532.015301
919.167750	2529.472039
919.472848	2529.777029
919.777906	2531.546474
920.082925	2530.855836
920.387904	2529.305681
920.692843	2527.800897
920.997743	2531.420445
921.302603	2526.863242
921.607423	2528.857018
921.912204	2530.180321
922.216946	2530.548325
922.521647	2529.227543
922.826310	2529.182173
923.130932	2531.226361
923.435516	2530.634025
923.740059	2529.051103
924.044564	2528.708304
924.349028	2530.553367
924.653454	2523.150432
924.957840	2526.492717
925.262186	2526.654034
925.566493	2527.879034
925.870761	2525.363499
926.174989	2530.170239
926.479178	2530.704601
926.783328	2526.538088
927.087438	2527.329549
927.391509	2528.249559
927.695541	2528.773839
927.999533	2526.800227
928.303486	2526.729651
928.607400	2528.178983
928.911275	2529.469518
929.215110	2529.386339
929.518906	2529.928263
929.822663	2528.983047
930.126381	2528.385670
930.430060	2528.042872
930.733699	2526.094466
931.037299	2530.165198
931.340861	2529.104035
931.644383	2528.055475
931.947866	2529.492204
932.251309	2528.819210
932.554714	2528.415917
932.858080	2528.262162
933.161407	2527.601771
933.464694	2529.252749
933.767943	2526.507841
934.071153	2531.954807
934.374323	2523.185720
934.677455	2528.955321
934.980548	2527.813499
935.283602	2525.461801
935.586617	2528.786442
935.889593	2529.257790
936.192530	2527.125382
936.495428	2527.934487
936.798287	2530.097142
937.101108	2529.373737
937.403890	2523.999867
937.706632	2528.879703
938.009336	2532.184180
938.312002	2529.771988
938.614628	2528.035310
938.917216	2529.391381
939.219765	2528.388191
939.522275	2530.538243
939.824747	2530.828109
940.127179	2524.529188
940.429573	2524.544311
940.731929	2529.643438
941.034246	2525.176976
941.336524	2526.286030
941.638763	2527.440454
941.940964	2527.964734
942.243126	2529.557739
942.545250	2525.923067
942.847335	2527.780732
943.149381	2527.125382
943.451389	2528.902389
943.753359	2530.160157
944.055290	2527.984899
944.357182	2528.121010
944.659036	2532.320291
944.960851	2530.215609
945.262628	2529.961031
945.564367	2526.354085
945.866067	2528.650331
946.167729	2528.327697
946.469352	2528.224353
946.770937	2526.901051
947.072484	2530.034128
947.373992	2529.434230
947.675462	2531.987575
947.976893	2530.203006
948.278286	2529.348531
948.579641	2528.541946
948.880958	2527.715197
949.182236	2527.261493
949.483476	2527.450536
949.784678	2528.095804
950.085841	2529.988757
950.386967	2528.899868
950.688054	2527.979857
950.989103	2527.488345
951.290114	2525.988602
951.591087	2529.315763
951.892021	2528.546987
952.192917	2527.006915
952.493776	2528.211751
952.794596	2527.407687
953.095378	2528.073119
953.396122	2529.933305
953.696828	2530.233253
953.997496	2528.022707
954.298126	2525.734023
954.598718	2529.366175
954.899272	2525.804600
955.199788	2528.665454
955.500266	2527.994981
955.800706	2528.531864
956.101108	2523.069774
956.401472	2525.091276
956.701798	2525.300484
957.002087	2528.438603
957.302337	2527.412728
957.602550	2529.081350
957.902724	2528.131092
958.202861	2528.763757
958.502960	2530.639066
958.803022	2528.320135
959.103045	2525.098838
959.403031	2526.495238
959.702979	2525.484486
960.002889	2529.492204
960.302762	2527.606812
960.602596	2526.021369
960.902393	2525.093797
961.202153	2526.868283
961.501875	2526.253262
961.801559	2528.857018
962.101205	2530.301309
962.400814	2530.165198
962.700385	2528.173942
962.999918	2526.802748
963.299414	2526.399456
963.598873	2529.167049
963.898293	2526.502799
964.197677	2527.563962
964.497022	2528.325177
964.796331	2525.139167
965.095601	2527.372398
965.394835	2528.438603
965.694030	2525.497089
965.993189	2530.795342
966.292309	2527.546318
966.591393	2530.439941
966.890439	2525.766791
967.189447	2525.479445
967.488419	2525.907943
967.787353	2528.060516
968.086249	2528.249559
968.385108	2528.115969
968.683930	2527.760567
968.982714	2528.602440
969.281462	2526.719569
969.580172	2527.624456
969.878844	2528.738551
970.177480	2524.917357
970.476078	2528.670496
970.774639	2526.394415
971.073162	2527.377440
971.371649	2524.551873
971.670098	2525.260155
971.968510	2524.365350
972.266885	2523.646986
972.565223	2527.669827
972.863524	2522.709331
973.161788	2528.000022
973.460014	2529.376257
973.758204	2526.898530
974.056356	2527.382481
974.354471	2525.446678
974.652550	2529.109076
974.950591	2529.852646
975.248595	2528.383150
975.546563	2525.940711
975.844493	2526.938859
976.142386	2525.134126
976.440243	2522.754702
976.738062	2528.166380
977.035845	2527.112779
977.333590	2527.085053
977.631299	2526.475073
977.928971	2527.090094
978.226606	2528.289888
978.524204	2527.369878
978.821765	2525.423992
979.119290	2527.886596
979.416777	2525.877696
979.714228	2528.534384
980.011642	2526.386853
980.309020	2532.963038
980.606360	2528.085722
980.903664	2527.153108
981.200931	2528.453726
981.498162	2526.112110
981.795356	2529.184693
982.092513	2531.251566
982.389633	2530.951618
982.686717	2526.492717
982.983764	2527.372398
983.280775	2527.753006
983.577749	2524.940042
983.874686	2526.212933
984.171587	2528.136133
984.468451	2528.307533
984.765279	2527.059847
985.062070	2527.279137
985.358824	2526.699404
985.655543	2527.175793
985.952224	2526.969106
986.248869	2526.994312
986.545478	2523.614218
986.842050	2524.325021
987.138586	2524.135978
987.435086	2523.762932
987.731549	2520.886954
988.027975	2529.194776
988.324366	2525.376102
988.620719	2527.649662
988.917037	2526.611184
989.213318	2526.001205
989.509563	2525.454239
989.805772	2526.533046
990.101944	2525.466842
990.398080	2523.440298
990.694180	2526.691843
990.990244	2526.732172
991.286271	2526.288550
991.582262	2526.646472
991.878217	2526.333921
992.174136	2530.079498
992.470019	2527.309384
992.765865	2527.813499
993.061676	2528.932636
993.357450	2527.143026
993.653188	2525.855011
993.948890	2530.354241
994.244556	2528.340300
994.540186	2525.852491
994.835780	2525.552542
995.131337	2525.993643
995.426859	2528.146216
995.722345	2523.178158
996.017795	2524.138498
996.313208	2529.381298
996.608586	2524.226718
996.903928	2528.665454
997.199234	2527.344672
997.494504	2527.367357
997.789738	2527.251411
998.084936	2523.863755
998.380099	2526.021369
998.675225	2526.026410
998.970316	2526.739734
999.265371	2528.937677
999.560390	2527.163191
999.855373	2529.101514
1000.150320	2526.074301
1000.445232	2529.857687
1000.740108	2528.105886
1001.034948	2525.842408
1001.329752	2524.607326
1001.624521	2529.164529
1001.919254	2524.438447
1002.213951	2528.814168
1002.508613	2522.215298
1002.803239	2524.609846
1003.097829	2520.728158
1003.392384	2526.535567
1003.686903	2525.633200
1003.981386	2528.370547
1004.275834	2524.355268
1004.570246	2526.906092
1004.864623	2523.919208
1005.158964	2526.606143
1005.453270	2525.706297
1005.747540	2525.161853
1006.041775	2526.835516
1006.335974	2528.524302
1006.630138	2528.224353
1006.924266	2525.484486
1007.218359	2525.429034
1007.512416	2526.575896
1007.806438	2526.608664
1008.100425	2527.831143
1008.394376	2525.091276
1008.688292	2528.489014
1008.982172	2525.529857
1009.276017	2527.750485
1009.569827	2526.651513
1009.863602	2529.121679
1010.157341	2526.676719
1010.451045	2527.679909
1010.744714	2525.151770
1011.038347	2525.857532
1011.331945	2526.283509
1011.625508	2526.275947
1011.919036	2526.701925
1012.212528	2526.835516
1012.505986	2524.854342
1012.799408	2525.471883
1013.092795	2526.659075
1013.386147	2528.607481
1013.679464	2523.445340
1013.972745	2528.965403
1014.265992	2527.745444
1014.559204	2525.912984
1014.852380	2524.929959
1015.145521	2525.567665
1015.438628	2525.529857
1015.731699	2526.079343
1016.024736	2524.955165
1016.317737	2525.035824
1016.610703	2530.714683
1016.903635	2523.107582
1017.196531	2520.503826
1017.489393	2523.553724
1017.782219	2522.603467
1018.075011	2522.840401
1018.367768	2526.724610
1018.660490	2526.376771
1018.953177	2526.376771
1019.245829	2526.376771
