Dividing Wavelength (nm)	Counts (n)	Blue Motor Position (mm): 0.000000	Red Motor Position (mm): 27.400000	
326.493990	2125.446243
326.888308	2125.446243
327.282561	2125.446243
327.676750	2095.118662
328.070874	2091.161356
328.464933	2096.091605
328.858929	2103.434045
329.252859	2112.818153
329.646726	2123.623866
330.040528	2134.805146
330.434265	2155.678043
330.827938	2169.853768
331.221547	2189.282375
331.615091	2207.695189
332.008571	2227.925339
332.401986	2247.482496
332.795338	2265.386154
333.188625	2283.620007
333.581847	2303.356124
333.975006	2324.140802
334.368100	2339.465909
334.761129	2356.694053
335.154095	2373.201311
335.546996	2392.259393
335.939833	2408.965777
336.332606	2424.880700
336.725315	2437.211362
337.117960	2448.112857
337.510540	2452.362550
337.903056	2466.475260
338.295508	2472.638071
338.687896	2481.245841
339.080220	2491.418889
339.472480	2497.496000
339.864676	2500.929026
340.256807	2504.926661
340.648875	2506.257526
341.040879	2510.398833
341.432818	2513.640295
341.824694	2514.824967
342.216506	2515.281191
342.608253	2516.639782
342.999937	2512.571571
343.391557	2517.196829
343.783113	2515.187930
344.174605	2511.979235
344.566033	2512.022085
344.957397	2507.825324
345.348697	2507.268277
345.739934	2504.765344
346.131106	2502.179232
346.522215	2500.498007
346.913260	2498.975579
347.304241	2498.680671
347.695159	2498.486587
348.086012	2496.646566
348.476802	2494.143633
348.867528	2495.000629
349.258191	2490.017448
349.648789	2493.301760
350.039324	2487.489310
350.429796	2489.228508
350.820203	2487.020483
351.210548	2484.366315
351.600828	2485.112406
351.991045	2485.162817
352.381198	2483.524442
352.771288	2484.832622
353.161314	2484.202477
353.551276	2482.473362
353.941175	2483.632827
354.331010	2482.569144
354.720782	2482.279277
355.110490	2481.734833
355.500135	2484.661223
355.889717	2483.811788
356.279235	2482.344812
356.668689	2487.416213
357.058080	2483.978146
357.447408	2484.288177
357.836672	2480.746767
358.225873	2484.225163
358.615010	2481.139977
359.004084	2489.717500
359.393095	2487.658188
359.782043	2486.959989
360.170927	2487.287664
360.559748	2491.229846
360.948505	2490.708087
361.337199	2491.139105
361.725830	2488.053919
362.114398	2494.809065
362.502903	2492.951400
362.891344	2493.631956
363.279722	2493.009373
363.668037	2490.539208
364.056289	2494.927532
364.444478	2493.783190
364.832603	2497.453150
365.220665	2494.244456
365.608665	2497.211175
365.996601	2497.369971
366.384474	2501.591938
366.772284	2500.941629
367.160031	2501.826351
367.547715	2506.297855
367.935336	2508.664677
368.322893	2507.926148
368.710388	2510.565192
369.097820	2520.907119
369.485189	2521.592716
369.872495	2530.417255
370.259738	2532.983203
370.646918	2540.910417
371.034035	2549.061963
371.421090	2557.526060
371.808081	2569.637432
372.195010	2580.720409
372.581875	2592.262131
372.968678	2607.161261
373.355418	2615.983280
373.742096	2634.590179
374.128710	2649.272540
374.515262	2664.413645
374.901751	2678.397806
375.288177	2689.127902
375.674540	2715.488095
376.060841	2732.660786
376.447079	2750.352715
376.833254	2773.350459
377.219367	2786.071811
377.605417	2823.325938
377.991404	2832.508400
378.377329	2851.760566
378.763191	2870.995089
379.148991	2913.731470
379.534727	2936.635953
379.920402	2963.621249
380.306013	2972.498721
380.691563	3025.196423
381.077049	3047.269115
381.462474	3066.072619
381.847835	3102.220213
382.233134	3125.991774
382.618371	3122.478089
383.003545	3195.537012
383.388657	3202.811397
383.773706	3234.666448
384.158693	3246.303951
384.543618	3274.889814
384.928480	3311.453303
385.313280	3356.586753
385.698017	3356.773276
386.082692	3410.852254
386.467305	3417.171340
386.851856	3447.803912
387.236344	3467.623208
387.620770	3499.140502
388.005133	3524.807537
388.389435	3557.033113
388.773674	3562.717014
389.157851	3606.585134
389.541965	3618.479737
389.926018	3587.970674
390.310008	3656.137156
390.693936	3677.869570
391.077802	3718.874316
391.461606	3708.771843
391.845348	3766.188065
392.229027	3768.501955
392.612645	3785.415026
392.996200	3860.954196
393.379694	3901.767377
393.763125	3961.119402
394.146494	3932.775515
394.529801	3995.701717
394.913047	4043.474212
395.296230	4008.672606
395.679351	4060.082293
396.062410	4088.552210
396.445408	4068.891710
396.828343	4102.359930
397.211217	4122.441366
397.594028	4045.011764
397.976778	4113.793267
398.359466	4139.954335
398.742092	4165.089528
399.124656	4089.666305
399.507158	4170.813758
399.889598	4195.560782
400.271977	4254.131428
400.654294	4228.749219
401.036549	4235.010332
401.418742	4207.450344
401.800874	4305.445333
402.182944	4328.485927
402.564952	4394.943458
402.946898	4381.133217
403.328783	4378.194224
403.710606	4287.866830
404.092367	4482.846058
404.474067	4449.483702
404.855705	4456.498467
405.237282	4379.998958
405.618797	4495.017924
406.000250	4524.828787
406.381642	4606.687043
406.762972	4570.289912
407.144240	4578.272579
407.525447	4575.991457
407.906593	4638.146364
408.287677	4676.948125
408.668700	4611.050162
409.049661	4661.290301
409.430560	4704.185479
409.811399	4629.483141
410.192176	4792.453562
410.572891	4728.957709
410.953545	4833.460828
411.334138	4709.904668
411.714669	4778.970996
412.095139	4672.799255
412.475547	4816.764527
412.855894	4798.979336
413.236180	4805.560562
413.616405	4758.680352
413.996568	4846.219989
414.376670	4787.440135
414.756711	4743.163681
415.136691	4771.137043
415.516609	4855.248695
415.896466	4892.560795
416.276262	4924.267133
416.655997	4906.812137
417.035670	5087.998768
417.415283	5181.166853
417.794834	5123.606958
418.174324	5077.361934
418.553753	4987.558819
418.933121	5170.726623
419.312428	5237.111058
419.691674	5178.152243
420.070859	5298.625738
420.449983	5210.708015
420.829045	5329.333926
421.208047	5238.883023
421.586988	5307.278878
421.965867	5316.118542
422.344686	5450.117452
422.723444	5305.716121
423.102141	5124.761383
423.480777	5424.256333
423.859352	5192.091033
424.237866	5449.595693
424.616319	5440.630000
424.994712	5548.341814
425.373044	5427.591056
425.751314	5571.581533
426.129524	5373.799424
426.507673	5567.898970
426.885762	5651.448534
427.263789	5581.011012
427.641756	5462.004493
428.019662	5588.701292
428.397508	5590.901755
428.775292	5541.460639
429.153016	5637.706348
429.530679	5563.906377
429.908282	5650.107587
430.285824	5523.599831
430.663305	5796.802643
431.040726	5525.245768
431.418086	5528.774575
431.795385	5639.044775
432.172624	5646.235981
432.549802	5638.709538
432.926920	5654.415253
433.303977	5662.992776
433.680974	5695.808167
434.057910	5719.952773
434.434786	5721.823041
434.811601	5695.997210
435.188355	5924.616058
435.565050	5800.104599
435.941683	5775.891937
436.318257	5997.304455
436.694770	5979.428523
437.071222	6014.633421
437.447614	5941.095590
437.823946	5859.615420
438.200218	6010.522360
438.576429	5870.126226
438.952580	5974.654551
439.328670	6016.286920
439.704700	5926.670328
440.080670	5910.803296
440.456580	6182.917219
440.832429	6065.886832
441.208218	5911.206588
441.583947	6065.188633
441.959616	6070.877575
442.335224	5992.946378
442.710773	6130.335464
443.086261	6155.483260
443.461689	5949.295026
443.837057	6097.348674
444.212365	6256.250884
444.587612	6141.163862
444.962800	6296.118849
445.337927	6273.103461
445.712995	5884.584255
446.088002	6460.611699
446.462949	6281.809534
446.837837	6211.921498
447.212664	6379.842332
447.587431	6520.936667
447.962139	7046.421502
448.336786	7956.180893
448.711374	7698.799742
449.085901	6785.262007
449.460369	6699.325457
449.834776	6622.460464
450.209124	6999.400140
450.583412	7140.877602
450.957640	7277.747450
451.331808	7044.089969
451.705917	6596.193532
452.079965	6509.221025
452.453954	6703.081117
452.827883	6576.278454
453.201752	6652.858622
453.575562	6452.439989
453.949311	6631.738708
454.323001	6511.905440
454.696632	6568.830149
455.070202	6688.996133
455.443713	6822.153171
455.817164	6899.907928
456.190556	6955.282482
456.563888	7006.588825
456.937160	7030.325098
457.310373	6694.987544
457.683526	6695.887390
458.056619	6575.376087
458.429653	6542.011210
458.802628	6458.260001
459.175542	6540.697990
459.548398	6830.143400
459.921194	6942.462828
460.293930	6909.483599
460.666607	7321.156825
461.039224	7548.681743
461.411782	7631.807849
461.784280	7611.839838
462.156719	7481.256310
462.529099	7350.634972
462.901419	6966.597352
463.273680	6845.791141
463.645882	6822.470763
464.018024	6664.218862
464.390106	6759.090857
464.762130	7020.381422
465.134094	7314.620969
465.505999	8027.951800
465.877845	8889.661433
466.249631	9328.715686
466.621358	8986.751536
466.993026	8457.853839
467.364634	8209.539203
467.736184	7867.199487
468.107674	7553.664923
468.479105	7492.495562
468.850477	7276.144363
469.221790	7045.274640
469.593043	6754.442913
469.964238	6586.786739
470.335373	6536.314707
470.706449	6504.482341
471.077467	6424.779178
471.448425	7158.264542
471.819324	7727.844350
472.190164	7678.841814
472.560945	6856.279262
472.931667	6306.125540
473.302330	6162.288817
473.672934	5890.434514
474.043479	6011.631414
474.413965	5915.363020
474.784393	5770.626452
475.154761	5781.918636
475.525070	5755.313947
475.895321	5605.049754
476.265513	5617.652638
476.635645	5631.911542
477.005719	5547.678902
477.375734	5530.866654
477.745691	5558.091406
478.115588	5541.942069
478.485427	5558.582918
478.855207	5705.335948
479.224928	5937.803716
479.594591	6113.243432
479.964194	5935.832625
480.333739	5817.940201
480.703226	5667.018137
481.072653	5614.002843
481.442022	5612.450167
481.811333	5590.730356
482.180584	5440.070432
482.549777	5246.374178
482.918912	5120.128562
483.287988	5045.098549
483.657005	4967.928566
484.025964	4802.102331
484.394864	4752.920834
484.763706	4663.021937
485.132489	4540.211868
485.501213	4457.108447
485.869879	4411.143206
486.238487	4299.857214
486.607036	4268.677678
486.975527	4152.103516
487.343959	4128.740288
487.712333	4076.047627
488.080648	4008.261752
488.448905	3953.993731
488.817104	3886.258267
489.185244	3876.332236
489.553326	3842.480888
489.921350	3876.828789
490.289315	3972.320846
490.657222	3966.452943
491.025070	3894.644227
491.392861	3821.277794
491.760593	3718.569326
492.128267	3618.167185
492.495883	3529.838608
492.863440	3447.521607
493.230939	3370.321377
493.598380	3324.441836
493.965763	3271.514762
494.333088	3235.581417
494.700354	3186.989735
495.067563	3170.084226
495.434713	3120.746453
495.801805	3103.770367
496.168839	3073.689803
496.535815	3041.242416
496.902733	3016.303828
497.269593	2990.238542
497.636395	2970.910758
498.003139	2944.716923
498.369825	2918.596184
498.736453	2905.232085
499.103023	2886.050495
499.469535	2870.034749
499.835989	2850.530525
500.202385	2832.347083
500.568723	2812.706747
500.935003	2809.772796
501.301226	2786.812861
501.667390	2785.166924
502.033497	2777.116201
502.399546	2759.275558
502.765537	2747.660739
503.131470	2739.113463
503.497345	2732.035683
503.863163	2716.813919
504.228923	2716.065307
504.594625	2708.143134
504.960269	2697.740713
505.325856	2693.735517
505.691385	2685.228569
506.056856	2686.670339
506.422270	2678.286901
506.787625	2673.825479
507.152924	2670.417659
507.518164	2664.617812
507.883347	2659.309477
508.248472	2657.393838
508.613540	2654.449805
508.978550	2650.316058
509.343503	2648.226500
509.708398	2647.573671
510.073236	2646.298259
510.438016	2644.470841
510.802738	2639.916158
511.167403	2638.028246
511.532010	2636.339459
511.896561	2637.506487
512.261053	2637.249388
512.625488	2631.036166
512.989866	2626.761267
513.354186	2627.835033
513.718449	2621.634414
514.082655	2623.381173
514.446803	2623.408900
514.810894	2625.846298
515.174927	2623.340844
515.538904	2620.701800
515.902822	2623.282871
516.266684	2620.283384
516.630488	2614.110492
516.994235	2617.578805
517.357925	2617.510750
517.721558	2614.977570
518.085133	2613.293825
518.448651	2614.468413
518.812112	2614.181068
519.175516	2615.010337
519.538863	2614.508743
519.902152	2616.570575
520.265385	2611.592435
520.628560	2611.070676
520.991678	2611.516818
521.354739	2611.365583
521.717743	2610.485902
522.080690	2610.891715
522.443580	2610.233844
522.806413	2609.414657
523.169189	2609.921293
523.531908	2611.221910
523.894569	2606.838627
524.257174	2607.342742
524.619722	2608.688731
524.982213	2609.399533
525.344647	2609.810387
525.707025	2606.614296
526.069345	2609.059255
526.431608	2610.115377
526.793815	2608.771910
527.155964	2605.296034
527.518057	2605.807711
527.880093	2606.079933
528.242072	2608.323247
528.603995	2604.890221
528.965860	2603.758482
529.327669	2606.387444
529.689421	2602.697319
530.051117	2605.701847
530.412755	2605.921137
530.774337	2602.599017
531.135862	2604.060951
531.497331	2598.220775
531.858743	2599.450816
532.220098	2601.323605
532.581396	2597.310846
532.942638	2599.526433
533.303824	2599.816300
533.664953	2602.009202
534.026025	2602.513317
534.387040	2601.116917
534.747999	2601.915940
535.108902	2603.793770
535.469748	2602.251177
535.830537	2603.907196
536.191270	2600.401074
536.551947	2604.471805
536.912567	2599.302102
537.273131	2604.073554
537.633638	2600.116248
537.994089	2604.933071
538.354483	2599.231526
538.714821	2602.170519
539.075103	2602.588934
539.435328	2598.626588
539.795497	2597.946032
540.155609	2601.129520
540.515665	2603.904676
540.875665	2599.087853
541.235609	2601.326125
541.595496	2602.223451
541.955328	2600.012905
542.315102	2602.641867
542.674821	2599.392843
543.034483	2601.603389
543.394090	2600.196907
543.753640	2600.796804
544.113134	2595.226329
544.472571	2599.286979
544.831953	2604.323091
545.191278	2602.089860
545.550548	2600.630446
545.909761	2604.759151
546.268918	2598.813110
546.628019	2602.730087
546.987064	2598.578697
547.346053	2601.739500
547.704986	2601.835282
548.063863	2599.105497
548.422684	2600.181783
548.781449	2599.241608
549.140158	2601.285796
549.498811	2602.145313
549.857408	2598.520723
550.215949	2596.607605
550.574434	2595.985023
550.932864	2596.378233
551.291237	2595.160794
551.649555	2599.065168
552.007817	2599.778491
552.366022	2600.446444
552.724173	2600.885024
553.082267	2596.438727
553.440305	2599.216402
553.798288	2599.453337
554.156215	2599.647421
554.514086	2600.320415
554.871902	2597.005857
555.229661	2600.627926
555.587365	2599.302102
555.945014	2599.735641
556.302606	2598.195569
556.660143	2600.270004
557.017625	2599.649942
557.375050	2599.438213
557.732421	2599.889397
558.089735	2600.363265
558.446994	2600.832092
558.804197	2600.736310
559.161345	2601.552977
559.518437	2600.252360
559.875474	2599.972576
560.232455	2602.402412
560.589381	2598.503079
560.946251	2602.089860
561.303065	2601.593307
561.659825	2601.356372
562.016528	2599.029880
562.373177	2597.015939
562.729770	2598.298912
563.086307	2601.873091
563.442789	2600.494335
563.799216	2600.955601
564.155587	2600.506938
564.511904	2600.544747
564.868164	2601.794953
565.224370	2602.200766
565.580520	2599.130703
565.936615	2599.922164
566.292654	2596.675661
566.648638	2598.160281
567.004567	2599.279417
567.360441	2599.329828
567.716260	2597.618357
568.072023	2599.347473
568.427732	2592.030238
568.783385	2596.027873
569.138982	2594.810434
569.494525	2593.708942
569.850013	2590.971595
570.205445	2599.632298
570.560823	2597.169694
570.916145	2596.531988
571.271412	2598.780343
571.626625	2598.437544
571.981782	2595.312029
572.336884	2595.821185
572.691931	2596.963007
573.046923	2596.990733
573.401860	2596.065681
573.756743	2595.193562
574.111570	2595.322111
574.466342	2594.523088
574.821059	2595.299426
575.175722	2594.069384
575.530330	2597.099118
575.884882	2595.788418
576.239380	2594.898654
576.593823	2595.158274
576.948211	2594.908737
577.302544	2596.214395
577.656823	2593.119127
578.011047	2595.828747
578.365216	2593.277923
578.719330	2592.277254
579.073389	2590.714497
579.427394	2591.281626
579.781344	2594.273551
580.135239	2592.141143
580.489080	2592.461256
580.842866	2592.730958
581.196597	2597.578027
581.550273	2595.498552
581.903895	2590.780032
582.257463	2593.245156
582.610975	2590.795155
582.964434	2593.439240
583.317837	2593.134250
583.671186	2594.414703
584.024481	2592.471339
584.377721	2590.916143
584.730906	2590.117120
585.084037	2591.894127
585.437113	2591.185844
585.790135	2589.981009
586.143103	2589.376070
586.496016	2591.132912
586.848874	2587.878848
587.201679	2591.742892
587.554428	2585.849783
587.907124	2589.131574
588.259765	2585.975812
588.612352	2588.677870
588.964884	2588.377922
589.317362	2588.846749
589.669786	2589.232397
590.022155	2592.320104
590.374470	2590.391863
590.726731	2589.113930
591.078937	2589.660895
591.431090	2586.656368
591.783188	2589.474373
592.135232	2585.895153
592.487222	2588.191399
592.839157	2589.476893
593.191038	2587.324321
593.542866	2587.049578
593.894639	2587.596543
594.246358	2587.460432
594.598022	2588.476224
594.949633	2586.926069
595.301190	2585.249886
595.652692	2585.590164
596.004141	2585.653178
596.355535	2587.125195
596.706876	2585.086048
597.058162	2585.932962
597.409395	2585.486820
597.760573	2587.639393
598.111698	2584.763414
598.462768	2585.257448
598.813785	2584.072776
599.164748	2583.309042
599.515657	2584.647468
599.866511	2586.933631
600.217312	2586.684094
600.568060	2585.111254
600.918753	2586.230390
601.269392	2584.329875
601.619978	2586.172417
601.970510	2585.179310
602.320988	2583.384659
602.671412	2583.561099
603.021783	2586.351378
603.372100	2584.133270
603.722363	2585.882551
604.072572	2586.358940
604.422728	2586.026223
604.772830	2581.597570
605.122878	2578.434246
605.472872	2580.609504
605.822813	2578.575398
606.172701	2583.634196
606.522534	2579.606314
606.872314	2584.607139
607.222041	2585.446491
607.571714	2587.510843
607.921333	2586.240473
608.270899	2581.600090
608.620411	2587.556214
608.969870	2583.142683
609.319276	2587.586461
609.668627	2589.638210
610.017926	2589.713828
610.367171	2592.126020
610.716362	2593.751792
611.065500	2591.765577
611.414585	2586.482448
611.763616	2586.553024
612.112594	2586.986563
612.461518	2587.775504
612.810389	2587.956985
613.159207	2586.230390
613.507971	2586.684094
613.856682	2585.569999
614.205340	2585.517067
614.553945	2585.958168
614.902496	2585.156624
615.250994	2585.723754
615.599439	2584.120667
615.947830	2584.458425
616.296169	2585.048240
616.644454	2586.351378
616.992686	2586.089238
617.340864	2583.989597
617.688990	2583.225863
618.037063	2586.583271
618.385082	2584.715523
618.733048	2587.599063
619.080961	2587.500761
619.428821	2586.419433
619.776628	2584.060173
620.124382	2587.364650
620.472083	2585.837180
620.819731	2586.111923
621.167326	2581.985739
621.514868	2587.248703
621.862357	2582.510019
622.209793	2585.179310
622.557176	2584.453383
622.904506	2581.791654
623.251783	2578.956005
623.599007	2579.006417
623.946179	2579.306365
624.293297	2579.949112
624.640363	2579.833166
624.987376	2581.050605
625.334336	2581.353074
625.681243	2580.919535
626.028097	2578.025912
626.374899	2579.122363
626.721647	2578.126735
627.068343	2580.854000
627.414987	2577.163875
627.761577	2577.486509
628.108115	2578.053639
628.454600	2580.087744
628.801032	2579.316448
629.147412	2578.736715
629.493739	2575.724626
629.840014	2581.905080
630.186236	2578.225038
630.532405	2578.134297
630.878521	2577.771334
631.224585	2579.076993
631.570597	2577.456262
631.916556	2578.298135
632.262462	2579.492888
632.608316	2577.950295
632.954117	2576.566498
633.299866	2577.221848
633.645562	2575.192784
633.991206	2574.882753
634.336797	2575.414595
634.682336	2577.728484
635.027823	2573.476271
635.373257	2573.831672
635.718639	2572.039542
636.063968	2574.396282
636.409245	2572.954512
636.754470	2573.204049
637.099642	2573.587176
637.444762	2573.153637
637.789829	2572.221024
638.134845	2570.943091
638.479808	2570.756568
638.824719	2570.680951
639.169577	2570.910324
639.514383	2572.825962
639.859137	2569.216496
640.203839	2570.726322
640.548489	2571.575756
640.893086	2568.450241
641.237632	2565.019735
641.582125	2569.682803
641.926566	2568.939233
642.270955	2570.106260
642.615292	2569.541650
642.959576	2571.820252
643.303809	2570.814542
643.647990	2568.551064
643.992118	2570.171795
644.336195	2571.422001
644.680219	2569.881928
645.024192	2570.068451
645.368112	2567.862946
645.711981	2573.083061
646.055797	2570.194480
646.399562	2571.948801
646.743274	2571.510221
647.086935	2571.006106
647.430544	2573.572053
647.774101	2573.743452
648.117606	2571.558112
648.461059	2571.744635
648.804460	2574.234965
649.147810	2569.685323
649.491108	2571.038873
649.834354	2570.403688
650.177548	2570.474264
650.520690	2568.369582
650.863781	2566.539643
651.206820	2570.718760
651.549807	2569.062741
651.892742	2571.580797
652.235626	2568.513255
652.578458	2568.606516
652.921238	2565.619633
653.263967	2567.222720
653.606644	2567.520148
653.949269	2566.378326
654.291843	2568.629202
654.634365	2567.948646
654.976836	2567.595765
655.319255	2567.066444
655.661622	2565.975034
656.003938	2566.832030
656.346203	2567.759602
656.688416	2569.140879
657.030577	2566.078378
657.372687	2566.345559
657.714746	2565.334807
658.056753	2565.143244
658.398708	2558.413303
658.740612	2563.031000
659.082465	2562.612584
659.424266	2563.522513
659.766016	2560.177707
660.107715	2564.477811
660.449362	2566.121227
660.790958	2567.222720
661.132503	2567.411763
661.473996	2570.113821
661.815438	2564.858418
662.156829	2568.301527
662.498168	2565.163408
662.839456	2563.588048
663.180693	2566.000240
663.521879	2564.548387
663.863013	2566.217009
664.204097	2566.385888
664.545129	2567.114335
664.886110	2565.264231
665.227040	2568.382185
665.567918	2565.864129
665.908746	2564.271124
666.249522	2565.811197
666.590248	2564.389591
666.930922	2565.002091
667.271545	2566.905127
667.612118	2567.363872
667.952639	2569.927299
668.293109	2568.848492
668.633528	2565.851526
668.973896	2563.744323
669.314213	2566.592575
669.654480	2565.707853
669.994695	2566.890003
670.334859	2567.051320
670.674973	2566.292627
671.015035	2566.295147
671.355047	2566.267421
671.695008	2563.767009
672.034918	2567.908317
672.374777	2565.735579
672.714585	2565.720456
673.054342	2568.760272
673.394049	2566.395970
673.733705	2567.610888
674.073310	2568.334294
674.412864	2566.975703
674.752368	2565.024777
675.091820	2565.811197
675.431223	2564.671896
675.770574	2563.343552
676.109875	2562.020249
676.449125	2564.160219
676.788324	2561.957234
677.127473	2562.612584
677.466571	2557.084959
677.805619	2562.569735
678.144616	2563.451937
678.483562	2562.988150
678.822458	2561.997564
679.161303	2563.709035
679.500098	2561.677450
679.838842	2563.807338
680.177535	2561.826164
680.516179	2562.161401
680.854771	2563.497307
681.193314	2562.726010
681.531805	2562.078222
681.870247	2565.886814
682.208638	2567.948646
682.546978	2564.457647
682.885268	2567.933522
683.223508	2562.804148
683.561697	2563.018397
683.899836	2567.835220
684.237925	2565.932184
684.575963	2566.035528
684.913951	2564.674416
685.251889	2566.655590
685.589776	2565.455795
685.927614	2565.740620
686.265401	2564.074519
686.603137	2565.629715
686.940824	2566.542164
687.278460	2566.290106
687.616046	2564.089642
687.953582	2567.424366
688.291068	2561.629559
688.628504	2566.882442
688.965889	2567.502504
689.303224	2564.893707
689.640510	2565.710373
689.977745	2563.976217
690.314930	2563.174673
690.652065	2564.124931
690.989150	2562.415979
691.326185	2560.938921
691.663170	2561.548901
692.000105	2562.773901
692.336990	2562.917574
692.673825	2560.525547
693.010610	2561.627039
693.347345	2556.921122
693.684030	2554.181255
694.020665	2554.229146
694.357251	2553.258723
694.693786	2555.731409
695.030272	2555.897768
695.366707	2557.296688
695.703093	2558.327604
696.039429	2557.155535
696.375716	2556.301060
696.711952	2557.082439
697.048139	2554.667726
697.384276	2555.786862
697.720363	2559.287943
698.056400	2555.514640
698.392388	2556.043961
698.728326	2556.401883
699.064214	2556.258210
699.400053	2556.273333
699.735842	2554.173693
700.071581	2555.058415
700.407270	2553.825853
700.742910	2557.122768
701.078501	2553.442726
701.414042	2553.951882
701.749533	2552.182437
702.084974	2555.060936
702.420366	2553.616645
702.755709	2553.833415
703.091002	2553.551110
703.426246	2555.610422
703.761440	2553.725030
704.096584	2551.726213
704.431679	2552.167314
704.766725	2555.023127
705.101721	2554.657644
705.436668	2553.848538
705.771565	2550.571788
706.106413	2554.990360
706.441212	2553.931718
706.775961	2554.818961
707.110661	2555.668395
707.445311	2551.544731
707.779913	2551.169165
708.114465	2555.028168
708.448967	2553.044474
708.783421	2553.979608
709.117825	2553.137736
709.452180	2554.261913
709.786485	2554.985319
710.120742	2556.638817
710.454949	2555.933056
710.789107	2553.190668
711.123216	2552.298384
711.457275	2553.304094
711.791286	2554.640000
712.125247	2556.815257
712.459159	2556.926163
712.793023	2560.833057
713.126837	2557.150494
713.460602	2557.770556
713.794318	2556.381718
714.127985	2557.717624
714.461602	2555.459187
714.795171	2556.507747
715.128691	2553.072201
715.462162	2554.811399
715.795584	2555.151677
716.128957	2555.862479
716.462281	2554.161090
716.795556	2553.306614
717.128782	2552.943651
717.461960	2550.997766
717.795088	2551.264947
718.128167	2548.262940
718.461198	2552.235369
718.794180	2551.093548
719.127113	2552.101779
719.459997	2550.758311
719.792833	2552.313507
720.125619	2549.445091
720.458357	2549.097251
720.791046	2552.525236
721.123686	2549.271171
721.456278	2550.574309
721.788821	2551.627910
722.121315	2551.479196
722.453761	2549.182951
722.786158	2548.467107
723.118506	2550.612118
723.450805	2551.617828
723.783056	2551.590102
724.115259	2546.654812
724.447412	2548.015923
724.779518	2550.730585
725.111574	2550.067673
725.443582	2551.764021
725.775542	2551.648075
726.107453	2551.685883
726.439315	2550.528939
726.771129	2554.640000
727.102895	2550.556665
727.434612	2551.796789
727.766281	2551.159083
728.097901	2551.121274
728.429473	2548.441901
728.760996	2548.146993
729.092471	2547.975594
729.423897	2548.419216
729.755276	2552.094217
730.086606	2556.933725
730.417887	2553.757798
730.749120	2552.406768
731.080305	2550.549103
731.411442	2554.529094
731.742530	2554.778631
732.073570	2554.808878
732.404562	2551.706048
732.735506	2552.923487
733.066401	2555.048333
733.397249	2553.641851
733.728048	2551.438867
734.058798	2550.276881
734.389501	2548.399051
734.720156	2551.703527
735.050762	2550.765873
735.381320	2550.324772
735.711831	2552.061449
736.042293	2546.939637
736.372707	2546.760676
736.703073	2550.120605
737.033391	2548.812426
737.363661	2549.608928
737.693883	2550.612118
738.024056	2550.889381
738.354182	2549.646737
738.684260	2551.111192
739.014290	2548.976263
739.344272	2550.838970
739.674207	2548.857796
740.004093	2552.416851
740.333931	2548.053732
740.663722	2549.876109
740.993464	2551.517005
741.323159	2552.777293
741.652806	2548.872920
741.982405	2547.463917
742.311956	2550.108002
742.641460	2550.440718
742.970915	2550.717982
743.300323	2551.670760
743.629683	2550.012220
743.958996	2548.691438
744.288260	2546.531304
744.617477	2545.984338
744.946647	2543.955274
745.275768	2543.221786
745.604842	2541.374203
745.933869	2540.998637
746.262847	2543.461241
746.591778	2546.929555
746.920662	2547.244627
747.249498	2547.100954
747.578286	2548.139432
747.907027	2548.363763
748.235720	2547.579864
748.564365	2546.246478
748.892963	2544.230017
749.221514	2545.586087
749.550017	2549.006510
749.878473	2544.053577
750.206881	2545.346632
750.535242	2544.814791
750.863555	2547.642878
751.191821	2544.391334
751.520039	2547.539534
751.848210	2547.698331
752.176334	2545.487785
752.504411	2546.586756
752.832440	2547.105995
753.160421	2546.450645
753.488356	2545.810419
753.816243	2547.184133
754.144082	2545.646581
754.471875	2545.328988
754.799620	2546.221273
755.127318	2546.785882
755.454969	2543.937630
755.782572	2544.570295
756.110129	2545.011396
756.437638	2543.703216
756.765100	2545.477703
757.092515	2544.587939
757.419882	2543.859492
757.747203	2541.303627
758.074477	2544.492157
758.401703	2545.664225
758.728882	2546.985007
759.056014	2546.382590
759.383099	2544.776982
759.710138	2547.380738
760.037129	2545.991900
760.364073	2546.816129
760.690970	2546.715306
761.017820	2544.867723
761.344623	2545.916283
761.671379	2547.721016
761.998088	2543.015099
762.324751	2549.165307
762.651366	2547.773948
762.977935	2557.364743
763.304456	2560.714590
763.630931	2566.751372
763.957359	2559.519837
764.283740	2557.271482
764.610074	2552.517674
764.936362	2549.946685
765.262602	2549.992056
765.588796	2548.762014
765.914943	2546.644730
766.241044	2550.415513
766.567097	2547.093392
766.893104	2545.059287
767.219064	2545.447456
767.544978	2545.023999
767.870845	2542.591642
768.196665	2545.399565
768.522438	2542.372352
768.848165	2545.155069
769.173846	2541.021323
769.499479	2545.457538
769.825066	2541.535520
770.150607	2541.066693
770.476101	2545.011396
770.801548	2542.150541
771.126949	2540.915458
771.452303	2543.080634
771.777611	2541.268339
772.102872	2541.391847
772.428087	2539.314892
772.753256	2541.291024
773.078378	2540.958308
773.403453	2541.517876
773.728482	2538.841023
774.053465	2540.557536
774.378401	2538.515869
774.703291	2541.727084
775.028135	2541.011240
775.352932	2538.924203
775.677683	2540.282793
776.002388	2541.308668
776.327046	2540.749100
776.651658	2540.882691
776.976224	2540.640715
777.300743	2542.324461
777.625216	2539.458565
777.949643	2538.548637
778.274024	2537.847916
778.598359	2536.789274
778.922647	2535.700385
779.246889	2535.571835
779.571086	2536.960673
779.895236	2539.196425
780.219339	2539.345139
780.543397	2541.114584
780.867409	2539.380427
781.191374	2540.562578
781.515294	2541.469985
781.839167	2539.287166
782.162995	2537.338760
782.486776	2540.509645
782.810511	2539.680376
783.134201	2538.352032
783.457844	2538.069727
783.781441	2540.892773
784.104993	2540.088709
784.428498	2535.839016
784.751958	2536.025539
785.075372	2536.895138
785.398739	2540.111394
785.722061	2540.371014
786.045337	2535.806249
786.368568	2538.636857
786.691752	2541.170037
787.014891	2539.887063
787.337983	2539.070396
787.661030	2541.069213
787.984031	2539.675334
788.306987	2539.488812
788.629897	2541.606096
788.952760	2542.775644
789.275579	2541.555685
789.598351	2543.960315
789.921078	2541.613658
790.243759	2539.975283
790.566395	2541.270860
790.888984	2539.398071
791.211529	2540.088709
791.534027	2539.927392
791.856480	2536.257432
792.178888	2537.437062
792.501249	2536.781712
792.823566	2539.798843
793.145836	2536.622916
793.468062	2536.479243
793.790241	2535.985210
794.112375	2541.449821
794.434464	2536.249870
794.756507	2539.541744
795.078505	2536.108718
795.400457	2536.154088
795.722364	2533.883049
796.044226	2537.116949
796.366042	2536.688451
796.687812	2538.558719
797.009538	2536.796836
797.331218	2541.469985
797.652852	2543.516694
797.974442	2538.924203
798.295986	2539.070396
798.617484	2539.095602
798.938938	2537.197607
799.260346	2541.417053
799.581709	2536.874973
799.903026	2539.584594
800.224299	2535.148378
800.545526	2540.726415
800.866708	2539.125849
801.187845	2541.691796
801.508936	2534.614016
801.829983	2535.430683
802.150984	2538.843544
802.471940	2534.671989
802.792851	2540.643236
803.113717	2538.704912
803.434538	2538.215920
803.755314	2536.398584
804.076045	2539.009902
804.396731	2536.877494
804.717372	2537.129552
805.037967	2537.752134
805.358518	2536.960673
805.679024	2541.124666
805.999485	2540.139121
806.319901	2539.272042
806.640272	2536.917823
806.960598	2536.756506
807.280879	2537.421939
807.601115	2538.447813
807.921306	2536.461599
808.241453	2536.874973
808.561554	2536.948070
808.881611	2536.859850
809.201623	2540.590304
809.521590	2536.892618
809.841513	2537.847916
810.161390	2536.877494
810.481223	2538.518390
810.801011	2537.016126
811.120755	2535.980169
811.440453	2538.263811
811.760107	2537.852957
812.079716	2533.585621
812.399281	2534.341794
812.718801	2535.153419
813.038276	2532.259797
813.357707	2541.021323
813.677093	2539.826569
813.996434	2536.985879
814.315731	2537.404295
814.634983	2536.817000
814.954191	2536.499408
815.273354	2539.423277
815.592473	2537.568132
815.911547	2537.308513
816.230577	2539.824048
816.549562	2537.227854
816.868502	2536.194418
817.187399	2537.502597
817.506250	2536.136444
817.825058	2542.324461
818.143821	2537.852957
818.462539	2541.676672
818.781213	2539.526620
819.099843	2538.841023
819.418429	2544.219935
819.736970	2543.874616
820.055466	2546.372507
820.373919	2547.274874
820.692327	2551.670760
821.010691	2554.607232
821.329011	2570.002916
821.647286	2595.609457
821.965517	2621.205916
822.283704	2637.166209
822.601847	2643.046715
822.919945	2633.919706
823.237999	2613.745008
823.556010	2599.720518
823.873976	2583.016655
824.191897	2577.181519
824.509775	2568.208265
824.827609	2561.798438
825.145398	2559.592933
825.463144	2559.832388
825.780845	2558.531770
826.098502	2561.934549
826.416116	2570.118863
826.733685	2574.555078
827.051210	2583.183013
827.368692	2578.061200
827.686129	2566.620302
828.003522	2561.206103
828.320872	2552.560524
828.638177	2548.550286
828.955439	2541.553164
829.272656	2541.588452
829.589830	2537.031249
829.906960	2543.161292
830.224046	2541.764893
830.541088	2541.086857
830.858086	2540.144162
831.175041	2540.313040
831.491952	2539.713143
831.808819	2539.723225
832.125642	2541.921168
832.442421	2541.313709
832.759157	2544.577857
833.075849	2552.011038
833.392497	2554.924825
833.709101	2560.636452
834.025662	2558.854404
834.342179	2556.658982
834.658653	2551.872406
834.975083	2548.890564
835.291469	2551.960626
835.607811	2545.013916
835.924110	2542.750438
836.240366	2538.031918
836.556578	2539.924872
836.872746	2539.708102
837.188871	2536.708615
837.504952	2537.860519
837.820990	2535.057637
838.136984	2534.702236
838.452935	2533.469674
838.768842	2535.133255
839.084706	2537.721887
839.400526	2538.036959
839.716303	2539.481250
840.032037	2545.023999
840.347727	2545.908721
840.663373	2542.947043
840.978977	2540.905376
841.294537	2539.007382
841.610054	2537.537885
841.925527	2536.186856
842.240957	2537.621064
842.556344	2536.680889
842.871687	2530.628984
843.186987	2534.520755
843.502244	2534.356917
843.817458	2535.158461
844.132629	2532.027904
844.447756	2536.953111
844.762840	2530.651669
845.077881	2531.364992
845.392879	2528.093283
845.707833	2532.630322
846.022745	2528.667975
846.337613	2532.645445
846.652438	2531.780887
846.967221	2531.780888
847.281960	2534.916485
847.596656	2533.348686
847.911309	2532.060672
848.225919	2531.944725
848.540485	2531.652338
848.855009	2531.722914
849.169490	2531.995137
849.483928	2531.722914
849.798323	2532.481608
850.112675	2534.031763
850.426984	2530.795342
850.741251	2532.622760
851.055474	2533.257946
851.369654	2534.329191
851.683792	2532.428676
851.997887	2533.348686
852.311938	2529.134282
852.625947	2530.903727
852.939914	2531.697708
853.253837	2533.270548
853.567718	2532.511855
853.881555	2530.470188
854.195350	2532.723583
854.509103	2531.732997
854.822812	2534.568646
855.136479	2532.763913
855.450103	2531.301978
855.763685	2531.072605
856.077224	2531.435568
856.390720	2531.667462
856.704173	2533.595703
857.017584	2532.469005
857.330953	2532.443799
857.644278	2532.882380
857.957561	2535.551671
858.270802	2533.462112
858.584000	2535.309695
858.897155	2533.068902
859.210268	2532.637884
859.523339	2532.290044
859.836367	2533.459592
860.149352	2533.580579
860.462295	2533.875487
860.775195	2530.283665
861.088054	2526.951462
861.400869	2529.603109
861.713642	2526.964065
862.026373	2533.164684
862.339062	2532.239633
862.651708	2533.202493
862.964312	2531.538912
863.276873	2534.160312
863.589392	2534.740045
863.901869	2536.643080
864.214303	2529.091432
864.526696	2532.234591
864.839045	2533.394057
865.151353	2536.144006
865.463619	2532.950435
865.775842	2531.669982
866.088023	2533.288192
866.400162	2532.201824
866.712258	2531.367513
867.024313	2534.056968
867.336325	2534.598892
867.648296	2531.833820
867.960224	2531.959848
868.272110	2533.474715
868.583954	2531.579241
868.895755	2532.905065
869.207515	2533.119314
869.519233	2534.931609
869.830909	2532.889941
870.142542	2532.801721
870.454134	2531.022194
870.765684	2535.869263
871.077191	2533.751979
871.388657	2533.381454
871.700081	2536.393543
872.011463	2536.673327
872.322803	2534.636701
872.634101	2533.588141
872.945357	2535.234078
873.256571	2535.092926
873.567744	2534.500590
873.878874	2534.946732
874.189963	2535.072761
874.501010	2535.168543
874.812015	2530.996988
875.122979	2534.303985
875.433900	2533.414221
875.744780	2535.481094
876.055618	2535.163502
876.366415	2533.845240
876.677169	2534.379602
876.987882	2535.317257
877.298554	2533.268028
877.609183	2532.519417
877.919771	2530.959179
878.230317	2532.968079
878.540822	2539.027546
878.851285	2540.088709
879.161707	2539.370345
879.472087	2543.355377
879.782425	2542.463093
880.092722	2547.993238
880.402977	2555.476831
880.713191	2568.301527
881.023363	2584.327355
881.333494	2593.625763
881.643583	2593.167018
881.953631	2592.783890
882.263637	2589.086204
882.573602	2587.798189
882.883526	2580.801068
883.193408	2569.629871
883.503248	2565.687688
883.813048	2559.229970
884.122806	2555.272664
884.432522	2553.677139
884.742197	2549.127498
885.051831	2546.369987
885.361424	2541.442259
885.670975	2543.690613
885.980485	2541.729605
886.289954	2542.473175
886.599382	2536.340611
886.908768	2537.316074
887.218113	2536.716177
887.527417	2538.551157
887.836680	2539.917310
888.145901	2536.852288
888.455082	2535.939839
888.764221	2536.212062
889.073319	2536.998482
889.382376	2534.056968
889.691392	2535.549150
890.000366	2533.736855
890.309300	2534.813142
890.618193	2536.643080
890.927044	2535.307175
891.235855	2533.832637
891.544625	2534.001516
891.853353	2535.750796
892.162041	2533.925898
892.470687	2537.774819
892.779293	2539.050231
893.087858	2533.726773
893.396381	2536.562422
893.704864	2538.349511
894.013306	2540.136600
894.321707	2551.421223
894.630068	2552.820143
894.938387	2557.175700
895.246665	2552.099258
895.554903	2553.001625
895.863100	2548.807385
896.171256	2547.463917
896.479371	2544.318237
896.787446	2543.882177
897.095480	2540.454193
897.403473	2538.483102
897.711425	2539.826569
898.019336	2540.381096
898.327207	2538.785571
898.635038	2537.883204
898.942827	2537.411856
899.250576	2535.627288
899.558284	2535.370189
899.865952	2536.096115
900.173579	2533.726773
900.481165	2536.900179
900.788711	2532.834489
901.096216	2536.454037
901.403681	2534.140147
901.711105	2537.056455
902.018489	2530.873480
902.325832	2537.772299
902.633135	2536.456558
902.940397	2536.842206
903.247619	2536.680889
903.554800	2541.749769
903.861941	2550.952396
904.169041	2555.776780
904.476101	2561.881617
904.783121	2559.880279
905.090100	2558.294836
905.397039	2551.602704
905.703938	2549.054401
906.010796	2547.826880
906.317614	2541.535520
906.624391	2540.605427
906.931129	2538.775488
907.237826	2535.642411
907.544483	2536.270035
907.851099	2533.895652
908.157675	2533.071423
908.464211	2532.925229
908.770707	2527.780732
909.077163	2529.643438
909.383578	2529.595547
909.689954	2527.155629
909.996289	2526.417100
910.302584	2533.683923
910.608839	2531.400280
910.915054	2534.596372
911.221229	2528.524302
911.527363	2531.153264
911.833458	2531.886752
912.139513	2532.842050
912.445527	2532.078316
912.751502	2531.422966
913.057436	2529.756864
913.363331	2532.176618
913.669186	2532.753830
913.975000	2536.895138
914.280775	2538.074768
914.586510	2539.088040
914.892205	2540.605427
915.197859	2545.981818
915.503475	2548.711603
915.809050	2556.369115
916.114585	2558.292316
916.420081	2561.294323
916.725536	2557.881462
917.030952	2555.134033
917.336328	2553.601522
917.641665	2549.404761
917.946961	2545.467620
918.252218	2544.255223
918.557435	2542.755479
918.862612	2540.824718
919.167750	2539.629964
919.472848	2538.311702
919.777906	2537.757175
920.082925	2538.364634
920.387904	2532.998326
920.692843	2534.072092
920.997743	2535.166022
921.302603	2535.183666
921.607423	2531.546474
921.912204	2535.783564
922.216946	2533.094108
922.521647	2535.443286
922.826310	2530.845753
923.130932	2532.584952
923.435516	2532.791639
923.740059	2529.613191
924.044564	2529.121679
924.349028	2528.685619
924.653454	2526.820392
924.957840	2527.407687
925.262186	2526.212933
925.566493	2531.102852
925.870761	2527.511030
926.174989	2531.276772
926.479178	2528.599919
926.783328	2530.472708
927.087438	2528.738551
927.391509	2531.536392
927.695541	2530.323994
927.999533	2530.424817
928.303486	2528.078160
928.607400	2532.133768
928.911275	2531.246525
929.215110	2527.881555
929.518906	2530.737369
929.822663	2529.308202
930.126381	2530.180321
930.430060	2530.676875
930.733699	2530.079498
931.037299	2530.712163
931.340861	2530.003881
931.644383	2529.575383
931.947866	2527.773170
932.251309	2529.114117
932.554714	2529.406504
932.858080	2529.139323
933.161407	2528.917512
933.464694	2530.691998
933.767943	2526.003725
934.071153	2529.633356
934.374323	2526.119672
934.677455	2526.936339
934.980548	2529.071267
935.283602	2531.123017
935.586617	2528.698222
935.889593	2528.819210
936.192530	2528.083201
936.495428	2530.243336
936.798287	2528.889786
937.101108	2530.981865
937.403890	2529.822399
937.706632	2527.717717
938.009336	2528.136133
938.312002	2531.410363
938.614628	2528.184024
938.917216	2530.903727
939.219765	2529.714014
939.522275	2530.951618
939.824747	2531.511186
940.127179	2529.066226
940.429573	2528.471370
940.731929	2528.365506
941.034246	2527.463139
941.336524	2528.945238
941.638763	2531.806093
941.940964	2530.006401
942.243126	2530.172759
942.545250	2532.549663
942.847335	2530.800383
943.149381	2528.841895
943.451389	2532.257277
943.753359	2528.501617
944.055290	2527.969775
944.357182	2528.519261
944.659036	2528.010104
944.960851	2529.298119
945.262628	2527.964734
945.564367	2526.580937
945.866067	2528.932636
946.167729	2531.687626
946.469352	2529.154446
946.770937	2528.373068
947.072484	2528.239477
947.373992	2529.696370
947.675462	2528.219312
947.976893	2528.234436
948.278286	2530.233253
948.579641	2530.767616
948.880958	2526.850639
949.182236	2527.889117
949.483476	2529.724097
949.784678	2529.524971
950.085841	2529.298119
950.386967	2528.723428
950.688054	2529.202337
950.989103	2528.307533
951.290114	2530.989426
951.591087	2527.087573
951.892021	2526.883407
952.192917	2530.586134
952.493776	2528.378109
952.794596	2529.749302
953.095378	2525.484486
953.396122	2530.780218
953.696828	2528.698222
953.997496	2529.648479
954.298126	2531.942204
954.598718	2528.778880
954.899272	2528.136133
955.199788	2527.349713
955.500266	2528.549508
955.800706	2529.474560
956.101108	2526.167563
956.401472	2528.781401
956.701798	2525.408869
957.002087	2525.308046
957.302337	2525.905423
957.602550	2528.378109
957.902724	2524.824095
958.202861	2526.648993
958.502960	2527.793335
958.803022	2526.671678
959.103045	2526.858201
959.403031	2526.860721
959.702979	2526.918695
960.002889	2528.549508
960.302762	2526.628828
960.602596	2528.940197
960.902393	2528.151257
961.202153	2525.799558
961.501875	2526.712007
961.801559	2527.125382
962.101205	2528.055475
962.400814	2531.634694
962.700385	2527.949611
962.999918	2527.034641
963.299414	2528.599919
963.598873	2527.833664
963.898293	2527.238808
964.197677	2527.785773
964.497022	2524.483817
964.796331	2526.654034
965.095601	2526.722090
965.394835	2528.700742
965.694030	2528.398273
965.993189	2525.592871
966.292309	2524.564476
966.591393	2527.072450
966.890439	2525.865093
967.189447	2527.044723
967.488419	2527.090094
967.787353	2527.929446
968.086249	2526.046575
968.385108	2527.455578
968.683930	2525.136647
968.982714	2526.800228
969.281462	2528.675537
969.580172	2528.368026
969.878844	2527.150588
970.177480	2526.086904
970.476078	2525.676050
970.774639	2527.042203
971.073162	2526.175124
971.371649	2524.161183
971.670098	2518.474762
971.968510	2522.016173
972.266885	2519.679598
972.565223	2528.209230
972.863524	2527.233767
973.161788	2526.646472
973.460014	2525.940711
973.758204	2524.569517
974.056356	2528.690660
974.354471	2526.003725
974.652550	2527.261493
974.950591	2526.573376
975.248595	2528.718387
975.546563	2527.168232
975.844493	2527.442975
976.142386	2525.018180
976.440243	2526.497758
976.738062	2527.445495
977.035845	2526.096987
977.333590	2527.596730
977.631299	2528.625125
977.928971	2524.864424
978.226606	2525.101359
978.524204	2527.120341
978.821765	2525.431554
979.119290	2527.054806
979.416777	2525.456760
979.714228	2526.651513
980.011642	2527.750485
980.309020	2528.302491
980.606360	2524.395597
980.903664	2525.393746
981.200931	2525.819723
981.498162	2527.584127
981.795356	2526.674199
982.092513	2528.448685
982.389633	2527.475742
982.686717	2528.471370
982.983764	2525.723941
983.280775	2526.608664
983.577749	2528.637728
983.874686	2526.535567
984.171587	2527.569003
984.468451	2527.813499
984.765279	2528.420958
985.062070	2527.037162
985.358824	2528.428520
985.655543	2526.316277
985.952224	2526.777542
986.248869	2526.333921
986.545478	2521.171779
986.842050	2523.765453
987.138586	2520.937366
987.435086	2522.182531
987.731549	2521.673374
988.027975	2528.877183
988.324366	2523.137829
988.620719	2526.028931
988.917037	2525.625639
989.213318	2525.711338
989.509563	2525.751667
989.805772	2525.078673
990.101944	2524.947603
990.398080	2523.752850
990.694180	2527.309384
990.990244	2523.331914
991.286271	2526.202851
991.582262	2525.822244
991.878217	2523.097500
992.174136	2527.621936
992.470019	2525.005577
992.765865	2526.175124
993.061676	2523.679753
993.357450	2526.033972
993.653188	2525.741585
993.948890	2527.027079
994.244556	2525.607995
994.540186	2527.730320
994.835780	2525.731503
995.131337	2524.519105
995.426859	2527.856349
995.722345	2524.551873
996.017795	2524.851822
996.313208	2526.598581
996.608586	2527.954652
996.903928	2527.097656
997.199234	2527.022038
997.494504	2526.669157
997.789738	2525.310567
998.084936	2524.196472
998.380099	2522.802592
998.675225	2524.244363
998.970316	2526.344003
999.265371	2524.405679
999.560390	2524.710669
999.855373	2525.522295
1000.150320	2525.139167
1000.445232	2524.337624
1000.740108	2522.389218
1001.034948	2524.032634
1001.329752	2523.359640
1001.624521	2526.686802
1001.919254	2521.691018
1002.213951	2523.616739
1002.508613	2521.000380
1002.803239	2522.253107
1003.097829	2521.524660
1003.392384	2527.551359
1003.686903	2524.866945
1003.981386	2525.643283
1004.275834	2523.992305
1004.570246	2525.529857
1004.864623	2526.066740
1005.158964	2525.383663
1005.453270	2525.149250
1005.747540	2526.056657
1006.041775	2524.360309
1006.335974	2524.957686
1006.630138	2527.264014
1006.924266	2526.510361
1007.218359	2526.084384
1007.512416	2525.665968
1007.806438	2524.297295
1008.100425	2523.740247
1008.394376	2524.027593
1008.688292	2524.529188
1008.982172	2522.895854
1009.276017	2526.452388
1009.569827	2522.492562
1009.863602	2525.207223
1010.157341	2526.472552
1010.451045	2526.137316
1010.744714	2525.260155
1011.038347	2527.132944
1011.331945	2521.620442
1011.625508	2524.216636
1011.919036	2524.259486
1012.212528	2524.332583
1012.505986	2527.392563
1012.799408	2523.581451
1013.092795	2523.533560
1013.386147	2522.973992
1013.679464	2526.074301
1013.972745	2525.476925
1014.265992	2524.156142
1014.559204	2525.688653
1014.852380	2524.640093
1015.145521	2525.436595
1015.438628	2523.926770
1015.731699	2523.818385
1016.024736	2523.566327
1016.317737	2526.144877
1016.610703	2524.004908
1016.903635	2522.200175
1017.196531	2520.166069
1017.489393	2524.135978
1017.782219	2522.250586
1018.075011	2522.220339
1018.367768	2523.808303
1018.660490	2522.391738
1018.953177	2522.391738
1019.245829	2522.391738
