Dividing Wavelength (nm)	Counts (n)	Blue Motor Position (mm): 0.000000	Red Motor Position (mm): 33.500000	
326.493990	2079.284398
326.888308	2079.284398
327.282561	2079.284398
327.676750	2053.503937
328.070874	2058.522406
328.464933	2064.231512
328.858929	2072.466237
329.252859	2085.096848
329.646726	2099.385999
330.040528	2117.952568
330.434265	2136.498973
330.827938	2155.506644
331.221547	2175.681342
331.615091	2193.839578
332.008571	2215.493854
332.401986	2236.215517
332.795338	2256.591861
333.188625	2276.668256
333.581847	2295.769188
333.975006	2311.676549
334.368100	2331.246308
334.761129	2347.597291
335.154095	2363.993643
335.546996	2391.737634
335.939833	2424.706780
336.332606	2441.950047
336.725315	2448.921962
337.117960	2460.251956
337.510540	2464.259673
337.903056	2476.413895
338.295508	2480.280460
338.687896	2488.429485
339.080220	2497.294354
339.472480	2501.599499
339.864676	2507.255674
340.256807	2507.815242
340.648875	2509.231806
341.040879	2510.212311
341.432818	2512.516118
341.824694	2512.838752
342.216506	2511.923782
342.608253	2511.714575
342.999937	2512.730367
343.391557	2514.446880
343.783113	2510.000582
344.174605	2508.082423
344.566033	2506.985972
344.957397	2506.754079
345.348697	2503.313492
345.739934	2501.062617
346.131106	2501.705364
346.522215	2498.746206
346.913260	2497.402739
347.304241	2497.571618
347.695159	2493.757985
348.086012	2493.934425
348.476802	2491.890237
348.867528	2492.119610
349.258191	2492.558190
349.648789	2490.604743
350.039324	2486.410503
350.429796	2492.086842
350.820203	2485.155256
351.210548	2488.222798
351.600828	2484.323465
351.991045	2485.992087
352.381198	2485.162817
352.771288	2485.979484
353.161314	2485.056953
353.551276	2488.459732
353.941175	2487.088538
354.331010	2488.379073
354.720782	2487.721203
355.110490	2486.725575
355.500135	2486.115595
355.889717	2487.950575
356.279235	2486.712972
356.668689	2487.879999
357.058080	2489.160452
357.447408	2486.962509
357.836672	2486.413023
358.225873	2491.494507
358.615010	2490.710607
359.004084	2492.520381
359.393095	2493.636997
359.782043	2495.928201
360.170927	2490.834115
360.559748	2493.440392
360.948505	2495.230002
361.337199	2495.540033
361.725830	2497.027173
362.114398	2496.071874
362.502903	2497.377533
362.891344	2501.460868
363.279722	2499.925836
363.668037	2502.842144
364.056289	2503.386588
364.444478	2504.180570
364.832603	2504.246105
365.220665	2503.855416
365.608665	2506.275170
365.996601	2507.931189
366.384474	2507.333812
366.772284	2509.688031
367.160031	2507.679131
367.547715	2511.076869
367.935336	2510.020747
368.322893	2511.744822
368.710388	2514.676253
369.097820	2515.268588
369.485189	2512.488392
369.872495	2517.569875
370.259738	2519.727489
370.646918	2520.460977
371.034035	2523.140350
371.421090	2525.474404
371.808081	2528.584796
372.195010	2534.056968
372.581875	2536.557381
372.968678	2540.534851
373.355418	2548.149514
373.742096	2561.561504
374.128710	2567.810014
374.515262	2577.698237
374.901751	2591.682398
375.288177	2608.509770
375.674540	2623.628190
376.060841	2640.659728
376.447079	2660.665547
376.833254	2684.815195
377.219367	2707.039122
377.605417	2739.373082
377.991404	2761.828902
378.377329	2801.263328
378.763191	2833.317505
379.148991	2879.933054
379.534727	2921.817481
379.920402	2964.556383
380.306013	3014.869619
380.691563	3070.725604
381.077049	3123.864407
381.462474	3178.560926
381.847835	3247.155906
382.233134	3313.812563
382.618371	3366.777446
383.003545	3449.906073
383.388657	3525.445243
383.773706	3613.052935
384.158693	3683.440045
384.543618	3771.405659
384.928480	3845.543388
385.313280	3940.133079
385.698017	4041.233419
386.082692	4156.824556
386.467305	4217.363773
386.851856	4333.733768
387.236344	4482.621726
387.620770	4543.213875
388.005133	4656.105474
388.389435	4792.435918
388.773674	4874.160584
389.157851	5002.389894
389.541965	5127.591991
389.926018	5150.889683
390.310008	5322.455272
390.693936	5436.690339
391.077802	5552.851126
391.461606	5682.907854
391.845348	5786.826200
392.229027	5907.859262
392.612645	6120.492611
392.996200	6235.138532
393.379694	6407.828298
393.763125	6612.932683
394.146494	6703.071035
394.529801	6835.663463
394.913047	7066.495377
395.296230	7071.415543
395.679351	7120.864221
396.062410	7371.064248
396.445408	7267.332426
396.828343	7421.642145
397.211217	7559.628608
397.594028	7445.010414
397.976778	7645.323182
398.359466	7809.805950
398.742092	7792.169473
399.124656	7929.775329
399.507158	8118.944627
399.889598	8139.189901
400.271977	8354.243004
400.654294	8376.300572
401.036549	8575.383299
401.418742	8607.082075
401.800874	8897.442454
402.182944	8987.943768
402.564952	9332.408331
402.946898	9177.423098
403.328783	9226.904543
403.710606	9416.908152
404.092367	9680.807515
404.474067	10028.032109
404.855705	9830.086163
405.237282	9779.689747
405.618797	10209.964831
406.000250	10447.642632
406.381642	10807.301233
406.762972	10749.776626
407.144240	10568.315252
407.525447	10813.269959
407.906593	10761.542679
408.287677	11024.239727
408.668700	11171.189361
409.049661	11160.292907
409.430560	11320.528503
409.811399	11296.338526
410.192176	11453.282248
410.572891	11537.681246
410.953545	12001.580826
411.334138	11501.195895
411.714669	12079.527147
412.095139	11425.845768
412.475547	11910.063719
412.855894	11769.886874
413.236180	12091.953591
413.616405	11789.323043
413.996568	12059.491081
414.376670	12046.411807
414.756711	11925.038466
415.136691	12200.172040
415.516609	12371.049512
415.896466	12454.951956
416.276262	12748.009352
416.655997	13198.091129
417.035670	13243.562337
417.415283	13862.149723
417.794834	13949.381849
418.174324	13695.859701
418.553753	13609.227473
418.933121	14094.869549
419.312428	13917.481427
419.691674	13835.605527
420.070859	14295.061330
420.449983	13946.165593
420.829045	14501.720911
421.208047	14259.591771
421.586988	14710.838055
421.965867	14957.002638
422.344686	14958.056240
422.723444	15538.353541
423.102141	14224.031472
423.480777	15421.839873
423.859352	14919.937555
424.237866	16013.484812
424.616319	15732.236318
424.994712	16384.410391
425.373044	16169.140519
425.751314	16863.768669
426.129524	16002.132133
426.507673	17072.653920
426.885762	16807.446378
427.263789	16980.224364
427.641756	17160.236406
428.019662	17233.975884
428.397508	17265.576357
428.775292	17551.528247
429.153016	17538.590126
429.530679	17612.238863
429.908282	17649.956776
430.285824	17382.936939
430.663305	18091.619826
431.040726	17707.854428
431.418086	17552.569246
431.795385	18175.509667
432.172624	18618.732955
432.549802	18181.284309
432.926920	18400.022495
433.303977	18268.186240
433.680974	18527.228451
434.057910	18832.077106
434.434786	18875.181492
434.811601	18782.303274
435.188355	19839.236630
435.565050	19508.345374
435.941683	19471.872626
436.318257	20364.020746
436.694770	20163.050106
437.071222	20768.749782
437.447614	19836.171609
437.823946	19861.316884
438.200218	20031.735610
438.576429	19821.602674
438.952580	20132.848554
439.328670	20092.330280
439.704700	20514.862151
440.080670	20077.247147
440.456580	20694.125582
440.832429	20860.644976
441.208218	19875.222907
441.583947	20319.988787
441.959616	20445.866399
442.335224	20680.544713
442.710773	20836.328970
443.086261	21387.869009
443.461689	20714.678366
443.837057	20879.597193
444.212365	21527.612315
444.587612	21549.193494
444.962800	21139.125876
445.337927	21569.660579
445.712995	20284.670463
446.088002	22175.360255
446.462949	22376.666131
446.837837	22570.848856
447.212664	22585.195980
447.587431	25547.796396
447.962139	28505.532098
448.336786	30811.192030
448.711374	29138.446443
449.085901	25426.607057
449.460369	25439.472082
449.834776	25439.479644
450.209124	27980.180853
450.583412	27478.575963
450.957640	27947.889742
451.331808	26612.389786
451.705917	25223.519133
452.079965	25280.660612
452.453954	25661.013149
452.827883	25576.200777
453.201752	25372.555806
453.575562	25535.385075
453.949311	26675.810022
454.323001	26744.112615
454.696632	26516.063418
455.070202	28127.153173
455.443713	28305.166397
455.817164	28890.371262
456.190556	29448.106880
456.563888	28852.532361
456.937160	29298.810588
457.310373	27596.365043
457.683526	28028.943934
458.056619	28027.686166
458.429653	28006.329318
458.802628	28614.685682
459.175542	28752.541075
459.548398	30139.067590
459.921194	31755.974837
460.293930	32505.244053
460.666607	34590.996252
461.039224	36381.409931
461.411782	36743.735302
461.784280	35445.459226
462.156719	34889.127569
462.529099	34316.959128
462.901419	32983.258864
463.273680	31926.529674
463.645882	32073.065934
464.018024	32057.766032
464.390106	33002.029600
464.762130	35923.763903
465.134094	40253.023647
465.505999	45761.482372
465.877845	50276.884201
466.249631	51272.852364
466.621358	49408.497560
466.993026	47172.309770
467.364634	45021.367891
467.736184	43071.212649
468.107674	41805.124340
468.479105	41000.861176
468.850477	40278.118510
469.221790	38824.038013
469.593043	37059.321615
469.964238	36147.853273
470.335373	36094.515345
470.706449	37951.172307
471.077467	40717.661755
471.448425	45389.493109
471.819324	48143.926638
472.190164	46159.000038
472.560945	42522.586396
472.931667	39364.739571
473.302330	38269.576625
473.672934	37415.161542
474.043479	37944.943961
474.413965	37145.210274
474.784393	36786.123844
475.154761	37709.595173
475.525070	37761.236753
475.895321	37270.919007
476.265513	37902.716736
476.635645	38883.231241
477.005719	38729.372705
477.375734	39235.098738
477.745691	39965.115789
478.115588	41343.770542
478.485427	43460.155312
478.855207	46937.175231
479.224928	49580.148849
479.594591	51136.509317
479.964194	50025.789369
480.333739	50139.394292
480.703226	50217.093596
481.072653	50878.750079
481.442022	51351.726257
481.811333	51559.888102
482.180584	50273.118459
482.549777	49736.671634
482.918912	49193.729283
483.287988	48878.768073
483.657005	48051.590344
484.025964	47376.902478
484.394864	47358.706433
484.763706	46904.896723
485.132489	46024.678494
485.501213	45856.881167
485.869879	45993.781262
486.238487	45589.936948
486.607036	45780.306040
486.975527	45217.569598
487.343959	45434.003977
487.712333	45497.086456
488.080648	45391.134005
488.448905	45850.534355
488.817104	45628.617721
489.185244	46654.631161
489.553326	48410.956558
489.921350	51163.600477
490.289315	53996.406305
490.657222	54515.693042
491.025070	54743.434729
491.392861	53794.039266
491.760593	52516.951160
492.128267	50791.661626
492.495883	49237.965408
492.863440	47801.453331
493.230939	46410.309119
493.598380	45315.768755
493.965763	44990.500906
494.333088	44134.669258
494.700354	43629.427176
495.067563	43323.837471
495.434713	43166.422401
495.801805	43209.279770
496.168839	42806.027792
496.535815	42445.476907
496.902733	42432.322016
497.269593	41997.577949
497.636395	41919.508120
498.003139	42292.394709
498.369825	41737.940882
498.736453	42004.023065
499.103023	41508.260872
499.469535	41367.078317
499.835989	41417.721749
500.202385	41061.148334
500.568723	41036.413913
500.935003	41210.553011
501.301226	40981.848464
501.667390	41540.108361
502.033497	41750.286668
502.399546	41163.040136
502.765537	40428.440677
503.131470	40766.114806
503.497345	41071.714593
503.863163	39691.486999
504.228923	40277.536257
504.594625	40624.657508
504.960269	39861.134429
505.325856	40498.270740
505.691385	39830.832053
506.056856	39912.569322
506.422270	40279.940887
506.787625	39771.260738
507.152924	39938.317015
507.518164	39952.656577
507.883347	39117.907035
508.248472	39289.112181
508.613540	39710.983662
508.978550	39916.337584
509.343503	39598.583575
509.708398	39712.589269
510.073236	40146.793932
510.438016	40079.857491
510.802738	39457.229621
511.167403	39981.837296
511.532010	40095.321231
511.896561	40294.449328
512.261053	41013.511951
512.625488	40480.513276
512.989866	40264.167117
513.354186	40018.799036
513.718449	39870.420234
514.082655	40414.940467
514.446803	39986.071865
514.810894	40379.808666
515.174927	40163.354122
515.538904	39965.337599
515.902822	40451.972783
516.266684	39802.057147
516.630488	40093.481210
516.994235	39801.212754
517.357925	40203.564886
517.721558	40249.109191
518.085133	40362.714113
518.448651	40346.965548
518.812112	39983.679838
519.175516	39939.932705
519.538863	40093.004821
519.902152	39898.348227
520.265385	40157.662660
520.628560	40020.563440
520.991678	39680.504845
521.354739	39720.917255
521.717743	39814.027367
522.080690	39551.267305
522.443580	39869.432168
522.806413	39732.801775
523.169189	39510.917909
523.531908	39478.636881
523.894569	39168.111886
524.257174	39130.643510
524.619722	39191.510402
524.982213	38980.376796
525.344647	38733.665248
525.707025	38583.895088
526.069345	38732.513344
526.431608	38455.035633
526.793815	38526.728403
527.155964	37920.859848
527.518057	37850.533232
527.880093	37467.866805
528.242072	37700.412711
528.603995	37224.938642
528.965860	37010.059460
529.327669	36866.855402
529.689421	36589.294513
530.051117	36334.103743
530.412755	36243.494044
530.774337	36070.295121
531.135862	35691.611206
531.497331	35621.962625
531.858743	35313.449050
532.220098	35348.772415
532.581396	34892.056480
532.942638	34416.121145
533.303824	34420.189356
533.664953	34168.839946
534.026025	33718.034763
534.387040	33832.705890
534.747999	33562.374015
535.108902	33436.463636
535.469748	32844.964891
535.830537	32679.594880
536.191270	32588.465942
536.551947	32099.781529
536.912567	32063.462536
537.273131	31919.600608
537.633638	31319.806644
537.994089	31305.013378
538.354483	30778.459818
538.714821	30925.716963
539.075103	30907.190722
539.435328	30497.561684
539.795497	30157.283800
540.155609	29910.370605
540.515665	29967.433946
540.875665	29368.912873
541.235609	29313.873556
541.595496	29047.584686
541.955328	29217.471571
542.315102	28544.018787
542.674821	28164.992073
543.034483	27939.276931
543.394090	27676.854626
543.753640	27389.004741
544.113134	27732.894613
544.472571	26888.607208
544.831953	27369.218213
545.191278	26632.083053
545.550548	26235.780305
545.909761	26249.668684
546.268918	26110.747087
546.628019	26013.984659
546.987064	25529.663365
547.346053	24882.429623
547.704986	25079.856331
548.063863	24620.685354
548.422684	24464.452434
548.781449	24134.760973
549.140158	24101.179326
549.498811	23762.638119
549.857408	23233.160690
550.215949	23407.690477
550.574434	23137.582933
550.932864	22760.930603
551.291237	22876.317573
551.649555	22444.701543
552.007817	22321.157986
552.366022	21910.702198
552.724173	21758.164445
553.082267	21697.161442
553.440305	21576.498904
553.798288	21044.649612
554.156215	20950.395158
554.514086	20806.424845
554.871902	20472.546706
555.229661	20253.667367
555.587365	19945.539441
555.945014	19764.103273
556.302606	19513.938534
556.660143	19379.949706
557.017625	19195.080512
557.375050	18891.598010
557.732421	18806.120205
558.089735	18577.829032
558.446994	18331.039346
558.804197	18283.619732
559.161345	18040.837763
559.518437	17539.212708
559.875474	17446.694933
560.232455	17293.837066
560.589381	17157.690624
560.946251	16848.461206
561.303065	16861.444697
561.659825	16592.529387
562.016528	16292.928572
562.373177	16002.364026
562.729770	15967.937987
563.086307	15621.104082
563.442789	15573.790332
563.799216	15399.162242
564.155587	15163.674823
564.511904	14981.001051
564.868164	14828.632176
565.224370	14717.966247
565.580520	14466.034583
565.936615	14347.564947
566.292654	14095.416514
566.648638	13999.929498
567.004567	13821.122292
567.360441	13669.938088
567.716260	13473.075989
568.072023	13382.229356
568.427732	13202.260164
568.783385	12935.101695
569.138982	12868.989483
569.494525	12702.313813
569.850013	12480.845843
570.205445	12331.632730
570.560823	12176.924759
570.916145	12004.681135
571.271412	11870.697348
571.626625	11678.510920
571.981782	11542.689632
572.336884	11348.927843
572.691931	11274.603591
573.046923	11069.042982
573.401860	10902.223639
573.756743	10764.516960
574.111570	10656.139714
574.466342	10509.162353
574.821059	10406.968082
575.175722	10193.656698
575.530330	10076.961549
575.884882	9910.248070
576.239380	9788.141242
576.593823	9673.795270
576.948211	9549.558554
577.302544	9356.860448
577.656823	9253.690714
578.011047	9187.270992
578.365216	9038.985451
578.719330	8896.761898
579.073389	8771.096015
579.427394	8689.850259
579.781344	8582.856810
580.135239	8434.213348
580.489080	8352.370215
580.842866	8191.945576
581.196597	8154.537694
581.550273	8062.002274
581.903895	7952.110161
582.257463	7915.153462
582.610975	7752.946776
582.964434	7701.106070
583.317837	7569.642860
583.671186	7469.240720
584.024481	7406.987511
584.377721	7267.881912
584.730906	7221.251238
585.084037	7147.927656
585.437113	7037.884308
585.790135	6961.011753
586.143103	6843.205029
586.496016	6781.158508
586.848874	6705.659667
587.201679	6639.960830
587.554428	6517.453229
587.907124	6464.868954
588.259765	6371.242124
588.612352	6335.016392
588.964884	6210.704059
589.317362	6168.554972
589.669786	6104.002997
590.022155	6019.062075
590.374470	5988.258104
590.726731	5889.086005
591.078937	5786.654800
591.431090	5733.732767
591.783188	5647.420652
592.135232	5566.878137
592.487222	5524.020767
592.839157	5478.947811
593.191038	5399.544597
593.542866	5327.274615
593.894639	5236.165842
594.246358	5201.644020
594.598022	5147.403725
594.949633	5073.114762
595.301190	5025.720354
595.652692	4963.570488
596.004141	4934.795582
596.355535	4828.948996
596.706876	4778.978558
597.058162	4730.127257
597.409395	4714.177046
597.760573	4669.870345
598.111698	4611.834061
598.462768	4571.925767
598.813785	4530.540414
599.164748	4466.616063
599.515657	4446.980769
599.866511	4381.395357
600.217312	4374.577197
600.568060	4295.373108
600.918753	4291.909835
601.269392	4253.776027
601.619978	4205.239798
601.970510	4187.046273
602.320988	4159.377901
602.671412	4138.857884
603.021783	4098.909260
603.372100	4057.012231
603.722363	4029.056512
604.072572	4004.541381
604.422728	3974.506186
604.772830	3938.650979
605.122878	3913.301537
605.472872	3886.928741
605.822813	3866.380998
606.172701	3839.509127
606.522534	3822.608659
606.872314	3808.130465
607.222041	3776.751803
607.571714	3764.423661
607.921333	3728.908732
608.270899	3713.530693
608.620411	3701.315977
608.969870	3673.342614
609.319276	3653.387207
609.668627	3640.663334
610.017926	3629.955924
610.367171	3619.160293
610.716362	3597.808486
611.065500	3579.919951
611.414585	3564.191551
611.763616	3557.101168
612.112594	3541.690361
612.461518	3526.657640
612.810389	3515.221783
613.159207	3499.354751
613.507971	3482.519818
613.856682	3482.474447
614.205340	3464.659010
614.553945	3466.398208
614.902496	3440.975669
615.250994	3435.722787
615.599439	3422.767021
615.947830	3416.344591
616.296169	3403.083836
616.644454	3396.283319
616.992686	3388.963564
617.340864	3387.063049
617.688990	3367.271479
618.037063	3370.119731
618.385082	3359.833257
618.733048	3353.463759
619.080961	3343.308354
619.428821	3333.589010
619.776628	3326.286898
620.124382	3316.355825
620.472083	3304.549443
620.819731	3296.324800
621.167326	3284.137811
621.514868	3270.267076
621.862357	3252.358377
622.209793	3245.983838
622.557176	3230.305850
622.904506	3214.537120
623.251783	3200.220243
623.599007	3190.652133
623.946179	3180.577387
624.293297	3175.642098
624.640363	3159.661640
624.987376	3149.002120
625.334336	3142.972900
625.681243	3136.096767
626.028097	3127.524284
626.374899	3121.048922
626.721647	3115.869137
627.068343	3108.703137
627.414987	3099.447578
627.761577	3092.881475
628.108115	3091.323759
628.454600	3076.729618
628.801032	3076.409505
629.147412	3069.530851
629.493739	3065.185376
629.840014	3058.989798
630.186236	3057.268244
630.532405	3046.628889
630.878521	3045.184598
631.224585	3044.730894
631.570597	3034.888041
631.916556	3033.567259
632.262462	3027.648944
632.608316	3025.148532
632.954117	3021.246679
633.299866	3017.551513
633.645562	3011.436594
633.991206	3003.111128
634.336797	2994.977226
634.682336	2990.636793
635.027823	2984.010196
635.373257	2978.343939
635.718639	2970.668783
636.063968	2969.700881
636.409245	2959.709314
636.754470	2956.238480
637.099642	2948.107098
637.444762	2945.468054
637.789829	2941.873712
638.134845	2935.640325
638.479808	2929.255704
638.824719	2927.796290
639.169577	2921.540218
639.514383	2921.003335
639.859137	2913.391193
640.203839	2912.536717
640.548489	2909.748959
640.893086	2903.765109
641.237632	2897.025087
641.582125	2902.300654
641.926566	2894.323028
642.270955	2898.406363
642.615292	2895.447205
642.959576	2894.481824
643.303809	2890.547204
643.647990	2888.775238
643.992118	2887.908160
644.336195	2884.560834
644.680219	2883.018241
645.024192	2886.050495
645.368112	2887.837584
645.711981	2885.410268
646.055797	2893.022410
646.399562	2889.828839
646.743274	2897.756054
647.086935	2902.015829
647.430544	2896.664644
647.774101	2895.437123
648.117606	2897.879562
648.461059	2895.323697
648.804460	2896.626835
649.147810	2883.819784
649.491108	2880.812736
649.834354	2877.505739
650.177548	2870.037269
650.520690	2862.057123
650.863781	2861.288347
651.206820	2860.822040
651.549807	2851.614373
651.892742	2851.395082
652.235626	2843.241016
652.578458	2845.169257
652.921238	2835.633915
653.263967	2838.252794
653.606644	2835.870849
653.949269	2830.985971
654.291843	2827.507575
654.634365	2830.068481
654.976836	2825.208809
655.319255	2823.020948
655.661622	2823.346102
656.003938	2819.703869
656.346203	2819.507264
656.688416	2819.940803
657.030577	2817.337047
657.372687	2813.518373
657.714746	2815.166830
658.056753	2817.039619
658.398708	2806.475881
658.740612	2805.543268
659.082465	2809.770275
659.424266	2804.628298
659.766016	2804.996302
660.107715	2806.286838
660.449362	2806.140644
660.790958	2807.214410
661.132503	2804.598051
661.473996	2807.030408
661.815438	2803.211734
662.156829	2805.936478
662.498168	2803.965387
662.839456	2801.722073
663.180693	2803.841878
663.521879	2803.345325
663.863013	2800.270221
664.204097	2800.862556
664.545129	2805.001344
664.886110	2803.657876
665.227040	2800.224850
665.567918	2803.783905
665.908746	2803.133596
666.249522	2807.705923
666.590248	2801.711991
666.930922	2804.240129
667.271545	2802.274079
667.612118	2804.041004
667.952639	2801.485139
668.293109	2802.039666
668.633528	2797.462298
668.973896	2795.639921
669.314213	2795.158491
669.654480	2793.245373
669.994695	2793.358799
670.334859	2792.408541
670.674973	2790.099693
671.015035	2791.695218
671.355047	2791.569189
671.695008	2790.480300
672.034918	2789.318314
672.374777	2789.441822
672.714585	2787.674898
673.054342	2791.934673
673.394049	2788.151287
673.733705	2787.269085
674.073310	2784.188940
674.412864	2784.902263
674.752368	2780.924793
675.091820	2786.467542
675.431223	2780.617282
675.770574	2778.076541
676.109875	2772.306940
676.449125	2771.422218
676.788324	2770.335849
677.127473	2770.822321
677.466571	2762.917791
677.805619	2765.841661
678.144616	2763.686567
678.483562	2763.111876
678.822458	2759.787235
679.161303	2761.470980
679.500098	2758.557193
679.838842	2759.910743
680.177535	2757.291864
680.516179	2761.886875
680.854771	2760.339241
681.193314	2766.436517
681.531805	2775.913886
681.870247	2784.519136
682.208638	2788.859569
682.546978	2789.648510
682.885268	2789.280505
683.223508	2784.309928
683.561697	2783.226080
683.899836	2783.362191
684.237925	2777.113681
684.575963	2775.046807
684.913951	2772.327105
685.251889	2773.912548
685.589776	2771.608741
685.927614	2772.425407
686.265401	2773.254677
686.603137	2771.250819
686.940824	2776.181067
687.278460	2781.534772
687.616046	2779.586367
687.953582	2782.674073
688.291068	2785.474434
688.628504	2786.371760
688.965889	2787.493416
689.303224	2786.601132
689.640510	2781.794392
689.977745	2772.385078
690.314930	2769.088164
690.652065	2764.909047
690.989150	2758.640372
691.326185	2749.964547
691.663170	2744.336098
692.000105	2741.669328
692.336990	2737.165057
692.673825	2733.580797
693.010610	2731.579458
693.347345	2723.299363
693.684030	2715.641851
694.020665	2715.467931
694.357251	2709.302600
694.693786	2712.133207
695.030272	2708.987527
695.366707	2707.538196
695.703093	2704.284131
696.039429	2705.763710
696.375716	2703.974100
696.711952	2703.205324
697.048139	2702.502083
697.384276	2702.839840
697.720363	2702.723894
698.056400	2702.585262
698.392388	2699.772298
698.728326	2697.796166
699.064214	2696.230888
699.400053	2697.781042
699.735842	2694.153932
700.071581	2691.746781
700.407270	2687.678570
700.742910	2688.217974
701.078501	2683.111285
701.414042	2683.310410
701.749533	2683.847293
702.084974	2678.223886
702.420366	2680.031140
702.755709	2678.274298
703.091002	2671.418328
703.426246	2675.494101
703.761440	2674.811025
704.096584	2671.534275
704.431679	2672.784481
704.766725	2671.579645
705.101721	2669.560663
705.436668	2671.052845
705.771565	2670.337001
706.106413	2672.000582
706.441212	2670.639470
706.775961	2673.091992
707.110661	2675.514266
707.445311	2678.060049
707.779913	2674.473268
708.114465	2677.979390
708.448967	2677.472754
708.783421	2683.605318
709.117825	2682.750842
709.452180	2686.020031
709.786485	2689.740402
710.120742	2696.470342
710.454949	2696.140147
710.789107	2697.839016
711.123216	2701.014943
711.457275	2706.832434
711.791286	2707.898638
712.125247	2709.786550
712.459159	2710.005841
712.793023	2714.845348
713.126837	2707.732280
713.460602	2708.889225
713.794318	2706.524924
714.127985	2701.491332
714.461602	2695.515044
714.795171	2695.268027
715.128691	2690.005063
715.462162	2685.357119
715.795584	2680.888136
716.128957	2679.496777
716.462281	2674.500994
716.795556	2672.781961
717.128782	2670.505880
717.461960	2664.766526
717.795088	2666.450271
718.128167	2661.373829
718.461198	2658.591112
718.794180	2658.891061
719.127113	2657.184631
719.459997	2654.555669
719.792833	2649.753970
720.125619	2654.122130
720.458357	2649.854793
720.791046	2647.329175
721.123686	2647.031747
721.456278	2645.844555
721.788821	2646.464617
722.121315	2643.424801
722.453761	2643.311375
722.786158	2642.285500
723.118506	2641.017650
723.450805	2641.133597
723.783056	2645.237096
724.115259	2642.860192
724.447412	2641.859523
724.779518	2646.484782
725.111574	2644.886736
725.443582	2645.559730
725.775542	2645.572333
726.107453	2650.832777
726.439315	2649.585091
726.771129	2655.516009
727.102895	2656.559527
727.434612	2658.616318
727.766281	2659.150681
728.097901	2658.276040
728.429473	2660.007677
728.760996	2660.042965
729.092471	2659.649755
729.423897	2663.929694
729.755276	2660.451298
730.086606	2662.576145
730.417887	2665.623522
730.749120	2669.981600
731.080305	2673.331446
731.411442	2674.621982
731.742530	2676.293124
732.073570	2674.067455
732.404562	2679.131294
732.735506	2676.686334
733.066401	2676.514935
733.397249	2671.657783
733.728048	2668.567556
734.058798	2663.486073
734.389501	2655.316883
734.720156	2650.908394
735.050762	2646.086530
735.381320	2645.781541
735.711831	2643.389513
736.042293	2638.489512
736.372707	2639.495222
736.703073	2639.996817
737.033391	2640.843730
737.363661	2640.372382
737.693883	2640.248874
738.024056	2642.323309
738.354182	2642.585449
738.684260	2646.928403
739.014290	2649.312869
739.344272	2653.431492
739.674207	2654.270844
740.004093	2655.947027
740.333931	2653.691111
740.663722	2654.361584
740.993464	2655.687408
741.323159	2652.526604
741.652806	2649.229690
741.982405	2649.887560
742.311956	2645.937816
742.641460	2643.523104
742.970915	2645.453866
743.300323	2641.196611
743.629683	2638.393730
743.958996	2635.016157
744.288260	2632.707308
744.617477	2630.000208
744.946647	2626.098355
745.275768	2625.823612
745.604842	2624.636421
745.933869	2622.090638
746.262847	2621.699949
746.591778	2625.773201
746.920662	2623.388735
747.249498	2624.278499
747.578286	2626.247069
747.907027	2627.509878
748.235720	2627.582975
748.564365	2629.526340
748.892963	2627.565331
749.221514	2628.223202
749.550017	2626.410907
749.878473	2628.780249
750.206881	2625.788324
750.535242	2622.612397
750.863555	2621.276492
751.191821	2622.461163
751.520039	2625.206071
751.848210	2620.427057
752.176334	2622.236832
752.504411	2624.366719
752.832440	2620.331275
753.160421	2622.256996
753.488356	2622.665330
753.816243	2621.548714
754.144082	2616.946141
754.471875	2617.939248
754.799620	2617.412447
755.127318	2616.189967
755.454969	2615.781634
755.782572	2619.839763
756.110129	2616.862962
756.437638	2615.466562
756.765100	2615.819443
757.092515	2616.454628
757.419882	2619.202057
757.747203	2616.638630
758.074477	2617.934207
758.401703	2619.474279
758.728882	2618.639968
759.056014	2620.883282
759.383099	2625.778242
759.710138	2622.849332
760.037129	2622.665330
760.364073	2622.231790
760.690970	2625.899230
761.017820	2623.550052
761.344623	2626.317646
761.671379	2629.730507
761.998088	2634.060858
762.324751	2649.968219
762.651366	2678.848989
762.977935	2713.645554
763.304456	2733.714387
763.630931	2742.465830
763.957359	2731.037534
764.283740	2715.200750
764.610074	2698.615353
764.936362	2679.224555
765.262602	2663.491114
765.588796	2647.558547
765.914943	2636.715025
766.241044	2629.259159
766.567097	2622.314969
766.893104	2614.377673
767.219064	2611.315172
767.544978	2605.986672
767.870845	2602.359562
768.196665	2602.281424
768.522438	2598.550970
768.848165	2597.404108
769.173846	2593.340938
769.499479	2595.581731
769.825066	2590.515371
770.150607	2591.576534
770.476101	2588.040164
770.801548	2588.705597
771.126949	2587.165524
771.452303	2587.778024
771.777611	2583.573702
772.102872	2585.688466
772.428087	2582.424319
772.753256	2583.535893
773.078378	2579.318968
773.403453	2577.574729
773.728482	2575.890984
774.053465	2579.356777
774.378401	2574.267732
774.703291	2573.509038
775.028135	2571.548030
775.352932	2574.451734
775.677683	2573.670355
776.002388	2572.964594
776.327046	2574.731518
776.651658	2572.480643
776.976224	2570.698595
777.300743	2569.294634
777.625216	2566.007802
777.949643	2569.813873
778.274024	2570.141548
778.598359	2566.234653
778.922647	2567.172308
779.246889	2565.453275
779.571086	2564.747513
779.895236	2564.371947
780.219339	2567.043759
780.543397	2570.146589
780.867409	2569.624829
781.191374	2569.352607
781.515294	2569.708008
781.839167	2568.051989
782.162995	2568.336815
782.486776	2569.846640
782.810511	2569.536609
783.134201	2568.548543
783.457844	2564.104766
783.781441	2565.402863
784.104993	2565.682647
784.428498	2566.882442
784.751958	2567.747000
785.075372	2566.469067
785.398739	2563.668706
785.722061	2566.763975
786.045337	2564.056875
786.368568	2568.891342
786.691752	2565.251628
787.014891	2572.538616
787.337983	2574.534913
787.661030	2580.904411
787.984031	2585.874989
788.306987	2591.022007
788.629897	2591.455546
788.952760	2589.499578
789.275579	2588.826584
789.598351	2587.036975
789.921078	2582.046233
790.243759	2577.047928
790.566395	2573.438462
790.888984	2575.681776
791.211529	2568.818245
791.534027	2567.626012
791.856480	2565.690209
792.178888	2565.881773
792.501249	2567.058882
792.823566	2565.659962
793.145836	2563.031000
793.468062	2563.013356
793.790241	2561.299364
794.112375	2566.796742
794.434464	2563.983778
794.756507	2567.005950
795.078505	2567.341187
795.400457	2566.852195
795.722364	2570.761610
796.044226	2574.426528
796.366042	2576.294276
796.687812	2575.447362
797.009538	2578.693865
797.331218	2579.318968
797.652852	2575.286045
797.974442	2578.451890
798.295986	2573.647670
798.617484	2575.666652
798.938938	2570.726322
799.260346	2568.903944
799.581709	2564.881104
799.903026	2570.791857
800.224299	2564.477811
800.545526	2565.657441
800.866708	2564.127451
801.187845	2565.957390
801.508936	2558.514126
801.829983	2563.310784
802.150984	2558.970351
802.471940	2562.342883
802.792851	2559.580330
803.113717	2558.398180
803.434538	2557.100083
803.755314	2560.354147
804.076045	2561.377502
804.396731	2558.809034
804.717372	2558.869528
805.037967	2558.955227
805.358518	2559.222408
805.679024	2559.824826
805.999485	2559.981102
806.319901	2561.732903
806.640272	2561.906823
806.960598	2561.561504
807.280879	2559.978582
807.601115	2564.087122
807.921306	2562.519323
808.241453	2561.720300
808.561554	2562.242060
808.881611	2563.875393
809.201623	2561.329611
809.521590	2561.261555
809.841513	2560.356668
810.161390	2560.303736
810.481223	2559.625701
810.801011	2560.480176
811.120755	2561.012018
811.440453	2562.902451
811.760107	2560.611246
812.079716	2556.432130
812.399281	2552.295863
812.718801	2555.494475
813.038276	2552.721841
813.357707	2557.382387
813.677093	2558.572100
813.996434	2557.067315
814.315731	2556.167469
814.634983	2558.337686
814.954191	2555.718807
815.273354	2560.782646
815.592473	2560.613767
815.911547	2561.158212
816.230577	2563.565362
816.549562	2562.063099
816.868502	2566.073337
817.187399	2566.106104
817.506250	2569.231619
817.825058	2569.075344
818.143821	2572.594069
818.462539	2575.848134
818.781213	2580.793506
819.099843	2589.970926
819.418429	2598.366968
819.736970	2612.023454
820.055466	2622.811523
820.373919	2640.974800
820.692327	2666.818276
821.010691	2714.585729
821.329011	2819.991215
821.647286	2981.587922
821.965517	3154.030671
822.283704	3250.750249
822.601847	3277.473406
822.919945	3203.965821
823.237999	3121.845425
823.556010	3036.995244
823.873976	2956.924077
824.191897	2889.528891
824.509775	2834.726507
824.827609	2786.278498
825.145398	2757.143150
825.463144	2744.855337
825.780845	2748.852972
826.098502	2766.973400
826.416116	2805.397074
826.733685	2843.538444
827.051210	2853.028416
827.368692	2833.546877
827.686129	2791.128088
828.003522	2752.550658
828.320872	2708.904348
828.638177	2681.122550
828.955439	2658.520536
829.272656	2637.584624
829.589830	2619.257510
829.906960	2608.915582
830.224046	2598.591299
830.541088	2593.114086
830.858086	2586.888261
831.175041	2583.379618
831.491952	2579.717219
831.808819	2583.200657
832.125642	2584.377766
832.442421	2598.152719
832.759157	2619.847325
833.075849	2653.471821
833.392497	2686.564475
833.709101	2709.224462
834.025662	2697.508820
834.342179	2685.442818
834.658653	2659.196051
834.975083	2640.906745
835.291469	2628.865949
835.607811	2609.036570
835.924110	2595.364961
836.240366	2588.997984
836.556578	2578.293093
836.872746	2574.532393
837.188871	2564.369427
837.504952	2560.800290
837.820990	2556.265772
838.136984	2552.424412
838.452935	2555.318035
838.768842	2555.529763
839.084706	2560.059240
839.400526	2576.498443
839.716303	2595.490990
840.032037	2604.436517
840.347727	2601.457195
840.663373	2591.896647
840.978977	2579.384503
841.294537	2569.967628
841.610054	2565.770867
841.925527	2557.362223
842.240957	2553.077242
842.556344	2548.741850
842.871687	2544.497198
843.186987	2541.056611
843.502244	2542.079965
843.817458	2535.133255
844.132629	2536.343132
844.447756	2534.898841
844.762840	2528.776360
845.077881	2531.816176
845.392879	2527.803417
845.707833	2530.865918
846.022745	2524.415762
846.337613	2531.412883
846.652438	2527.574045
846.967221	2530.165198
847.281960	2527.503468
847.596656	2531.475898
847.911309	2526.588499
848.225919	2527.561442
848.540485	2526.724610
848.855009	2528.327697
849.169490	2528.257121
849.483928	2526.449867
849.798323	2526.792666
850.112675	2529.174611
850.426984	2528.146216
850.741251	2527.536236
851.055474	2523.001718
851.369654	2526.089425
851.683792	2526.817872
851.997887	2526.217974
852.311938	2527.107738
852.625947	2527.682429
852.939914	2528.783922
853.253837	2526.560773
853.567718	2523.732685
853.881555	2523.341996
854.195350	2525.696215
854.509103	2526.475073
854.822812	2527.324508
855.136479	2525.076153
855.450103	2524.440968
855.763685	2526.742254
856.077224	2525.144208
856.390720	2524.254445
856.704173	2526.356606
857.017584	2526.233098
857.330953	2528.080681
857.644278	2526.190248
857.957561	2530.374406
858.270802	2529.479601
858.584000	2529.214940
858.897155	2528.552028
859.210268	2527.483304
859.523339	2526.311236
859.836367	2527.216123
860.149352	2526.901051
860.462295	2528.146216
860.775195	2524.375432
861.088054	2523.659589
861.400869	2522.840401
861.713642	2521.186903
862.026373	2523.556245
862.339062	2523.770494
862.651708	2527.838705
862.964312	2525.398787
863.276873	2528.562111
863.589392	2528.872142
863.901869	2529.540095
864.214303	2530.200486
864.526696	2533.068902
864.839045	2531.140661
865.151353	2531.685106
865.463619	2532.353058
865.775842	2529.497245
866.088023	2530.634025
866.400162	2532.267359
866.712258	2527.826102
867.024313	2529.608150
867.336325	2534.263656
867.648296	2532.405991
867.960224	2532.040507
868.272110	2532.879859
868.583954	2531.644776
868.895755	2534.230888
869.207515	2532.355579
869.519233	2535.007226
869.830909	2532.789118
870.142542	2535.344983
870.454134	2533.169725
870.765684	2534.961856
871.077191	2534.545960
871.388657	2536.091074
871.700081	2534.976979
872.011463	2534.004036
872.322803	2536.451517
872.634101	2537.621064
872.945357	2534.452699
873.256571	2538.241126
873.567744	2539.090561
873.878874	2538.198276
874.189963	2539.854295
874.501010	2540.295396
874.812015	2541.132228
875.122979	2545.623896
875.433900	2543.614996
875.744780	2543.330171
876.055618	2541.724563
876.366415	2545.328988
876.677169	2544.386293
876.987882	2544.960984
877.298554	2541.994265
877.609183	2543.095757
877.919771	2543.753628
878.230317	2550.649926
878.540822	2558.299877
878.851285	2562.587379
879.161707	2572.669686
879.472087	2586.437078
879.782425	2603.292175
880.092722	2642.900521
880.402977	2693.682584
880.713191	2760.172883
881.023363	2820.525577
881.333494	2855.647296
881.643583	2871.174050
881.953631	2862.813296
882.263637	2845.335616
882.573602	2822.763849
882.883526	2795.095476
883.193408	2770.734100
883.503248	2746.574371
883.813048	2721.930690
884.122806	2696.929087
884.432522	2675.113494
884.742197	2655.727737
885.051831	2639.407002
885.361424	2624.701956
885.670975	2610.727877
885.980485	2595.927050
886.289954	2591.442943
886.599382	2580.135635
886.908768	2576.233782
887.218113	2566.642987
887.527417	2566.088460
887.836680	2561.324570
888.145901	2552.494989
888.455082	2553.777962
888.764221	2549.268650
889.073319	2548.799823
889.382376	2547.743701
889.691392	2548.041129
890.000366	2547.136242
890.309300	2545.568443
890.618193	2546.692621
890.927044	2544.504760
891.235855	2547.554658
891.544625	2547.514329
891.853353	2547.650440
892.162041	2549.523228
892.470687	2555.393652
892.779293	2558.259548
893.087858	2562.935218
893.396381	2573.632547
893.704864	2586.522777
894.013306	2602.382247
894.321707	2629.231432
894.630068	2639.303658
894.938387	2642.872795
895.246665	2637.098153
895.554903	2627.996350
895.863100	2616.878085
896.171256	2608.943309
896.479371	2598.505600
896.787446	2595.886720
897.095480	2586.553024
897.403473	2579.707137
897.711425	2575.384348
898.019336	2567.731876
898.327207	2564.450085
898.635038	2560.165104
898.942827	2557.203426
899.250576	2553.258723
899.558284	2549.455173
899.865952	2547.549617
900.173579	2544.779503
900.481165	2541.923689
900.788711	2542.178267
901.096216	2540.509645
901.403681	2537.137113
901.711105	2543.373021
902.018489	2539.524100
902.325832	2543.070552
902.633135	2543.678011
902.940397	2553.838456
903.247619	2568.109963
903.554800	2596.824375
903.861941	2628.908799
904.169041	2655.568941
904.476101	2664.743841
904.783121	2655.873931
905.090100	2642.887918
905.397039	2627.318315
905.703938	2616.986470
906.010796	2606.926847
906.317614	2592.864549
906.624391	2584.902046
906.931129	2575.475088
907.237826	2570.625498
907.544483	2562.390774
907.851099	2557.977243
908.157675	2546.763197
908.464211	2542.768082
908.770707	2534.785415
909.077163	2532.973120
909.383578	2528.690660
909.689954	2527.445495
909.996289	2522.195133
910.302584	2528.705784
910.608839	2526.054137
910.915054	2527.967255
911.221229	2523.631862
911.527363	2528.310053
911.833458	2526.800227
912.139513	2528.355423
912.445527	2525.870135
912.751502	2532.093439
913.057436	2531.453212
913.363331	2535.632329
913.669186	2540.292876
913.975000	2544.212373
914.280775	2552.535318
914.586510	2563.129303
914.892205	2579.989442
915.197859	2599.569283
915.503475	2623.519805
915.809050	2645.196767
916.114585	2653.131543
916.420081	2657.686225
916.725536	2655.684887
917.030952	2648.712972
917.336328	2643.031591
917.641665	2628.689508
917.946961	2623.817233
918.252218	2614.677621
918.557435	2606.233689
918.862612	2599.198758
919.167750	2590.643920
919.472848	2583.349371
919.777906	2573.783781
920.082925	2568.823286
920.387904	2560.389436
920.692843	2554.660164
920.997743	2551.212015
921.302603	2546.543907
921.607423	2541.749769
921.912204	2542.027033
922.216946	2537.860519
922.521647	2536.753986
922.826310	2532.206865
923.130932	2533.257946
923.435516	2530.384488
923.740059	2529.078829
924.044564	2524.604805
924.349028	2528.607481
924.653454	2518.734381
924.957840	2520.675226
925.262186	2518.421830
925.566493	2519.989629
925.870761	2513.415964
926.174989	2519.712365
926.479178	2517.378311
926.783328	2515.755059
927.087438	2518.411748
927.391509	2516.929648
927.695541	2520.060205
927.999533	2516.793537
928.303486	2514.668691
928.607400	2518.026099
928.911275	2513.279853
929.215110	2512.062414
929.518906	2515.470234
929.822663	2514.593073
930.126381	2516.455780
930.430060	2514.872858
930.733699	2515.442508
931.037299	2516.496109
931.340861	2513.231962
931.644383	2514.777076
931.947866	2515.623989
932.251309	2512.884122
932.554714	2512.253978
932.858080	2516.760770
933.161407	2514.557785
933.464694	2516.090296
933.767943	2512.158196
934.071153	2516.639782
934.374323	2511.517970
934.677455	2516.044926
934.980548	2511.797754
935.283602	2511.661643
935.586617	2510.812208
935.889593	2513.116015
936.192530	2512.067455
936.495428	2515.578619
936.798287	2512.493433
937.101108	2514.383866
937.403890	2516.763290
937.706632	2518.565503
938.009336	2516.677591
938.312002	2522.674043
938.614628	2520.178672
938.917216	2523.646986
939.219765	2524.556914
939.522275	2525.151770
939.824747	2523.919208
940.127179	2522.300998
940.429573	2520.052643
940.731929	2520.753363
941.034246	2521.101203
941.336524	2522.774866
941.638763	2523.014321
941.940964	2523.301667
942.243126	2522.951307
942.545250	2520.327386
942.847335	2520.377797
943.149381	2519.162879
943.451389	2522.868127
943.753359	2517.857221
944.055290	2515.651716
944.357182	2517.322858
944.659036	2518.585667
944.960851	2516.859072
945.262628	2517.738753
945.564367	2515.291273
945.866067	2514.696417
946.167729	2514.736746
946.469352	2515.283712
946.770937	2518.235307
947.072484	2516.909484
947.373992	2519.145235
947.675462	2516.150790
947.976893	2515.142559
948.278286	2515.326561
948.579641	2517.176665
948.880958	2513.615090
949.182236	2513.715913
949.483476	2515.641633
949.784678	2515.452590
950.085841	2513.897394
950.386967	2515.737415
950.688054	2514.514936
950.989103	2514.063752
951.290114	2515.215656
951.591087	2514.101561
951.892021	2516.617097
952.192917	2519.183044
952.493776	2519.714886
952.794596	2521.239835
953.095378	2518.638599
953.396122	2522.285874
953.696828	2515.571057
953.997496	2517.411078
954.298126	2517.988291
954.598718	2518.860410
954.899272	2515.941582
955.199788	2515.664319
955.500266	2513.720954
955.800706	2510.567712
956.101108	2508.359687
956.401472	2509.751045
956.701798	2508.528565
957.002087	2507.464882
957.302337	2509.652743
957.602550	2510.645850
957.902724	2507.638802
958.202861	2510.469410
958.502960	2506.554954
958.803022	2506.829697
959.103045	2504.871208
959.403031	2506.305417
959.702979	2503.880622
960.002889	2504.788029
960.302762	2506.065962
960.602596	2505.516476
960.902393	2504.392299
961.202153	2503.207628
961.501875	2506.318019
961.801559	2504.697288
962.101205	2504.417504
962.400814	2505.352638
962.700385	2503.779798
962.999918	2503.757113
963.299414	2504.624192
963.598873	2504.896414
963.898293	2503.207627
964.197677	2504.299037
964.497022	2502.522031
964.796331	2503.507576
965.095601	2501.372647
965.394835	2504.064624
965.694030	2502.441372
965.993189	2502.748883
966.292309	2501.365086
966.591393	2503.439521
966.890439	2503.873060
967.189447	2504.684686
967.488419	2500.611433
967.787353	2502.237205
968.086249	2505.624861
968.385108	2505.072854
968.683930	2504.329284
968.982714	2503.857936
969.281462	2504.757782
969.580172	2501.012205
969.878844	2503.510097
970.177480	2504.145282
970.476078	2500.331649
970.774639	2504.659480
971.073162	2500.755106
971.371649	2503.610920
971.670098	2502.516989
971.968510	2499.646052
972.266885	2501.498676
972.565223	2501.249139
972.863524	2505.087978
973.161788	2505.902124
973.460014	2503.492453
973.758204	2505.576970
974.056356	2501.420538
974.354471	2506.242402
974.652550	2505.143431
974.950591	2502.474140
975.248595	2504.591424
975.546563	2505.163595
975.844493	2503.434479
976.142386	2506.461692
976.440243	2504.052021
976.738062	2506.333143
977.035845	2501.370127
977.333590	2503.573111
977.631299	2503.525220
977.928971	2505.047649
978.226606	2503.754593
978.524204	2501.707884
978.821765	2502.645539
979.119290	2504.377175
979.416777	2502.239726
979.714228	2505.082937
980.011642	2501.879283
980.309020	2508.573936
980.606360	2502.756444
980.903664	2504.810714
981.200931	2506.844820
981.498162	2505.887001
981.795356	2507.981600
982.092513	2515.198012
982.389633	2512.614421
982.686717	2516.952333
982.983764	2518.830163
983.280775	2520.481141
983.577749	2519.760256
983.874686	2518.510050
984.171587	2515.616428
984.468451	2517.756397
984.765279	2517.133815
985.062070	2513.970491
985.358824	2511.505367
985.655543	2512.155676
985.952224	2510.613082
986.248869	2507.810201
986.545478	2502.300220
986.842050	2505.803822
987.138586	2501.861639
987.435086	2499.966166
987.731549	2499.393995
988.027975	2503.406753
988.324366	2500.487925
988.620719	2503.159737
988.917037	2500.102277
989.213318	2503.500014
989.509563	2501.085302
989.805772	2500.162771
990.101944	2502.559839
990.398080	2499.552791
990.694180	2500.382061
990.990244	2500.475322
991.286271	2500.810559
991.582262	2499.371309
991.878217	2498.068171
992.174136	2499.638491
992.470019	2499.852740
992.765865	2501.450785
993.061676	2499.842657
993.357450	2501.102946
993.653188	2500.573625
993.948890	2502.595127
994.244556	2500.480363
994.540186	2507.064110
994.835780	2504.916579
995.131337	2504.903976
995.426859	2504.331805
995.722345	2507.472444
996.017795	2506.927999
996.313208	2510.660973
996.608586	2510.673576
996.903928	2509.133504
997.199234	2511.631396
997.494504	2508.944461
997.789738	2509.110819
998.084936	2509.786333
998.380099	2504.972031
998.675225	2505.965139
998.970316	2509.892197
999.265371	2504.218379
999.560390	2504.417504
999.855373	2505.539161
1000.150320	2499.535147
1000.445232	2503.149654
1000.740108	2499.673779
1001.034948	2500.470281
1001.329752	2502.799294
1001.624521	2498.529437
1001.919254	2495.658500
1002.213951	2496.460043
1002.508613	2493.508448
1002.803239	2497.732934
1003.097829	2493.062305
1003.392384	2497.032214
1003.686903	2498.680671
1003.981386	2499.635970
1004.275834	2499.855260
1004.570246	2498.002636
1004.864623	2497.463233
1005.158964	2500.150168
1005.453270	2498.204282
1005.747540	2500.732421
1006.041775	2500.785353
1006.335974	2497.974910
1006.630138	2494.972903
1006.924266	2500.213182
1007.218359	2499.759478
1007.512416	2496.578510
1007.806438	2496.875938
1008.100425	2500.014057
1008.394376	2496.094559
1008.688292	2498.534478
1008.982172	2496.223109
1009.276017	2495.000629
1009.569827	2496.162615
1009.863602	2500.810559
1010.157341	2497.674961
1010.451045	2495.971051
1010.744714	2499.000785
1011.038347	2498.216885
1011.331945	2494.735968
1011.625508	2496.034066
1011.919036	2499.086484
1012.212528	2497.047337
1012.505986	2499.278048
1012.799408	2496.391988
1013.092795	2494.582213
1013.386147	2495.711432
1013.679464	2497.654797
1013.972745	2499.668737
1014.265992	2496.843171
1014.559204	2498.342914
1014.852380	2497.710249
1015.145521	2499.469612
1015.438628	2499.111690
1015.731699	2498.138747
1016.024736	2497.173366
1016.317737	2494.423417
1016.610703	2497.657317
1016.903635	2494.115907
1017.196531	2493.405104
1017.489393	2496.215547
1017.782219	2493.223622
1018.075011	2494.234374
1018.367768	2496.507934
1018.660490	2497.934581
1018.953177	2497.934581
1019.245829	2497.934581
