Dividing Wavelength (nm)	Counts (n)	Blue Motor Position (mm): 0.000000	Red Motor Position (mm): 23.400000	
326.493990	2125.824330
326.888308	2125.824330
327.282561	2125.824330
327.676750	2093.203023
328.070874	2091.851994
328.464933	2097.256111
328.858929	2104.033943
329.252859	2114.063318
329.646726	2123.810389
330.040528	2137.676083
330.434265	2152.018165
330.827938	2172.724705
331.221547	2188.080059
331.615091	2208.751311
332.008571	2227.224619
332.401986	2246.562485
332.795338	2265.938160
333.188625	2287.380708
333.581847	2306.521969
333.975006	2323.855977
334.368100	2340.985817
334.761129	2359.441482
335.154095	2374.517052
335.546996	2391.914074
335.939833	2408.617937
336.332606	2425.606626
336.725315	2437.012236
337.117960	2446.487085
337.510540	2456.002263
337.903056	2468.854685
338.295508	2473.570684
338.687896	2483.264823
339.080220	2490.975268
339.472480	2496.823006
339.864676	2501.176043
340.256807	2504.389778
340.648875	2508.457989
341.040879	2511.265912
341.432818	2513.882271
341.824694	2513.967970
342.216506	2513.877230
342.608253	2513.816736
342.999937	2513.879750
343.391557	2515.109792
343.783113	2512.639626
344.174605	2509.151148
344.566033	2511.049142
344.957397	2508.163082
345.348697	2506.063441
345.739934	2505.700478
346.131106	2504.346928
346.522215	2504.281393
346.913260	2500.495487
347.304241	2499.257883
347.695159	2499.610764
348.086012	2495.524909
348.476802	2493.924343
348.867528	2491.212202
349.258191	2492.376708
349.648789	2491.023159
350.039324	2490.713128
350.429796	2486.574340
350.820203	2485.298928
351.210548	2486.549135
351.600828	2483.879844
351.991045	2485.084679
352.381198	2481.142497
352.771288	2484.673825
353.161314	2481.797847
353.551276	2481.613845
353.941175	2482.841366
354.331010	2482.788434
354.720782	2484.814978
355.110490	2480.618217
355.500135	2482.191057
355.889717	2482.135604
356.279235	2484.494864
356.668689	2484.754484
357.058080	2485.072077
357.447408	2482.087713
357.836672	2480.532518
358.225873	2481.258444
358.615010	2480.439256
359.004084	2486.841522
359.393095	2484.777169
359.782043	2488.938642
360.170927	2489.248672
360.559748	2488.890751
360.948505	2491.164311
361.337199	2486.682725
361.725830	2490.259424
362.114398	2492.626246
362.502903	2494.526761
362.891344	2494.446102
363.279722	2492.417038
363.668037	2494.352841
364.056289	2495.671103
364.444478	2494.652789
364.832603	2490.965185
365.220665	2496.497852
365.608665	2493.337048
365.996601	2496.674292
366.384474	2496.946514
366.772284	2499.507421
367.160031	2499.474653
367.547715	2502.804335
367.935336	2503.784840
368.322893	2508.946981
368.710388	2507.477485
369.097820	2520.128260
369.485189	2519.112468
369.872495	2528.441123
370.259738	2534.503111
370.646918	2543.806560
371.034035	2548.444422
371.421090	2558.867007
371.808081	2568.167936
372.195010	2578.119174
372.581875	2591.919332
372.968678	2603.198914
373.355418	2615.184257
373.742096	2636.105046
374.128710	2648.400420
374.515262	2662.815599
374.901751	2678.062569
375.288177	2689.253931
375.674540	2714.220245
376.060841	2732.643142
376.447079	2750.067890
376.833254	2773.990686
377.219367	2785.676080
377.605417	2822.108499
377.991404	2829.587051
378.377329	2852.191585
378.763191	2870.979965
379.148991	2909.126376
379.534727	2927.559355
379.920402	2960.014304
380.306013	2974.621047
380.691563	3022.501926
381.077049	3042.338867
381.462474	3062.813513
381.847835	3101.678289
382.233134	3122.616721
382.618371	3123.491361
383.003545	3190.337061
383.388657	3197.437527
383.773706	3230.482290
384.158693	3248.585073
384.543618	3273.034670
384.928480	3310.442552
385.313280	3356.231352
385.698017	3354.625745
386.082692	3404.142478
386.467305	3414.456679
386.851856	3443.034980
387.236344	3466.042806
387.620770	3500.536902
388.005133	3526.904657
388.389435	3551.374418
388.773674	3560.733320
389.157851	3605.097994
389.541965	3622.454687
389.926018	3582.377514
390.310008	3658.259482
390.693936	3674.711288
391.077802	3714.072617
391.461606	3704.804455
391.845348	3766.987088
392.229027	3765.804938
392.612645	3778.740538
392.996200	3859.376315
393.379694	3896.582551
393.763125	3963.816419
394.146494	3926.821912
394.529801	3988.011437
394.913047	4037.303840
395.296230	4007.205631
395.679351	4058.975760
396.062410	4080.458637
396.445408	4063.638827
396.828343	4096.063529
397.211217	4117.185963
397.594028	4039.748799
397.976778	4104.719190
398.359466	4133.965444
398.742092	4161.303621
399.124656	4086.122373
399.507158	4165.041637
399.889598	4189.445863
400.271977	4255.018671
400.654294	4221.628589
401.036549	4230.548911
401.418742	4201.353068
401.800874	4302.755878
402.182944	4324.029547
402.564952	4390.411461
402.946898	4377.271693
403.328783	4374.252042
403.710606	4285.245430
404.092367	4478.208196
404.474067	4445.060089
404.855705	4452.662149
405.237282	4379.023494
405.618797	4489.155062
406.000250	4523.235782
406.381642	4603.369964
406.762972	4564.474941
407.144240	4576.603958
407.525447	4572.805448
407.906593	4631.108913
408.287677	4676.630532
408.668700	4604.168987
409.049661	4656.221421
409.430560	4697.243810
409.811399	4625.059528
410.192176	4786.474754
410.572891	4724.022419
410.953545	4827.343388
411.334138	4709.287127
411.714669	4775.759781
412.095139	4669.300694
412.475547	4811.587262
412.855894	4792.161175
413.236180	4802.006549
413.616405	4753.016616
413.996568	4839.936190
414.376670	4781.340339
414.756711	4739.239142
415.136691	4770.438843
415.516609	4844.158157
415.896466	4885.578797
416.276262	4918.487450
416.655997	4901.685284
417.035670	5080.956276
417.415283	5173.688301
417.794834	5117.239981
418.174324	5066.944389
418.553753	4976.727900
418.933121	5160.810674
419.312428	5226.196960
419.691674	5163.303524
420.070859	5288.014109
420.449983	5200.713927
420.829045	5321.240354
421.208047	5224.346856
421.586988	5295.351508
421.965867	5307.021779
422.344686	5442.797697
422.723444	5288.924037
423.102141	5112.637408
423.480777	5409.037089
423.859352	5175.798024
424.237866	5432.372590
424.616319	5421.518986
424.994712	5527.395820
425.373044	5403.171707
425.751314	5538.279671
426.129524	5340.794990
426.507673	5531.353126
426.885762	5605.523622
427.263789	5531.642992
427.641756	5411.706380
428.019662	5523.685531
428.397508	5522.352145
428.775292	5462.916942
429.153016	5549.410539
429.530679	5474.020083
429.908282	5542.849477
430.285824	5405.248662
430.663305	5661.545965
431.040726	5395.199122
431.418086	5378.893510
431.795385	5467.302745
432.172624	5470.380370
432.549802	5442.409528
432.926920	5437.378456
433.303977	5432.899391
433.680974	5450.876146
434.057910	5443.369868
434.434786	5432.823774
434.811601	5381.739241
435.188355	5573.756791
435.565050	5441.436585
435.941683	5396.605604
436.318257	5558.451848
436.694770	5512.552142
437.071222	5515.327298
437.447614	5426.671045
437.823946	5327.655222
438.200218	5427.054173
438.576429	5282.287358
438.952580	5325.343853
439.328670	5327.758566
439.704700	5216.696905
440.080670	5176.163508
440.456580	5344.835474
440.832429	5211.859918
441.208218	5057.088933
441.583947	5128.844717
441.959616	5092.480354
442.335224	4999.178679
442.710773	5048.589548
443.086261	5018.279611
443.461689	4840.296633
443.837057	4890.466196
444.212365	4944.141882
444.587612	4830.347916
444.962800	4877.331470
445.337927	4816.845185
445.712995	4529.738871
446.088002	4815.670596
446.462949	4670.303884
446.837837	4578.164195
447.212664	4626.466010
447.587431	4634.105879
447.962139	4850.935988
448.336786	5259.372793
448.711374	5069.512857
449.085901	4561.354467
449.460369	4457.340340
449.834776	4366.357595
450.209124	4477.562928
450.583412	4474.439934
450.957640	4490.589270
451.331808	4327.623890
451.705917	4093.744598
452.079965	4014.066641
452.453954	4032.648334
452.827883	3939.669292
453.201752	3917.261364
453.575562	3805.756082
453.949311	3810.063748
454.323001	3739.732090
454.696632	3710.611865
455.070202	3695.831202
455.443713	3693.784493
455.817164	3666.907581
456.190556	3637.505052
456.563888	3607.656380
456.937160	3568.191707
457.310373	3452.456897
457.683526	3411.273190
458.056619	3347.432018
458.429653	3306.344094
458.802628	3256.373656
459.175542	3240.990575
459.548398	3257.926332
459.921194	3252.136566
460.293930	3222.776886
460.666607	3260.535129
461.039224	3271.575256
461.411782	3249.321082
461.784280	3206.108311
462.156719	3148.066986
462.529099	3096.382557
462.901419	3019.336082
463.273680	2978.863178
463.645882	2951.003241
464.018024	2908.581932
464.390106	2897.529202
464.762130	2902.030952
465.134094	2920.511822
465.505999	2981.522387
465.877845	3032.193545
466.249631	3032.064995
466.621358	2967.177783
466.993026	2901.279820
467.364634	2861.895806
467.736184	2819.565237
468.107674	2787.180865
468.479105	2772.866508
468.850477	2751.645771
469.221790	2729.925960
469.593043	2707.066848
469.964238	2692.664271
470.335373	2681.601459
470.706449	2674.196004
471.077467	2666.354489
471.448425	2684.679084
471.819324	2694.267358
472.190164	2693.291895
472.560945	2658.583551
472.931667	2640.684934
473.302330	2634.721249
473.672934	2621.548714
474.043479	2625.503499
474.413965	2619.254989
474.784393	2613.104781
475.154761	2610.909359
475.525070	2610.909359
475.895321	2608.658484
476.265513	2604.181939
476.635645	2606.329471
477.005719	2605.530448
477.375734	2606.178236
477.745691	2605.356528
478.115588	2605.081785
478.485427	2605.928699
478.855207	2610.629575
479.224928	2614.231479
479.594591	2618.987808
479.964194	2616.386572
480.333739	2613.976901
480.703226	2614.425564
481.072653	2612.885491
481.442022	2613.578650
481.811333	2614.360029
482.180584	2610.483381
482.549777	2608.857609
482.918912	2607.677979
483.287988	2606.493308
483.657005	2606.924327
484.025964	2603.816455
484.394864	2603.491301
484.763706	2603.324943
485.132489	2599.271855
485.501213	2598.377050
485.869879	2597.474684
486.238487	2595.186000
486.607036	2598.717328
486.975527	2596.879828
487.343959	2596.516865
487.712333	2597.830085
488.080648	2597.530137
488.448905	2596.640373
488.817104	2594.691967
489.185244	2595.964858
489.553326	2597.116762
489.921350	2599.667586
490.289315	2605.956425
490.657222	2608.124121
491.025070	2608.189656
491.392861	2609.112187
491.760593	2603.239243
492.128267	2602.082298
492.495883	2599.468460
492.863440	2596.254725
493.230939	2596.791607
493.598380	2594.215578
493.965763	2587.132757
494.333088	2589.819692
494.700354	2586.255596
495.067563	2590.986719
495.434713	2585.819536
495.801805	2589.691142
496.168839	2592.388160
496.535815	2588.090576
496.902733	2589.386153
497.269593	2591.432861
497.636395	2592.259610
498.003139	2589.852459
498.369825	2586.550503
498.736453	2588.287181
499.103023	2587.994794
499.469535	2588.748447
499.835989	2587.452870
500.202385	2588.892119
500.568723	2585.083528
500.935003	2588.413210
501.301226	2584.566809
501.667390	2586.343816
502.033497	2588.347675
502.399546	2588.133426
502.765537	2585.764083
503.131470	2586.704259
503.497345	2585.791810
503.863163	2586.936152
504.228923	2585.990935
504.594625	2584.965061
504.960269	2584.158476
505.325856	2585.156624
505.691385	2584.281984
506.056856	2586.542942
506.422270	2585.096131
506.787625	2585.466655
507.152924	2585.499423
507.518164	2585.728795
507.883347	2583.321644
508.248472	2585.300297
508.613540	2584.720565
508.978550	2582.026068
509.343503	2582.704103
509.708398	2585.098651
510.073236	2584.443301
510.438016	2585.892633
510.802738	2586.232911
511.167403	2585.446491
511.532010	2585.595205
511.896561	2584.960019
512.261053	2587.011769
512.625488	2584.876840
512.989866	2583.132601
513.354186	2583.160327
513.718449	2581.713516
514.082655	2586.263158
514.446803	2586.797520
514.810894	2587.387335
515.174927	2587.800710
515.538904	2584.970102
515.902822	2588.478745
516.266684	2586.396748
516.630488	2587.321800
516.994235	2590.170052
517.357925	2588.385483
517.721558	2587.911615
518.085133	2586.028744
518.448651	2588.267016
518.812112	2586.994125
519.175516	2586.162335
519.538863	2586.656368
519.902152	2588.599732
520.265385	2589.486976
520.628560	2585.070925
520.991678	2587.329362
521.354739	2590.018817
521.717743	2585.252406
522.080690	2587.715010
522.443580	2589.713827
522.806413	2589.643251
523.169189	2587.402458
523.531908	2589.174424
523.894569	2588.937490
524.257174	2588.322469
524.619722	2588.382963
524.982213	2591.271544
525.344647	2593.540063
525.707025	2590.165011
526.069345	2589.557552
526.431608	2591.397573
526.793815	2591.742892
527.155964	2591.987388
527.518057	2589.239959
527.880093	2588.866914
528.242072	2589.875144
528.603995	2586.915987
528.965860	2589.645772
529.327669	2588.020000
529.689421	2588.713158
530.051117	2589.431523
530.412755	2589.582757
530.774337	2591.778180
531.135862	2591.047213
531.497331	2587.800710
531.858743	2584.886923
532.220098	2584.869279
532.581396	2585.441450
532.942638	2583.571182
533.303824	2588.269537
533.664953	2589.315576
534.026025	2587.604105
534.387040	2589.575196
534.747999	2588.708117
535.108902	2589.116451
535.469748	2587.634352
535.830537	2588.695514
536.191270	2587.478076
536.551947	2589.988570
536.912567	2586.079156
537.273131	2589.192068
537.633638	2588.745926
537.994089	2589.804568
538.354483	2586.106882
538.714821	2590.417068
539.075103	2586.018662
539.435328	2588.655185
539.795497	2586.923549
540.155609	2587.243662
540.515665	2585.154104
540.875665	2588.047726
541.235609	2587.722572
541.595496	2589.824733
541.955328	2588.294743
542.315102	2587.301635
542.674821	2584.728126
543.034483	2588.501430
543.394090	2589.161821
543.753640	2590.711976
544.113134	2590.598550
544.472571	2590.180134
544.831953	2587.543611
545.191278	2589.272727
545.550548	2586.805082
545.909761	2591.551328
546.268918	2588.067891
546.628019	2589.497058
546.987064	2589.010587
547.346053	2588.357757
547.704986	2588.647623
548.063863	2589.454208
548.422684	2590.681729
548.781449	2588.980340
549.140158	2589.877665
549.498811	2587.717531
549.857408	2587.452870
550.215949	2587.152921
550.574434	2582.915832
550.932864	2588.178796
551.291237	2587.810792
551.649555	2590.870772
552.007817	2590.306163
552.366022	2592.050402
552.724173	2589.199630
553.082267	2585.542273
553.440305	2590.802717
553.798288	2591.324476
554.156215	2589.101327
554.514086	2589.091245
554.871902	2589.161821
555.229661	2591.266503
555.587365	2589.981009
555.945014	2587.725092
556.302606	2590.391863
556.660143	2591.551328
557.017625	2591.536205
557.375050	2590.613673
557.732421	2591.828592
558.089735	2591.614342
558.446994	2591.453026
558.804197	2588.990422
559.161345	2586.976481
559.518437	2590.538056
559.875474	2591.117789
560.232455	2590.885896
560.589381	2588.448498
560.946251	2592.529312
561.303065	2591.664754
561.659825	2589.779362
562.016528	2589.454208
562.373177	2589.401276
562.729770	2587.992273
563.086307	2589.713827
563.442789	2591.059816
563.799216	2589.403797
564.155587	2589.406317
564.511904	2590.495206
564.868164	2589.076122
565.224370	2591.934456
565.580520	2589.897830
565.936615	2587.520926
566.292654	2588.060329
566.648638	2588.017479
567.004567	2590.180134
567.360441	2586.653847
567.716260	2586.787438
568.072023	2589.618046
568.427732	2583.906418
568.783385	2584.720565
569.138982	2586.064032
569.494525	2585.859865
569.850013	2585.007910
570.205445	2590.608632
570.560823	2585.504464
570.916145	2588.882037
571.271412	2587.281471
571.626625	2584.791141
571.981782	2589.252562
572.336884	2584.347519
572.691931	2588.899681
573.046923	2585.020513
573.401860	2588.700556
573.756743	2586.840370
574.111570	2587.893971
574.466342	2587.130236
574.821059	2586.542942
575.175722	2586.716862
575.530330	2586.011100
575.884882	2588.211564
576.239380	2585.123857
576.593823	2588.849270
576.948211	2589.066039
577.302544	2584.229052
577.656823	2588.400607
578.011047	2585.741398
578.365216	2585.151583
578.719330	2588.665268
579.073389	2582.920873
579.427394	2583.619072
579.781344	2583.336768
580.135239	2584.317272
580.489080	2582.351222
580.842866	2580.680080
581.196597	2584.612180
581.550273	2584.284505
581.903895	2584.680235
582.257463	2583.291397
582.610975	2584.392890
582.964434	2583.760225
583.317837	2582.053794
583.671186	2583.767787
584.024481	2582.250399
584.377721	2582.043712
584.730906	2583.861048
585.084037	2581.355594
585.437113	2582.008424
585.790135	2580.589339
586.143103	2582.260482
586.496016	2580.594380
586.848874	2576.601786
587.201679	2580.390213
587.554428	2578.046077
587.907124	2582.205029
588.259765	2577.635223
588.612352	2579.371900
588.964884	2580.659915
589.317362	2580.977508
589.669786	2579.702096
590.022155	2583.697210
590.374470	2577.524318
590.726731	2581.718557
591.078937	2577.660429
591.431090	2580.228897
591.783188	2578.270408
592.135232	2578.973649
592.487222	2579.939030
592.839157	2579.818042
593.191038	2579.840728
593.542866	2578.630851
593.894639	2578.391396
594.246358	2577.771334
594.598022	2581.035481
594.949633	2580.188567
595.301190	2577.746128
595.652692	2578.512384
596.004141	2576.117836
596.355535	2579.608835
596.706876	2574.918041
597.058162	2575.908628
597.409395	2577.751169
597.760573	2576.415264
598.111698	2577.103381
598.462768	2575.943916
598.813785	2578.618248
599.164748	2575.890984
599.515657	2572.460478
599.866511	2576.143041
600.217312	2579.792837
600.568060	2576.987435
600.918753	2580.269226
601.269392	2574.948288
601.619978	2572.939388
601.970510	2576.843762
602.320988	2576.599266
602.671412	2576.390058
603.021783	2574.517269
603.372100	2577.529359
603.722363	2577.025243
604.072572	2576.032136
604.422728	2576.322002
604.772830	2570.819583
605.122878	2572.972156
605.472872	2571.532906
605.822813	2571.739593
606.172701	2572.231106
606.522534	2576.906776
606.872314	2573.914851
607.222041	2574.350911
607.571714	2577.980542
607.921333	2576.402661
608.270899	2576.710171
608.620411	2573.703123
608.969870	2576.679924
609.319276	2579.513053
609.668627	2581.607652
610.017926	2582.131932
610.367171	2581.869792
610.716362	2581.915163
611.065500	2581.537076
611.414585	2578.207394
611.763616	2578.048597
612.112594	2579.071952
612.461518	2578.469534
612.810389	2578.030953
613.159207	2577.894842
613.507971	2577.604976
613.856682	2578.857703
614.205340	2576.569019
614.553945	2576.425346
614.902496	2576.944585
615.250994	2576.059862
615.599439	2578.582960
615.947830	2577.622620
616.296169	2576.001889
616.644454	2575.102043
616.992686	2576.241344
617.340864	2574.240006
617.688990	2575.316292
618.037063	2576.228741
618.385082	2577.284863
618.733048	2577.153793
619.080961	2577.368042
619.428821	2578.237641
619.776628	2572.838565
620.124382	2576.911817
620.472083	2574.025757
620.819731	2576.153124
621.167326	2575.427197
621.514868	2576.110274
621.862357	2573.786302
622.209793	2574.371076
622.557176	2575.049111
622.904506	2572.435273
623.251783	2570.212124
623.599007	2571.313616
623.946179	2571.358986
624.293297	2569.150961
624.640363	2571.457289
624.987376	2572.820921
625.334336	2572.740263
625.681243	2572.523493
626.028097	2570.489387
626.374899	2571.732032
626.721647	2567.041238
627.068343	2570.630540
627.414987	2570.065930
627.761577	2568.949315
628.108115	2568.525858
628.454600	2567.321022
628.801032	2570.859912
629.147412	2568.072154
629.493739	2570.275138
629.840014	2571.187587
630.186236	2572.130283
630.532405	2568.911506
630.878521	2572.026939
631.224585	2570.232288
631.570597	2568.445199
631.916556	2565.859087
632.262462	2569.135837
632.608316	2566.935374
632.954117	2566.390929
633.299866	2566.519479
633.645562	2569.176167
633.991206	2567.056362
634.336797	2565.833882
634.682336	2567.293296
635.027823	2564.830692
635.373257	2565.712894
635.718639	2563.071329
636.063968	2564.427400
636.409245	2566.068295
636.754470	2562.196689
637.099642	2562.176525
637.444762	2566.970662
637.789829	2560.926318
638.134845	2565.985116
638.479808	2563.353634
638.824719	2565.586865
639.169577	2563.172153
639.514383	2563.661144
639.859137	2562.153839
640.203839	2562.340362
640.548489	2563.146947
640.893086	2560.805331
641.237632	2557.672254
641.582125	2561.097718
641.926566	2558.859445
642.270955	2561.080074
642.615292	2559.764332
642.959576	2561.798438
643.303809	2563.600651
643.647990	2560.245763
643.992118	2562.194169
644.336195	2562.647872
644.680219	2562.511761
645.024192	2563.341031
645.368112	2560.195351
645.711981	2560.359189
646.055797	2563.177194
646.399562	2565.586865
646.743274	2563.572924
647.086935	2565.559139
647.430544	2564.737431
647.774101	2560.628890
648.117606	2564.112328
648.461059	2565.233984
648.804460	2564.278686
649.147810	2561.967317
649.491108	2565.584345
649.834354	2563.940928
650.177548	2563.187276
650.520690	2562.720969
650.863781	2560.386915
651.206820	2563.877914
651.549807	2562.985630
651.892742	2561.652245
652.235626	2561.790876
652.578458	2560.822975
652.921238	2563.585527
653.263967	2561.536298
653.606644	2559.855073
653.949269	2558.625032
654.291843	2558.619991
654.634365	2559.305587
654.976836	2559.401369
655.319255	2557.992367
655.661622	2560.099569
656.003938	2558.670402
656.346203	2560.941442
656.688416	2559.577810
657.030577	2555.615463
657.372687	2557.170659
657.714746	2559.923129
658.056753	2561.163253
658.398708	2554.902140
658.740612	2555.935576
659.082465	2556.492624
659.424266	2553.152859
659.766016	2553.349464
660.107715	2557.458005
660.449362	2558.947666
660.790958	2561.422872
661.132503	2558.194013
661.473996	2558.879610
661.815438	2559.633263
662.156829	2557.059753
662.498168	2557.392470
662.839456	2558.357851
663.180693	2556.936245
663.521879	2560.502862
663.863013	2559.635783
664.204097	2557.909188
664.545129	2557.478169
664.886110	2560.649055
665.227040	2557.349620
665.567918	2557.389949
665.908746	2559.776935
666.249522	2559.953376
666.590248	2557.289126
666.930922	2560.523026
667.271545	2559.555125
667.612118	2559.093859
667.952639	2560.797769
668.293109	2556.709393
668.633528	2558.128478
668.973896	2557.420196
669.314213	2559.227450
669.654480	2555.471790
669.994695	2557.533622
670.334859	2562.292471
670.674973	2555.096224
671.015035	2559.207285
671.355047	2556.502706
671.695008	2556.863148
672.034918	2557.815927
672.374777	2559.797100
672.714585	2558.284754
673.054342	2556.653941
673.394049	2557.407593
673.733705	2558.947666
674.073310	2557.987326
674.412864	2561.511092
674.752368	2558.113355
675.091820	2556.918601
675.431223	2557.742830
675.770574	2556.447253
676.109875	2552.273178
676.449125	2554.932387
676.788324	2553.755277
677.127473	2552.104299
677.466571	2553.180586
677.805619	2558.778787
678.144616	2552.812581
678.483562	2559.212326
678.822458	2554.087993
679.161303	2556.159907
679.500098	2557.659651
679.838842	2556.301060
680.177535	2555.300391
680.516179	2556.492624
680.854771	2553.314176
681.193314	2557.889023
681.531805	2558.861966
681.870247	2558.829198
682.208638	2558.050340
682.546978	2559.131668
682.885268	2556.759805
683.223508	2557.052192
683.561697	2556.422047
683.899836	2556.573282
684.237925	2558.057902
684.575963	2558.060422
684.913951	2554.284598
685.251889	2557.863817
685.589776	2556.411965
685.927614	2557.153015
686.265401	2555.192006
686.603137	2559.983623
686.940824	2554.594629
687.278460	2558.274672
687.616046	2558.756102
687.953582	2558.907336
688.291068	2562.108469
688.628504	2558.262069
688.965889	2560.931360
689.303224	2557.684857
689.640510	2559.545042
689.977745	2555.721327
690.314930	2557.697459
690.652065	2555.960782
690.989150	2555.917932
691.326185	2559.146791
691.663170	2553.936759
692.000105	2554.382901
692.336990	2553.036913
692.673825	2553.321738
693.010610	2554.327448
693.347345	2550.476007
693.684030	2547.017775
694.020665	2553.362067
694.357251	2548.971222
694.693786	2551.481717
695.030272	2552.459701
695.366707	2550.478527
695.703093	2550.760832
696.039429	2550.450801
696.375716	2551.673281
696.711952	2547.272353
697.048139	2554.123281
697.384276	2552.368960
697.720363	2547.090872
698.056400	2550.476007
698.392388	2548.842673
698.728326	2554.163611
699.064214	2551.915256
699.400053	2550.675132
699.735842	2548.691438
700.071581	2551.494320
700.407270	2548.157076
700.742910	2550.879299
701.078501	2549.339226
701.414042	2548.648588
701.749533	2549.616490
702.084974	2547.942827
702.420366	2547.718495
702.755709	2549.271171
703.091002	2549.568599
703.426246	2546.773279
703.761440	2549.911397
704.096584	2547.622713
704.431679	2548.210008
704.766725	2551.554813
705.101721	2546.559030
705.436668	2546.501057
705.771565	2549.177909
706.106413	2545.455017
706.441212	2549.016593
706.775961	2548.220090
707.110661	2547.287477
707.445311	2547.978115
707.779913	2549.621531
708.114465	2550.879299
708.448967	2548.996428
708.783421	2549.918959
709.117825	2546.692621
709.452180	2549.971891
709.786485	2552.963816
710.120742	2551.179248
710.454949	2550.352498
710.789107	2550.463404
711.123216	2548.449463
711.457275	2549.366953
711.791286	2546.811088
712.125247	2548.454504
712.459159	2552.260575
712.793023	2551.242262
713.126837	2553.246121
713.460602	2551.781665
713.794318	2554.745864
714.127985	2550.511295
714.461602	2551.501881
714.795171	2550.813764
715.128691	2548.525080
715.462162	2549.394679
715.795584	2548.429298
716.128957	2547.123639
716.462281	2547.847045
716.795556	2549.727395
717.128782	2549.190512
717.461960	2546.619524
717.795088	2546.763197
718.128167	2548.288146
718.461198	2550.533980
718.794180	2546.657332
719.127113	2546.506098
719.459997	2549.820657
719.792833	2545.646581
720.125619	2546.296890
720.458357	2544.983669
720.791046	2544.376210
721.123686	2544.567774
721.456278	2547.065666
721.788821	2545.160110
722.121315	2548.051212
722.453761	2545.470141
722.786158	2547.169010
723.118506	2546.145655
723.450805	2547.360573
723.783056	2544.023330
724.115259	2545.265974
724.447412	2543.988042
724.779518	2546.949719
725.111574	2544.562733
725.443582	2546.937117
725.775542	2546.017106
726.107453	2545.974256
726.439315	2542.861344
726.771129	2553.992211
727.102895	2545.966694
727.434612	2548.890564
727.766281	2544.817311
728.097901	2546.185985
728.429473	2543.307486
728.760996	2544.925696
729.092471	2543.259595
729.423897	2546.170861
729.755276	2547.821839
730.086606	2547.574822
730.417887	2547.753783
730.749120	2549.765204
731.080305	2547.874771
731.411442	2548.411654
731.742530	2548.706562
732.073570	2547.695810
732.404562	2549.077086
732.735506	2549.124977
733.066401	2548.474668
733.397249	2546.997610
733.728048	2548.956099
734.058798	2547.915100
734.389501	2547.751263
734.720156	2546.438042
735.050762	2545.066848
735.381320	2548.068856
735.711831	2546.168341
736.042293	2545.865871
736.372707	2543.476364
736.703073	2546.387631
737.033391	2543.178936
737.363661	2544.703885
737.693883	2543.050387
738.024056	2546.385110
738.354182	2545.815460
738.684260	2547.710934
739.014290	2545.969215
739.344272	2545.623896
739.674207	2549.180430
740.004093	2544.673638
740.333931	2545.986859
740.663722	2547.095913
740.993464	2545.618855
741.323159	2547.592467
741.652806	2546.400234
741.982405	2544.499719
742.311956	2543.867054
742.641460	2544.834955
742.970915	2545.921324
743.300323	2545.477702
743.629683	2542.596683
743.958996	2546.748073
744.288260	2542.737835
744.617477	2543.143648
744.946647	2538.311702
745.275768	2543.302445
745.604842	2542.528628
745.933869	2537.507638
746.262847	2540.411343
746.591778	2542.909235
746.920662	2543.597352
747.249498	2544.804708
747.578286	2543.151210
747.907027	2541.384286
748.235720	2541.631302
748.564365	2545.714637
748.892963	2545.339071
749.221514	2544.492157
749.550017	2543.327650
749.878473	2543.234389
750.206881	2542.006868
750.535242	2544.398896
750.863555	2543.367980
751.191821	2543.277239
751.520039	2545.810419
751.848210	2546.012065
752.176334	2542.261446
752.504411	2543.993083
752.832440	2544.345963
753.160421	2545.023999
753.488356	2543.234389
753.816243	2545.023999
754.144082	2539.284645
754.471875	2545.482744
754.799620	2543.045346
755.127318	2542.405119
755.454969	2540.123997
755.782572	2542.236241
756.110129	2543.335212
756.437638	2543.194060
756.765100	2539.080478
757.092515	2545.376879
757.419882	2541.049049
757.747203	2543.466282
758.074477	2542.967208
758.401703	2545.626417
758.728882	2540.202135
759.056014	2545.376879
759.383099	2542.256405
759.710138	2543.688093
760.037129	2545.407126
760.364073	2542.263967
760.690970	2543.567105
761.017820	2542.120294
761.344623	2539.599717
761.671379	2547.143804
761.998088	2539.181301
762.324751	2542.722712
762.651366	2547.370656
762.977935	2553.790565
763.304456	2553.498178
763.630931	2559.298026
763.957359	2555.300391
764.283740	2552.184958
764.610074	2548.028526
764.936362	2550.445760
765.262602	2544.109029
765.588796	2546.851417
765.914943	2544.504760
766.241044	2546.357384
766.567097	2542.024512
766.893104	2541.797660
767.219064	2540.479398
767.544978	2540.512166
767.870845	2542.193391
768.196665	2540.202135
768.522438	2538.213400
768.848165	2542.049718
769.173846	2538.427649
769.499479	2541.611138
769.825066	2539.128369
770.150607	2539.148534
770.476101	2540.118956
770.801548	2540.076106
771.126949	2538.793133
771.452303	2541.066693
771.777611	2538.268852
772.102872	2540.161806
772.428087	2538.412525
772.753256	2541.616179
773.078378	2539.876981
773.403453	2539.703061
773.728482	2536.166691
774.053465	2538.437731
774.378401	2541.351518
774.703291	2538.604089
775.028135	2537.921013
775.352932	2538.402443
775.677683	2538.755324
776.002388	2540.113915
776.327046	2539.405633
776.651658	2540.207176
776.976224	2537.794984
777.300743	2538.079809
777.625216	2537.989068
777.949643	2538.679707
778.274024	2541.278421
778.598359	2537.318595
778.922647	2533.797349
779.246889	2535.153419
779.571086	2534.034283
779.895236	2535.987730
780.219339	2539.251878
780.543397	2537.505118
780.867409	2537.469830
781.191374	2537.860519
781.515294	2536.068389
781.839167	2535.702905
782.162995	2536.887576
782.486776	2537.762217
782.810511	2536.355735
783.134201	2537.943698
783.457844	2537.288348
783.781441	2538.256250
784.104993	2538.291538
784.428498	2537.237937
784.751958	2534.480425
785.075372	2538.843544
785.398739	2538.354552
785.722061	2536.920344
786.045337	2536.504449
786.368568	2540.378575
786.691752	2537.532844
787.014891	2538.117618
787.337983	2539.995448
787.661030	2541.384286
787.984031	2538.412525
788.306987	2540.267670
788.629897	2538.447813
788.952760	2541.706919
789.275579	2539.768596
789.598351	2541.608617
789.921078	2537.956301
790.243759	2541.192722
790.566395	2537.011085
790.888984	2540.035777
791.211529	2537.530323
791.534027	2538.079809
791.856480	2535.574356
792.178888	2535.511341
792.501249	2537.689120
792.823566	2538.039480
793.145836	2536.895138
793.468062	2537.850437
793.790241	2538.238606
794.112375	2538.926723
794.434464	2539.708102
794.756507	2536.093595
795.078505	2538.697351
795.400457	2534.833306
795.722364	2532.864736
796.044226	2534.447658
796.366042	2535.055117
796.687812	2533.764582
797.009538	2538.054603
797.331218	2539.070396
797.652852	2534.853471
797.974442	2538.969573
798.295986	2536.872453
798.617484	2537.893287
798.938938	2532.383305
799.260346	2539.317413
799.581709	2538.420087
799.903026	2538.810777
800.224299	2535.924716
800.545526	2533.492359
800.866708	2537.694161
801.187845	2537.772299
801.508936	2538.102494
801.829983	2536.116280
802.150984	2535.798687
802.471940	2536.582587
802.792851	2536.736342
803.113717	2537.278266
803.434538	2536.592669
803.755314	2536.262473
804.076045	2534.654345
804.396731	2536.897659
804.717372	2536.058307
805.037967	2537.719367
805.358518	2535.402957
805.679024	2536.426311
805.999485	2537.537885
806.319901	2539.254398
806.640272	2537.709284
806.960598	2536.874973
807.280879	2536.103677
807.601115	2537.129552
807.921306	2536.312885
808.241453	2536.519572
808.561554	2536.010416
808.881611	2537.182484
809.201623	2536.000333
809.521590	2535.440765
809.841513	2534.949253
810.161390	2535.082843
810.481223	2538.679707
810.801011	2535.534027
811.120755	2536.383461
811.440453	2536.539737
811.760107	2535.072761
812.079716	2534.298944
812.399281	2533.303316
812.718801	2535.518903
813.038276	2531.551515
813.357707	2536.325488
813.677093	2533.419262
813.996434	2536.433872
814.315731	2535.191228
814.634983	2536.874973
814.954191	2536.443955
815.273354	2534.921526
815.592473	2533.573018
815.911547	2537.230375
816.230577	2538.770447
816.549562	2538.125180
816.868502	2539.264480
817.187399	2537.943698
817.506250	2536.378420
817.825058	2536.819521
818.143821	2537.303472
818.462539	2537.638708
818.781213	2537.089222
819.099843	2540.144162
819.418429	2539.299768
819.736970	2543.678011
820.055466	2542.929399
820.373919	2543.138607
820.692327	2546.702703
821.010691	2551.557334
821.329011	2561.732903
821.647286	2579.666808
821.965517	2599.244129
822.283704	2613.240892
822.601847	2617.946810
822.919945	2608.892897
823.237999	2595.415372
823.556010	2583.631675
823.873976	2573.622464
824.191897	2566.204407
824.509775	2562.108469
824.827609	2557.639486
825.145398	2556.253169
825.463144	2551.811912
825.780845	2552.379042
826.098502	2555.242418
826.416116	2558.388097
826.733685	2568.170457
827.051210	2569.559294
827.368692	2569.710529
827.686129	2560.316339
828.003522	2555.106306
828.320872	2545.996941
828.638177	2547.123639
828.955439	2539.619882
829.272656	2539.599717
829.589830	2537.709284
829.906960	2537.449665
830.224046	2538.956970
830.541088	2537.842875
830.858086	2538.178112
831.175041	2539.398071
831.491952	2537.759696
831.808819	2536.721218
832.125642	2539.249357
832.442421	2539.680376
832.759157	2540.391178
833.075849	2543.602393
833.392497	2549.036757
833.709101	2553.331820
834.025662	2550.672612
834.342179	2549.992056
834.658653	2548.217570
834.975083	2543.504091
835.291469	2551.317879
835.607811	2539.108205
835.924110	2540.534851
836.240366	2537.958822
836.556578	2536.706095
836.872746	2539.987886
837.188871	2536.050745
837.504952	2536.625436
837.820990	2534.462781
838.136984	2534.765251
838.452935	2534.361958
838.768842	2535.816331
839.084706	2535.440765
839.400526	2540.509645
839.716303	2541.563247
840.032037	2544.489636
840.347727	2540.176929
840.663373	2541.608617
840.978977	2538.077289
841.294537	2537.961342
841.610054	2534.941691
841.925527	2534.132586
842.240957	2536.955632
842.556344	2534.067051
842.871687	2533.663758
843.186987	2534.666948
843.502244	2533.852802
843.817458	2533.681402
844.132629	2534.674510
844.447756	2531.677544
844.762840	2528.567152
845.077881	2528.607481
845.392879	2528.214271
845.707833	2530.853315
846.022745	2527.170752
846.337613	2532.335414
846.652438	2532.998326
846.967221	2532.106042
847.281960	2533.159643
847.596656	2532.867256
847.911309	2533.215096
848.225919	2531.957328
848.540485	2531.846422
848.855009	2533.595703
849.169490	2531.009591
849.483928	2533.268028
849.798323	2531.249046
850.112675	2532.584952
850.426984	2532.980682
850.741251	2534.130065
851.055474	2529.613191
851.369654	2531.715353
851.683792	2533.106711
851.997887	2532.043028
852.311938	2530.281144
852.625947	2533.923378
852.939914	2530.074457
853.253837	2534.472864
853.567718	2532.133768
853.881555	2534.278779
854.195350	2531.165867
854.509103	2531.390198
854.822812	2530.855836
855.136479	2534.160312
855.450103	2530.712163
855.763685	2532.416073
856.077224	2532.257277
856.390720	2532.610157
856.704173	2531.196114
857.017584	2533.232740
857.330953	2531.546474
857.644278	2531.044879
857.957561	2537.673996
858.270802	2535.171063
858.584000	2531.501103
858.897155	2530.639066
859.210268	2530.374406
859.523339	2530.548325
859.836367	2531.584283
860.149352	2533.318439
860.462295	2532.342976
860.775195	2530.583613
861.088054	2528.783922
861.400869	2530.011442
861.713642	2528.945238
862.026373	2528.894827
862.339062	2533.691485
862.651708	2532.763912
862.964312	2532.819365
863.276873	2533.520086
863.589392	2534.349355
863.901869	2531.982534
864.214303	2533.653676
864.526696	2531.057482
864.839045	2532.413552
865.151353	2533.729293
865.463619	2532.723583
865.775842	2534.094777
866.088023	2531.281813
866.400162	2534.177956
866.712258	2531.690147
867.024313	2532.121165
867.336325	2530.689478
867.648296	2532.552184
867.960224	2532.738707
868.272110	2534.084695
868.583954	2532.474046
868.895755	2533.971269
869.207515	2529.696370
869.519233	2531.826258
869.830909	2531.866587
870.142542	2535.100487
870.454134	2534.029242
870.765684	2532.670651
871.077191	2532.809283
871.388657	2533.598223
871.700081	2533.797349
872.011463	2531.899355
872.322803	2532.063192
872.634101	2534.261135
872.945357	2533.036135
873.256571	2533.585621
873.567744	2534.490508
873.878874	2534.528316
874.189963	2531.581762
874.501010	2537.530323
874.812015	2532.355579
875.122979	2533.983872
875.433900	2534.543440
875.744780	2533.308357
876.055618	2536.978317
876.366415	2533.338604
876.677169	2534.195600
876.987882	2531.884231
877.298554	2531.299457
877.609183	2531.397760
877.919771	2532.118645
878.230317	2532.567308
878.540822	2537.074099
878.851285	2537.013605
879.161707	2539.105684
879.472087	2540.000489
879.782425	2540.854964
880.092722	2547.743701
880.402977	2551.269988
880.713191	2558.950186
881.023363	2571.616085
881.333494	2579.946592
881.643583	2579.603793
881.953631	2576.138000
882.263637	2579.253433
882.573602	2573.352763
882.883526	2566.884962
883.193408	2563.850188
883.503248	2558.254507
883.813048	2554.713096
884.122806	2547.428629
884.432522	2549.629093
884.742197	2543.960315
885.051831	2543.753628
885.361424	2539.158616
885.670975	2539.748431
885.980485	2538.316743
886.289954	2539.856816
886.599382	2540.318082
886.908768	2538.455375
887.218113	2535.894469
887.527417	2537.946219
887.836680	2535.627288
888.145901	2535.697864
888.455082	2535.942360
888.764221	2533.305837
889.073319	2534.775333
889.382376	2534.213244
889.691392	2532.905065
890.000366	2532.027904
890.309300	2533.971269
890.618193	2535.118131
890.927044	2532.829447
891.235855	2534.137627
891.544625	2535.528985
891.853353	2536.033101
892.162041	2534.974458
892.470687	2535.234078
892.779293	2536.343132
893.087858	2533.242822
893.396381	2533.472195
893.704864	2536.403626
894.013306	2536.849768
894.321707	2547.095913
894.630068	2548.625903
894.938387	2552.568085
895.246665	2549.167827
895.554903	2547.171530
895.863100	2543.670449
896.171256	2543.226827
896.479371	2538.480581
896.787446	2539.824048
897.095480	2536.512010
897.403473	2537.696682
897.711425	2535.881866
898.019336	2536.325488
898.327207	2539.085519
898.635038	2536.000333
898.942827	2535.528985
899.250576	2533.444468
899.558284	2531.992616
899.865952	2535.042514
900.173579	2535.541588
900.481165	2534.238450
900.788711	2535.526465
901.096216	2533.918337
901.403681	2533.681402
901.711105	2534.082174
902.018489	2532.620240
902.325832	2535.344983
902.633135	2533.507483
902.940397	2533.681402
903.247619	2536.769109
903.554800	2538.861188
903.861941	2544.139276
904.169041	2550.392827
904.476101	2554.937428
904.783121	2553.843497
905.090100	2550.665050
905.397039	2547.247147
905.703938	2545.691952
906.010796	2544.829914
906.317614	2539.193904
906.624391	2537.028729
906.931129	2535.750796
907.237826	2534.770292
907.544483	2532.332894
907.851099	2530.654190
908.157675	2534.140148
908.464211	2531.276772
908.770707	2529.346010
909.077163	2529.051103
909.383578	2525.834847
909.689954	2528.015146
909.996289	2526.633869
910.302584	2533.331042
910.608839	2530.535722
910.915054	2531.377595
911.221229	2532.156453
911.527363	2533.492359
911.833458	2530.099663
912.139513	2534.316588
912.445527	2532.121165
912.751502	2532.335414
913.057436	2531.614529
913.363331	2536.706095
913.669186	2533.865405
913.975000	2535.894469
914.280775	2535.471012
914.586510	2536.179294
914.892205	2540.302958
915.197859	2543.325130
915.503475	2542.982331
915.809050	2550.710420
916.114585	2550.619679
916.420081	2555.118909
916.725536	2551.814433
917.030952	2549.714792
917.336328	2547.289997
917.641665	2546.246478
917.946961	2542.531148
918.252218	2543.209183
918.557435	2540.149203
918.862612	2540.320602
919.167750	2538.861188
919.472848	2536.796836
919.777906	2534.288862
920.082925	2536.055786
920.387904	2532.597554
920.692843	2535.155940
920.997743	2532.211906
921.302603	2532.297606
921.607423	2532.481608
921.912204	2531.682585
922.216946	2531.952287
922.521647	2530.480270
922.826310	2533.482277
923.130932	2530.097142
923.435516	2532.685775
923.740059	2531.604447
924.044564	2532.252235
924.349028	2531.614529
924.653454	2526.888448
924.957840	2529.330887
925.262186	2525.449198
925.566493	2526.830474
925.870761	2524.904754
926.174989	2528.607481
926.479178	2529.870290
926.783328	2529.623274
927.087438	2530.387008
927.391509	2529.948428
927.695541	2529.416586
927.999533	2529.829961
928.303486	2528.206709
928.607400	2528.531864
928.911275	2525.343334
929.215110	2529.953469
929.518906	2530.387008
929.822663	2527.458098
930.126381	2528.867101
930.430060	2527.541277
930.733699	2525.171935
931.037299	2529.209899
931.340861	2526.593540
931.644383	2529.850126
931.947866	2529.560259
932.251309	2527.919364
932.554714	2528.027748
932.858080	2530.263500
933.161407	2526.979188
933.464694	2528.158818
933.767943	2527.316946
934.071153	2527.223684
934.374323	2526.691843
934.677455	2530.676875
934.980548	2525.318128
935.283602	2527.158149
935.586617	2526.782583
935.889593	2530.076977
936.192530	2530.477749
936.495428	2525.650844
936.798287	2529.119158
937.101108	2528.952800
937.403890	2527.939528
937.706632	2532.348017
938.009336	2528.854498
938.312002	2531.551515
938.614628	2528.337779
938.917216	2529.933305
939.219765	2528.610002
939.522275	2531.125537
939.824747	2534.523275
940.127179	2528.340300
940.429573	2526.321318
940.731929	2528.206709
941.034246	2527.049765
941.336524	2530.041689
941.638763	2529.777029
941.940964	2528.801566
942.243126	2529.794673
942.545250	2535.619726
942.847335	2527.500948
943.149381	2528.736031
943.451389	2528.234436
943.753359	2530.560928
944.055290	2530.024045
944.357182	2527.924405
944.659036	2531.034797
944.960851	2529.759385
945.262628	2528.020187
945.564367	2532.519417
945.866067	2527.047244
946.167729	2531.193593
946.469352	2529.799714
946.770937	2527.758047
947.072484	2527.377440
947.373992	2530.714683
947.675462	2528.360465
947.976893	2530.301309
948.278286	2527.788294
948.579641	2528.453726
948.880958	2526.706966
949.182236	2529.091432
949.483476	2529.439272
949.784678	2529.056144
950.085841	2528.703263
950.386967	2528.753675
950.688054	2529.648479
950.989103	2530.339118
951.290114	2525.572707
951.591087	2529.013294
951.892021	2529.177132
952.192917	2526.946421
952.493776	2527.836185
952.794596	2528.478932
953.095378	2527.818541
953.396122	2530.568490
953.696828	2527.488345
953.997496	2530.167718
954.298126	2528.983047
954.598718	2530.986906
954.899272	2528.468849
955.199788	2527.722759
955.500266	2529.318284
955.800706	2527.526154
956.101108	2524.814013
956.401472	2525.582789
956.701798	2525.794517
957.002087	2525.159332
957.302337	2527.904240
957.602550	2527.758047
957.902724	2526.580937
958.202861	2529.787111
958.502960	2525.494569
958.803022	2527.274096
959.103045	2527.228726
959.403031	2527.924405
959.702979	2527.851308
960.002889	2527.261493
960.302762	2526.245701
960.602596	2526.560773
960.902393	2524.950124
961.202153	2529.540095
961.501875	2524.710669
961.801559	2528.920033
962.101205	2526.838036
962.400814	2525.280320
962.700385	2527.503468
962.999918	2526.459950
963.299414	2530.197965
963.598873	2528.892306
963.898293	2528.383150
964.197677	2528.005063
964.497022	2525.018180
964.796331	2527.006915
965.095601	2528.325177
965.394835	2526.114631
965.694030	2528.771319
965.993189	2524.514064
966.292309	2526.139836
966.591393	2526.154960
966.890439	2527.180835
967.189447	2526.217974
967.488419	2527.354754
967.787353	2526.341483
968.086249	2525.597912
968.385108	2528.010104
968.683930	2530.407173
968.982714	2525.335772
969.281462	2527.543798
969.580172	2524.503982
969.878844	2526.941380
970.177480	2525.897861
970.476078	2527.339631
970.774639	2528.410876
971.073162	2526.341482
971.371649	2523.067253
971.670098	2524.037675
971.968510	2523.820906
972.266885	2524.246883
972.565223	2528.728469
972.863524	2527.095135
973.161788	2527.019518
973.460014	2525.229908
973.758204	2528.519261
974.056356	2527.085053
974.354471	2527.153108
974.652550	2525.421472
974.950591	2525.940711
975.248595	2526.911133
975.546563	2526.520443
975.844493	2527.616894
976.142386	2527.130423
976.440243	2526.134795
976.738062	2526.220495
977.035845	2527.753006
977.333590	2526.351565
977.631299	2526.520443
977.928971	2527.798376
978.226606	2526.270906
978.524204	2525.164373
978.821765	2527.377440
979.119290	2527.596730
979.416777	2529.663603
979.714228	2525.234949
980.011642	2525.945752
980.309020	2528.700742
980.606360	2525.456760
980.903664	2529.729138
981.200931	2524.778725
981.498162	2527.296781
981.795356	2524.564476
982.092513	2528.935156
982.389633	2528.121010
982.686717	2530.651669
982.983764	2528.589837
983.280775	2527.493386
983.577749	2526.139836
983.874686	2530.860877
984.171587	2528.478932
984.468451	2528.874662
984.765279	2527.200999
985.062070	2526.974147
985.358824	2527.016997
985.655543	2527.841226
985.952224	2526.654034
986.248869	2529.812317
986.545478	2523.215967
986.842050	2523.984743
987.138586	2524.609846
987.435086	2522.616070
987.731549	2519.603980
988.027975	2529.691329
988.324366	2526.124713
988.620719	2528.791483
988.917037	2528.524302
989.213318	2526.724610
989.509563	2526.371729
989.805772	2529.895496
990.101944	2525.068591
990.398080	2524.183869
990.694180	2526.734692
990.990244	2526.094466
991.286271	2524.453570
991.582262	2527.778211
991.878217	2523.014321
992.174136	2526.318797
992.470019	2527.949611
992.765865	2528.171421
993.061676	2524.385515
993.357450	2525.262676
993.653188	2524.509023
993.948890	2526.863242
994.244556	2526.712007
994.540186	2528.002543
994.835780	2525.421472
995.131337	2526.724610
995.426859	2525.918026
995.722345	2523.747809
996.017795	2524.851822
996.313208	2525.345855
996.608586	2526.543129
996.903928	2529.530012
997.199234	2526.706966
997.494504	2527.929446
997.789738	2526.729651
998.084936	2526.938859
998.380099	2525.774353
998.675225	2524.488858
998.970316	2527.029600
999.265371	2526.016328
999.560390	2528.458767
999.855373	2524.529188
1000.150320	2524.975330
1000.445232	2527.405166
1000.740108	2525.222346
1001.034948	2525.663447
1001.329752	2526.964065
1001.624521	2525.454239
1001.919254	2521.965761
1002.213951	2526.207892
1002.508613	2522.918539
1002.803239	2524.088087
1003.097829	2521.391069
1003.392384	2522.643796
1003.686903	2522.820237
1003.981386	2526.192768
1004.275834	2524.642614
1004.570246	2529.524971
1004.864623	2525.131606
1005.158964	2527.087573
1005.453270	2527.664785
1005.747540	2525.834847
1006.041775	2526.477594
1006.335974	2525.623118
1006.630138	2525.418951
1006.924266	2524.635052
1007.218359	2524.395597
1007.512416	2528.594878
1007.806438	2525.408869
1008.100425	2525.986081
1008.394376	2520.382839
1008.688292	2525.134126
1008.982172	2525.582789
1009.276017	2526.646472
1009.569827	2526.255783
1009.863602	2528.347862
1010.157341	2524.909795
1010.451045	2526.437264
1010.744714	2525.106400
1011.038347	2527.639580
1011.331945	2524.405679
1011.625508	2525.829805
1011.919036	2523.349558
1012.212528	2526.825433
1012.505986	2524.514064
1012.799408	2525.552542
1013.092795	2523.735206
1013.386147	2523.195803
1013.679464	2527.153108
1013.972745	2526.308715
1014.265992	2524.652696
1014.559204	2524.859383
1014.852380	2527.528674
1015.145521	2524.884589
1015.438628	2526.006246
1015.731699	2527.092614
1016.024736	2525.202182
1016.317737	2524.904754
1016.610703	2526.462470
1016.903635	2524.423323
1017.196531	2523.485669
1017.489393	2522.066584
1017.782219	2519.109947
1018.075011	2521.380987
1018.367768	2523.536080
1018.660490	2525.194620
1018.953177	2525.194620
1019.245829	2525.194620
