Dividing Wavelength (nm)	Counts (n)	Blue Motor Position (mm): 0.000000	Red Motor Position (mm): 39.500000	
326.493990	2141.177164
326.888308	2141.177164
327.282561	2141.177164
327.676750	2114.799327
328.070874	2113.796137
328.464933	2119.976592
328.858929	2131.926647
329.252859	2142.903759
329.646726	2153.855666
330.040528	2171.290497
330.434265	2188.546366
330.827938	2208.365663
331.221547	2226.861656
331.615091	2249.473752
332.008571	2266.533016
332.401986	2287.400873
332.795338	2308.145221
333.188625	2326.598364
333.581847	2345.890860
333.975006	2366.292410
334.368100	2384.806047
334.761129	2402.434962
335.154095	2418.223856
335.546996	2437.476023
335.939833	2457.691049
336.332606	2474.493215
336.725315	2484.772128
337.117960	2491.028200
337.510540	2500.177894
337.903056	2509.309944
338.295508	2517.025430
338.687896	2522.404341
339.080220	2533.235260
339.472480	2535.629808
339.864676	2541.853113
340.256807	2543.373021
340.648875	2545.875954
341.040879	2546.730429
341.432818	2549.974412
341.824694	2550.622200
342.216506	2549.611449
342.608253	2549.399720
342.999937	2550.221428
343.391557	2549.409803
343.783113	2548.522559
344.174605	2545.787733
344.566033	2544.643392
344.957397	2542.279090
345.348697	2541.447300
345.739934	2539.319933
346.131106	2537.545447
346.522215	2536.575025
346.913260	2532.438758
347.304241	2530.271062
347.695159	2529.076308
348.086012	2528.393232
348.476802	2526.767460
348.867528	2526.177645
349.258191	2525.771832
349.648789	2523.563807
350.039324	2522.091790
350.429796	2524.138498
350.820203	2520.241686
351.210548	2519.331758
351.600828	2519.319155
351.991045	2522.316121
352.381198	2518.852848
352.771288	2520.468538
353.161314	2516.239010
353.551276	2518.966274
353.941175	2519.029289
354.331010	2520.329907
354.720782	2518.641120
355.110490	2520.397962
355.500135	2519.538445
355.889717	2517.910153
356.279235	2518.638599
356.668689	2519.772859
357.058080	2521.781759
357.447408	2516.912004
357.836672	2519.200688
358.225873	2517.705986
358.615010	2518.058867
359.004084	2520.264372
359.393095	2519.805627
359.782043	2523.967099
360.170927	2526.283509
360.559748	2525.081194
360.948505	2525.507172
361.337199	2526.696884
361.725830	2525.333252
362.114398	2527.873993
362.502903	2527.742923
362.891344	2527.148067
363.279722	2526.502799
363.668037	2528.700742
364.056289	2528.864580
364.444478	2528.627646
364.832603	2529.993798
365.220665	2529.179652
365.608665	2529.535053
365.996601	2533.389016
366.384474	2531.609488
366.772284	2532.663089
367.160031	2533.419262
367.547715	2532.474046
367.935336	2532.985723
368.322893	2533.078985
368.710388	2532.398429
369.097820	2535.592000
369.485189	2535.108049
369.872495	2537.011085
370.259738	2532.161495
370.646918	2536.953111
371.034035	2535.400436
371.421090	2540.151723
371.808081	2534.495549
372.195010	2536.310364
372.581875	2536.494366
372.968678	2538.843544
373.355418	2538.904038
373.742096	2541.883360
374.128710	2543.025181
374.515262	2542.936961
374.901751	2544.129194
375.288177	2545.018957
375.674540	2546.422919
376.060841	2546.556509
376.447079	2549.679504
376.833254	2550.675132
377.219367	2552.250493
377.605417	2551.751418
377.991404	2552.086655
378.377329	2556.303580
378.763191	2558.902295
379.148991	2564.939077
379.534727	2570.360838
379.920402	2574.819738
380.306013	2578.053639
380.691563	2583.654361
381.077049	2586.225349
381.462474	2594.447471
381.847835	2594.039137
382.233134	2601.396702
382.618371	2603.037597
383.003545	2608.923144
383.388657	2614.435646
383.773706	2621.049640
384.158693	2629.317132
384.543618	2636.737711
384.928480	2643.921355
385.313280	2652.128353
385.698017	2657.103972
386.082692	2667.168636
386.467305	2672.587876
386.851856	2680.961233
387.236344	2693.758202
387.620770	2700.019315
388.005133	2707.213041
388.389435	2718.792572
388.773674	2726.888665
389.157851	2734.704974
389.541965	2744.326016
389.926018	2747.282653
390.310008	2761.039962
390.693936	2767.878287
391.077802	2779.697272
391.461606	2785.981070
391.845348	2797.621094
392.229027	2807.786581
392.612645	2820.205464
392.996200	2829.035045
393.379694	2840.564163
393.763125	2859.090404
394.146494	2868.421580
394.529801	2879.257540
394.913047	2897.587175
395.296230	2899.719583
395.679351	2903.606313
396.062410	2921.603232
396.445408	2916.930083
396.828343	2929.969027
397.211217	2937.313988
397.594028	2932.189655
397.976778	2942.924792
398.359466	2960.425158
398.742092	2958.259982
399.124656	2970.726756
399.507158	2982.008858
399.889598	2989.941114
400.271977	3005.757734
400.654294	3011.691172
401.036549	3022.302801
401.418742	3025.587113
401.800874	3049.010834
402.182944	3057.174983
402.564952	3089.022472
402.946898	3076.951429
403.328783	3088.319231
403.710606	3099.898761
404.092367	3123.766104
404.474067	3149.677635
404.855705	3138.818990
405.237282	3140.253198
405.618797	3172.158661
406.000250	3194.236394
406.381642	3226.434243
406.762972	3229.244687
407.144240	3221.829149
407.525447	3245.273035
407.906593	3240.153744
408.287677	3264.931015
408.668700	3283.681587
409.049661	3278.428704
409.430560	3295.349337
409.811399	3301.741520
410.192176	3320.451763
410.572891	3326.554079
410.953545	3369.040924
411.334138	3335.431551
411.714669	3386.137997
412.095139	3330.652538
412.475547	3384.749159
412.855894	3376.859754
413.236180	3406.799166
413.616405	3386.009448
413.996568	3409.531472
414.376670	3411.424425
414.756711	3405.680030
415.136691	3433.529885
415.516609	3453.591156
415.896466	3464.361582
416.276262	3491.034327
416.655997	3522.677649
417.035670	3522.143287
417.415283	3593.780604
417.794834	3615.495374
418.174324	3598.524329
418.553753	3598.254628
418.933121	3641.427069
419.312428	3633.744351
419.691674	3626.180099
420.070859	3663.509844
420.449983	3648.651043
420.829045	3694.994370
421.208047	3679.898635
421.586988	3722.937486
421.965867	3755.145418
422.344686	3765.323507
422.723444	3802.998571
423.102141	3706.710012
423.480777	3808.448058
423.859352	3775.065537
424.237866	3874.290568
424.616319	3857.929503
424.994712	3920.205397
425.373044	3908.058737
425.751314	3972.467039
426.129524	3907.564704
426.507673	4005.622708
426.885762	3985.831138
427.263789	4007.419880
427.641756	4009.645549
428.019662	4041.228378
428.397508	4045.372206
428.775292	4078.510231
429.153016	4090.162858
429.530679	4100.459415
429.908282	4110.385447
430.285824	4083.662290
430.663305	4158.883868
431.040726	4119.225110
431.418086	4108.253039
431.795385	4184.064431
432.172624	4215.765727
432.549802	4184.185419
432.926920	4202.192420
433.303977	4196.700083
433.680974	4234.949838
434.057910	4256.818363
434.434786	4263.936473
434.811601	4257.932458
435.188355	4367.302812
435.565050	4336.970189
435.941683	4330.794775
436.318257	4422.513528
436.694770	4423.695679
437.071222	4481.285821
437.447614	4420.174433
437.823946	4420.429011
438.200218	4437.757978
438.576429	4423.433539
438.952580	4445.780974
439.328670	4449.738280
439.704700	4495.327955
440.080670	4454.751707
440.456580	4522.003220
440.832429	4554.947161
441.208218	4453.234320
441.583947	4506.695757
441.959616	4523.533210
442.335224	4549.631264
442.710773	4571.779573
443.086261	4622.990135
443.461689	4579.795008
443.837057	4589.615176
444.212365	4661.955733
444.587612	4670.402187
444.962800	4636.129902
445.337927	4675.597096
445.712995	4567.718924
446.088002	4757.745218
446.462949	4776.531078
446.837837	4792.652688
447.212664	4783.409732
447.587431	5007.093290
447.962139	5302.167148
448.336786	5640.645341
448.711374	5629.955574
449.085901	5274.828971
449.460369	5212.139702
449.834776	5147.877594
450.209124	5377.073653
450.583412	5389.411877
450.957640	5514.717318
451.331808	5377.595413
451.705917	5226.373400
452.079965	5215.426535
452.453954	5257.215179
452.827883	5221.871650
453.201752	5231.149893
453.575562	5264.144245
453.949311	5395.057970
454.323001	5401.825719
454.696632	5390.031939
455.070202	5542.756216
455.443713	5573.131688
455.817164	5663.297766
456.190556	5738.960444
456.563888	5709.235280
456.937160	5791.940450
457.310373	5632.355163
457.683526	5688.374986
458.056619	5684.800807
458.429653	5666.030071
458.802628	5715.836671
459.175542	5742.378346
459.548398	5878.945724
459.921194	6063.240227
460.293930	6126.763806
460.666607	6377.500716
461.039224	6588.515855
461.411782	6716.057047
461.784280	6634.932279
462.156719	6637.533514
462.529099	6599.729901
462.901419	6454.078364
463.273680	6326.030536
463.645882	6315.736499
464.018024	6320.911244
464.390106	6381.110182
464.762130	6643.512323
465.134094	7024.316043
465.505999	7655.803741
465.877845	8361.293057
466.249631	8719.845125
466.621358	8649.112695
466.993026	8449.591388
467.364634	8238.372082
467.736184	7951.399359
468.107674	7799.700957
468.479105	7716.093421
468.850477	7648.181517
469.221790	7474.874209
469.593043	7251.979592
469.964238	7154.506362
470.335373	7130.356714
470.706449	7283.764067
471.077467	7463.375337
471.448425	8122.896892
471.819324	8701.525572
472.190164	8751.962316
472.560945	8270.058255
472.931667	7796.320863
473.302330	7604.527645
473.672934	7482.940055
474.043479	7557.226498
474.413965	7464.625543
474.784393	7411.353150
475.154761	7558.002836
475.525070	7574.552944
475.895321	7523.813731
476.265513	7625.324925
476.635645	7792.141747
477.005719	7775.846217
477.375734	7862.531378
477.745691	7972.015157
478.115588	8177.180037
478.485427	8414.663753
478.855207	8884.453921
479.224928	9307.197521
479.594591	9700.135299
479.964194	9705.967914
480.333739	9790.427405
480.703226	9794.735071
481.072653	9889.806192
481.442022	9997.870886
481.811333	10156.838631
482.180584	10000.507409
482.549777	9940.368965
482.918912	9877.099963
483.287988	9865.548159
483.657005	9771.848233
484.025964	9688.147435
484.394864	9752.401982
484.763706	9709.622750
485.132489	9619.882650
485.501213	9608.897976
485.869879	9677.190487
486.238487	9616.552968
486.607036	9689.052322
486.975527	9631.799938
487.343959	9688.313793
487.712333	9731.602181
488.080648	9774.507441
488.448905	9875.368327
488.817104	9878.844203
489.185244	10047.148165
489.553326	10257.548282
489.921350	10721.720084
490.289315	11343.667399
490.657222	11645.264510
491.025070	11814.937146
491.392861	11736.469066
491.760593	11574.529560
492.128267	11328.289359
492.495883	11085.121742
492.863440	10857.886691
493.230939	10631.427978
493.598380	10451.519279
493.965763	10426.167317
494.333088	10292.430546
494.700354	10229.040557
495.067563	10202.498882
495.434713	10195.622748
495.801805	10244.705943
496.168839	10205.395025
496.535815	10174.487711
496.902733	10213.014729
497.269593	10174.394450
497.636395	10185.590852
498.003139	10288.460638
498.369825	10228.470907
498.736453	10312.912754
499.103023	10255.282284
499.469535	10263.123798
499.835989	10311.072733
500.202385	10281.226582
500.568723	10298.613522
500.935003	10361.811947
501.301226	10332.210291
501.667390	10493.912863
502.033497	10601.601991
502.399546	10528.923676
502.765537	10428.309807
503.131470	10533.528770
503.497345	10625.454211
503.863163	10400.160004
504.228923	10532.424757
504.594625	10654.188787
504.960269	10549.902438
505.325856	10706.647034
505.691385	10588.104302
506.056856	10648.842644
506.422270	10753.698644
506.787625	10687.929230
507.152924	10740.397559
507.518164	10799.996601
507.883347	10674.048413
508.248472	10742.303116
508.613540	10851.335712
508.978550	10924.195508
509.343503	10907.733620
509.708398	10956.055600
510.073236	11087.299520
510.438016	11095.703124
510.802738	11008.566779
511.167403	11135.351799
511.532010	11194.272805
511.896561	11291.050356
512.261053	11495.317910
512.625488	11411.362533
512.989866	11394.046170
513.354186	11376.089580
513.718449	11385.108204
514.082655	11516.009326
514.446803	11474.797893
514.810894	11582.892834
515.174927	11583.898544
515.538904	11558.957436
515.902822	11724.380379
516.266684	11593.504463
516.630488	11696.354084
516.994235	11682.591734
517.357925	11801.804940
517.721558	11855.790657
518.085133	11914.517578
518.448651	11954.793877
518.812112	11910.111610
519.175516	11913.779049
519.538863	12007.973009
519.902152	12015.582631
520.265385	12118.780091
520.628560	12137.835653
520.991678	12086.549474
521.354739	12149.362251
521.717743	12211.449102
522.080690	12189.411698
522.443580	12314.593630
522.806413	12331.458810
523.169189	12322.999754
523.531908	12379.644679
523.894569	12339.864934
524.257174	12355.704239
524.619722	12460.719036
524.982213	12441.413937
525.344647	12433.068307
525.707025	12437.721292
526.069345	12536.182588
526.431608	12520.996112
526.793815	12609.622118
527.155964	12495.631547
527.518057	12530.755786
527.880093	12483.484887
528.242072	12589.729724
528.603995	12527.617668
528.965860	12538.153679
529.327669	12559.704612
529.689421	12524.199766
530.051117	12532.215200
530.412755	12564.125704
530.774337	12569.481930
531.135862	12530.168492
531.497331	12589.903644
531.858743	12558.721587
532.220098	12636.103299
532.581396	12556.301833
532.942638	12481.221408
533.303824	12545.594422
533.664953	12538.015048
534.026025	12483.469763
534.387040	12584.212182
534.747999	12558.524982
535.108902	12605.516098
535.469748	12488.168118
535.830537	12510.260975
536.191270	12547.351265
536.551947	12475.119092
536.912567	12541.380018
537.273131	12569.209708
537.633638	12460.250208
537.994089	12513.928415
538.354483	12425.315012
538.714821	12554.582800
539.075103	12629.375879
539.435328	12570.417064
539.795497	12549.834033
540.155609	12548.692212
540.515665	12652.970999
540.875665	12508.032785
541.235609	12602.864451
541.595496	12562.023543
541.955328	12728.908420
542.315102	12586.911719
542.674821	12514.919001
543.034483	12529.929037
543.394090	12529.495498
543.753640	12506.512877
544.113134	12753.015218
544.472571	12517.817665
544.831953	12787.214406
545.191278	12604.215480
545.550548	12547.842777
545.909761	12661.011640
546.268918	12690.328470
546.628019	12759.999737
546.987064	12649.807675
547.346053	12505.093792
547.704986	12697.814583
548.063863	12584.499527
548.422684	12642.185451
548.781449	12595.847165
549.140158	12689.703367
549.498811	12642.750060
549.857408	12515.357582
550.215949	12705.469576
550.574434	12673.178465
550.932864	12615.411883
551.291237	12816.097697
551.649555	12712.123899
552.007817	12762.966456
552.366022	12688.238912
552.724173	12721.981875
553.082267	12806.612766
553.440305	12895.473185
553.798288	12716.464332
554.156215	12791.580045
554.514086	12843.755987
554.871902	12783.854477
555.229661	12807.925986
555.587365	12755.810538
555.945014	12769.645985
556.302606	12751.444899
556.660143	12816.004435
557.017625	12843.428312
557.375050	12800.462558
557.732421	12904.353177
558.089735	12892.970252
558.446994	12878.665978
558.804197	12983.806803
559.161345	12969.104278
559.518437	12794.551805
559.875474	12882.209909
560.232455	12920.759612
560.589381	12950.777163
560.946251	12891.828430
561.303065	13065.155902
561.659825	13017.184283
562.016528	12934.532045
562.373177	12864.182743
562.729770	12994.294923
563.086307	12871.313455
563.442789	12981.936535
563.799216	13018.741999
564.155587	12957.066002
564.511904	12978.700114
564.868164	12994.219306
565.224370	13048.888099
565.580520	12991.676044
565.936615	13067.424422
566.292654	12995.318278
566.648638	13058.025190
567.004567	13063.371334
567.360441	13058.294892
567.716260	13028.506714
568.072023	13110.680042
568.427732	13084.430754
568.783385	12982.609529
569.138982	13097.041201
569.494525	13089.456785
569.850013	13034.815718
570.205445	13030.417311
570.560823	13040.590360
570.916145	12987.622956
571.271412	12996.323988
571.626625	12953.242287
571.981782	12944.299280
572.336884	12882.315773
572.691931	12979.541987
573.046923	12868.515614
573.401860	12840.408661
573.756743	12826.482474
574.111570	12851.456350
574.466342	12826.376609
574.821059	12883.959189
575.175722	12749.614960
575.530330	12764.078030
575.884882	12694.973893
576.239380	12686.711442
576.593823	12668.356601
576.948211	12659.968121
577.302544	12537.581508
577.656823	12543.978733
578.011047	12603.802105
578.365216	12534.584543
578.719330	12479.167138
579.073389	12447.112962
579.427394	12449.295781
579.781344	12434.101743
580.135239	12362.726567
580.489080	12373.713762
580.842866	12258.992223
581.196597	12341.667147
581.550273	12328.489570
581.903895	12287.268055
582.257463	12385.169784
582.610975	12235.331568
582.964434	12290.257460
583.317837	12211.761653
583.671186	12161.594611
584.024481	12204.704038
584.377721	12091.267994
584.730906	12153.173363
585.084037	12159.653766
585.437113	12066.911659
585.790135	12092.596338
586.143103	12000.862461
586.496016	12005.601146
586.848874	12014.970130
587.201679	12004.260199
587.554428	11874.006866
587.907124	11908.805951
588.259765	11841.307422
588.612352	11899.537790
588.964884	11754.813824
589.317362	11805.989098
589.669786	11786.953701
590.022155	11732.063097
590.374470	11818.967548
590.726731	11692.991634
591.078937	11582.925602
591.431090	11600.920000
591.783188	11518.436641
592.135232	11435.640730
592.487222	11484.446661
592.839157	11481.926084
593.191038	11413.784808
593.542866	11355.226765
593.894639	11211.793335
594.246358	11260.082548
594.598022	11256.158009
594.949633	11148.904941
595.301190	11131.412137
595.652692	11083.947153
596.004141	11151.881742
596.355535	10939.175297
596.706876	10907.988198
597.058162	10872.286747
597.409395	10946.094280
597.760573	10958.692124
598.111698	10855.668583
598.462768	10839.635193
598.813785	10832.532208
599.164748	10702.049502
599.515657	10752.831565
599.866511	10628.690631
600.217312	10736.379760
600.568060	10505.192444
600.918753	10641.656479
601.269392	10628.632658
601.619978	10522.407985
601.970510	10548.415297
602.320988	10576.597868
602.671412	10626.162493
603.021783	10547.858250
603.372100	10462.607297
603.722363	10464.606115
604.072572	10452.693868
604.422728	10438.276168
604.772830	10373.038596
605.122878	10365.376042
605.472872	10323.239558
605.822813	10356.856492
606.172701	10307.637187
606.522534	10328.442029
606.872314	10355.200473
607.222041	10279.074009
607.571714	10330.042595
607.921333	10200.119458
608.270899	10220.911697
608.620411	10254.165668
608.969870	10191.012613
609.319276	10150.060800
609.668627	10146.426128
610.017926	10204.172545
610.367171	10205.747906
610.716362	10174.649028
611.065500	10133.959355
611.414585	10125.049115
611.763616	10160.932048
612.112594	10103.049520
612.461518	10100.949879
612.810389	10126.095155
613.159207	10055.208970
613.507971	10033.398418
613.856682	10090.204660
614.205340	10028.458087
614.553945	10119.317323
614.902496	9994.989867
615.250994	10020.959371
615.599439	9992.313014
615.947830	9989.855451
616.296169	9945.387433
616.644454	9928.217263
616.992686	9910.739583
617.340864	9952.508063
617.688990	9843.697278
618.037063	9917.721581
618.385082	9863.932469
618.733048	9873.498059
619.080961	9827.406789
619.428821	9792.098548
619.776628	9775.097256
620.124382	9707.994457
620.472083	9698.950627
620.819731	9684.948823
621.167326	9604.476884
621.514868	9565.662520
621.862357	9464.572262
622.209793	9432.455071
622.557176	9353.021609
622.904506	9278.901524
623.251783	9187.631434
623.599007	9130.046334
623.946179	9067.891427
624.293297	9021.278398
624.640363	8895.947752
624.987376	8860.813430
625.334336	8787.573027
625.681243	8702.432979
626.028097	8653.823653
626.374899	8606.673741
626.721647	8556.252121
627.068343	8504.766816
627.414987	8429.981299
627.761577	8351.742591
628.108115	8368.695992
628.454600	8243.892146
628.801032	8228.491421
629.147412	8201.901855
629.493739	8151.800348
629.840014	8070.688182
630.186236	8076.603976
630.532405	7975.775858
630.878521	7976.713513
631.224585	7923.327693
631.570597	7835.382244
631.916556	7815.073956
632.262462	7777.242617
632.608316	7740.638799
632.954117	7697.420987
633.299866	7651.196127
633.645562	7617.551466
633.991206	7520.622680
634.336797	7432.730163
634.682336	7398.478043
635.027823	7343.625248
635.373257	7295.285624
635.718639	7224.407001
636.063968	7181.748757
636.409245	7091.759120
636.754470	7057.668317
637.099642	7001.683783
637.444762	6914.023158
637.789829	6892.552884
638.134845	6827.368244
638.479808	6790.633356
638.824719	6756.900475
639.169577	6678.039185
639.514383	6651.671430
639.859137	6587.121976
640.203839	6579.502272
640.548489	6516.213106
640.893086	6493.321226
641.237632	6431.123470
641.582125	6408.692856
641.926566	6374.244131
642.270955	6348.688002
642.615292	6321.422921
642.959576	6291.296986
643.303809	6257.911944
643.647990	6241.709676
643.992118	6208.856476
644.336195	6182.140881
644.680219	6153.192055
645.024192	6151.810779
645.368112	6166.377193
645.711981	6133.675228
646.055797	6187.756727
646.399562	6142.041023
646.743274	6206.209870
647.086935	6218.885852
647.430544	6185.362179
647.774101	6177.462691
648.117606	6161.915772
648.461059	6175.478997
648.804460	6115.920284
649.147810	6035.322317
649.491108	5988.774823
649.834354	5939.192554
650.177548	5844.040775
650.520690	5774.016628
650.863781	5745.740796
651.206820	5718.949584
651.549807	5652.996168
651.892742	5588.983596
652.235626	5543.661103
652.578458	5505.862531
652.921238	5434.384011
653.263967	5434.013486
653.606644	5377.572728
653.949269	5347.804714
654.291843	5294.353360
654.634365	5306.147139
654.976836	5248.040279
655.319255	5227.275767
655.661622	5206.039906
656.003938	5166.671015
656.346203	5130.800685
656.688416	5125.789778
657.030577	5089.367442
657.372687	5056.499118
657.714746	5052.052821
658.056753	5038.683681
658.398708	4975.565914
658.740612	4955.484478
659.082465	4953.273932
659.424266	4918.953756
659.766016	4903.668978
660.107715	4880.157036
660.449362	4871.748392
660.790958	4853.569991
661.132503	4828.379345
661.473996	4809.248166
661.815438	4797.494716
662.156829	4789.910300
662.498168	4757.795630
662.839456	4740.433896
663.180693	4727.866299
663.521879	4718.101584
663.863013	4691.411195
664.204097	4675.861756
664.545129	4685.921379
664.886110	4663.853728
665.227040	4650.903003
665.567918	4637.523781
665.908746	4625.997183
666.249522	4613.074185
666.590248	4601.209829
666.930922	4589.834466
667.271545	4571.114141
667.612118	4559.829518
667.952639	4529.305332
668.293109	4515.134648
668.633528	4484.131552
668.973896	4465.711176
669.314213	4452.228610
669.654480	4422.266512
669.994695	4403.132813
670.334859	4380.848392
670.674973	4355.917366
671.015035	4347.854040
671.355047	4328.932069
671.695008	4310.549502
672.034918	4288.033188
672.374777	4274.195221
672.714585	4253.493722
673.054342	4251.409205
673.394049	4224.257551
673.733705	4221.709247
674.073310	4194.655895
674.412864	4179.971014
674.752368	4148.262156
675.091820	4148.252074
675.431223	4114.509111
675.770574	4081.371086
676.109875	4058.431315
676.449125	4031.995505
676.788324	4010.290817
677.127473	3971.506700
677.466571	3955.881643
677.805619	3928.936676
678.144616	3913.420004
678.483562	3894.107344
678.822458	3867.202706
679.161303	3856.606201
679.500098	3833.835309
679.838842	3815.951815
680.177535	3806.590393
680.516179	3806.857574
680.854771	3794.627735
681.193314	3818.719409
681.531805	3840.598017
681.870247	3867.427037
682.208638	3892.045512
682.546978	3899.498858
682.885268	3896.421234
683.223508	3863.273127
683.561697	3840.454344
683.899836	3822.903567
684.237925	3792.374339
684.575963	3774.014457
684.913951	3745.680651
685.251889	3741.272162
685.589776	3730.738671
685.927614	3721.178123
686.265401	3716.252916
686.603137	3709.205383
686.940824	3718.360118
687.278460	3722.672825
687.616046	3722.037640
687.953582	3744.410281
688.291068	3734.335535
688.628504	3740.954570
688.965889	3733.901995
689.303224	3710.531206
689.640510	3692.204091
689.977745	3655.043226
690.314930	3618.073924
690.652065	3588.865479
690.989150	3555.392217
691.326185	3509.946215
691.663170	3471.025987
692.000105	3439.112963
692.336990	3408.230854
692.673825	3381.167420
693.010610	3353.977956
693.347345	3324.235149
693.684030	3295.311528
694.020665	3278.920217
694.357251	3248.716143
694.693786	3240.274731
695.030272	3227.939028
695.366707	3206.408260
695.703093	3189.101979
696.039429	3180.834486
696.375716	3169.547343
696.711952	3161.937721
697.048139	3152.387255
697.384276	3144.278559
697.720363	3142.279742
698.056400	3136.978968
698.392388	3125.165024
698.728326	3117.061370
699.064214	3110.202880
699.400053	3102.426900
699.735842	3087.847883
700.071581	3073.132755
700.407270	3061.528019
700.742910	3048.027809
701.078501	3035.490459
701.414042	3024.525950
701.749533	3009.848630
702.084974	2997.694408
702.420366	2994.737772
702.755709	2981.345946
703.091002	2967.495376
703.426246	2964.072433
703.761440	2958.849797
704.096584	2947.605504
704.431679	2940.615944
704.766725	2936.691406
705.101721	2926.972061
705.436668	2926.578851
705.771565	2915.921852
706.106413	2919.617018
706.441212	2912.745925
706.775961	2915.044691
707.110661	2913.600400
707.445311	2911.687283
707.779913	2905.670665
708.114465	2907.929102
708.448967	2908.710481
708.783421	2919.513674
709.117825	2922.692121
709.452180	2926.346958
709.786485	2928.335693
710.120742	2943.887653
710.454949	2946.859413
710.789107	2951.565330
711.123216	2963.374233
711.457275	2968.485963
711.791286	2985.507419
712.125247	2984.733602
712.459159	2981.827377
712.793023	2994.689881
713.126837	2970.348669
713.460602	2969.229533
713.794318	2960.982205
714.127985	2947.618107
714.461602	2923.841504
714.795171	2915.747932
715.128691	2895.842936
715.462162	2879.234855
715.795584	2863.377905
716.128957	2857.068901
716.462281	2845.950636
716.795556	2836.463185
717.128782	2825.556648
717.461960	2814.791264
717.795088	2812.011068
718.128167	2800.809624
718.461198	2793.114303
718.794180	2787.405196
719.127113	2780.584515
719.459997	2776.682662
719.792833	2767.747217
720.125619	2770.837444
720.458357	2757.493510
720.791046	2756.971750
721.123686	2751.590319
721.456278	2749.440267
721.788821	2743.776530
722.121315	2742.584297
722.453761	2739.330232
722.786158	2736.794532
723.118506	2734.263873
723.450805	2735.655231
723.783056	2733.946280
724.115259	2730.969479
724.447412	2729.961248
724.779518	2731.937380
725.111574	2728.300188
725.443582	2732.804459
725.775542	2729.618450
726.107453	2735.183883
726.439315	2731.771022
726.771129	2739.410891
727.102895	2740.429204
727.434612	2741.855851
727.766281	2746.987745
728.097901	2745.056983
728.429473	2742.508680
728.760996	2745.147724
729.092471	2742.319637
729.423897	2744.013464
729.755276	2738.508524
730.086606	2740.028432
730.417887	2742.808629
730.749120	2743.461458
731.080305	2743.562281
731.411442	2742.627147
731.742530	2745.828280
732.073570	2745.656881
732.404562	2746.317272
732.735506	2743.491705
733.066401	2742.301993
733.397249	2733.502659
733.728048	2725.777090
734.058798	2717.890205
734.389501	2709.042980
734.720156	2701.072916
735.050762	2695.212575
735.381320	2693.226360
735.711831	2687.834846
736.042293	2682.801254
736.372707	2681.561130
736.703073	2678.004596
737.033391	2676.792198
737.363661	2678.165913
737.693883	2677.976870
738.024056	2681.114988
738.354182	2680.053825
738.684260	2682.740760
739.014290	2685.168076
739.344272	2688.767459
739.674207	2689.077490
740.004093	2693.385156
740.333931	2691.590506
740.663722	2691.487162
740.993464	2687.504650
741.323159	2689.100176
741.652806	2684.333765
741.982405	2684.396779
742.311956	2678.206242
742.641460	2676.986283
742.970915	2672.426559
743.300323	2668.136537
743.629683	2666.886331
743.958996	2663.967503
744.288260	2660.070691
744.617477	2655.032058
744.946647	2651.704896
745.275768	2652.939979
745.604842	2646.704072
745.933869	2643.626447
746.262847	2642.109060
746.591778	2647.682056
746.920662	2646.494864
747.249498	2643.490336
747.578286	2644.891777
747.907027	2645.905049
748.235720	2645.519401
748.564365	2646.646098
748.892963	2646.373876
749.221514	2646.290697
749.550017	2644.125522
749.878473	2646.179792
750.206881	2640.407671
750.535242	2640.629481
750.863555	2638.461785
751.191821	2636.367186
751.520039	2638.781898
751.848210	2638.718884
752.176334	2637.514048
752.504411	2636.556229
752.832440	2634.854840
753.160421	2637.261991
753.488356	2635.749644
753.816243	2631.946094
754.144082	2633.801238
754.471875	2631.598254
754.799620	2632.195631
755.127318	2629.314612
755.454969	2629.886782
755.782572	2631.991464
756.110129	2629.491052
756.437638	2627.988788
756.765100	2629.153295
757.092515	2630.496762
757.419882	2629.143212
757.747203	2629.483490
758.074477	2630.020373
758.401703	2631.736886
758.728882	2628.692029
759.056014	2631.381485
759.383099	2629.720424
759.710138	2630.930301
760.037129	2631.046248
760.364073	2632.480456
760.690970	2631.991464
761.017820	2634.194448
761.344623	2634.252422
761.671379	2634.539767
761.998088	2629.937194
762.324751	2636.659573
762.651366	2653.454177
762.977935	2669.691733
763.304456	2684.560617
763.630931	2696.142667
763.957359	2690.357943
764.283740	2683.907787
764.610074	2673.228103
764.936362	2665.225271
765.262602	2655.899136
765.588796	2646.497384
765.914943	2637.345170
766.241044	2632.001547
766.567097	2623.466873
766.893104	2621.062243
767.219064	2618.342540
767.544978	2616.457149
767.870845	2615.413630
768.196665	2611.703341
768.522438	2611.400871
768.848165	2612.202415
769.173846	2609.293669
769.499479	2607.272166
769.825066	2603.428287
770.150607	2603.211517
770.476101	2607.335181
770.801548	2606.483226
771.126949	2600.567432
771.452303	2603.960128
771.777611	2601.318564
772.102872	2601.873091
772.428087	2600.040631
772.753256	2599.907041
773.078378	2597.537698
773.403453	2598.777822
773.728482	2596.680702
774.053465	2594.434868
774.378401	2594.633994
774.703291	2592.925042
775.028135	2594.371854
775.352932	2595.559045
775.677683	2595.735486
776.002388	2591.621904
776.327046	2592.917481
776.651658	2594.490321
776.976224	2593.938314
777.300743	2590.016297
777.625216	2591.473190
777.949643	2591.193406
778.274024	2593.040989
778.598359	2591.432861
778.922647	2588.231728
779.246889	2589.378591
779.571086	2585.317941
779.895236	2585.804413
780.219339	2592.902357
780.543397	2589.446646
780.867409	2590.795155
781.191374	2592.879672
781.515294	2590.774990
781.839167	2592.367995
782.162995	2592.294898
782.486776	2592.345310
782.810511	2590.802717
783.134201	2591.710124
783.457844	2590.280957
783.781441	2591.944538
784.104993	2589.557552
784.428498	2587.379773
784.751958	2588.781214
785.075372	2591.553849
785.398739	2588.738364
785.722061	2590.054105
786.045337	2588.347675
786.368568	2587.641913
786.691752	2591.082501
787.014891	2589.749116
787.337983	2591.158118
787.661030	2591.687439
787.984031	2594.868407
788.306987	2597.835126
788.629897	2597.260435
788.952760	2599.440734
789.275579	2595.306988
789.598351	2597.018459
789.921078	2594.729776
790.243759	2593.436720
790.566395	2592.420927
790.888984	2589.804568
791.211529	2589.716348
791.534027	2589.839856
791.856480	2590.091914
792.178888	2588.929928
792.501249	2586.910946
792.823566	2587.969588
793.145836	2591.490834
793.468062	2587.732654
793.790241	2587.165524
794.112375	2587.150401
794.434464	2586.890781
794.756507	2586.731985
795.078505	2590.369177
795.400457	2587.092427
795.722364	2585.292736
796.044226	2589.464290
796.366042	2588.332551
796.687812	2585.582602
797.009538	2588.609815
797.331218	2590.301122
797.652852	2591.642069
797.974442	2588.723241
798.295986	2591.344641
798.617484	2590.825402
798.938938	2589.726430
799.260346	2586.369022
799.581709	2589.555031
799.903026	2589.494537
800.224299	2586.837849
800.545526	2584.392890
800.866708	2586.240472
801.187845	2585.285174
801.508936	2586.157293
801.829983	2586.580750
802.150984	2584.334916
802.471940	2584.211408
802.792851	2583.170410
803.113717	2588.619897
803.434538	2582.961202
803.755314	2586.900864
804.076045	2583.694690
804.396731	2586.341296
804.717372	2582.426840
805.037967	2582.883064
805.358518	2582.482292
805.679024	2585.733837
805.999485	2583.364494
806.319901	2584.241655
806.640272	2586.711820
806.960598	2587.110072
807.280879	2583.419947
807.601115	2588.652665
807.921306	2585.267530
808.241453	2586.152252
808.561554	2585.617890
808.881611	2585.882551
809.201623	2584.113106
809.521590	2583.460276
809.841513	2584.818867
810.161390	2583.036819
810.481223	2582.840214
810.801011	2584.750812
811.120755	2581.781572
811.440453	2585.282653
811.760107	2582.898188
812.079716	2579.175295
812.399281	2579.026581
812.718801	2581.252251
813.038276	2580.654874
813.357707	2582.754515
813.677093	2583.167889
813.996434	2584.503795
814.315731	2581.453897
814.634983	2582.028588
814.954191	2584.743250
815.273354	2584.811305
815.592473	2582.482292
815.911547	2581.958012
816.230577	2581.259812
816.549562	2585.648137
816.868502	2587.810792
817.187399	2587.616707
817.506250	2585.930442
817.825058	2585.746439
818.143821	2586.404310
818.462539	2588.317428
818.781213	2590.727099
819.099843	2591.274065
819.418429	2593.345979
819.736970	2597.411669
820.055466	2600.360744
820.373919	2605.613627
820.692327	2614.034874
821.010691	2620.177520
821.329011	2647.377066
821.647286	2688.805268
821.965517	2746.166037
822.283704	2787.238838
822.601847	2811.617858
822.919945	2795.871814
823.237999	2777.421191
823.556010	2756.114754
823.873976	2733.167422
824.191897	2712.806202
824.509775	2693.054961
824.827609	2673.558298
825.145398	2662.498007
825.463144	2650.731954
825.780845	2648.087868
826.098502	2648.430667
826.416116	2656.725886
826.733685	2669.714418
827.051210	2673.064265
827.368692	2673.659121
827.686129	2660.778973
828.003522	2650.038795
828.320872	2635.250570
828.638177	2628.613891
828.955439	2618.818929
829.272656	2611.892384
829.589830	2605.157402
829.906960	2603.181270
830.224046	2597.391505
830.541088	2597.767071
830.858086	2593.247676
831.175041	2593.136771
831.491952	2592.907398
831.808819	2588.907243
832.125642	2591.074939
832.442421	2592.315063
832.759157	2595.894282
833.075849	2604.262598
833.392497	2614.922117
833.709101	2624.086935
834.025662	2626.700773
834.342179	2626.007615
834.658653	2618.418157
834.975083	2611.894904
835.291469	2608.832403
835.607811	2601.454675
835.924110	2598.422421
836.240366	2595.793459
836.556578	2592.534353
836.872746	2588.183837
837.188871	2585.519587
837.504952	2584.861717
837.820990	2583.412385
838.136984	2578.620768
838.452935	2580.526325
838.768842	2582.013465
839.084706	2580.244020
839.400526	2584.057653
839.716303	2589.187027
840.032037	2594.167687
840.347727	2593.126689
840.663373	2595.117944
840.978977	2588.486307
841.294537	2588.904722
841.610054	2585.907756
841.925527	2584.408013
842.240957	2582.457087
842.556344	2580.516242
842.871687	2578.567836
843.186987	2577.428536
843.502244	2579.772672
843.817458	2577.758731
844.132629	2572.954512
844.447756	2574.910479
844.762840	2568.581311
845.077881	2572.946950
845.392879	2570.539799
845.707833	2569.040056
846.022745	2570.832186
846.337613	2570.864953
846.652438	2572.289079
846.967221	2574.955850
847.281960	2572.369738
847.596656	2574.650860
847.911309	2569.803790
848.225919	2573.088102
848.540485	2571.033832
848.855009	2570.791857
849.169490	2573.609862
849.483928	2573.153637
849.798323	2573.677917
850.112675	2571.404357
850.426984	2572.704974
850.741251	2575.210428
851.055474	2572.125242
851.369654	2573.057855
851.683792	2569.821434
851.997887	2574.837382
852.311938	2570.287741
852.625947	2573.105746
852.939914	2573.138514
853.253837	2575.885943
853.567718	2571.994172
853.881555	2573.645150
854.195350	2572.911662
854.509103	2573.148596
854.822812	2573.493915
855.136479	2571.525344
855.450103	2573.259501
855.763685	2572.158009
856.077224	2569.554253
856.390720	2572.583987
856.704173	2571.212793
857.017584	2570.996023
857.330953	2572.324367
857.644278	2572.667166
857.957561	2572.571384
858.270802	2570.570046
858.584000	2571.905952
858.897155	2570.544840
859.210268	2569.982751
859.523339	2573.062896
859.836367	2572.505849
860.149352	2575.669173
860.462295	2573.884604
860.775195	2572.372258
861.088054	2568.447720
861.400869	2569.687844
861.713642	2568.225909
862.026373	2567.026115
862.339062	2569.728173
862.651708	2572.737742
862.964312	2570.927968
863.276873	2573.866960
863.589392	2575.961560
863.901869	2570.917885
864.214303	2571.137176
864.526696	2571.868143
864.839045	2574.005592
865.151353	2571.250602
865.463619	2576.402661
865.775842	2574.048442
866.088023	2571.832855
866.400162	2572.992320
866.712258	2573.171281
867.024313	2574.204718
867.336325	2572.989800
867.648296	2571.374110
867.960224	2573.012485
868.272110	2573.803946
868.583954	2573.950139
868.895755	2573.347722
869.207515	2573.398133
869.519233	2573.992989
869.830909	2576.195973
870.142542	2575.177660
870.454134	2572.150447
870.765684	2573.604820
871.077191	2574.686148
871.388657	2575.530541
871.700081	2572.710016
872.011463	2575.674214
872.322803	2575.517938
872.634101	2574.126580
872.945357	2573.622464
873.256571	2578.013309
873.567744	2576.861406
873.878874	2578.275449
874.189963	2575.674214
874.501010	2580.125553
874.812015	2575.487691
875.122979	2576.032136
875.433900	2577.557085
875.744780	2578.714030
876.055618	2576.208576
876.366415	2575.185222
876.677169	2577.335274
876.987882	2571.830334
877.298554	2576.143041
877.609183	2572.142886
877.919771	2574.121539
878.230317	2571.878225
878.540822	2582.792323
878.851285	2581.237127
879.161707	2582.061356
879.472087	2587.926738
879.782425	2589.696183
880.092722	2597.842688
880.402977	2611.108484
880.713191	2626.859570
881.023363	2644.816160
881.333494	2662.639159
881.643583	2668.751558
881.953631	2672.718946
882.263637	2669.701816
882.573602	2662.303922
882.883526	2661.078922
883.193408	2652.914773
883.503248	2647.974443
883.813048	2640.105201
884.122806	2633.755868
884.432522	2626.335290
884.742197	2620.913529
885.051831	2614.352467
885.361424	2608.058586
885.670975	2605.175046
885.980485	2599.430652
886.289954	2595.455702
886.599382	2590.669126
886.908768	2589.996132
887.218113	2586.704259
887.527417	2585.728795
887.836680	2583.641758
888.145901	2579.492888
888.455082	2580.244020
888.764221	2579.976839
889.073319	2578.832497
889.382376	2580.485995
889.691392	2578.923238
890.000366	2580.405337
890.309300	2578.376272
890.618193	2577.070614
890.927044	2577.110943
891.235855	2579.923907
891.544625	2580.208732
891.853353	2577.521797
892.162041	2578.003227
892.470687	2578.691345
892.779293	2580.309555
893.087858	2578.716550
893.396381	2581.824422
893.704864	2586.311049
894.013306	2587.815833
894.321707	2597.923347
894.630068	2600.990889
894.938387	2603.304778
895.246665	2604.053390
895.554903	2601.033738
895.863100	2598.911413
896.171256	2597.666248
896.479371	2598.387133
896.787446	2594.560897
897.095480	2593.005701
897.403473	2589.466811
897.711425	2592.022676
898.019336	2585.315421
898.327207	2587.883889
898.635038	2586.114444
898.942827	2582.663774
899.250576	2583.319124
899.558284	2581.443815
899.865952	2581.032961
900.173579	2581.219483
900.481165	2578.270408
900.788711	2578.383834
901.096216	2576.934502
901.403681	2577.284863
901.711105	2577.705799
902.018489	2578.187229
902.325832	2580.644792
902.633135	2579.465162
902.940397	2577.567167
903.247619	2578.923238
903.554800	2587.694845
903.861941	2594.553335
904.169041	2605.447269
904.476101	2609.248299
904.783121	2609.081941
905.090100	2608.635798
905.397039	2605.364090
905.703938	2600.816969
906.010796	2598.198089
906.317614	2596.544591
906.624391	2593.751792
906.931129	2592.068046
907.237826	2586.437078
907.544483	2587.198292
907.851099	2583.243507
908.157675	2580.760738
908.464211	2581.859710
908.770707	2575.553226
909.077163	2572.457958
909.383578	2570.524675
909.689954	2571.492577
909.996289	2568.142730
910.302584	2573.718246
910.608839	2569.105591
910.915054	2570.567525
911.221229	2571.303534
911.527363	2572.218503
911.833458	2571.394274
912.139513	2570.900241
912.445527	2569.413101
912.751502	2574.277814
913.057436	2572.110118
913.363331	2574.625654
913.669186	2576.054821
913.975000	2576.493402
914.280775	2579.250913
914.586510	2580.392734
914.892205	2584.397931
915.197859	2592.756164
915.503475	2597.235229
915.809050	2602.667072
916.114585	2605.956425
916.420081	2607.690582
916.725536	2610.415326
917.030952	2610.498505
917.336328	2609.565891
917.641665	2606.195880
917.946961	2603.125817
918.252218	2601.439551
918.557435	2601.830241
918.862612	2595.685074
919.167750	2594.583582
919.472848	2593.124168
919.777906	2591.747933
920.082925	2589.560072
920.387904	2584.970102
920.692843	2582.792323
920.997743	2581.501788
921.302603	2579.132446
921.607423	2575.596076
921.912204	2578.847620
922.216946	2575.147413
922.521647	2574.290417
922.826310	2573.929975
923.130932	2575.555747
923.435516	2574.562640
923.740059	2569.773543
924.044564	2571.870663
924.349028	2574.688668
924.653454	2566.272462
924.957840	2568.351938
925.262186	2567.973852
925.566493	2568.049469
925.870761	2565.246587
926.174989	2570.413770
926.479178	2568.195662
926.783328	2567.789849
927.087438	2570.446537
927.391509	2569.297154
927.695541	2568.949315
927.999533	2568.714901
928.303486	2568.929150
928.607400	2569.135837
928.911275	2566.564849
929.215110	2567.994016
929.518906	2567.094170
929.822663	2571.139696
930.126381	2568.704819
930.430060	2566.378326
930.733699	2568.185580
931.037299	2566.249777
931.340861	2565.743141
931.644383	2566.456464
931.947866	2565.120558
932.251309	2567.341187
932.554714	2568.160374
932.858080	2570.801939
933.161407	2567.217678
933.464694	2567.850343
933.767943	2567.447051
934.071153	2569.287072
934.374323	2567.716753
934.677455	2566.297668
934.980548	2565.407904
935.283602	2567.923440
935.586617	2567.779767
935.889593	2567.764644
936.192530	2566.637946
936.495428	2569.392936
936.798287	2565.745662
937.101108	2565.599468
937.403890	2567.010991
937.706632	2566.108625
938.009336	2568.246074
938.312002	2569.092988
938.614628	2569.385375
938.917216	2568.951835
939.219765	2572.289079
939.522275	2571.406877
939.824747	2571.348904
940.127179	2568.046948
940.429573	2568.823286
940.731929	2567.532751
941.034246	2567.346228
941.336524	2568.523337
941.638763	2572.145406
941.940964	2569.955025
942.243126	2568.528378
942.545250	2569.453430
942.847335	2569.163564
943.149381	2567.071485
943.451389	2568.006619
943.753359	2568.745148
944.055290	2569.982751
944.357182	2570.993503
944.659036	2567.792370
944.960851	2568.886300
945.262628	2566.592575
945.564367	2568.432597
945.866067	2567.258008
946.167729	2568.175498
946.469352	2569.458471
946.770937	2568.697257
947.072484	2564.583676
947.373992	2567.510065
947.675462	2564.808007
947.976893	2571.938719
948.278286	2563.885476
948.579641	2567.976372
948.880958	2564.858418
949.182236	2566.748851
949.483476	2569.758420
949.784678	2567.671382
950.085841	2566.537123
950.386967	2569.632391
950.688054	2568.087277
950.989103	2570.113821
951.290114	2568.160374
951.591087	2568.757751
951.892021	2569.123235
952.192917	2568.583831
952.493776	2570.197000
952.794596	2566.920250
953.095378	2569.574418
953.396122	2569.453430
953.696828	2569.392936
953.997496	2569.322360
954.298126	2567.003429
954.598718	2566.486711
954.899272	2568.235992
955.199788	2566.585014
955.500266	2568.273800
955.800706	2564.687019
956.101108	2564.019066
956.401472	2564.818089
956.701798	2562.579817
957.002087	2563.260373
957.302337	2564.855898
957.602550	2564.432441
957.902724	2566.547205
958.202861	2565.448233
958.502960	2566.781619
958.803022	2566.728687
959.103045	2564.528223
959.403031	2564.495455
959.702979	2563.459498
960.002889	2563.232646
960.302762	2562.854560
960.602596	2562.645352
960.902393	2562.726010
961.202153	2562.380691
961.501875	2564.084601
961.801559	2561.672409
962.101205	2565.264231
962.400814	2564.651731
962.700385	2562.599982
962.999918	2563.842626
963.299414	2564.127451
963.598873	2564.608881
963.898293	2563.393963
964.197677	2563.696433
964.497022	2562.000084
964.796331	2561.644683
965.095601	2563.598130
965.394835	2563.351113
965.694030	2562.910013
965.993189	2563.358675
966.292309	2564.155177
966.591393	2566.033007
966.890439	2562.778942
967.189447	2562.390774
967.488419	2562.058057
967.787353	2562.494117
968.086249	2561.967317
968.385108	2562.746175
968.683930	2565.090312
968.982714	2563.252811
969.281462	2561.127965
969.580172	2561.057388
969.878844	2563.527554
970.177480	2560.802810
970.476078	2565.533933
970.774639	2562.970506
971.073162	2563.449416
971.371649	2560.089487
971.670098	2557.833571
971.968510	2559.434137
972.266885	2557.931873
972.565223	2562.264745
972.863524	2560.349106
973.161788	2565.082750
973.460014	2563.310784
973.758204	2563.169632
974.056356	2562.920095
974.354471	2560.732234
974.652550	2560.618808
974.950591	2564.634087
975.248595	2563.376319
975.546563	2562.337842
975.844493	2560.850701
976.142386	2564.339180
976.440243	2562.254662
976.738062	2564.170301
977.035845	2563.446895
977.333590	2562.920095
977.631299	2562.352965
977.928971	2562.347924
978.226606	2560.800290
978.524204	2563.525033
978.821765	2560.976730
979.119290	2562.393294
979.416777	2563.151988
979.714228	2564.326577
980.011642	2564.165260
980.309020	2564.135013
980.606360	2561.899261
980.903664	2561.458160
981.200931	2561.904302
981.498162	2561.410269
981.795356	2562.904971
982.092513	2566.663152
982.389633	2563.640980
982.686717	2567.595765
982.983764	2567.310940
983.280775	2566.494273
983.577749	2566.774057
983.874686	2566.864798
984.171587	2568.525858
984.468451	2568.498132
984.765279	2569.186249
985.062070	2566.368244
985.358824	2563.774570
985.655543	2564.394632
985.952224	2561.163253
986.248869	2563.333469
986.545478	2557.153015
986.842050	2557.997408
987.138586	2557.636966
987.435086	2559.973540
987.731549	2557.052192
988.027975	2559.343396
988.324366	2559.489590
988.620719	2562.191648
988.917037	2562.133675
989.213318	2559.053530
989.509563	2561.926987
989.805772	2562.489076
990.101944	2558.531770
990.398080	2557.848694
990.694180	2562.015208
990.990244	2556.767367
991.286271	2561.498489
991.582262	2558.869528
991.878217	2559.111503
992.174136	2559.683674
992.470019	2559.310629
992.765865	2559.804662
993.061676	2560.696946
993.357450	2558.083108
993.653188	2559.262738
993.948890	2562.249621
994.244556	2558.367933
994.540186	2560.389436
994.835780	2560.155022
995.131337	2561.639642
995.426859	2563.434292
995.722345	2559.910526
996.017795	2562.365568
996.313208	2563.640980
996.608586	2565.370096
996.903928	2562.776422
997.199234	2562.121072
997.494504	2563.114179
997.789738	2563.099056
998.084936	2563.703994
998.380099	2562.075702
998.675225	2561.848850
998.970316	2562.683161
999.265371	2558.337686
999.560390	2562.862122
999.855373	2563.409087
1000.150320	2561.609395
1000.445232	2561.143088
1000.740108	2560.737275
1001.034948	2561.518654
1001.329752	2559.577810
1001.624521	2561.621998
1001.919254	2555.572613
1002.213951	2554.667726
1002.508613	2555.567572
1002.803239	2556.444733
1003.097829	2554.791234
1003.392384	2561.337172
1003.686903	2557.505896
1003.981386	2561.039744
1004.275834	2559.217367
1004.570246	2561.616957
1004.864623	2556.147305
1005.158964	2555.839794
1005.453270	2561.463201
1005.747540	2558.599826
1006.041775	2563.129303
1006.335974	2559.166956
1006.630138	2560.291133
1006.924266	2558.708211
1007.218359	2558.451112
1007.512416	2557.175700
1007.806438	2560.278530
1008.100425	2560.424724
1008.394376	2558.191493
1008.688292	2558.067984
1008.982172	2557.987326
1009.276017	2557.281564
1009.569827	2560.918757
1009.863602	2559.078736
1010.157341	2557.757953
1010.451045	2560.223077
1010.744714	2557.999929
1011.038347	2558.514126
1011.331945	2556.911039
1011.625508	2559.373643
1011.919036	2560.041596
1012.212528	2558.322563
1012.505986	2558.708211
1012.799408	2556.961451
1013.092795	2555.378529
1013.386147	2555.345761
1013.679464	2559.862635
1013.972745	2560.240722
1014.265992	2558.589744
1014.559204	2558.327604
1014.852380	2557.137891
1015.145521	2558.614949
1015.438628	2554.208981
1015.731699	2562.284909
1016.024736	2554.501368
1016.317737	2561.700136
1016.610703	2560.480176
1016.903635	2554.624876
1017.196531	2554.135884
1017.489393	2552.215205
1017.782219	2550.491130
1018.075011	2553.241079
1018.367768	2557.331976
1018.660490	2557.316852
1018.953177	2557.316852
1019.245829	2557.316852
