Dividing Wavelength (nm)	Counts (n)	Blue Motor Position (mm): 0.000000	Red Motor Position (mm): 40.000000	
326.493990	2077.018399
326.888308	2077.018399
327.282561	2077.018399
327.676750	2052.962013
328.070874	2055.805224
328.464933	2061.373178
328.858929	2074.152503
329.252859	2086.183217
329.646726	2100.379106
330.040528	2114.118771
330.434265	2133.915382
330.827938	2154.062353
331.221547	2172.528100
331.615091	2196.108097
332.008571	2215.529142
332.401986	2234.244426
332.795338	2256.599423
333.188625	2276.451486
333.581847	2293.442695
333.975006	2313.632517
334.368100	2331.589107
334.761129	2345.921107
335.154095	2362.592203
335.546996	2390.505072
335.939833	2439.747062
336.332606	2451.664350
336.725315	2466.152626
337.117960	2472.852320
337.510540	2480.764411
337.903056	2489.669609
338.295508	2492.767398
338.687896	2505.282062
339.080220	2509.977897
339.472480	2515.954185
339.864676	2518.981398
340.256807	2523.783097
340.648875	2525.451719
341.040879	2525.061029
341.432818	2528.988088
341.824694	2531.465815
342.216506	2527.760567
342.608253	2526.568334
342.999937	2526.865763
343.391557	2527.296781
343.783113	2525.718900
344.174605	2524.932480
344.566033	2523.329393
344.957397	2520.960051
345.348697	2521.358302
345.739934	2518.570544
346.131106	2515.200532
346.522215	2516.186078
346.913260	2512.493433
347.304241	2514.509894
347.695159	2509.478823
348.086012	2508.198370
348.476802	2507.971518
348.867528	2508.389934
349.258191	2504.646877
349.648789	2504.989675
350.039324	2504.397340
350.429796	2503.779798
350.820203	2503.953718
351.210548	2503.250477
351.600828	2503.056393
351.991045	2502.101094
352.381198	2498.055568
352.771288	2504.916579
353.161314	2503.603358
353.551276	2499.943480
353.941175	2503.744510
354.331010	2499.837616
354.720782	2503.212669
355.110490	2501.042452
355.500135	2502.174191
355.889717	2501.813748
356.279235	2506.645694
356.668689	2504.087309
357.058080	2505.014881
357.447408	2501.627226
357.836672	2504.447751
358.225873	2504.992196
358.615010	2503.033708
359.004084	2507.999244
359.393095	2508.465551
359.782043	2509.534276
360.170927	2509.619975
360.559748	2513.426046
360.948505	2514.953516
361.337199	2512.919410
361.725830	2515.137518
362.114398	2515.281191
362.502903	2517.388393
362.891344	2518.520132
363.279722	2517.625328
363.668037	2517.194309
364.056289	2517.922756
364.444478	2520.574403
364.832603	2517.514422
365.220665	2522.757222
365.608665	2525.088756
365.996601	2524.773684
366.384474	2526.321318
366.772284	2525.681091
367.160031	2524.871986
367.547715	2527.616894
367.935336	2529.096473
368.322893	2528.292409
368.710388	2531.312060
369.097820	2531.501103
369.485189	2531.612009
369.872495	2532.108563
370.259738	2532.431196
370.646918	2535.065199
371.034035	2539.871939
371.421090	2543.085675
371.808081	2545.041643
372.195010	2549.833259
372.581875	2555.217212
372.968678	2562.912533
373.355418	2563.822461
373.742096	2574.663463
374.128710	2584.592015
374.515262	2594.817996
374.901751	2606.452979
375.288177	2620.439660
375.674540	2638.854995
376.060841	2659.228818
376.447079	2678.085254
376.833254	2701.849254
377.219367	2722.011348
377.605417	2753.780700
377.991404	2778.252981
378.377329	2815.282777
378.763191	2849.297962
379.148991	2894.247411
379.534727	2937.434976
379.920402	2979.500884
380.306013	3025.897143
380.691563	3088.604056
381.077049	3139.870070
381.462474	3193.742361
381.847835	3260.517485
382.233134	3329.775377
382.618371	3386.684963
383.003545	3466.557004
383.388657	3542.993499
383.773706	3627.780666
384.158693	3698.268599
384.543618	3787.978453
384.928480	3864.946790
385.313280	3963.617294
385.698017	4057.483578
386.082692	4177.284079
386.467305	4234.649889
386.851856	4353.485009
387.236344	4501.778111
387.620770	4561.626689
388.005133	4677.474925
388.389435	4817.225792
388.773674	4896.926435
389.157851	5018.871946
389.541965	5145.893900
389.926018	5170.303167
390.310008	5345.689950
390.693936	5463.940296
391.077802	5573.839970
391.461606	5701.310586
391.845348	5805.102903
392.229027	5928.540596
392.612645	6137.372915
392.996200	6250.113279
393.379694	6423.730618
393.763125	6633.954295
394.146494	6725.327729
394.529801	6849.937490
394.913047	7091.965807
395.296230	7091.799449
395.679351	7144.061091
396.062410	7385.691156
396.445408	7290.456198
396.828343	7443.608973
397.211217	7572.158396
397.594028	7461.013557
397.976778	7665.906213
398.359466	7822.524781
398.742092	7806.942575
399.124656	7946.542207
399.507158	8136.424828
399.889598	8156.302098
400.271977	8369.910910
400.654294	8399.222699
401.036549	8595.250487
401.418742	8617.134136
401.800874	8912.888549
402.182944	9001.819544
402.564952	9353.427422
402.946898	9191.185447
403.328783	9246.088654
403.710606	9438.365823
404.092367	9690.925111
404.474067	10044.441065
404.855705	9855.919555
405.237282	9807.572369
405.618797	10225.179033
406.000250	10469.125509
406.381642	10824.685652
406.762972	10772.988619
407.144240	10588.857954
407.525447	10841.011428
407.906593	10787.300455
408.287677	11042.236646
408.668700	11191.621158
409.049661	11180.439879
409.430560	11343.180928
409.811399	11309.153139
410.192176	11469.781945
410.572891	11553.502907
410.953545	12030.756504
411.334138	11514.887669
411.714669	12090.259763
412.095139	11443.661206
412.475547	11922.051583
412.855894	11795.357304
413.236180	12113.887651
413.616405	11802.601442
413.996568	12082.393042
414.376670	12058.984445
414.756711	11949.808176
415.136691	12224.498128
415.516609	12386.019218
415.896466	12481.818785
416.276262	12753.579827
416.655997	13219.949573
417.035670	13266.055966
417.415283	13880.282753
417.794834	13963.247542
418.174324	13716.447774
418.553753	13629.339156
418.933121	14111.742291
419.312428	13940.527062
419.691674	13849.887116
420.070859	14307.858299
420.449983	13972.346825
420.829045	14527.087997
421.208047	14282.138332
421.586988	14732.318412
421.965867	14977.837727
422.344686	14976.030474
422.723444	15548.965170
423.102141	14249.385955
423.480777	15433.880669
423.859352	14935.819710
424.237866	16039.729059
424.616319	15755.438229
424.994712	16392.932462
425.373044	16192.140783
425.751314	16886.468985
426.129524	16021.628796
426.507673	17080.654231
426.885762	16819.396433
427.263789	16995.340264
427.641756	17185.742124
428.019662	17237.930669
428.397508	17294.258002
428.775292	17565.104075
429.153016	17553.728711
429.530679	17639.219118
429.908282	17666.146442
430.285824	17399.376142
430.663305	18108.250593
431.040726	17720.074185
431.418086	17561.237510
431.795385	18198.885498
432.172624	18636.989493
432.549802	18197.524386
432.926920	18417.636287
433.303977	18290.478222
433.680974	18550.405156
434.057910	18856.206589
434.434786	18900.523373
434.811601	18816.096648
435.188355	19855.542242
435.565050	19531.781698
435.941683	19491.868363
436.318257	20388.460259
436.694770	20189.677481
437.071222	20782.756628
437.447614	19855.396049
437.823946	19885.819412
438.200218	20065.024870
438.576429	19834.079530
438.952580	20153.013169
439.328670	20110.990111
439.704700	20539.803260
440.080670	20108.018350
440.456580	20719.636341
440.832429	20889.858462
441.208218	19899.526310
441.583947	20343.296562
441.959616	20469.186777
442.335224	20716.213397
442.710773	20857.839573
443.086261	21404.106566
443.461689	20744.093499
443.837057	20907.918396
444.212365	21557.153476
444.587612	21567.021535
444.962800	21155.509626
445.337927	21593.772418
445.712995	20305.946653
446.088002	22207.842929
446.462949	22402.915419
446.837837	22588.550868
447.212664	22608.130709
447.587431	25561.972120
447.962139	28532.570327
448.336786	30849.832474
448.711374	29183.025366
449.085901	25451.890964
449.460369	25463.488139
449.834776	25459.553518
450.209124	27993.549993
450.583412	27498.324683
450.957640	27982.761924
451.331808	26644.446483
451.705917	25257.045327
452.079965	25296.136955
452.453954	25689.228487
452.827883	25602.150117
453.201752	25395.402315
453.575562	25566.453706
453.949311	26695.364657
454.323001	26769.527592
454.696632	26547.253037
455.070202	28158.196598
455.443713	28333.850563
455.817164	28913.414376
456.190556	29478.207609
456.563888	28891.003927
456.937160	29343.248359
457.310373	27613.928423
457.683526	28056.483757
458.056619	28054.782368
458.429653	28044.281645
458.802628	28656.660849
459.175542	28794.990111
459.548398	30167.444245
459.921194	31796.677113
460.293930	32527.190717
460.666607	34627.559740
461.039224	36426.074554
461.411782	36774.607328
461.784280	35490.138972
462.156719	34935.387718
462.529099	34364.908063
462.901419	33027.096738
463.273680	31979.895329
463.645882	32120.228449
464.018024	32107.950719
464.390106	33049.880233
464.762130	35949.637625
465.134094	40307.644548
465.505999	45797.788762
465.877845	50325.417910
466.249631	51334.722445
466.621358	49483.507409
466.993026	47227.482678
467.364634	45096.347492
467.736184	43127.358500
468.107674	41847.896009
468.479105	41061.813767
468.850477	40346.078305
469.221790	38886.361798
469.593043	37125.660679
469.964238	36216.740641
470.335373	36163.732908
470.706449	38024.508492
471.077467	40783.085850
471.448425	45463.177134
471.819324	48241.830887
472.190164	46265.121368
472.560945	42623.893424
472.931667	39458.666350
473.302330	38363.538691
473.672934	37496.364448
474.043479	38048.232162
474.413965	37252.259176
474.784393	36873.963429
475.154761	37804.293248
475.525070	37864.562763
475.895321	37368.919037
476.265513	38008.565843
476.635645	39003.177935
477.005719	38851.275367
477.375734	39370.244511
477.745691	40085.939643
478.115588	41475.682415
478.485427	43583.792131
478.855207	47071.521981
479.224928	49710.568540
479.594591	51287.653191
479.964194	50168.012922
480.333739	50301.855557
480.703226	50387.320758
481.072653	51033.377391
481.442022	51525.656147
481.811333	51720.222000
482.180584	50444.563060
482.549777	49901.663559
482.918912	49394.767978
483.287988	49070.226055
483.657005	48236.547758
484.025964	47543.031182
484.394864	47554.267914
484.763706	47111.866335
485.132489	46220.726446
485.501213	46068.370174
485.869879	46205.615587
486.238487	45792.931610
486.607036	45989.967629
486.975527	45431.508606
487.343959	45657.775755
487.712333	45721.868985
488.080648	45604.402539
488.448905	46077.557677
488.817104	45865.408279
489.185244	46886.773775
489.553326	48653.325152
489.921350	51427.275509
490.289315	54250.233443
490.657222	54769.550427
491.025070	55004.125397
491.392861	54067.128653
491.760593	52808.307167
492.128267	51100.956579
492.495883	49551.051309
492.863440	48121.543915
493.230939	46743.010149
493.598380	45646.531461
493.965763	45311.834134
494.333088	44483.345705
494.700354	43982.426412
495.067563	43677.900391
495.434713	43530.113924
495.801805	43613.547541
496.168839	43205.393041
496.535815	42855.231974
496.902733	42883.555697
497.269593	42441.643109
497.636395	42389.731828
498.003139	42776.910087
498.369825	42228.009092
498.736453	42516.552135
499.103023	42037.546738
499.469535	41923.949377
499.835989	41997.295645
500.202385	41648.747747
500.568723	41662.187463
500.935003	41851.364323
501.301226	41652.972234
501.667390	42273.891153
502.033497	42490.990964
502.399546	41917.247163
502.765537	41214.674154
503.131470	41591.505445
503.497345	41958.425828
503.863163	40591.529566
504.228923	41233.865827
504.594625	41632.663946
504.960269	40886.048897
505.325856	41591.056783
505.691385	40960.282408
506.056856	41087.863929
506.422270	41518.202027
506.787625	41067.482544
507.152924	41277.121448
507.518164	41371.960675
507.883347	40571.299415
508.248472	40806.713738
508.613540	41305.077166
508.978550	41583.076636
509.343503	41332.148162
509.708398	41526.585466
510.073236	42061.431725
510.438016	42061.046076
510.802738	41508.447395
511.167403	42138.195895
511.532010	42343.345651
511.896561	42655.735872
512.261053	43496.880118
512.625488	43037.114284
512.989866	42911.566868
513.354186	42754.272786
513.718449	42733.984662
514.082655	43414.237962
514.446803	43077.390583
514.810894	43608.264412
515.174927	43504.131817
515.538904	43397.980241
515.902822	44081.646402
516.266684	43520.298798
516.630488	43944.511894
516.994235	43784.062049
517.357925	44353.659502
517.721558	44535.594744
518.085133	44842.036404
518.448651	44960.601822
518.812112	44720.741202
519.175516	44812.623792
519.538863	45142.408515
519.902152	45104.491476
520.265385	45564.758905
520.628560	45594.468945
520.991678	45384.220062
521.354739	45602.696108
521.717743	45921.458348
522.080690	45807.888714
522.443580	46343.110538
522.806413	46382.025725
523.169189	46337.000660
523.531908	46500.225659
523.894569	46356.124277
524.257174	46518.144441
524.619722	46801.764797
524.982213	46780.002136
525.344647	46687.847323
525.707025	46747.186745
526.069345	47145.079977
526.431608	47044.438382
526.793815	47372.514153
527.155964	46904.616939
527.518057	47048.763692
527.880093	46825.581729
528.242072	47351.109414
528.603995	47038.976292
528.965860	47048.549443
529.327669	47136.182341
529.689421	47034.156948
530.051117	46978.467322
530.412755	47131.683111
530.774337	47192.890280
531.135862	47009.851025
531.497331	47185.076492
531.858743	47084.139989
532.220098	47400.442146
532.581396	47128.010630
532.942638	46764.377080
533.303824	47090.973273
533.664953	47032.596711
534.026025	46758.892304
534.387040	47228.760610
534.747999	47174.056529
535.108902	47320.716298
535.469748	46829.118098
535.830537	46936.290508
536.191270	47131.544479
536.551947	46774.267824
536.912567	47077.392404
537.273131	47209.742858
537.633638	46681.724842
537.994089	47004.938421
538.354483	46599.717872
538.714821	47182.051799
539.075103	47520.288017
539.435328	47275.963454
539.795497	47143.396232
540.155609	47136.646127
540.515665	47597.122763
540.875665	47032.879016
541.235609	47355.654014
541.595496	47318.009198
541.955328	47990.191611
542.315102	47332.172320
542.674821	47098.154397
543.034483	47138.047567
543.394090	47113.096377
543.753640	47045.887713
544.113134	48061.904545
544.472571	47036.342289
544.831953	48279.694994
545.191278	47460.815004
545.550548	47193.197791
545.909761	47632.463772
546.268918	47808.331986
546.628019	48122.010222
546.987064	47652.764499
547.346053	46909.111127
547.704986	47765.588042
548.063863	47325.071855
548.422684	47498.026281
548.781449	47314.127510
549.140158	47720.288234
549.498811	47527.207000
549.857408	46942.808720
550.215949	47764.867157
550.574434	47699.851396
550.932864	47420.664734
551.291237	48148.647679
551.649555	47730.743587
552.007817	47947.377091
552.366022	47595.814584
552.724173	47723.010457
553.082267	48109.054457
553.440305	48361.875884
553.798288	47655.789191
554.156215	47953.844892
554.514086	48132.634454
554.871902	47843.368005
555.229661	47857.488277
555.587365	47649.689395
555.945014	47757.202083
556.302606	47664.303700
556.660143	47852.502576
557.017625	47898.397240
557.375050	47672.944237
557.732421	47980.651227
558.089735	47926.945295
558.446994	47838.679732
558.804197	48259.510214
559.161345	48169.926389
559.518437	47395.516938
559.875474	47699.178402
560.232455	47831.410388
560.589381	47987.484511
560.946251	47633.073752
561.303065	48278.245662
561.659825	48032.539824
562.016528	47689.368317
562.373177	47369.060963
562.729770	47839.483796
563.086307	47303.339440
563.442789	47733.145697
563.799216	47735.530163
564.155587	47515.020011
564.511904	47477.337386
564.868164	47532.502732
565.224370	47717.162718
565.580520	47426.870395
565.936615	47601.861448
566.292654	47284.578786
566.648638	47487.480187
567.004567	47401.725119
567.360441	47407.812313
567.716260	47219.033704
568.072023	47450.891493
568.427732	47377.625883
568.783385	46862.576236
569.138982	47224.402533
569.494525	47124.577604
569.850013	46833.670260
570.205445	46758.171419
570.560823	46647.298802
570.916145	46475.176166
571.271412	46460.188816
571.626625	46142.109652
571.981782	46115.948584
572.336884	45750.311175
572.691931	46010.107038
573.046923	45562.661785
573.401860	45346.035842
573.756743	45258.528973
574.111570	45288.261699
574.466342	45077.523824
574.821059	45110.964318
575.175722	44589.653557
575.530330	44524.907498
575.884882	44184.564078
576.239380	44077.212707
576.593823	43981.322399
576.948211	43833.407384
577.302544	43307.869616
577.656823	43237.669028
578.011047	43387.955907
578.365216	43054.985174
578.719330	42756.614402
579.073389	42535.078375
579.427394	42517.157073
579.781344	42403.670618
580.135239	41987.878769
580.489080	41972.939310
580.842866	41405.224728
581.196597	41739.443146
581.550273	41594.048707
581.903895	41379.756819
582.257463	41650.391163
582.610975	40977.790335
582.964434	41164.378562
583.317837	40710.301671
583.671186	40475.572945
584.024481	40584.209810
584.377721	40051.274149
584.730906	40218.022915
585.084037	40147.716463
585.437113	39785.438983
585.790135	39710.257735
586.143103	39252.420143
586.496016	39254.015668
586.848874	39166.145836
587.201679	39074.076723
587.554428	38493.361006
587.907124	38559.929442
588.259765	38232.493897
588.612352	38344.538582
588.964884	37681.815895
589.317362	37842.900925
589.669786	37681.122736
590.022155	37345.996911
590.374470	37604.701364
590.726731	37097.150433
591.078937	36555.543988
591.431090	36550.449902
591.783188	36139.137118
592.135232	35755.243171
592.487222	35866.400613
592.839157	35821.078119
593.191038	35413.828506
593.542866	35102.890137
593.894639	34497.026623
594.246358	34623.052949
594.598022	34484.627905
594.949633	34031.965058
595.301190	33891.173192
595.652692	33642.278824
596.004141	33797.632062
596.355535	32889.231263
596.706876	32728.955338
597.058162	32471.233909
597.409395	32746.927051
597.760573	32691.174410
598.111698	32248.770310
598.462768	32137.673362
598.813785	32046.105843
599.164748	31505.008554
599.515657	31692.728521
599.866511	31175.410354
600.217312	31546.673691
600.568060	30630.849792
600.918753	31094.323394
601.269392	30931.922623
601.619978	30546.581864
601.970510	30589.015777
602.320988	30593.658680
602.671412	30703.147500
603.021783	30394.810366
603.372100	30006.417189
603.722363	29971.993670
604.072572	29895.496681
604.422728	29784.500555
604.772830	29521.737973
605.122878	29475.669388
605.472872	29296.607604
605.822813	29370.919252
606.172701	29103.957389
606.522534	29170.629169
606.872314	29227.742922
607.222041	28922.700182
607.571714	29065.077490
607.921333	28550.796618
608.270899	28613.553943
608.620411	28735.328055
608.969870	28442.666389
609.319276	28304.899216
609.668627	28219.423932
610.017926	28410.019877
610.367171	28376.773467
610.716362	28306.104052
611.065500	28127.155693
611.414585	28112.836296
611.763616	28170.252518
612.112594	27994.631320
612.461518	27982.467016
612.810389	28050.250371
613.159207	27811.355131
613.507971	27735.468122
613.856682	27885.639054
614.205340	27680.612806
614.553945	27975.452251
614.902496	27467.974416
615.250994	27637.415159
615.599439	27528.652265
615.947830	27488.935534
616.296169	27387.109267
616.644454	27305.094736
616.992686	27238.029745
617.340864	27423.380369
617.688990	27075.417246
618.037063	27320.228279
618.385082	27120.613711
618.733048	27143.997103
619.080961	26988.429616
619.428821	26863.257766
619.776628	26772.103622
620.124382	26514.961926
620.472083	26464.915871
620.819731	26394.861477
621.167326	26061.114407
621.514868	25903.033904
621.862357	25509.100499
622.209793	25398.230402
622.557176	25072.839045
622.904506	24783.955724
623.251783	24465.881601
623.599007	24200.366549
623.946179	23951.603251
624.293297	23786.444968
624.640363	23348.933308
624.987376	23194.374052
625.334336	22926.948402
625.681243	22606.693981
626.028097	22450.667748
626.374899	22246.990010
626.721647	22105.343669
627.068343	21919.340215
627.414987	21665.122389
627.761577	21429.478693
628.108115	21463.811472
628.454600	21057.239893
628.801032	21027.255110
629.147412	20876.411184
629.493739	20751.899725
629.840014	20442.113260
630.186236	20491.012452
630.532405	20163.934829
630.878521	20137.214193
631.224585	19959.016966
631.570597	19687.760039
631.916556	19647.171189
632.262462	19497.345576
632.608316	19388.280213
632.954117	19233.882273
633.299866	19109.975753
633.645562	18962.002764
633.991206	18627.867526
634.336797	18306.312486
634.682336	18195.868367
635.027823	17967.990569
635.373257	17776.235159
635.718639	17564.489054
636.063968	17394.314823
636.409245	17053.447124
636.754470	16949.760672
637.099642	16757.654901
637.444762	16445.065554
637.789829	16412.441727
638.134845	16178.116293
638.479808	16050.146603
638.824719	15911.713998
639.169577	15660.407437
639.514383	15590.930255
639.859137	15374.790784
640.203839	15366.127561
640.548489	15128.820285
640.893086	15057.041816
641.237632	14865.724986
641.582125	14822.033306
641.926566	14706.001068
642.270955	14601.344193
642.615292	14522.999622
642.959576	14415.063477
643.303809	14321.287933
643.647990	14298.065858
643.992118	14190.921174
644.336195	14102.879942
644.680219	14037.634809
645.024192	14057.307912
645.368112	14151.948013
645.711981	14082.032251
646.055797	14285.773004
646.399562	14181.748794
646.743274	14415.842335
647.086935	14476.583198
647.430544	14359.338562
647.774101	14301.750941
648.117606	14300.530982
648.461059	14297.791115
648.804460	14084.381428
649.147810	13794.252942
649.491108	13625.548208
649.834354	13419.120520
650.177548	13073.549424
650.520690	12838.964371
650.863781	12754.951021
651.206820	12616.296605
651.549807	12398.554047
651.892742	12181.287878
652.235626	12037.065508
652.578458	11926.318919
652.921238	11685.865963
653.263967	11697.352232
653.606644	11538.777697
653.949269	11444.505599
654.291843	11265.501788
654.634365	11296.502364
654.976836	11130.217383
655.319255	11052.139993
655.661622	10990.506846
656.003938	10864.160407
656.346203	10759.435477
656.688416	10752.579508
657.030577	10633.220108
657.372687	10524.109374
657.714746	10519.501760
658.056753	10491.112502
658.398708	10286.421491
658.740612	10236.330066
659.082465	10230.568027
659.424266	10139.842381
659.766016	10103.609088
660.107715	10017.922075
660.449362	9975.684768
660.790958	9920.390872
661.132503	9860.877530
661.473996	9807.786618
661.815438	9775.437534
662.156829	9756.203012
662.498168	9651.069748
662.839456	9591.158155
663.180693	9567.497500
663.521879	9549.538389
663.863013	9477.948963
664.204097	9421.225900
664.545129	9464.272313
664.886110	9403.934743
665.227040	9361.599133
665.567918	9339.692799
665.908746	9301.425400
666.249522	9275.839023
666.590248	9224.426816
666.930922	9188.841311
667.271545	9130.802507
667.612118	9090.385056
667.952639	8994.923246
668.293109	8945.953477
668.633528	8869.343062
668.973896	8800.551477
669.314213	8744.723219
669.654480	8646.163620
669.994695	8594.489272
670.334859	8517.841049
670.674973	8449.417468
671.015035	8423.100124
671.355047	8364.741207
671.695008	8309.371693
672.034918	8244.993638
672.374777	8212.730253
672.714585	8142.466651
673.054342	8134.756206
673.394049	8050.326962
673.733705	8044.345633
674.073310	7951.613608
674.412864	7913.673884
674.752368	7794.271634
675.091820	7792.713918
675.431223	7677.505908
675.770574	7572.307110
676.109875	7500.604258
676.449125	7406.498519
676.788324	7348.169848
677.127473	7224.243163
677.466571	7163.499780
677.805619	7072.023002
678.144616	7028.049017
678.483562	6973.034905
678.822458	6883.982923
679.161303	6840.581109
679.500098	6785.067923
679.838842	6735.697382
680.177535	6714.189299
680.516179	6724.251443
680.854771	6729.262349
681.193314	6822.470763
681.531805	6959.703574
681.870247	7052.707821
682.208638	7118.061340
682.546978	7114.648479
682.885268	7084.661175
683.223508	6976.838456
683.561697	6895.718729
683.899836	6834.141035
684.237925	6738.885912
684.575963	6685.583272
684.913951	6601.048163
685.251889	6590.570125
685.589776	6566.130611
685.927614	6539.818308
686.265401	6539.561210
686.603137	6533.615169
686.940824	6581.188538
687.278460	6614.755060
687.616046	6621.933663
687.953582	6679.967427
688.291068	6644.994422
688.628504	6650.398539
688.965889	6613.187262
689.303224	6533.526948
689.640510	6454.469053
689.977745	6317.432848
690.314930	6183.491911
690.652065	6077.993163
690.989150	5954.583197
691.326185	5811.084232
691.663170	5694.008475
692.000105	5573.424075
692.336990	5467.917766
692.673825	5386.286362
693.010610	5305.847191
693.347345	5210.783632
693.684030	5113.436431
694.020665	5063.309717
694.357251	4973.408300
694.693786	4945.497952
695.030272	4903.386673
695.366707	4831.640972
695.703093	4782.116676
696.039429	4764.558337
696.375716	4726.555599
696.711952	4707.668916
697.048139	4678.331922
697.384276	4648.866377
697.720363	4644.931757
698.056400	4616.000575
698.392388	4582.673507
698.728326	4559.373294
699.064214	4521.960370
699.400053	4502.287267
699.735842	4448.414977
700.071581	4406.916198
700.407270	4363.453891
700.742910	4327.190350
701.078501	4287.150986
701.414042	4248.767641
701.749533	4204.899520
702.084974	4164.771935
702.420366	4160.471831
702.755709	4110.602217
703.091002	4071.046803
703.426246	4060.992222
703.761440	4036.731669
704.096584	4008.120600
704.431679	3987.514884
704.766725	3968.446719
705.101721	3954.896098
705.436668	3950.311168
705.771565	3920.190274
706.106413	3934.025721
706.441212	3922.776386
706.775961	3925.642282
707.110661	3919.746652
707.445311	3938.083850
707.779913	3917.788164
708.114465	3933.032613
708.448967	3943.072071
708.783421	3985.359790
709.117825	4002.759333
709.452180	4016.776261
709.786485	4045.006723
710.120742	4099.539404
710.454949	4104.971248
710.789107	4139.314108
711.123216	4192.321841
711.457275	4204.632339
711.791286	4241.296651
712.125247	4240.631218
712.459159	4212.620047
712.793023	4247.887959
713.126837	4157.366480
713.460602	4157.227848
713.794318	4109.190693
714.127985	4064.090011
714.461602	3985.463134
714.795171	3959.022282
715.128691	3874.892986
715.462162	3821.812157
715.795584	3780.580559
716.128957	3749.968153
716.462281	3707.655228
716.795556	3679.964170
717.128782	3638.654435
717.461960	3593.420161
717.795088	3579.521700
718.128167	3548.899211
718.461198	3513.275897
718.794180	3495.357116
719.127113	3466.125985
719.459997	3449.278449
719.792833	3420.833739
720.125619	3410.978283
720.458357	3386.924417
720.791046	3372.310112
721.123686	3356.228832
721.456278	3338.211748
721.788821	3332.558094
722.121315	3312.932882
722.453761	3310.382058
722.786158	3301.663382
723.118506	3297.640542
723.450805	3286.776855
723.783056	3293.385808
724.115259	3280.782923
724.447412	3277.455762
724.779518	3281.455917
725.111574	3281.904580
725.443582	3292.662402
725.775542	3287.780045
726.107453	3306.349135
726.439315	3301.565080
726.771129	3324.343533
727.102895	3339.708970
727.434612	3348.377234
727.766281	3355.200436
728.097901	3360.652444
728.429473	3356.473328
728.760996	3351.202801
729.092471	3348.140300
729.423897	3339.227540
729.755276	3326.055005
730.086606	3320.897905
730.417887	3342.700895
730.749120	3361.731251
731.080305	3366.961448
731.411442	3373.323384
731.742530	3368.105790
732.073570	3367.594113
732.404562	3378.503170
732.735506	3367.548743
733.066401	3345.216431
733.397249	3311.433138
733.728048	3270.630039
734.058798	3225.859552
734.389501	3188.244982
734.720156	3163.777742
735.050762	3132.452012
735.381320	3113.393930
735.711831	3098.520006
736.042293	3080.800350
736.372707	3077.715164
736.703073	3065.581107
737.033391	3067.665624
737.363661	3065.359296
737.693883	3073.016808
738.024056	3083.961153
738.354182	3091.157401
738.684260	3103.351952
739.014290	3110.192798
739.344272	3122.220991
739.674207	3131.431179
740.004093	3137.102477
740.333931	3130.919502
740.663722	3129.455046
740.993464	3123.577061
741.323159	3112.380658
741.652806	3091.762339
741.982405	3082.232038
742.311956	3062.289233
742.641460	3053.825136
742.970915	3034.663710
743.300323	3015.764424
743.629683	3003.234636
743.958996	2987.171000
744.288260	2973.885039
744.617477	2959.404324
744.946647	2948.298662
745.275768	2941.384720
745.604842	2929.714449
745.933869	2924.068356
746.262847	2916.436049
746.591778	2917.275402
746.920662	2909.829617
747.249498	2907.782909
747.578286	2910.411871
747.907027	2914.578384
748.235720	2923.289498
748.564365	2922.061977
748.892963	2917.335895
749.221514	2918.906215
749.550017	2911.778023
749.878473	2909.010430
750.206881	2894.433933
750.535242	2891.489900
750.863555	2888.916391
751.191821	2881.992366
751.520039	2881.561347
751.848210	2875.995913
752.176334	2876.825183
752.504411	2871.773947
752.832440	2868.671117
753.160421	2866.432844
753.488356	2860.491845
753.816243	2860.252390
754.144082	2852.277284
754.471875	2849.035823
754.799620	2846.923579
755.127318	2841.496777
755.454969	2840.987620
755.782572	2839.223217
756.110129	2836.183401
756.437638	2834.981086
756.765100	2834.943277
757.092515	2833.609892
757.419882	2834.048472
757.747203	2835.691888
758.074477	2835.457475
758.401703	2834.751713
758.728882	2840.722960
759.056014	2839.707167
759.383099	2843.024247
759.710138	2847.790657
760.037129	2848.448528
760.364073	2849.101357
760.690970	2846.633713
761.017820	2846.295955
761.344623	2850.344002
761.671379	2859.284488
761.998088	2872.303268
762.324751	2919.929569
762.651366	3010.569515
762.977935	3116.448869
763.304456	3182.767769
763.630931	3192.156918
763.957359	3156.357164
764.283740	3101.411107
764.610074	3043.268960
764.936362	2977.313023
765.262602	2932.915581
765.588796	2887.807337
765.914943	2855.612008
766.241044	2827.053871
766.567097	2805.719708
766.893104	2790.576082
767.219064	2776.526386
767.544978	2763.931063
767.870845	2752.901019
768.196665	2749.843559
768.522438	2739.935171
768.848165	2736.492063
769.173846	2730.641804
769.499479	2726.102245
769.825066	2720.730895
770.150607	2713.736294
770.476101	2713.121274
770.801548	2710.109184
771.126949	2706.078782
771.452303	2701.939994
771.777611	2695.144519
772.102872	2696.480425
772.428087	2691.320804
772.753256	2686.720751
773.078378	2681.946778
773.403453	2680.535255
773.728482	2673.507887
774.053465	2676.847651
774.378401	2671.413287
774.703291	2666.717452
775.028135	2667.181239
775.352932	2663.544046
775.677683	2663.105466
776.002388	2659.531288
776.327046	2659.722852
776.651658	2657.293015
776.976224	2653.978457
777.300743	2652.587098
777.625216	2650.013589
777.949643	2651.273878
778.274024	2650.532828
778.598359	2645.542086
778.922647	2644.773310
779.246889	2646.126860
779.571086	2644.354894
779.895236	2647.689617
780.219339	2644.770789
780.543397	2647.273722
780.867409	2645.320275
781.191374	2649.431336
781.515294	2647.666932
781.839167	2648.541572
782.162995	2646.693989
782.486776	2647.674494
782.810511	2646.008392
783.134201	2643.432363
783.457844	2643.621406
783.781441	2641.912455
784.104993	2638.965901
784.428498	2639.162506
784.751958	2639.316261
785.075372	2634.801907
785.398739	2638.668472
785.722061	2636.281486
786.045337	2638.124028
786.368568	2641.120994
786.691752	2644.178454
787.014891	2648.039977
787.337983	2655.165648
787.661030	2671.307423
787.984031	2679.942920
788.306987	2686.927438
788.629897	2689.324507
788.952760	2686.345185
789.275579	2681.530883
789.598351	2673.417146
789.921078	2666.077226
790.243759	2658.008859
790.566395	2652.730771
790.888984	2648.297076
791.211529	2644.296921
791.534027	2636.853657
791.856480	2636.231075
792.178888	2633.685292
792.501249	2632.309057
792.823566	2628.119858
793.145836	2627.948459
793.468062	2630.219499
793.790241	2626.181534
794.112375	2628.528192
794.434464	2631.835188
794.756507	2630.824437
795.078505	2634.998512
795.400457	2639.303658
795.722364	2643.087044
796.044226	2649.559885
796.366042	2654.391831
796.687812	2649.436377
797.009538	2654.124650
797.331218	2655.916780
797.652852	2651.241110
797.974442	2647.916469
798.295986	2643.651653
798.617484	2643.039153
798.938938	2638.865077
799.260346	2639.870788
799.581709	2636.435241
799.903026	2633.413070
800.224299	2630.524488
800.545526	2625.521143
800.866708	2626.342851
801.187845	2622.166255
801.508936	2623.313118
801.829983	2620.371605
802.150984	2616.799947
802.471940	2614.632251
802.792851	2615.796758
803.113717	2617.354474
803.434538	2615.567385
803.755314	2614.561675
804.076045	2615.363218
804.396731	2611.446242
804.717372	2612.734257
805.037967	2613.966819
805.358518	2613.666870
805.679024	2616.812550
805.999485	2616.764659
806.319901	2616.857920
806.640272	2617.709875
806.960598	2617.591408
807.280879	2618.677777
807.601115	2620.381687
807.921306	2618.463528
808.241453	2616.772221
808.561554	2616.499998
808.881611	2616.804988
809.201623	2616.275667
809.521590	2614.740636
809.841513	2618.524022
810.161390	2614.594442
810.481223	2614.138218
810.801011	2611.786520
811.120755	2610.808536
811.440453	2613.145111
811.760107	2610.261571
812.079716	2608.625716
812.399281	2603.002309
812.718801	2605.711929
813.038276	2603.493822
813.357707	2603.841661
813.677093	2607.284769
813.996434	2606.064810
814.315731	2603.892073
814.634983	2608.429111
814.954191	2607.688062
815.273354	2609.724688
815.592473	2610.692589
815.911547	2610.642178
816.230577	2615.408589
816.549562	2617.125102
816.868502	2619.902777
817.187399	2622.879579
817.506250	2626.418469
817.825058	2626.978037
818.143821	2632.722432
818.462539	2637.440952
818.781213	2644.319606
819.099843	2655.805875
819.418429	2678.208763
819.736970	2695.058819
820.055466	2713.627910
820.373919	2746.004720
820.692327	2794.462812
821.010691	2878.367776
821.329011	3068.762075
821.647286	3369.739124
821.965517	3685.753935
822.283704	3862.098538
822.601847	3906.561515
822.919945	3768.731327
823.237999	3610.849951
823.556010	3455.423616
823.873976	3311.160916
824.191897	3184.844724
824.509775	3089.024993
824.827609	3003.199348
825.145398	2951.703962
825.463144	2927.168666
825.780845	2931.844336
826.098502	2966.860191
826.416116	3034.885521
826.733685	3097.536981
827.051210	3117.817543
827.368692	3078.615010
827.686129	3005.694719
828.003522	2930.437854
828.320872	2861.401773
828.638177	2808.618372
828.955439	2770.406425
829.272656	2739.176477
829.589830	2708.858978
829.906960	2685.412572
830.224046	2669.459840
830.541088	2657.277892
830.858086	2648.798671
831.175041	2643.230717
831.491952	2640.039666
831.808819	2642.676190
832.125642	2647.737508
832.442421	2667.284582
832.759157	2704.132896
833.075849	2756.293715
833.392497	2812.079124
833.709101	2847.687314
834.025662	2838.709019
834.342179	2808.429328
834.658653	2770.222423
834.975083	2737.759913
835.291469	2712.589432
835.607811	2683.580112
835.924110	2668.585200
836.240366	2653.756646
836.556578	2634.431383
836.872746	2623.628190
837.188871	2611.995727
837.504952	2606.009357
837.820990	2598.553491
838.136984	2594.984354
838.452935	2593.908067
838.768842	2597.109200
839.084706	2606.881477
839.400526	2633.234109
839.716303	2657.343427
840.032037	2678.919565
840.347727	2672.444203
840.663373	2654.628766
840.978977	2638.507156
841.294537	2620.830350
841.610054	2611.789040
841.925527	2602.137751
842.240957	2593.635845
842.556344	2583.913980
842.871687	2580.773341
843.186987	2575.482650
843.502244	2568.808162
843.817458	2568.205745
844.132629	2564.535785
844.447756	2560.961607
844.762840	2560.734755
845.077881	2558.423386
845.392879	2554.355174
845.707833	2553.417520
846.022745	2552.588250
846.337613	2555.008004
846.652438	2552.137067
846.967221	2554.660164
847.281960	2549.785368
847.596656	2553.664536
847.911309	2551.209494
848.225919	2550.246634
848.540485	2550.526418
848.855009	2554.995401
849.169490	2551.209494
849.483928	2548.895605
849.798323	2548.086500
850.112675	2548.207487
850.426984	2548.890564
850.741251	2549.946685
851.055474	2549.641696
851.369654	2548.930893
851.683792	2550.813764
851.997887	2551.269988
852.311938	2550.125646
852.625947	2552.646223
852.939914	2549.530790
853.253837	2553.740154
853.567718	2550.924669
853.881555	2552.467262
854.195350	2550.163455
854.509103	2551.645554
854.822812	2549.480379
855.136479	2550.780996
855.450103	2549.893753
855.763685	2548.898125
856.077224	2549.361912
856.390720	2552.570606
856.704173	2551.819474
857.017584	2553.896429
857.330953	2552.628579
857.644278	2552.245452
857.957561	2552.368960
858.270802	2552.114382
858.584000	2550.667570
858.897155	2555.194527
859.210268	2549.795451
859.523339	2552.076573
859.836367	2549.629093
860.149352	2549.442570
860.462295	2550.155893
860.775195	2547.655481
861.088054	2546.496016
861.400869	2547.284956
861.713642	2545.976777
862.026373	2548.532642
862.339062	2550.544062
862.651708	2551.567416
862.964312	2552.363919
863.276873	2553.964485
863.589392	2555.096224
863.901869	2554.193857
864.214303	2555.202088
864.526696	2554.758467
864.839045	2555.955741
865.151353	2561.213664
865.463619	2558.395659
865.775842	2558.055381
866.088023	2555.260062
866.400162	2556.795093
866.712258	2561.183417
867.024313	2557.689898
867.336325	2559.136709
867.648296	2559.577810
867.960224	2562.662996
868.272110	2559.043447
868.583954	2557.967161
868.895755	2558.062943
869.207515	2558.756102
869.519233	2562.534447
869.830909	2559.650907
870.142542	2559.986143
870.454134	2560.507903
870.765684	2562.988150
871.077191	2562.794066
871.388657	2563.784653
871.700081	2565.425548
872.011463	2564.220713
872.322803	2565.309602
872.634101	2567.779767
872.945357	2566.007802
873.256571	2571.122052
873.567744	2569.937381
873.878874	2570.025601
874.189963	2570.350756
874.501010	2573.153637
874.812015	2569.135838
875.122979	2574.045921
875.433900	2572.316806
875.744780	2574.711354
876.055618	2572.848647
876.366415	2575.026426
876.677169	2574.451734
876.987882	2574.804615
877.298554	2573.786302
877.609183	2578.474575
877.919771	2580.112950
878.230317	2585.401120
878.540822	2597.371340
878.851285	2603.004830
879.161707	2612.691407
879.472087	2632.979530
879.782425	2661.802327
880.092722	2716.980277
880.402977	2795.077832
880.713191	2893.939900
881.023363	2987.075218
881.333494	3046.026471
881.643583	3064.857701
881.953631	3052.675753
882.263637	3021.571833
882.573602	2986.863489
882.883526	2946.743466
883.193408	2905.698392
883.503248	2866.548791
883.813048	2832.357165
884.122806	2797.860549
884.432522	2763.157246
884.742197	2735.098184
885.051831	2712.080275
885.361424	2685.863755
885.670975	2668.126455
885.980485	2652.768580
886.289954	2640.745428
886.599382	2629.160856
886.908768	2619.517129
887.218113	2613.611417
887.527417	2604.454161
887.836680	2597.913264
888.145901	2592.398242
888.455082	2590.575865
888.764221	2586.137129
889.073319	2583.545976
889.382376	2583.614031
889.691392	2580.639751
890.000366	2578.804771
890.309300	2578.588001
890.618193	2579.278639
890.927044	2579.515573
891.235855	2576.304358
891.544625	2582.331058
891.853353	2579.724781
892.162041	2585.625452
892.470687	2589.998653
892.779293	2596.786566
893.087858	2605.313678
893.396381	2613.765172
893.704864	2632.445168
894.013306	2657.497182
894.321707	2690.070598
894.630068	2709.269832
894.938387	2710.940975
895.246665	2705.637681
895.554903	2693.221319
895.863100	2675.904955
896.171256	2666.039417
896.479371	2656.201606
896.787446	2643.054276
897.095480	2632.818213
897.403473	2627.071298
897.711425	2617.493106
898.019336	2613.112343
898.327207	2605.764861
898.635038	2600.743872
898.942827	2593.542584
899.250576	2588.536718
899.558284	2585.297777
899.865952	2580.589339
900.173579	2575.971642
900.481165	2574.519790
900.788711	2572.357135
901.096216	2570.910324
901.403681	2570.759089
901.711105	2571.671538
902.018489	2567.515107
902.325832	2572.946950
902.633135	2577.506673
902.940397	2584.831470
903.247619	2606.692434
903.554800	2647.394710
903.861941	2694.300126
904.169041	2727.140722
904.476101	2740.267887
904.783121	2730.525857
905.090100	2711.608927
905.397039	2692.785259
905.703938	2673.717095
906.010796	2656.635145
906.317614	2642.920686
906.624391	2628.772687
906.931129	2621.286574
907.237826	2610.203597
907.544483	2597.671289
907.851099	2588.178796
908.157675	2581.514391
908.464211	2569.627350
908.770707	2561.755588
909.077163	2560.114693
909.383578	2554.425751
909.689954	2551.580019
909.996289	2551.287632
910.302584	2552.716799
910.608839	2549.578681
910.915054	2553.793086
911.221229	2548.827549
911.527363	2552.124464
911.833458	2553.213353
912.139513	2553.011707
912.445527	2553.994732
912.751502	2556.777449
913.057436	2557.662171
913.363331	2562.955383
913.669186	2564.056875
913.975000	2574.688668
914.280775	2583.976994
914.586510	2600.728749
914.892205	2623.093828
915.197859	2650.573157
915.503475	2681.543486
915.809050	2711.046839
916.114585	2723.687532
916.420081	2730.876217
916.725536	2729.774725
917.030952	2718.467417
917.336328	2706.610623
917.641665	2695.066381
917.946961	2681.886284
918.252218	2671.751045
918.557435	2658.018942
918.862612	2646.777168
919.167750	2638.323153
919.472848	2624.449898
919.777906	2616.164762
920.082925	2607.272166
920.387904	2596.118613
920.692843	2592.703232
920.997743	2587.266347
921.302603	2579.646643
921.607423	2574.214800
921.912204	2569.544171
922.216946	2566.486711
922.521647	2563.759447
922.826310	2561.246432
923.130932	2558.375495
923.435516	2556.011193
923.740059	2555.580175
924.044564	2552.530277
924.349028	2549.689587
924.653454	2544.605583
924.957840	2542.808412
925.262186	2541.371683
925.566493	2545.150028
925.870761	2539.561908
926.174989	2538.896476
926.479178	2538.339429
926.783328	2538.470499
927.087438	2536.012936
927.391509	2538.205838
927.695541	2535.173584
927.999533	2537.321116
928.303486	2532.501772
928.607400	2533.832637
928.911275	2535.566794
929.215110	2532.877338
929.518906	2533.240302
929.822663	2534.656866
930.126381	2533.063861
930.430060	2533.814993
930.733699	2533.328522
931.037299	2531.823737
931.340861	2532.620240
931.644383	2533.681402
931.947866	2532.579910
932.251309	2534.152750
932.554714	2532.801721
932.858080	2535.251722
933.161407	2532.685775
933.464694	2533.555374
933.767943	2532.277441
934.071153	2531.251566
934.374323	2532.615198
934.677455	2530.460105
934.980548	2531.357431
935.283602	2532.156453
935.586617	2531.697708
935.889593	2529.935825
936.192530	2531.639735
936.495428	2534.422452
936.798287	2531.738038
937.101108	2537.323636
937.403890	2535.985210
937.706632	2538.755324
938.009336	2539.445962
938.312002	2542.551313
938.614628	2543.720860
938.917216	2545.384441
939.219765	2543.884698
939.522275	2544.401416
939.824747	2547.965512
940.127179	2541.757331
940.429573	2543.161292
940.731929	2542.453010
941.034246	2540.607948
941.336524	2544.938299
941.638763	2544.935778
941.940964	2545.238248
942.243126	2541.974101
942.545250	2540.877650
942.847335	2541.399409
943.149381	2540.648277
943.451389	2540.355890
943.753359	2539.130890
944.055290	2537.021167
944.357182	2538.725077
944.659036	2535.130734
944.960851	2534.402288
945.262628	2536.310364
945.564367	2535.382792
945.866067	2535.274407
946.167729	2537.726928
946.469352	2532.927750
946.770937	2536.391023
947.072484	2536.597710
947.373992	2533.172246
947.675462	2532.741227
947.976893	2533.489839
948.278286	2532.683254
948.579641	2533.510003
948.880958	2533.467153
949.182236	2536.154088
949.483476	2531.927081
949.784678	2533.134437
950.085841	2531.312060
950.386967	2533.673841
950.688054	2532.249715
950.989103	2534.084695
951.290114	2532.990764
951.591087	2535.355066
951.892021	2536.416228
952.192917	2538.180632
952.493776	2537.767258
952.794596	2538.735159
953.095378	2537.016126
953.396122	2538.455375
953.696828	2535.019829
953.997496	2537.426980
954.298126	2536.421270
954.598718	2535.355066
954.899272	2533.477236
955.199788	2534.503111
955.500266	2531.997657
955.800706	2528.710825
956.101108	2525.688653
956.401472	2529.207378
956.701798	2525.867614
957.002087	2523.589013
957.302337	2525.655886
957.602550	2527.644621
957.902724	2524.370391
958.202861	2522.704290
958.502960	2525.015659
958.803022	2522.122037
959.103045	2520.382839
959.403031	2525.875176
959.702979	2520.274454
960.002889	2520.508867
960.302762	2519.190606
960.602596	2520.559279
960.902393	2521.370905
961.202153	2519.687159
961.501875	2517.620286
961.801559	2516.909484
962.101205	2520.430730
962.400814	2516.793537
962.700385	2518.799916
962.999918	2515.780265
963.299414	2518.484844
963.598873	2520.075328
963.898293	2516.183558
964.197677	2519.183044
964.497022	2516.155831
964.796331	2515.114833
965.095601	2515.865965
965.394835	2519.094824
965.694030	2513.345388
965.993189	2515.170286
966.292309	2513.552075
966.591393	2513.373114
966.890439	2517.698424
967.189447	2517.232118
967.488419	2517.421161
967.787353	2513.607528
968.086249	2515.409740
968.385108	2516.175996
968.683930	2513.153824
968.982714	2514.824967
969.281462	2518.232787
969.580172	2517.584998
969.878844	2514.494771
970.177480	2518.293280
970.476078	2514.361180
970.774639	2516.188599
971.073162	2518.593229
971.371649	2515.450070
971.670098	2514.426715
971.968510	2515.692045
972.266885	2511.583505
972.565223	2517.486696
972.863524	2517.151459
973.161788	2517.862262
973.460014	2515.981911
973.758204	2519.281347
974.056356	2518.449556
974.354471	2517.690863
974.652550	2519.248579
974.950591	2518.787313
975.248595	2519.840915
975.546563	2520.052643
975.844493	2517.945441
976.142386	2516.750687
976.440243	2516.491068
976.738062	2518.434433
977.035845	2516.753208
977.333590	2516.896881
977.631299	2516.465862
977.928971	2518.066428
978.226606	2514.525018
978.524204	2517.206912
978.821765	2517.194309
979.119290	2515.596263
979.416777	2515.986953
979.714228	2514.519977
980.011642	2515.886129
980.309020	2518.512571
980.606360	2516.576768
980.903664	2517.587519
981.200931	2517.867303
981.498162	2519.714886
981.795356	2525.751668
982.092513	2528.075639
982.389633	2527.962213
982.686717	2530.906247
982.983764	2533.671320
983.280775	2535.690302
983.577749	2535.576876
983.874686	2534.493028
984.171587	2533.630991
984.468451	2533.978831
984.765279	2530.969262
985.062070	2530.387008
985.358824	2526.777542
985.655543	2524.541791
985.952224	2524.393077
986.248869	2521.018024
986.545478	2515.553413
986.842050	2513.973012
987.138586	2512.193484
987.435086	2513.678104
987.731549	2510.494615
988.027975	2513.627692
988.324366	2513.763804
988.620719	2512.561488
988.917037	2508.911693
989.213318	2508.657115
989.509563	2509.617455
989.805772	2512.707682
990.101944	2507.658966
990.398080	2508.442866
990.694180	2511.500326
990.990244	2510.902949
991.286271	2510.192146
991.582262	2510.073679
991.878217	2510.214831
992.174136	2510.071158
992.470019	2509.803977
992.765865	2507.613596
993.061676	2509.884636
993.357450	2510.328257
993.653188	2509.882115
993.948890	2509.607372
994.244556	2511.875892
994.540186	2513.839421
994.835780	2513.116015
995.131337	2518.928466
995.426859	2515.044257
995.722345	2518.862931
996.017795	2518.590708
996.313208	2521.433919
996.608586	2520.879392
996.903928	2525.048427
997.199234	2521.270082
997.494504	2524.798889
997.789738	2518.449556
998.084936	2520.733199
998.380099	2517.630369
998.675225	2519.745133
998.970316	2517.045595
999.265371	2513.877230
999.560390	2514.562827
999.855373	2517.043074
1000.150320	2512.148114
1000.445232	2512.405213
1000.740108	2510.303052
1001.034948	2508.392454
1001.329752	2510.025788
1001.624521	2508.901611
1001.919254	2504.878770
1002.213951	2505.433297
1002.508613	2502.827020
1002.803239	2506.635612
1003.097829	2502.237205
1003.392384	2507.464882
1003.686903	2507.664007
1003.981386	2507.895901
1004.275834	2506.224758
1004.570246	2508.536127
1004.864623	2507.444717
1005.158964	2504.964470
1005.453270	2505.697958
1005.747540	2506.489419
1006.041775	2504.702330
1006.335974	2505.748369
1006.630138	2506.804491
1006.924266	2509.461179
1007.218359	2506.375993
1007.512416	2504.959428
1007.806438	2504.288955
1008.100425	2503.139572
1008.394376	2503.104284
1008.688292	2503.865498
1008.982172	2506.436487
1009.276017	2503.278204
1009.569827	2503.331136
1009.863602	2504.944305
1010.157341	2504.530930
1010.451045	2504.704850
1010.744714	2501.879283
1011.038347	2503.789881
1011.331945	2505.556805
1011.625508	2506.638133
1011.919036	2499.872904
1012.212528	2504.014212
1012.505986	2504.218379
1012.799408	2503.678975
1013.092795	2506.978411
1013.386147	2503.270642
1013.679464	2502.995899
1013.972745	2504.011692
1014.265992	2505.760972
1014.559204	2502.932885
1014.852380	2503.946157
1015.145521	2506.320540
1015.438628	2504.082268
1015.731699	2501.750734
1016.024736	2499.943480
1016.317737	2505.246774
1016.610703	2502.098574
1016.903635	2498.166474
1017.196531	2500.427431
1017.489393	2503.331136
1017.782219	2498.834427
1018.075011	2504.173008
1018.367768	2502.786691
1018.660490	2503.648728
1018.953177	2503.648728
1019.245829	2503.648728
