Dividing Wavelength (nm)	Counts (n)	Blue Motor Position (mm): 0.000000	Red Motor Position (mm): 31.800000	
326.493990	2126.020935
326.888308	2126.020935
327.282561	2126.020935
327.676750	2093.480287
328.070874	2093.878538
328.464933	2098.100504
328.858929	2103.623088
329.252859	2110.244644
329.646726	2123.631428
330.040528	2137.446710
330.434265	2152.955820
330.827938	2171.555157
331.221547	2188.627025
331.615091	2208.932792
332.008571	2228.983982
332.401986	2249.229256
332.795338	2267.654673
333.188625	2285.296191
333.581847	2302.393264
333.975006	2324.155925
334.368100	2338.883656
334.761129	2357.745133
335.154095	2377.019985
335.546996	2396.158726
335.939833	2410.468041
336.332606	2426.372881
336.725315	2442.176898
337.117960	2448.241407
337.510540	2456.171142
337.903056	2470.808132
338.295508	2476.136631
338.687896	2483.204329
339.080220	2493.468118
339.472480	2500.006495
339.864676	2502.234685
340.256807	2504.052021
340.648875	2513.408402
341.040879	2514.101561
341.432818	2514.514936
341.824694	2518.875534
342.216506	2517.169103
342.608253	2520.355112
342.999937	2516.710358
343.391557	2515.611387
343.783113	2517.877385
344.174605	2514.736746
344.566033	2512.871519
344.957397	2510.459327
345.348697	2513.748680
345.739934	2507.974038
346.131106	2507.767351
346.522215	2506.529748
346.913260	2505.980262
347.304241	2502.995899
347.695159	2499.898110
348.086012	2499.192348
348.476802	2496.994405
348.867528	2496.649086
349.258191	2495.908037
349.648789	2493.354692
350.039324	2490.745895
350.429796	2492.459888
350.820203	2489.228508
351.210548	2490.912253
351.600828	2488.552993
351.991045	2486.407982
352.381198	2487.726244
352.771288	2484.565441
353.161314	2486.889412
353.551276	2487.151552
353.941175	2483.786582
354.331010	2486.042499
354.720782	2485.394710
355.110490	2485.777838
355.500135	2482.876654
355.889717	2484.333548
356.279235	2486.163486
356.668689	2486.556696
357.058080	2487.756491
357.447408	2486.420585
357.836672	2484.015955
358.225873	2486.004690
358.615010	2484.764566
359.004084	2489.447798
359.393095	2489.026862
359.782043	2492.321256
360.170927	2490.269506
360.559748	2490.483755
360.948505	2489.407469
361.337199	2490.859321
361.725830	2495.459374
362.114398	2495.582882
362.502903	2493.463077
362.891344	2497.024652
363.279722	2494.189003
363.668037	2494.892244
364.056289	2494.100783
364.444478	2498.428614
364.832603	2498.554643
365.220665	2498.123624
365.608665	2500.276197
365.996601	2501.072699
366.384474	2500.523213
366.772284	2501.584376
367.160031	2506.907834
367.547715	2507.215345
367.935336	2509.297341
368.322893	2513.841942
368.710388	2513.700789
369.097820	2524.251924
369.485189	2522.795031
369.872495	2534.001516
370.259738	2535.513862
370.646918	2545.565923
371.034035	2549.409803
371.421090	2562.804148
371.808081	2573.209090
372.195010	2580.105388
372.581875	2592.630135
372.968678	2606.427773
373.355418	2618.413116
373.742096	2633.922226
374.128710	2649.103661
374.515262	2666.425066
374.901751	2681.057015
375.288177	2693.768284
375.674540	2718.227962
376.060841	2732.867473
376.447079	2752.792634
376.833254	2775.460182
377.219367	2788.436112
377.605417	2827.031186
377.991404	2832.906651
378.377329	2853.298118
378.763191	2872.313350
379.148991	2912.551840
379.534727	2936.121755
379.920402	2964.916826
380.306013	2976.203969
380.691563	3026.461753
381.077049	3049.280536
381.462474	3066.758216
381.847835	3102.537805
382.233134	3132.875469
382.618371	3125.759881
383.003545	3196.494831
383.388657	3201.924153
383.773706	3234.711818
384.158693	3250.152872
384.543618	3276.152623
384.928480	3312.605207
385.313280	3361.466590
385.698017	3358.734285
386.082692	3411.724374
386.467305	3418.408944
386.851856	3447.188891
387.236344	3470.584886
387.620770	3501.656038
388.005133	3528.159904
388.389435	3556.143349
388.773674	3563.296746
389.157851	3608.944394
389.541965	3623.924183
389.926018	3588.111826
390.310008	3660.608660
390.693936	3679.475178
391.077802	3719.937999
391.461606	3706.548695
391.845348	3775.914972
392.229027	3770.619239
392.612645	3784.842855
392.996200	3864.364536
393.379694	3903.433479
393.763125	3966.495793
394.146494	3934.728962
394.529801	3995.492510
394.913047	4041.122514
395.296230	4010.613451
395.679351	4067.107141
396.062410	4088.030450
396.445408	4069.773912
396.828343	4101.679374
397.211217	4126.176861
397.594028	4048.570818
397.976778	4113.921816
398.359466	4140.095487
398.742092	4166.864014
399.124656	4090.808126
399.507158	4172.714273
399.889598	4195.001214
400.271977	4260.412706
400.654294	4230.085124
401.036549	4237.367071
401.418742	4209.038307
401.800874	4309.274090
402.182944	4332.463397
402.564952	4396.002100
402.946898	4383.063979
403.328783	4376.828072
403.710606	4292.774393
404.092367	4485.432170
404.474067	4445.284420
404.855705	4455.787664
405.237282	4387.023805
405.618797	4491.557172
406.000250	4528.060167
406.381642	4608.529585
406.762972	4569.175817
407.144240	4579.870625
407.525447	4583.079320
407.906593	4641.523937
408.287677	4681.364176
408.668700	4612.247436
409.049661	4662.999252
409.430560	4702.852094
409.811399	4632.860714
410.192176	4790.353922
410.572891	4731.561465
410.953545	4833.581816
411.334138	4715.049166
411.714669	4783.417294
412.095139	4678.150440
412.475547	4822.324919
412.855894	4802.387156
413.236180	4809.878311
413.616405	4762.287298
413.996568	4850.462120
414.376670	4791.246206
414.756711	4748.255246
415.136691	4780.299340
415.516609	4858.248182
415.896466	4896.147576
416.276262	4927.664870
416.655997	4907.613681
417.035670	5089.538841
417.415283	5185.083830
417.794834	5123.584273
418.174324	5078.891924
418.553753	4986.991689
418.933121	5170.116644
419.312428	5240.947376
419.691674	5177.552346
420.070859	5303.276202
420.449983	5215.408891
420.829045	5330.929452
421.208047	5239.039299
421.586988	5306.794927
421.965867	5316.937729
422.344686	5451.002174
422.723444	5305.592612
423.102141	5129.174913
423.480777	5424.226086
423.859352	5190.613975
424.237866	5448.993275
424.616319	5443.475732
424.994712	5553.665272
425.373044	5433.670687
425.751314	5569.928035
426.129524	5378.268407
426.507673	5572.925001
426.885762	5652.388709
427.263789	5586.226085
427.641756	5464.678825
428.019662	5588.582825
428.397508	5598.224031
428.775292	5541.977357
429.153016	5645.845291
429.530679	5569.106327
429.908282	5654.072454
430.285824	5524.345922
430.663305	5797.304238
431.040726	5533.586357
431.418086	5532.812540
431.795385	5639.168283
432.172624	5657.082023
432.549802	5647.224047
432.926920	5658.349873
433.303977	5662.629813
433.680974	5702.414599
434.057910	5721.785233
434.434786	5729.906532
434.811601	5696.919741
435.188355	5933.370021
435.565050	5808.866124
435.941683	5783.330159
436.318257	6000.112378
436.694770	5989.127703
437.071222	6020.481160
437.447614	5950.779646
437.823946	5865.992480
438.200218	6013.678123
438.576429	5879.565786
438.952580	5981.903730
439.328670	6025.809659
439.704700	5935.714158
440.080670	5920.376447
440.456580	6189.611871
440.832429	6076.790848
441.208218	5917.029121
441.583947	6076.311939
441.959616	6075.034006
442.335224	6003.184961
442.710773	6141.715869
443.086261	6168.436505
443.461689	5966.384538
443.837057	6115.630418
444.212365	6269.748573
444.587612	6160.620196
444.962800	6313.727600
445.337927	6295.912162
445.712995	5903.821298
446.088002	6485.116748
446.462949	6311.587630
446.837837	6243.416106
447.212664	6411.248721
447.587431	6556.794394
447.962139	7098.741118
448.336786	8031.263838
448.711374	7770.207687
449.085901	6844.384659
449.460369	6764.068996
449.834776	6694.022163
450.209124	7084.457008
450.583412	7235.248002
450.957640	7385.754171
451.331808	7151.980743
451.705917	6698.322268
452.079965	6630.450693
452.453954	6838.365522
452.827883	6714.706018
453.201752	6804.070552
453.575562	6605.207115
453.949311	6809.144473
454.323001	6693.578542
454.696632	6770.085613
455.070202	6910.305308
455.443713	7064.360448
455.817164	7165.072620
456.190556	7250.104282
456.563888	7320.940056
456.937160	7370.028291
457.310373	7024.747062
457.683526	7049.751185
458.056619	6938.170285
458.429653	6922.242760
458.802628	6857.922678
459.175542	6970.983156
459.548398	7327.516241
459.921194	7481.301680
460.293930	7489.740572
460.666607	8015.792537
461.039224	8328.737286
461.411782	8456.129764
461.784280	8472.773133
462.156719	8362.011422
462.529099	8242.210921
462.901419	7830.547778
463.273680	7722.210861
463.645882	7735.595124
464.018024	7595.539268
464.390106	7766.845237
464.762130	8153.970564
465.134094	8619.937017
465.505999	9644.087750
465.877845	10862.627896
466.249631	11512.011691
466.621358	11126.000458
466.993026	10493.754066
467.364634	10242.666796
467.736184	9878.629953
468.107674	9547.789109
468.479105	9574.383716
468.850477	9342.742697
469.221790	9114.196946
469.593043	8785.995145
469.964238	8648.210328
470.335373	8654.242069
470.706449	8720.437460
471.077467	8697.953914
471.448425	10008.548050
471.819324	11081.691237
472.190164	11106.080339
472.560945	9848.872022
472.931667	9060.954800
473.302330	8927.580992
473.672934	8573.124862
474.043479	8920.150332
474.413965	8859.606074
474.784393	8746.951409
475.154761	8899.196776
475.525070	8983.923448
475.895321	8813.340884
476.265513	8978.751224
476.635645	9149.671546
477.005719	9141.439341
477.375734	9252.737936
477.745691	9487.650664
478.115588	9610.528789
478.485427	9857.008445
478.855207	10380.686027
479.224928	11176.825371
479.594591	11794.848148
479.964194	11607.828902
480.333739	11543.982688
480.703226	11437.659712
481.072653	11528.478620
481.442022	11746.387536
481.811333	11925.840010
482.180584	11716.427958
482.549777	11428.915831
482.918912	11243.630742
483.287988	11250.864798
483.657005	11253.617268
484.025964	10935.137333
484.394864	11042.939887
484.763706	10999.011272
485.132489	10753.038253
485.501213	10700.963133
485.869879	10767.229101
486.238487	10589.825856
486.607036	10680.483446
486.975527	10446.389905
487.343959	10621.529672
487.712333	10640.338217
488.080648	10563.112782
488.448905	10582.904352
488.817104	10499.158183
489.185244	10726.836856
489.553326	10845.031749
489.921350	11322.466827
490.289315	12250.659196
490.657222	12552.629353
491.025070	12425.118407
491.392861	12282.027776
491.760593	11913.171590
492.128267	11575.613408
492.495883	11242.562017
492.863440	10902.884030
493.230939	10555.281349
493.598380	10464.669129
493.965763	10299.157966
494.333088	10184.673362
494.700354	10070.589530
495.067563	10093.257078
495.434713	9896.737778
495.801805	9981.109049
496.168839	9868.386329
496.535815	9761.297098
496.902733	9730.044464
497.269593	9614.990210
497.636395	9672.736628
498.003139	9606.082491
498.369825	9453.955592
498.736453	9531.932159
499.103023	9426.080532
499.469535	9397.802179
499.835989	9345.601031
500.202385	9257.953010
500.568723	9088.197195
500.935003	9217.906083
501.301226	8985.677770
501.667390	9156.245210
502.033497	9164.900871
502.399546	9014.029219
502.765537	8878.477633
503.131470	8875.520997
503.497345	8948.864744
503.863163	8602.114018
504.228923	8768.633412
504.594625	8762.765508
504.960269	8512.003393
505.325856	8612.687838
505.691385	8394.662975
506.056856	8443.564688
506.422270	8394.388232
506.787625	8266.216896
507.152924	8272.283924
507.518164	8201.216258
507.883347	8071.588028
508.248472	7962.406718
508.613540	8043.138276
508.978550	7892.120431
509.343503	7816.074625
509.708398	7822.970923
510.073236	7812.601270
510.438016	7755.623628
510.802738	7644.360322
511.167403	7612.709438
511.532010	7464.701161
511.896561	7544.220321
512.261053	7513.018100
512.625488	7355.502207
512.989866	7273.865761
513.354186	7199.934719
513.718449	7069.383958
514.082655	7111.404496
514.446803	6982.666030
514.810894	6975.477344
515.174927	6824.998902
515.538904	6778.259844
515.902822	6772.044102
516.266684	6655.969014
516.630488	6547.886675
516.994235	6521.531523
517.357925	6465.121011
517.721558	6432.199756
518.085133	6367.667946
518.448651	6309.440098
518.812112	6189.364855
519.175516	6115.650583
519.538863	6091.692499
519.902152	6005.287122
520.265385	5982.687629
520.628560	5892.783692
520.991678	5802.647861
521.354739	5770.868427
521.717743	5684.276527
522.080690	5612.240960
522.443580	5579.100414
522.806413	5505.454198
523.169189	5457.883349
523.531908	5408.364095
523.894569	5291.817659
524.257174	5223.245364
524.619722	5194.765366
524.982213	5133.772445
525.344647	5073.966717
525.707025	5010.949773
526.069345	4975.192869
526.431608	4886.713057
526.793815	4865.018451
527.155964	4754.090382
527.518057	4715.596131
527.880093	4649.042818
528.242072	4613.051500
528.603995	4534.840518
528.965860	4470.041527
529.327669	4428.572995
529.689421	4369.198285
530.051117	4316.833300
530.412755	4278.596148
530.774337	4221.041294
531.135862	4162.715144
531.497331	4126.731388
531.858743	4049.778175
532.220098	4036.267882
532.581396	3977.258656
532.942638	3936.117800
533.303824	3894.467787
533.664953	3851.507073
534.026025	3803.832882
534.387040	3777.336577
534.747999	3742.073706
535.108902	3715.403481
535.469748	3649.699603
535.830537	3629.391314
536.191270	3591.295315
536.551947	3560.410686
536.912567	3528.449770
537.273131	3496.400635
537.633638	3459.275057
537.994089	3426.328596
538.354483	3392.411713
538.714821	3381.230434
539.075103	3355.165148
539.435328	3322.508553
539.795497	3282.910290
540.155609	3271.315636
540.515665	3252.610435
540.875665	3208.928837
541.235609	3189.545600
541.595496	3175.246367
541.955328	3156.740292
542.315102	3129.931435
542.674821	3106.061572
543.034483	3089.130857
543.394090	3068.404153
543.753640	3046.412119
544.113134	3038.358876
544.472571	3017.841380
544.831953	3004.600789
545.191278	2981.439208
545.550548	2965.428503
545.909761	2957.188737
546.268918	2938.735593
546.628019	2931.584717
546.987064	2911.778023
547.346053	2895.898389
547.704986	2886.133674
548.063863	2875.796788
548.422684	2862.057123
548.781449	2849.449197
549.140158	2839.417301
549.498811	2828.165446
549.857408	2813.530976
550.215949	2808.348670
550.574434	2797.573203
550.932864	2790.855866
551.291237	2781.073507
551.649555	2777.063269
552.007817	2771.563370
552.366022	2761.095414
552.724173	2754.138622
553.082267	2747.423805
553.440305	2746.561768
553.798288	2734.498287
554.156215	2731.297154
554.514086	2730.014180
554.871902	2721.295505
555.229661	2714.719319
555.587365	2711.303938
555.945014	2705.055427
556.302606	2704.392516
556.660143	2698.958152
557.017625	2695.502441
557.375050	2692.898685
557.732421	2690.887265
558.089735	2686.612366
558.446994	2680.772189
558.804197	2679.610203
559.161345	2678.533917
559.518437	2672.252639
559.875474	2674.831190
560.232455	2669.895900
560.589381	2667.191321
560.946251	2662.629077
561.303065	2665.671413
561.659825	2660.801658
562.016528	2658.754950
562.373177	2656.030206
562.729770	2654.091883
563.086307	2655.097593
563.442789	2652.294711
563.799216	2648.866727
564.155587	2649.632982
564.511904	2647.729947
564.868164	2646.096613
565.224370	2644.811118
565.580520	2640.979842
565.936615	2644.002013
566.292654	2637.246867
566.648638	2640.127887
567.004567	2639.762403
567.360441	2639.462454
567.716260	2636.205869
568.072023	2635.674027
568.427732	2629.465846
568.783385	2632.387195
569.138982	2628.709673
569.494525	2627.245218
569.850013	2625.561472
570.205445	2627.749333
570.560823	2629.879221
570.916145	2626.100876
571.271412	2627.182203
571.626625	2627.446864
571.981782	2624.782614
572.336884	2623.086266
572.691931	2625.445526
573.046923	2622.375463
573.401860	2618.622324
573.756743	2619.648199
574.111570	2621.926801
574.466342	2619.630555
574.821059	2619.449073
575.175722	2620.686677
575.530330	2619.776748
575.884882	2618.345061
576.239380	2616.968826
576.593823	2615.695934
576.948211	2617.404886
577.302544	2616.557972
577.656823	2616.081583
578.011047	2617.309104
578.365216	2613.896243
578.719330	2612.073865
579.073389	2612.333485
579.427394	2612.388937
579.781344	2611.894904
580.135239	2612.993876
580.489080	2609.815428
580.842866	2611.244596
581.196597	2610.372476
581.550273	2612.583022
581.903895	2609.346601
582.257463	2610.848865
582.610975	2607.362907
582.964434	2607.602362
583.317837	2607.980448
583.671186	2611.983125
584.024481	2605.694285
584.377721	2606.763010
584.730906	2606.813421
585.084037	2606.319388
585.437113	2608.396344
585.790135	2608.469440
586.143103	2607.249481
586.496016	2604.194542
586.848874	2600.832092
587.201679	2603.650097
587.554428	2600.577514
587.907124	2602.566249
588.259765	2599.972576
588.612352	2606.039604
588.964884	2601.421907
589.317362	2601.603389
589.669786	2604.358379
590.022155	2605.417022
590.374470	2602.266301
590.726731	2601.739500
591.078937	2598.392174
591.431090	2601.121959
591.783188	2599.539036
592.135232	2600.774119
592.487222	2601.409304
592.839157	2601.265632
593.191038	2600.448965
593.542866	2598.636670
593.894639	2600.658172
594.246358	2598.797987
594.598022	2599.763368
594.949633	2598.447627
595.301190	2597.724221
595.652692	2597.358737
596.004141	2601.742021
596.355535	2598.112390
596.706876	2596.078284
597.058162	2595.460743
597.409395	2595.506113
597.760573	2596.030393
598.111698	2595.440578
598.462768	2598.324118
598.813785	2593.277923
599.164748	2594.132399
599.515657	2596.610126
599.866511	2596.277410
600.217312	2595.150712
600.568060	2594.240784
600.918753	2595.949735
601.269392	2594.117275
601.619978	2593.716504
601.970510	2596.156422
602.320988	2593.872779
602.671412	2596.327821
603.021783	2595.397728
603.372100	2595.387646
603.722363	2593.318253
604.072572	2594.197934
604.422728	2594.591144
604.772830	2593.144333
605.122878	2589.756677
605.472872	2593.519899
605.822813	2588.335072
606.172701	2590.467480
606.522534	2594.213057
606.872314	2594.820516
607.222041	2592.070567
607.571714	2592.942687
607.921333	2593.724065
608.270899	2592.897316
608.620411	2595.226329
608.969870	2594.248345
609.319276	2596.012749
609.668627	2597.625918
610.017926	2600.022987
610.367171	2602.687237
610.716362	2599.811259
611.065500	2600.189345
611.414585	2599.163470
611.763616	2600.484253
612.112594	2595.407811
612.461518	2595.637183
612.810389	2596.632811
613.159207	2596.196751
613.507971	2594.535691
613.856682	2595.150712
614.205340	2597.643562
614.553945	2596.332863
614.902496	2596.259766
615.250994	2596.673140
615.599439	2594.966710
615.947830	2594.843202
616.296169	2596.436206
616.644454	2594.923860
616.992686	2594.354210
617.340864	2593.240115
617.688990	2590.167531
618.037063	2594.828078
618.385082	2593.524940
618.733048	2596.325301
619.080961	2596.451330
619.428821	2592.854466
619.776628	2596.519385
620.124382	2595.516196
620.472083	2594.833119
620.819731	2596.413521
621.167326	2592.829261
621.514868	2595.422934
621.862357	2591.939497
622.209793	2592.985536
622.557176	2594.576020
622.904506	2588.604774
623.251783	2586.051429
623.599007	2588.062850
623.946179	2586.913467
624.293297	2586.931111
624.640363	2590.401945
624.987376	2590.457398
625.334336	2590.323807
625.681243	2588.178796
626.028097	2588.882037
626.374899	2590.606112
626.721647	2590.679208
627.068343	2586.963878
627.414987	2585.348188
627.761577	2586.870617
628.108115	2584.143352
628.454600	2585.955647
628.801032	2585.658219
629.147412	2585.426326
629.493739	2585.509505
629.840014	2584.115626
630.186236	2587.795668
630.532405	2584.516398
630.878521	2585.277612
631.224585	2586.237952
631.570597	2583.498085
631.916556	2586.149732
632.262462	2584.302149
632.608316	2581.075810
632.954117	2583.682087
633.299866	2584.201326
633.645562	2582.278126
633.991206	2583.692169
634.336797	2581.937848
634.682336	2583.795513
635.027823	2583.551017
635.373257	2579.197981
635.718639	2580.584298
636.063968	2579.394586
636.409245	2579.107240
636.754470	2577.670511
637.099642	2577.655387
637.444762	2577.602455
637.789829	2580.213773
638.134845	2580.647312
638.479808	2577.962898
638.824719	2580.884247
639.169577	2575.641447
639.514383	2578.025912
639.859137	2575.207907
640.203839	2576.581622
640.548489	2574.781930
640.893086	2575.107084
641.237632	2571.515262
641.582125	2575.742270
641.926566	2572.203380
642.270955	2576.553895
642.615292	2575.651529
642.959576	2577.166396
643.303809	2578.524987
643.647990	2575.815366
643.992118	2575.485171
644.336195	2575.505335
644.680219	2575.616241
645.024192	2575.981724
645.368112	2578.099009
645.711981	2576.269070
646.055797	2577.917528
646.399562	2579.387024
646.743274	2576.024574
647.086935	2576.969791
647.430544	2577.667990
647.774101	2580.801067
648.117606	2580.135635
648.461059	2582.295770
648.804460	2578.010789
649.147810	2576.672362
649.491108	2577.869637
649.834354	2577.423494
650.177548	2573.745973
650.520690	2575.054152
650.863781	2575.878381
651.206820	2577.579770
651.549807	2575.003741
651.892742	2575.056673
652.235626	2573.768658
652.578458	2571.212793
652.921238	2574.192115
653.263967	2576.495922
653.606644	2573.715726
653.949269	2571.288410
654.291843	2574.020716
654.634365	2572.188256
654.976836	2573.826631
655.319255	2570.824624
655.661622	2573.050293
656.003938	2572.823442
656.346203	2571.933678
656.688416	2572.213462
657.030577	2573.740932
657.372687	2570.633060
657.714746	2571.913513
658.056753	2572.155489
658.398708	2564.860939
658.740612	2570.164233
659.082465	2568.296485
659.424266	2570.227247
659.766016	2565.861608
660.107715	2570.968297
660.449362	2571.888307
660.790958	2573.488874
661.132503	2568.868656
661.473996	2574.305541
661.815438	2570.570046
662.156829	2571.865622
662.498168	2571.611044
662.839456	2567.313460
663.180693	2571.114490
663.521879	2570.423852
663.863013	2572.747824
664.204097	2572.606672
664.545129	2568.709860
664.886110	2573.599779
665.227040	2570.996023
665.567918	2575.775037
665.908746	2571.316137
666.249522	2573.347722
666.590248	2572.457958
666.930922	2573.350242
667.271545	2574.923082
667.612118	2573.181363
667.952639	2572.962073
668.293109	2572.011816
668.633528	2571.096846
668.973896	2574.151786
669.314213	2574.411405
669.654480	2572.715057
669.994695	2570.915365
670.334859	2574.053483
670.674973	2570.958215
671.015035	2573.042732
671.355047	2570.111301
671.695008	2572.016857
672.034918	2569.244222
672.374777	2571.422001
672.714585	2573.042732
673.054342	2572.417629
673.394049	2570.398647
673.733705	2572.962073
674.073310	2570.479305
674.412864	2574.000551
674.752368	2570.607854
675.091820	2572.452917
675.431223	2572.944429
675.770574	2570.935529
676.109875	2566.761454
676.449125	2569.516445
676.788324	2567.051320
677.127473	2568.714901
677.466571	2566.784139
677.805619	2570.776733
678.144616	2569.196331
678.483562	2568.891342
678.822458	2567.817576
679.161303	2570.796898
679.500098	2569.090467
679.838842	2568.840930
680.177535	2568.258677
680.516179	2570.960735
680.854771	2567.590724
681.193314	2570.963256
681.531805	2568.480488
681.870247	2571.994172
682.208638	2572.556260
682.546978	2573.451065
682.885268	2573.078020
683.223508	2574.945767
683.561697	2573.009964
683.899836	2572.818400
684.237925	2573.561971
684.575963	2569.569377
684.913951	2569.607185
685.251889	2571.699264
685.589776	2572.170612
685.927614	2570.212124
686.265401	2568.840930
686.603137	2573.123390
686.940824	2571.787484
687.278460	2573.851837
687.616046	2572.004254
687.953582	2573.675397
688.291068	2570.862433
688.628504	2575.336457
688.965889	2572.964594
689.303224	2570.209603
689.640510	2571.059038
689.977745	2571.674058
690.314930	2570.423852
690.652065	2570.423852
690.989150	2569.176167
691.326185	2568.777916
691.663170	2568.359500
692.000105	2568.021742
692.336990	2566.905127
692.673825	2567.527709
693.010610	2565.801114
693.347345	2563.552760
693.684030	2558.945145
694.020665	2559.091338
694.357251	2560.555794
694.693786	2564.979406
695.030272	2564.122410
695.366707	2563.333469
695.703093	2564.596278
696.039429	2564.571073
696.375716	2561.566545
696.711952	2561.498489
697.048139	2561.372461
697.384276	2561.667368
697.720363	2561.624518
698.056400	2561.571586
698.392388	2560.707028
698.728326	2563.872873
699.064214	2562.360527
699.400053	2561.949673
699.735842	2561.992522
700.071581	2561.475804
700.407270	2559.275341
700.742910	2558.612429
701.078501	2558.372974
701.414042	2559.040927
701.749533	2559.350958
702.084974	2556.757284
702.420366	2560.371792
702.755709	2559.645865
703.091002	2557.221070
703.426246	2556.878272
703.761440	2556.885834
704.096584	2560.092007
704.431679	2560.308777
704.766725	2560.921277
705.101721	2559.051009
705.436668	2558.967830
705.771565	2557.500854
706.106413	2559.232491
706.441212	2559.018242
706.775961	2560.555794
707.110661	2558.204095
707.445311	2558.902295
707.779913	2557.566389
708.114465	2558.332645
708.448967	2557.636966
708.783421	2559.618139
709.117825	2560.011349
709.452180	2560.626370
709.786485	2561.193500
710.120742	2561.080074
710.454949	2560.759960
710.789107	2560.553273
711.123216	2560.268448
711.457275	2560.923798
711.791286	2556.185113
712.125247	2562.622667
712.459159	2561.740465
712.793023	2564.440003
713.126837	2563.257852
713.460602	2564.994530
713.794318	2562.660475
714.127985	2563.325908
714.461602	2560.810372
714.795171	2561.233829
715.128691	2558.768705
715.462162	2559.214847
715.795584	2561.763150
716.128957	2558.637635
716.462281	2559.111503
716.795556	2560.381874
717.128782	2556.684187
717.461960	2555.658313
717.795088	2557.163097
718.128167	2557.090000
718.461198	2556.152346
718.794180	2557.657130
719.127113	2555.882644
719.459997	2557.034548
719.792833	2553.646892
720.125619	2554.329969
720.458357	2554.408107
720.791046	2556.079249
721.123686	2555.179403
721.456278	2554.703014
721.788821	2553.440205
722.121315	2553.193188
722.453761	2554.745864
722.786158	2553.538508
723.118506	2552.038764
723.450805	2555.073539
723.783056	2555.590257
724.115259	2552.326110
724.447412	2554.183775
724.779518	2557.059753
725.111574	2552.862993
725.443582	2558.831719
725.775542	2553.359547
726.107453	2551.403579
726.439315	2556.689229
726.771129	2557.090000
727.102895	2556.739640
727.434612	2557.190823
727.766281	2556.142263
728.097901	2553.664536
728.429473	2554.934907
728.760996	2553.815771
729.092471	2552.162273
729.423897	2555.537325
729.755276	2556.371636
730.086606	2555.459187
730.417887	2557.105124
730.749120	2557.241235
731.080305	2559.171997
731.411442	2558.118396
731.742530	2560.495300
732.073570	2560.591082
732.404562	2560.081925
732.735506	2558.839281
733.066401	2559.867676
733.397249	2556.603529
733.728048	2559.262738
734.058798	2555.481872
734.389501	2554.395504
734.720156	2556.114537
735.050762	2554.468600
735.381320	2552.820143
735.711831	2551.622869
736.042293	2553.261244
736.372707	2554.463559
736.703073	2550.791079
737.033391	2551.958106
737.363661	2551.287632
737.693883	2554.529094
738.024056	2552.298384
738.354182	2552.968857
738.684260	2554.266954
739.014290	2553.246121
739.344272	2555.081101
739.674207	2556.411965
740.004093	2556.270813
740.333931	2555.323076
740.663722	2556.127140
740.993464	2555.229815
741.323159	2553.823333
741.652806	2553.374670
741.982405	2551.854762
742.311956	2554.166131
742.641460	2555.368446
742.970915	2552.552962
743.300323	2551.012889
743.629683	2552.144628
743.958996	2553.470452
744.288260	2550.171017
744.617477	2551.690925
744.946647	2547.766386
745.275768	2552.016079
745.604842	2545.820501
745.933869	2549.694628
746.262847	2543.957795
746.591778	2553.394835
746.920662	2547.524411
747.249498	2548.394010
747.578286	2551.000287
747.907027	2553.397355
748.235720	2551.421223
748.564365	2550.231511
748.892963	2550.032385
749.221514	2554.345092
749.550017	2549.271171
749.878473	2552.358877
750.206881	2550.559186
750.535242	2552.071532
750.863555	2551.950544
751.191821	2548.998948
751.520039	2549.437529
751.848210	2552.668908
752.176334	2548.401572
752.504411	2550.838970
752.832440	2551.239741
753.160421	2552.157231
753.488356	2548.472148
753.816243	2550.473486
754.144082	2550.055070
754.471875	2551.050698
754.799620	2550.808723
755.127318	2548.807385
755.454969	2549.253527
755.782572	2548.492312
756.110129	2549.026675
756.437638	2550.501212
756.765100	2549.878630
757.092515	2549.697148
757.419882	2550.118085
757.747203	2550.327292
758.074477	2547.940306
758.401703	2550.317210
758.728882	2548.109185
759.056014	2551.264947
759.383099	2547.756304
759.710138	2552.099258
760.037129	2550.322251
760.364073	2552.845349
760.690970	2550.987684
761.017820	2549.850903
761.344623	2550.581871
761.671379	2551.895091
761.998088	2547.136242
762.324751	2552.666388
762.651366	2552.999104
762.977935	2565.410425
763.304456	2568.924109
763.630931	2574.247567
763.957359	2570.091136
764.283740	2561.964796
764.610074	2561.778273
764.936362	2557.447922
765.262602	2553.846018
765.588796	2552.409289
765.914943	2553.460370
766.241044	2549.752601
766.567097	2550.818805
766.893104	2548.361243
767.219064	2547.037940
767.544978	2548.865358
767.870845	2547.796633
768.196665	2545.518032
768.522438	2550.496171
768.848165	2548.343598
769.173846	2546.032229
769.499479	2549.182951
769.825066	2544.865202
770.150607	2545.565923
770.476101	2546.130532
770.801548	2549.059442
771.126949	2545.402085
771.452303	2545.598690
771.777611	2543.768751
772.102872	2544.305634
772.428087	2541.646426
772.753256	2544.671118
773.078378	2543.993083
773.403453	2542.521066
773.728482	2544.444266
774.053465	2544.066179
774.378401	2543.486447
774.703291	2542.513504
775.028135	2542.430325
775.352932	2542.165664
775.677683	2542.256405
776.002388	2541.248174
776.327046	2543.725902
776.651658	2543.914945
776.976224	2540.857485
777.300743	2539.816487
777.625216	2541.505273
777.949643	2544.477033
778.274024	2543.219266
778.598359	2537.477391
778.922647	2539.277083
779.246889	2540.108874
779.571086	2537.958822
779.895236	2538.553678
780.219339	2543.488967
780.543397	2540.451672
780.867409	2541.921168
781.191374	2538.919161
781.515294	2542.155582
781.839167	2541.215407
782.162995	2542.049718
782.486776	2540.575180
782.810511	2540.494522
783.134201	2538.410005
783.457844	2541.858154
783.781441	2542.011909
784.104993	2540.739018
784.428498	2544.771941
784.751958	2541.210366
785.075372	2540.756662
785.398739	2539.178781
785.722061	2540.413863
786.045337	2540.678524
786.368568	2541.064172
786.691752	2542.422763
787.014891	2544.625747
787.337983	2539.947557
787.661030	2543.466282
787.984031	2542.813453
788.306987	2545.210521
788.629897	2543.801519
788.952760	2546.301931
789.275579	2547.446273
789.598351	2543.652805
789.921078	2545.208001
790.243759	2542.884029
790.566395	2543.088196
790.888984	2541.901004
791.211529	2542.621889
791.534027	2540.877650
791.856480	2539.476209
792.178888	2540.441590
792.501249	2540.673483
792.823566	2540.630633
793.145836	2542.190870
793.468062	2541.991745
793.790241	2538.047042
794.112375	2543.418391
794.434464	2538.823379
794.756507	2543.105840
795.078505	2541.217927
795.400457	2541.170037
795.722364	2538.263811
796.044226	2538.548637
796.366042	2541.419574
796.687812	2539.614841
797.009538	2542.379913
797.331218	2543.746066
797.652852	2542.052238
797.974442	2542.768082
798.295986	2542.435366
798.617484	2542.987372
798.938938	2543.403268
799.260346	2541.601055
799.581709	2539.836651
799.903026	2544.345963
800.224299	2539.466127
800.545526	2541.873277
800.866708	2539.614841
801.187845	2542.468134
801.508936	2538.959491
801.829983	2541.722043
802.150984	2539.635005
802.471940	2540.960829
802.792851	2541.545602
803.113717	2542.130376
803.434538	2539.463606
803.755314	2541.558205
804.076045	2538.079809
804.396731	2538.788091
804.717372	2540.552495
805.037967	2539.294727
805.358518	2540.192053
805.679024	2540.290355
805.999485	2540.217258
806.319901	2542.861344
806.640272	2540.287835
806.960598	2541.401930
807.280879	2539.640046
807.601115	2538.936805
807.921306	2539.534182
808.241453	2538.016795
808.561554	2539.551826
808.881611	2539.430838
809.201623	2543.393185
809.521590	2540.847403
809.841513	2538.956970
810.161390	2542.657177
810.481223	2541.381765
810.801011	2540.043339
811.120755	2538.536034
811.440453	2541.921168
811.760107	2541.258257
812.079716	2539.209028
812.399281	2538.026877
812.718801	2537.767258
813.038276	2533.981351
813.357707	2539.690458
813.677093	2539.393030
813.996434	2539.672814
814.315731	2535.715508
814.634983	2543.902342
814.954191	2539.267001
815.273354	2539.234233
815.592473	2539.849254
815.911547	2540.925541
816.230577	2540.749100
816.549562	2538.699871
816.868502	2539.476209
817.187399	2540.010571
817.506250	2543.841848
817.825058	2540.965870
818.143821	2544.358566
818.462539	2544.098947
818.781213	2545.107178
819.099843	2542.639533
819.418429	2545.931406
819.736970	2548.250337
820.055466	2550.622200
820.373919	2553.203271
820.692327	2559.093859
821.010691	2565.095353
821.329011	2580.675039
821.647286	2609.454986
821.965517	2646.643578
822.283704	2669.033863
822.601847	2673.182732
822.919945	2658.659168
823.237999	2636.319295
823.556010	2618.450925
823.873976	2602.533482
824.191897	2587.747777
824.509775	2577.617579
824.827609	2573.219172
825.145398	2566.726166
825.463144	2566.617781
825.780845	2566.519479
826.098502	2572.163050
826.416116	2580.876685
826.733685	2593.207347
827.051210	2597.643563
827.368692	2591.090062
827.686129	2583.324165
828.003522	2571.411918
828.320872	2561.256514
828.638177	2555.406255
828.955439	2549.359391
829.272656	2546.188505
829.589830	2541.364121
829.906960	2544.348484
830.224046	2546.561551
830.541088	2545.369318
830.858086	2544.126673
831.175041	2544.497198
831.491952	2542.510983
831.808819	2543.312527
832.125642	2543.786395
832.442421	2546.342260
832.759157	2548.474668
833.075849	2555.121430
833.392497	2562.925136
833.709101	2566.264900
834.025662	2568.838409
834.342179	2564.152657
834.658653	2557.450443
834.975083	2555.741492
835.291469	2556.278375
835.607811	2546.775800
835.924110	2542.790767
836.240366	2544.235058
836.556578	2541.288504
836.872746	2541.522917
837.188871	2539.592155
837.504952	2541.228010
837.820990	2538.599048
838.136984	2538.873791
838.452935	2534.334232
838.768842	2539.977804
839.084706	2539.844213
839.400526	2541.820345
839.716303	2544.028371
840.032037	2550.624721
840.347727	2549.520708
840.663373	2546.861499
840.978977	2542.994934
841.294537	2542.548792
841.610054	2542.679862
841.925527	2541.517876
842.240957	2538.901517
842.556344	2536.333049
842.871687	2536.345652
843.186987	2537.837834
843.502244	2537.048893
843.817458	2536.156609
844.132629	2534.430014
844.447756	2533.850281
844.762840	2529.676206
845.077881	2531.392719
845.392879	2528.378109
845.707833	2533.021011
846.022745	2530.051772
846.337613	2536.083512
846.652438	2533.172246
846.967221	2534.170394
847.281960	2534.936650
847.596656	2536.335570
847.911309	2534.019160
848.225919	2534.273738
848.540485	2535.284489
848.855009	2534.974458
849.169490	2534.518234
849.483928	2535.181146
849.798323	2532.353058
850.112675	2534.858512
850.426984	2534.994623
850.741251	2532.602596
851.055474	2532.801721
851.369654	2530.661751
851.683792	2533.923378
851.997887	2535.239119
852.311938	2536.675848
852.625947	2536.247350
852.939914	2536.053265
853.253837	2535.652494
853.567718	2530.966741
853.881555	2534.505631
854.195350	2533.590662
854.509103	2533.232740
854.822812	2535.029911
855.136479	2531.992616
855.450103	2532.027904
855.763685	2533.646114
856.077224	2533.570497
856.390720	2531.821217
856.704173	2534.470343
857.017584	2533.066382
857.330953	2535.206352
857.644278	2533.636032
857.957561	2537.585776
858.270802	2533.308357
858.584000	2535.680220
858.897155	2534.256094
859.210268	2533.068902
859.523339	2532.146371
859.836367	2533.071423
860.149352	2536.552340
860.462295	2533.096629
860.775195	2532.428676
861.088054	2530.926412
861.400869	2531.639735
861.713642	2530.770136
862.026373	2533.250384
862.339062	2534.545960
862.651708	2531.312060
862.964312	2535.609644
863.276873	2532.363141
863.589392	2533.595703
863.901869	2534.656866
864.214303	2537.411856
864.526696	2535.047555
864.839045	2533.444468
865.151353	2536.690971
865.463619	2534.261135
865.775842	2533.237781
866.088023	2535.002185
866.400162	2534.737524
866.712258	2535.181146
867.024313	2533.930940
867.336325	2534.861032
867.648296	2535.138296
867.960224	2534.258615
868.272110	2534.480425
868.583954	2533.658717
868.895755	2534.939170
869.207515	2532.874818
869.519233	2536.600231
869.830909	2534.389685
870.142542	2535.493697
870.454134	2536.723739
870.765684	2536.275076
871.077191	2537.522762
871.388657	2538.745242
871.700081	2535.481094
872.011463	2537.273225
872.322803	2537.989068
872.634101	2537.212731
872.945357	2536.839685
873.256571	2535.334901
873.567744	2537.976466
873.878874	2536.640560
874.189963	2536.575025
874.501010	2538.878832
874.812015	2535.972607
875.122979	2536.116280
875.433900	2537.553009
875.744780	2537.515200
876.055618	2538.994779
876.366415	2534.553522
876.677169	2539.188863
876.987882	2536.711136
877.298554	2533.217616
877.609183	2535.287010
877.919771	2535.012267
878.230317	2535.145858
878.540822	2540.239944
878.851285	2541.626261
879.161707	2543.120963
879.472087	2547.942827
879.782425	2547.748742
880.092722	2555.151677
880.402977	2564.301371
880.713191	2581.799216
881.023363	2600.927874
881.333494	2611.660491
881.643583	2616.109309
881.953631	2616.212653
882.263637	2609.865840
882.573602	2604.174377
882.883526	2595.901844
883.193408	2583.611511
883.503248	2575.399471
883.813048	2569.985272
884.122806	2564.843295
884.432522	2559.469425
884.742197	2556.853066
885.051831	2552.918446
885.361424	2548.784699
885.670975	2546.286808
885.980485	2542.999975
886.289954	2545.026519
886.599382	2541.848072
886.908768	2546.359904
887.218113	2541.643905
887.527417	2543.557023
887.836680	2539.821528
888.145901	2538.924202
888.455082	2538.629295
888.764221	2539.279604
889.073319	2538.412525
889.382376	2537.699202
889.691392	2537.999151
890.000366	2536.103677
890.309300	2537.873122
890.618193	2539.249357
890.927044	2537.570653
891.235855	2540.403781
891.544625	2539.541744
891.853353	2539.977804
892.162041	2538.208359
892.470687	2537.616023
892.779293	2539.655170
893.087858	2538.193235
893.396381	2540.693648
893.704864	2544.096426
894.013306	2545.344112
894.321707	2557.866338
894.630068	2563.411607
894.938387	2563.333469
895.246665	2563.237687
895.554903	2558.347768
895.863100	2555.504558
896.171256	2552.404248
896.479371	2548.152035
896.787446	2549.729916
897.095480	2544.605583
897.403473	2544.149358
897.711425	2539.571991
898.019336	2540.509645
898.327207	2540.555016
898.635038	2542.185829
898.942827	2540.829759
899.250576	2536.859850
899.558284	2538.946888
899.865952	2537.903369
900.173579	2537.855478
900.481165	2537.348842
900.788711	2538.132741
901.096216	2535.465971
901.403681	2536.484284
901.711105	2536.811959
902.018489	2535.869263
902.325832	2540.567619
902.633135	2536.819521
902.940397	2537.918492
903.247619	2540.244985
903.554800	2544.807229
903.861941	2555.164280
904.169041	2568.553584
904.476101	2575.888463
904.783121	2574.650860
905.090100	2569.899572
905.397039	2561.332131
905.703938	2556.618652
906.010796	2550.052550
906.317614	2547.670604
906.624391	2542.090047
906.931129	2541.107022
907.237826	2537.605941
907.544483	2540.144162
907.851099	2537.288348
908.157675	2535.929757
908.464211	2536.068389
908.770707	2530.946577
909.077163	2532.615198
909.383578	2530.203006
909.689954	2529.426669
909.996289	2526.964065
910.302584	2529.658562
910.608839	2532.095960
910.915054	2533.656197
911.221229	2534.674510
911.527363	2535.884387
911.833458	2534.409849
912.139513	2536.050745
912.445527	2533.542771
912.751502	2533.920857
913.057436	2535.100487
913.363331	2536.678368
913.669186	2535.939839
913.975000	2537.981507
914.280775	2540.509645
914.586510	2543.511652
914.892205	2546.682538
915.197859	2553.155380
915.503475	2555.688560
915.809050	2562.688202
916.114585	2569.080385
916.420081	2572.972156
916.725536	2569.944943
917.030952	2565.090312
917.336328	2563.237687
917.641665	2556.376677
917.946961	2554.271995
918.252218	2549.692107
918.557435	2547.705893
918.862612	2545.087013
919.167750	2546.238917
919.472848	2540.897814
919.777906	2540.965870
920.082925	2541.548123
920.387904	2535.980169
920.692843	2536.801877
920.997743	2535.907072
921.302603	2537.061496
921.607423	2536.053265
921.912204	2535.501259
922.216946	2536.126362
922.521647	2534.727442
922.826310	2533.517565
923.130932	2533.499921
923.435516	2533.938501
923.740059	2535.223996
924.044564	2532.564787
924.349028	2536.227185
924.653454	2528.385670
924.957840	2529.535053
925.262186	2528.879703
925.566493	2530.084539
925.870761	2526.550690
926.174989	2530.439941
926.479178	2531.508665
926.783328	2531.372554
927.087438	2530.717204
927.391509	2529.247708
927.695541	2529.020856
927.999533	2530.818027
928.303486	2531.266690
928.607400	2530.016484
928.911275	2531.866587
929.215110	2529.842564
929.518906	2528.741072
929.822663	2529.162008
930.126381	2531.271731
930.430060	2531.029756
930.733699	2529.351051
931.037299	2529.222502
931.340861	2532.537061
931.644383	2531.475898
931.947866	2528.640249
932.251309	2531.097811
932.554714	2526.646472
932.858080	2533.968748
933.161407	2532.526978
933.464694	2532.274921
933.767943	2529.691329
934.071153	2530.586134
934.374323	2531.196114
934.677455	2528.481452
934.980548	2532.148892
935.283602	2530.006401
935.586617	2530.966741
935.889593	2527.006915
936.192530	2530.069416
936.495428	2529.824920
936.798287	2529.023376
937.101108	2532.030425
937.403890	2531.428007
937.706632	2531.165867
938.009336	2533.578059
938.312002	2530.636546
938.614628	2531.654859
938.917216	2532.012781
939.219765	2532.312729
939.522275	2534.571166
939.824747	2532.521937
940.127179	2530.576052
940.429573	2527.218643
940.731929	2532.796680
941.034246	2524.725793
941.336524	2532.342976
941.638763	2529.308202
941.940964	2530.225692
942.243126	2529.585465
942.545250	2531.254087
942.847335	2529.260311
943.149381	2530.838192
943.451389	2531.339787
943.753359	2531.556556
944.055290	2530.150074
944.357182	2531.410363
944.659036	2532.101001
944.960851	2530.427338
945.262628	2528.733510
945.564367	2530.641587
945.866067	2529.068747
946.167729	2530.071936
946.469352	2530.714683
946.770937	2530.208048
947.072484	2527.642100
947.373992	2530.757533
947.675462	2529.598068
947.976893	2527.753006
948.278286	2530.074457
948.579641	2529.373737
948.880958	2529.202337
949.182236	2528.118489
949.483476	2530.318953
949.784678	2531.024714
950.085841	2530.099663
950.386967	2530.006401
950.688054	2532.370703
950.989103	2529.479601
951.290114	2530.119827
951.591087	2530.714683
951.892021	2531.959848
952.192917	2534.094777
952.493776	2530.263500
952.794596	2530.994468
953.095378	2529.915661
953.396122	2531.465815
953.696828	2529.348531
953.997496	2531.619571
954.298126	2532.398429
954.598718	2528.315094
954.899272	2530.318953
955.199788	2529.482121
955.500266	2530.147554
955.800706	2527.937008
956.101108	2525.943231
956.401472	2527.445495
956.701798	2523.344517
957.002087	2526.454908
957.302337	2528.083201
957.602550	2530.387008
957.902724	2527.596730
958.202861	2529.184693
958.502960	2526.923736
958.803022	2528.221833
959.103045	2527.148067
959.403031	2528.786442
959.702979	2526.177645
960.002889	2528.715866
960.302762	2526.386853
960.602596	2526.868283
960.902393	2528.617563
961.202153	2526.792666
961.501875	2527.659744
961.801559	2527.924405
962.101205	2525.550021
962.400814	2526.366688
962.700385	2528.481452
962.999918	2526.681760
963.299414	2525.517254
963.598873	2527.258973
963.898293	2525.121523
964.197677	2527.100176
964.497022	2528.070598
964.796331	2526.376771
965.095601	2526.772501
965.394835	2528.194107
965.694030	2525.456760
965.993189	2529.547656
966.292309	2527.939528
966.591393	2527.311905
966.890439	2529.978675
967.189447	2526.147398
967.488419	2527.294261
967.787353	2528.463808
968.086249	2526.701925
968.385108	2528.156298
968.683930	2529.436751
968.982714	2525.408869
969.281462	2526.981709
969.580172	2529.814838
969.878844	2523.412572
970.177480	2528.877183
970.476078	2527.223684
970.774639	2528.022707
971.073162	2525.537418
971.371649	2525.366019
971.670098	2524.831657
971.968510	2522.651358
972.266885	2519.893847
972.565223	2527.304343
972.863524	2524.304856
973.161788	2527.730320
973.460014	2527.400125
973.758204	2528.811648
974.056356	2528.786442
974.354471	2526.447347
974.652550	2526.686802
974.950591	2527.271575
975.248595	2528.778880
975.546563	2526.129754
975.844493	2528.254600
976.142386	2527.715197
976.440243	2526.737213
976.738062	2526.636390
977.035845	2526.167563
977.333590	2526.462470
977.631299	2525.953314
977.928971	2530.460105
978.226606	2526.223015
978.524204	2527.939528
978.821765	2524.219157
979.119290	2527.541277
979.416777	2526.243180
979.714228	2526.039013
980.011642	2525.391225
980.309020	2529.167049
980.606360	2527.712676
980.903664	2527.579086
981.200931	2526.654034
981.498162	2526.759898
981.795356	2529.950949
982.092513	2528.972965
982.389633	2526.596061
982.686717	2529.202337
982.983764	2528.574714
983.280775	2529.222502
983.577749	2528.143695
983.874686	2530.082019
984.171587	2525.650844
984.468451	2530.540764
984.765279	2525.751668
985.062070	2528.461288
985.358824	2526.202851
985.655543	2525.756709
985.952224	2524.884589
986.248869	2528.299971
986.545478	2522.525329
986.842050	2523.233611
987.138586	2523.389887
987.435086	2523.919208
987.731549	2524.163704
988.027975	2527.957172
988.324366	2525.156811
988.620719	2526.459950
988.917037	2526.870804
989.213318	2525.721421
989.509563	2529.479601
989.805772	2525.769312
990.101944	2525.058509
990.398080	2526.061698
990.694180	2525.731503
990.990244	2527.107738
991.286271	2524.105731
991.582262	2527.803417
991.878217	2525.045906
992.174136	2527.296781
992.470019	2522.101872
992.765865	2526.817872
993.061676	2527.422810
993.357450	2526.618746
993.653188	2525.229908
993.948890	2526.346524
994.244556	2523.417613
994.540186	2526.298633
994.835780	2526.906092
995.131337	2524.824095
995.426859	2526.850639
995.722345	2525.960875
996.017795	2527.458098
996.313208	2528.579755
996.608586	2527.758047
996.903928	2528.466329
997.199234	2526.447347
997.494504	2527.682429
997.789738	2527.306863
998.084936	2528.007584
998.380099	2525.063550
998.675225	2523.641945
998.970316	2527.241328
999.265371	2526.311236
999.560390	2523.410052
999.855373	2526.021369
1000.150320	2525.335772
1000.445232	2527.652182
1000.740108	2527.100176
1001.034948	2525.970958
1001.329752	2526.152439
1001.624521	2527.024559
1001.919254	2521.078518
1002.213951	2525.010618
1002.508613	2519.883764
1002.803239	2522.996677
1003.097829	2521.486851
1003.392384	2525.774353
1003.686903	2525.587830
1003.981386	2526.898530
1004.275834	2525.280320
1004.570246	2527.198479
1004.864623	2521.769156
1005.158964	2525.108920
1005.453270	2524.710669
1005.747540	2526.875845
1006.041775	2526.041534
1006.335974	2523.727644
1006.630138	2523.417613
1006.924266	2526.492717
1007.218359	2525.764270
1007.512416	2526.006246
1007.806438	2525.413910
1008.100425	2527.069929
1008.394376	2525.373581
1008.688292	2526.064219
1008.982172	2523.034486
1009.276017	2523.256296
1009.569827	2523.309228
1009.863602	2526.074301
1010.157341	2523.072294
1010.451045	2525.892820
1010.744714	2525.144208
1011.038347	2523.281502
1011.331945	2526.170083
1011.625508	2528.194107
1011.919036	2526.165042
1012.212528	2526.167563
1012.505986	2523.425175
1012.799408	2526.167563
1013.092795	2523.712521
1013.386147	2528.267203
1013.679464	2523.127747
1013.972745	2526.028931
1014.265992	2524.216636
1014.559204	2523.697397
1014.852380	2525.529857
1015.145521	2524.201513
1015.438628	2524.763601
1015.731699	2527.155629
1016.024736	2524.723272
1016.317737	2524.998015
1016.610703	2522.979033
1016.903635	2521.809485
1017.196531	2520.075328
1017.489393	2524.057840
1017.782219	2520.748322
1018.075011	2524.362830
1018.367768	2524.942562
1018.660490	2527.258972
1018.953177	2527.258972
1019.245829	2527.258972
