Dividing Wavelength (nm)	Counts (n)	Blue Motor Position (mm): 0.000000	Red Motor Position (mm): 26.200000	
326.493990	2129.280041
326.888308	2129.280041
327.282561	2129.280041
327.676750	2092.948445
328.070874	2093.724783
328.464933	2097.525813
328.858929	2101.319281
329.252859	2109.203646
329.646726	2124.911881
330.040528	2136.698099
330.434265	2153.422127
330.827938	2170.524241
331.221547	2186.660975
331.615091	2210.561085
332.008571	2228.815103
332.401986	2246.731364
332.795338	2264.677872
333.188625	2284.182096
333.581847	2305.808646
333.975006	2320.803558
334.368100	2339.234016
334.761129	2360.006091
335.154095	2376.049563
335.546996	2392.093035
335.939833	2409.084244
336.332606	2424.174938
336.725315	2435.220106
337.117960	2444.538679
337.510540	2451.051850
337.903056	2465.570373
338.295508	2471.085395
338.687896	2482.344812
339.080220	2489.389825
339.472480	2496.747389
339.864676	2499.666217
340.256807	2502.648059
340.648875	2507.212824
341.040879	2509.254492
341.432818	2511.361694
341.824694	2514.114164
342.216506	2515.092148
342.608253	2512.896725
342.999937	2513.148783
343.391557	2512.581653
343.783113	2511.850686
344.174605	2514.051149
344.566033	2510.214831
344.957397	2508.319358
345.348697	2507.691734
345.739934	2507.968997
346.131106	2500.465240
346.522215	2505.859274
346.913260	2499.832575
347.304241	2499.225116
347.695159	2495.618170
348.086012	2496.901144
348.476802	2494.655310
348.867528	2492.028869
349.258191	2488.757160
349.648789	2491.454177
350.039324	2487.327993
350.429796	2489.301605
350.820203	2484.341109
351.210548	2483.617704
351.600828	2484.852786
351.991045	2484.063846
352.381198	2485.548466
352.771288	2482.904380
353.161314	2482.160810
353.551276	2483.668115
353.941175	2484.595688
354.331010	2482.700214
354.720782	2482.753146
355.110490	2482.377580
355.500135	2481.654174
355.889717	2483.428660
356.279235	2482.710296
356.668689	2482.377580
357.058080	2483.869761
357.447408	2481.230717
357.836672	2482.483444
358.225873	2483.438743
358.615010	2481.082003
359.004084	2485.419916
359.393095	2486.050060
359.782043	2487.995946
360.170927	2487.943014
360.559748	2487.728765
360.948505	2491.867552
361.337199	2490.846718
361.725830	2491.134064
362.114398	2490.511482
362.502903	2492.011225
362.891344	2492.175062
363.279722	2493.856287
363.668037	2493.541215
364.056289	2493.488283
364.444478	2496.833088
364.832603	2493.274034
365.220665	2495.323263
365.608665	2496.815444
365.996601	2496.714621
366.384474	2498.587410
366.772284	2500.682009
367.160031	2500.177894
367.547715	2504.185611
367.935336	2505.372803
368.322893	2507.643843
368.710388	2510.245078
369.097820	2520.309742
369.485189	2521.302849
369.872495	2527.942049
370.259738	2536.121321
370.646918	2540.055942
371.034035	2546.014585
371.421090	2559.275341
371.808081	2569.740776
372.195010	2578.729153
372.581875	2590.933787
372.968678	2605.522886
373.355418	2616.545369
373.742096	2634.365848
374.128710	2649.910246
374.515262	2661.656134
374.901751	2676.714061
375.288177	2691.814837
375.674540	2713.264947
376.060841	2731.370251
376.447079	2750.919845
376.833254	2773.042949
377.219367	2784.425874
377.605417	2823.993891
377.991404	2830.297854
378.377329	2855.170907
378.763191	2870.057434
379.148991	2908.740728
379.534727	2934.748041
379.920402	2963.134778
380.306013	2974.651294
380.691563	3023.414375
381.077049	3044.317520
381.462474	3061.704459
381.847835	3102.903289
382.233134	3124.076135
382.618371	3119.365177
383.003545	3190.473172
383.388657	3199.194369
383.773706	3231.402301
384.158693	3245.517531
384.543618	3273.589197
384.928480	3309.005823
385.313280	3356.057432
385.698017	3354.582895
386.082692	3407.388981
386.467305	3411.643715
386.851856	3443.720577
387.236344	3466.032724
387.620770	3497.897858
388.005133	3524.404244
388.389435	3550.124211
388.773674	3564.370512
389.157851	3606.328036
389.541965	3620.561733
389.926018	3585.745004
390.310008	3656.863082
390.693936	3676.258922
391.077802	3719.378431
391.461606	3708.469374
391.845348	3765.746964
392.229027	3766.500617
392.612645	3780.608286
392.996200	3855.981097
393.379694	3896.025503
393.763125	3963.085452
394.146494	3926.703445
394.529801	3990.607632
394.913047	4040.326011
395.296230	4004.969879
395.679351	4061.571954
396.062410	4084.347887
396.445408	4065.488931
396.828343	4100.938325
397.211217	4122.146459
397.594028	4040.943553
397.976778	4110.776136
398.359466	4135.999550
398.742092	4166.304446
399.124656	4089.678907
399.507158	4165.044158
399.889598	4189.970143
400.271977	4252.467848
400.654294	4221.429463
401.036549	4230.218715
401.418742	4200.720403
401.800874	4304.633708
402.182944	4326.678673
402.564952	4388.142942
402.946898	4377.596848
403.328783	4375.303123
403.710606	4291.798930
404.092367	4481.676510
404.474067	4441.138071
404.855705	4452.578970
405.237282	4381.700347
405.618797	4487.357890
406.000250	4522.222510
406.381642	4600.988019
406.762972	4565.626845
407.144240	4577.042538
407.525447	4575.144543
407.906593	4638.912619
408.287677	4677.301006
408.668700	4602.553297
409.049661	4660.264426
409.430560	4698.546948
409.811399	4626.786123
410.192176	4783.606337
410.572891	4722.525197
410.953545	4829.866486
411.334138	4708.485583
411.714669	4777.352786
412.095139	4669.930839
412.475547	4814.634639
412.855894	4794.623779
413.236180	4802.699707
413.616405	4759.176906
413.996568	4847.354248
414.376670	4786.177326
414.756711	4745.321294
415.136691	4774.728865
415.516609	4848.261656
415.896466	4888.036360
416.276262	4920.934930
416.655997	4902.658227
417.035670	5083.086164
417.415283	5177.010422
417.794834	5122.329026
418.174324	5074.712807
418.553753	4979.485411
418.933121	5162.169265
419.312428	5230.865068
419.691674	5173.128733
420.070859	5294.930572
420.449983	5202.561510
420.829045	5326.742773
421.208047	5230.292897
421.586988	5301.216891
421.965867	5311.329445
422.344686	5445.766936
422.723444	5300.100275
423.102141	5118.044045
423.480777	5414.620167
423.859352	5187.077606
424.237866	5445.792142
424.616319	5439.699907
424.994712	5544.571031
425.373044	5422.524696
425.751314	5564.763373
426.129524	5369.683322
426.507673	5561.773968
426.885762	5645.439478
427.263789	5575.349796
427.641756	5460.973577
428.019662	5575.140588
428.397508	5585.676599
428.775292	5533.727509
429.153016	5633.882633
429.530679	5559.349173
429.908282	5641.071318
430.285824	5513.401577
430.663305	5790.486077
431.040726	5526.543865
431.418086	5527.012692
431.795385	5623.989369
432.172624	5638.374301
432.549802	5636.093179
432.926920	5642.986957
433.303977	5650.508358
433.680974	5693.184246
434.057910	5710.843408
434.434786	5716.870108
434.811601	5683.399367
435.188355	5916.850160
435.565050	5790.518845
435.941683	5770.480258
436.318257	5986.072764
436.694770	5968.229600
437.071222	5997.919476
437.447614	5932.104692
437.823946	5844.106310
438.200218	5996.102140
438.576429	5856.875553
438.952580	5954.167302
439.328670	5994.252036
439.704700	5900.877264
440.080670	5886.507455
440.456580	6151.193238
440.832429	6030.157655
441.208218	5873.133274
441.583947	6026.235637
441.959616	6021.587693
442.335224	5945.499038
442.710773	6077.897382
443.086261	6091.211069
443.461689	5885.718515
443.837057	6026.238158
444.212365	6170.377349
444.587612	6059.625719
444.962800	6192.160175
445.337927	6166.730074
445.712995	5774.820692
446.088002	6327.681513
446.462949	6149.459081
446.837837	6074.923101
447.212664	6224.133693
447.587431	6345.779256
447.962139	6835.469379
448.336786	7682.942793
448.711374	7421.692557
449.085901	6545.091355
449.460369	6453.186080
449.834776	6369.076948
450.209124	6704.573298
450.583412	6811.919628
450.957640	6926.016063
451.331808	6692.318253
451.705917	6261.322285
452.079965	6167.012379
452.453954	6327.868036
452.827883	6190.050452
453.201752	6253.276603
453.575562	6045.369336
453.949311	6180.651220
454.323001	6062.819290
454.696632	6095.233910
455.070202	6172.003121
455.443713	6265.148521
455.817164	6303.773841
456.190556	6329.599672
456.563888	6352.075657
456.937160	6343.127609
457.310373	6032.625299
457.683526	6007.298543
458.056619	5883.881014
458.429653	5824.584442
458.802628	5737.674950
459.175542	5772.411020
459.548398	5977.946424
459.921194	6041.598553
460.293930	5983.605119
460.666607	6277.254852
461.039224	6425.605927
461.411782	6445.296674
461.784280	6400.669859
462.156719	6272.241424
462.529099	6127.807325
462.901419	5803.237676
463.273680	5680.485580
463.645882	5635.266430
464.018024	5483.023584
464.390106	5517.699160
464.762130	5673.690104
465.134094	5860.091809
465.505999	6329.909703
465.877845	6888.386371
466.249631	7147.572254
466.621358	6852.936977
466.993026	6435.554644
467.364634	6222.674279
467.736184	5954.505059
468.107674	5712.759047
468.479105	5630.177385
468.850477	5467.217046
469.221790	5286.857164
469.593043	5067.824071
469.964238	4930.815591
470.335373	4868.869893
470.706449	4820.741997
471.077467	4751.776492
471.448425	5141.024145
471.819324	5427.830511
472.190164	5363.162589
472.560945	4870.604050
472.931667	4542.200603
473.302330	4435.761681
473.672934	4272.251856
474.043479	4307.061023
474.413965	4232.209971
474.784393	4133.511740
475.154761	4119.514977
475.525070	4074.852874
475.895321	3984.243175
476.265513	3970.558963
476.635645	3955.707723
477.005719	3895.576840
477.375734	3871.964076
477.745691	3858.647868
478.115588	3829.615863
478.485427	3815.014161
478.855207	3862.859752
479.224928	3952.413329
479.594591	3999.638859
479.964194	3898.689753
480.333739	3821.204698
480.703226	3732.281264
481.072653	3696.668033
481.442022	3679.013912
481.811333	3657.742764
482.180584	3575.715629
482.549777	3490.454594
482.918912	3426.999070
483.287988	3386.919376
483.657005	3348.180629
484.025964	3272.041562
484.394864	3239.758013
484.763706	3201.956921
485.132489	3150.910197
485.501213	3115.024743
485.869879	3091.414499
486.238487	3045.671069
486.607036	3025.821526
486.975527	2987.037409
487.343959	2970.530151
487.712333	2949.420319
488.080648	2921.804878
488.448905	2901.534399
488.817104	2879.643188
489.185244	2868.313195
489.553326	2856.952955
489.921350	2861.772298
490.289315	2879.441542
490.657222	2875.186808
491.025070	2851.689990
491.392861	2835.160047
491.760593	2805.757517
492.128267	2779.825821
492.495883	2758.216915
492.863440	2743.668145
493.230939	2723.138046
493.598380	2714.318548
493.965763	2700.354552
494.333088	2692.404652
494.700354	2682.397962
495.067563	2681.540965
495.434713	2670.150478
495.801805	2674.032167
496.168839	2666.109993
496.535815	2660.143788
496.902733	2654.885864
497.269593	2650.951244
497.636395	2649.436377
498.003139	2642.764410
498.369825	2638.890283
498.736453	2638.328195
499.103023	2639.129738
499.469535	2632.399798
499.835989	2631.313429
500.202385	2630.587503
500.568723	2624.137347
500.935003	2626.443674
501.301226	2621.364712
501.667390	2621.672222
502.033497	2622.347737
502.399546	2620.333796
502.765537	2618.299690
503.131470	2618.329937
503.497345	2617.677108
503.863163	2618.100565
504.228923	2612.451952
504.594625	2617.130143
504.960269	2610.047322
505.325856	2609.855758
505.691385	2611.630244
506.056856	2610.921962
506.422270	2607.504059
506.787625	2608.875253
507.152924	2606.805860
507.518164	2607.151179
507.883347	2607.211672
508.248472	2601.676486
508.613540	2604.436517
508.978550	2603.655138
509.343503	2604.580190
509.708398	2600.292689
510.073236	2601.706732
510.438016	2605.754779
510.802738	2604.038266
511.167403	2603.226640
511.532010	2601.643718
511.896561	2604.000457
512.261053	2602.591455
512.625488	2600.038111
512.989866	2597.149529
513.354186	2595.942173
513.718449	2592.877152
514.082655	2600.295209
514.446803	2597.789756
514.810894	2600.683378
515.174927	2598.586258
515.538904	2598.492997
515.902822	2598.382092
516.266684	2597.446957
516.630488	2596.363109
516.994235	2598.142637
517.357925	2599.904520
517.721558	2601.089191
518.085133	2599.347472
518.448651	2598.457709
518.812112	2597.741865
519.175516	2598.253542
519.538863	2598.666917
519.902152	2596.952924
520.265385	2598.029211
520.628560	2599.246649
520.991678	2599.637339
521.354739	2598.366968
521.717743	2598.445106
522.080690	2599.581886
522.443580	2601.651280
522.806413	2598.006526
523.169189	2598.770260
523.531908	2599.392843
523.894569	2596.055599
524.257174	2599.229005
524.619722	2598.853439
524.982213	2600.653131
525.344647	2600.920313
525.707025	2597.638521
526.069345	2597.267997
526.431608	2596.753799
526.793815	2597.610795
527.155964	2598.704725
527.518057	2597.189859
527.880093	2599.604571
528.242072	2596.700867
528.603995	2594.938983
528.965860	2597.562904
529.327669	2597.615836
529.689421	2597.278079
530.051117	2597.812441
530.412755	2598.424941
530.774337	2596.567276
531.135862	2598.452668
531.497331	2599.355034
531.858743	2589.529825
532.220098	2595.105342
532.581396	2593.260279
532.942638	2594.470156
533.303824	2596.640373
533.664953	2597.474684
534.026025	2593.691298
534.387040	2597.406628
534.747999	2594.563418
535.108902	2596.290013
535.469748	2595.067533
535.830537	2597.552822
536.191270	2594.286154
536.551947	2596.529468
536.912567	2594.429827
537.273131	2596.579879
537.633638	2593.446802
537.994089	2593.908068
538.354483	2592.370516
538.714821	2594.147522
539.075103	2595.674992
539.435328	2593.519899
539.795497	2591.752974
540.155609	2595.871597
540.515665	2596.733634
540.875665	2594.011411
541.235609	2593.807244
541.595496	2595.821185
541.955328	2596.741196
542.315102	2596.849581
542.674821	2594.356730
543.034483	2596.544591
543.394090	2592.539394
543.753640	2597.252873
544.113134	2595.561566
544.472571	2597.817482
544.831953	2594.089549
545.191278	2596.501741
545.550548	2593.903026
545.909761	2596.448809
546.268918	2593.784559
546.628019	2598.523244
546.987064	2595.511154
547.346053	2596.123655
547.704986	2596.879828
548.063863	2593.693818
548.422684	2596.252204
548.781449	2597.509972
549.140158	2595.979982
549.498811	2594.485280
549.857408	2594.906216
550.215949	2595.385126
550.574434	2590.505289
550.932864	2595.634663
551.291237	2592.317583
551.649555	2595.642224
552.007817	2595.916967
552.366022	2596.214395
552.724173	2593.040989
553.082267	2598.223295
553.440305	2596.010229
553.798288	2593.804724
554.156215	2594.313880
554.514086	2594.770105
554.871902	2595.034765
555.229661	2596.531988
555.587365	2595.337235
555.945014	2593.585434
556.302606	2596.831937
556.660143	2597.106680
557.017625	2596.574838
557.375050	2596.589961
557.732421	2596.867225
558.089735	2596.537029
558.446994	2594.613829
558.804197	2594.548294
559.161345	2597.865373
559.518437	2595.962338
559.875474	2596.511823
560.232455	2595.241453
560.589381	2597.323449
560.946251	2596.015270
561.303065	2598.056937
561.659825	2598.500559
562.016528	2595.148191
562.373177	2595.604416
562.729770	2596.567276
563.086307	2596.153902
563.442789	2596.549632
563.799216	2595.738006
564.155587	2597.522575
564.511904	2593.940835
564.868164	2596.526947
565.224370	2599.597010
565.580520	2597.860332
565.936615	2597.401587
566.292654	2593.945876
566.648638	2593.895465
567.004567	2594.573500
567.360441	2592.743561
567.716260	2594.069384
568.072023	2594.543253
568.427732	2590.084352
568.783385	2593.676174
569.138982	2590.520412
569.494525	2592.249528
569.850013	2591.460587
570.205445	2594.286154
570.560823	2596.292533
570.916145	2594.800352
571.271412	2594.810434
571.626625	2594.215578
571.981782	2593.666092
572.336884	2593.449322
572.691931	2592.662902
573.046923	2592.975454
573.401860	2592.657861
573.756743	2592.325145
574.111570	2591.677357
574.466342	2592.536874
574.821059	2593.320773
575.175722	2590.999322
575.530330	2590.656523
575.884882	2595.488469
576.239380	2591.785742
576.593823	2591.889085
576.948211	2590.613673
577.302544	2592.143664
577.656823	2590.898499
578.011047	2592.715835
578.365216	2591.248859
578.719330	2591.170721
579.073389	2590.785073
579.427394	2590.865731
579.781344	2590.255752
580.135239	2589.434043
580.489080	2591.652151
580.842866	2587.110072
581.196597	2593.366143
581.550273	2592.509147
581.903895	2588.382963
582.257463	2589.439085
582.610975	2589.023189
582.964434	2589.950762
583.317837	2588.229208
583.671186	2589.328179
584.024481	2589.116451
584.377721	2587.667119
584.730906	2586.237952
585.084037	2587.654516
585.437113	2587.425144
585.790135	2588.672829
586.143103	2589.693663
586.496016	2586.716862
586.848874	2583.374577
587.201679	2585.980853
587.554428	2582.409196
587.907124	2584.171079
588.259765	2583.777869
588.612352	2587.730133
588.964884	2584.019844
589.317362	2585.254927
589.669786	2586.114444
590.022155	2586.484968
590.374470	2585.706110
590.726731	2586.202664
591.078937	2586.555545
591.431090	2586.568147
591.783188	2584.612180
592.135232	2586.023703
592.487222	2585.799372
592.839157	2586.192582
593.191038	2583.798033
593.542866	2585.451532
593.894639	2585.670822
594.246358	2583.966912
594.598022	2583.379618
594.949633	2581.597570
595.301190	2584.657550
595.652692	2586.530339
596.004141	2585.406162
596.355535	2584.218970
596.706876	2583.712334
597.058162	2582.457087
597.409395	2583.568661
597.760573	2582.704103
598.111698	2581.194278
598.462768	2582.504978
598.813785	2581.201839
599.164748	2580.319637
599.515657	2581.668146
599.866511	2581.481623
600.217312	2582.479772
600.568060	2583.215780
600.918753	2585.368353
601.269392	2584.529001
601.619978	2580.261664
601.970510	2584.662591
602.320988	2582.845255
602.671412	2583.586305
603.021783	2581.111098
603.372100	2582.749473
603.722363	2580.801067
604.072572	2582.895667
604.422728	2581.705955
604.772830	2578.141859
605.122878	2576.982393
605.472872	2578.933320
605.822813	2573.965263
606.172701	2578.837538
606.522534	2581.584967
606.872314	2581.239648
607.222041	2579.961715
607.571714	2582.625965
607.921333	2582.227714
608.270899	2581.166551
608.620411	2583.712334
608.969870	2582.126891
609.319276	2584.700400
609.668627	2586.222828
610.017926	2588.667788
610.367171	2590.984198
610.716362	2587.858683
611.065500	2589.650813
611.414585	2584.536562
611.763616	2585.743919
612.112594	2585.456573
612.461518	2585.474217
612.810389	2583.203177
613.159207	2582.537745
613.507971	2584.556727
613.856682	2584.034968
614.205340	2584.075297
614.553945	2583.762745
614.902496	2582.910790
615.250994	2581.678228
615.599439	2583.883733
615.947830	2584.070256
616.296169	2585.534711
616.644454	2581.489185
616.992686	2582.956161
617.340864	2585.406162
617.688990	2581.164031
618.037063	2584.350040
618.385082	2579.999524
618.733048	2582.628486
619.080961	2582.290728
619.428821	2585.035637
619.776628	2583.203177
620.124382	2582.683938
620.472083	2582.230235
620.819731	2583.631675
621.167326	2580.022209
621.514868	2584.841552
621.862357	2580.294432
622.209793	2582.293249
622.557176	2582.996490
622.904506	2577.136149
623.251783	2577.516756
623.599007	2577.128587
623.946179	2577.163875
624.293297	2575.641447
624.640363	2577.945254
624.987376	2577.080696
625.334336	2578.245202
625.681243	2580.362487
626.028097	2575.749831
626.374899	2577.428536
626.721647	2577.615058
627.068343	2574.728998
627.414987	2576.513566
627.761577	2577.491550
628.108115	2576.047259
628.454600	2577.587332
628.801032	2575.132290
629.147412	2575.091961
629.493739	2574.038360
629.840014	2577.418453
630.186236	2578.892991
630.532405	2573.410736
630.878521	2576.213618
631.224585	2574.159347
631.570597	2573.869481
631.916556	2575.318813
632.262462	2574.466858
632.608316	2572.760427
632.954117	2575.956519
633.299866	2575.170099
633.645562	2572.344532
633.991206	2574.492063
634.336797	2574.048442
634.682336	2573.561971
635.027823	2569.861764
635.373257	2571.449727
635.718639	2570.350756
636.063968	2571.522824
636.409245	2571.674058
636.754470	2569.760941
637.099642	2568.805642
637.444762	2569.428224
637.789829	2569.133317
638.134845	2570.522155
638.479808	2569.299675
638.824719	2566.985785
639.169577	2568.140210
639.514383	2570.522155
639.859137	2567.852864
640.203839	2566.688357
640.548489	2566.877401
640.893086	2565.662482
641.237632	2563.081412
641.582125	2564.003943
641.926566	2561.246432
642.270955	2566.302709
642.615292	2566.706001
642.959576	2569.029973
643.303809	2568.916547
643.647990	2567.043759
643.992118	2567.149623
644.336195	2568.150292
644.680219	2567.928481
645.024192	2564.760116
645.368112	2567.270611
645.711981	2569.922258
646.055797	2568.394788
646.399562	2567.404201
646.743274	2570.360838
647.086935	2568.470405
647.430544	2569.390416
647.774101	2569.062741
648.117606	2570.176836
648.461059	2569.443348
648.804460	2570.542319
649.147810	2567.817576
649.491108	2568.140210
649.834354	2569.082905
650.177548	2567.948646
650.520690	2565.312122
650.863781	2564.603840
651.206820	2569.405539
651.549807	2567.086608
651.892742	2568.220868
652.235626	2565.052503
652.578458	2564.949159
652.921238	2564.956721
653.263967	2566.731207
653.606644	2565.387740
653.949269	2565.783470
654.291843	2562.610064
654.634365	2566.274983
654.976836	2564.646690
655.319255	2561.458160
655.661622	2563.151988
656.003938	2565.092832
656.346203	2563.812379
656.688416	2562.171483
657.030577	2562.249621
657.372687	2562.284909
657.714746	2564.112328
658.056753	2562.761298
658.398708	2558.902295
658.740612	2561.586710
659.082465	2559.711400
659.424266	2561.886658
659.766016	2558.352809
660.107715	2561.904302
660.449362	2562.466391
660.790958	2567.131979
661.132503	2563.583007
661.473996	2563.930846
661.815438	2564.099725
662.156829	2564.560990
662.498168	2561.654765
662.839456	2560.807851
663.180693	2561.427913
663.521879	2563.151988
663.863013	2563.961093
664.204097	2562.789025
664.545129	2564.787842
664.886110	2565.745662
665.227040	2563.134344
665.567918	2562.990671
665.908746	2561.304405
666.249522	2563.608212
666.590248	2562.756257
666.930922	2566.204407
667.271545	2564.160219
667.612118	2566.663152
667.952639	2563.416648
668.293109	2564.936556
668.633528	2564.727348
668.973896	2561.725341
669.314213	2563.943449
669.654480	2561.707697
669.994695	2565.687688
670.334859	2564.092163
670.674973	2563.041082
671.015035	2563.759447
671.355047	2559.779456
671.695008	2561.758109
672.034918	2562.844477
672.374777	2562.584858
672.714585	2562.501679
673.054342	2564.845816
673.394049	2562.272307
673.733705	2562.378171
674.073310	2563.666186
674.412864	2563.139385
674.752368	2561.775753
675.091820	2563.940928
675.431223	2564.485373
675.770574	2562.892368
676.109875	2560.704508
676.449125	2561.947152
676.788324	2557.720145
677.127473	2559.706359
677.466571	2556.333827
677.805619	2560.757440
678.144616	2560.923798
678.483562	2560.424724
678.822458	2562.557132
679.161303	2562.053016
679.500098	2560.817934
679.838842	2561.871535
680.177535	2560.298695
680.516179	2562.126113
680.854771	2561.248952
681.193314	2560.167625
681.531805	2560.644014
681.870247	2564.596278
682.208638	2563.434292
682.546978	2565.975034
682.885268	2565.846485
683.223508	2561.276679
683.561697	2562.473953
683.899836	2560.893551
684.237925	2561.637121
684.575963	2563.971175
684.913951	2559.522357
685.251889	2563.061247
685.589776	2562.652914
685.927614	2561.518654
686.265401	2562.726010
686.603137	2563.341031
686.940824	2559.585372
687.278460	2564.752554
687.616046	2561.067471
687.953582	2564.094684
688.291068	2564.256001
688.628504	2563.870352
688.965889	2562.756257
689.303224	2564.964283
689.640510	2563.567883
689.977745	2560.409600
690.314930	2561.107800
690.652065	2560.785166
690.989150	2562.123592
691.326185	2561.427913
691.663170	2557.213509
692.000105	2561.420352
692.336990	2559.540001
692.673825	2559.396328
693.010610	2559.144271
693.347345	2553.656975
693.684030	2550.856614
694.020665	2552.943651
694.357251	2551.864844
694.693786	2554.519012
695.030272	2552.986501
695.366707	2556.321224
695.703093	2554.990360
696.039429	2555.164280
696.375716	2554.098076
696.711952	2552.777293
697.048139	2555.053374
697.384276	2554.738302
697.720363	2553.667057
698.056400	2556.737120
698.392388	2553.576316
698.728326	2553.931718
699.064214	2556.462377
699.400053	2552.051367
699.735842	2553.442726
700.071581	2552.462221
700.407270	2551.784186
700.742910	2550.551624
701.078501	2554.483724
701.414042	2550.990204
701.749533	2549.374514
702.084974	2551.355688
702.420366	2551.688404
702.755709	2553.455328
703.091002	2549.515667
703.426246	2552.931048
703.761440	2552.210163
704.096584	2549.825698
704.431679	2551.912735
704.766725	2551.716130
705.101721	2550.463404
705.436668	2548.862837
705.771565	2549.777807
706.106413	2551.995914
706.441212	2550.004659
706.775961	2550.085317
707.110661	2550.793599
707.445311	2552.323589
707.779913	2551.237221
708.114465	2552.021120
708.448967	2553.712427
708.783421	2553.689742
709.117825	2550.009700
709.452180	2553.921635
709.786485	2555.267623
710.120742	2554.440874
710.454949	2554.503888
710.789107	2552.989022
711.123216	2552.663867
711.457275	2551.622869
711.791286	2548.560368
712.125247	2552.517674
712.459159	2554.551779
712.793023	2556.943807
713.126837	2554.622356
713.460602	2555.728889
713.794318	2552.384083
714.127985	2555.340720
714.461602	2551.925338
714.795171	2554.488765
715.128691	2554.284598
715.462162	2553.664536
715.795584	2548.633465
716.128957	2554.461039
716.462281	2549.629093
716.795556	2553.709907
717.128782	2553.314176
717.461960	2549.412323
717.795088	2549.641696
718.128167	2551.317879
718.461198	2549.308979
718.794180	2549.450132
719.127113	2546.571633
719.459997	2551.842159
719.792833	2546.942158
720.125619	2550.768393
720.458357	2546.410316
720.791046	2549.213197
721.123686	2548.310831
721.456278	2548.336037
721.788821	2547.872251
722.121315	2548.971222
722.453761	2547.473999
722.786158	2546.705223
723.118506	2545.800336
723.450805	2549.624052
723.783056	2547.660522
724.115259	2546.836293
724.447412	2546.617003
724.779518	2546.498536
725.111574	2546.402754
725.443582	2550.733105
725.775542	2546.778320
726.107453	2546.433001
726.439315	2545.240768
726.771129	2553.407437
727.102895	2545.628937
727.434612	2549.258568
727.766281	2547.902498
728.097901	2548.900646
728.429473	2544.242620
728.760996	2546.155738
729.092471	2544.053577
729.423897	2552.779814
729.755276	2547.012734
730.086606	2549.989535
730.417887	2551.549772
730.749120	2553.079763
731.080305	2549.772766
731.411442	2551.637992
731.742530	2551.143959
732.073570	2552.656306
732.404562	2549.750080
732.735506	2553.745195
733.066401	2551.199412
733.397249	2551.741336
733.728048	2551.537169
734.058798	2549.639175
734.389501	2549.394679
734.720156	2548.812426
735.050762	2549.064483
735.381320	2547.673125
735.711831	2548.363763
736.042293	2547.423588
736.372707	2545.820501
736.703073	2547.337888
737.033391	2544.426622
737.363661	2547.630275
737.693883	2548.459545
738.024056	2549.576161
738.354182	2546.004503
738.684260	2549.687066
739.014290	2545.455017
739.344272	2547.153886
739.674207	2548.603218
740.004093	2549.765204
740.333931	2551.559855
740.663722	2547.960471
740.993464	2547.320244
741.323159	2551.501881
741.652806	2548.124308
741.982405	2549.203115
742.311956	2548.318393
742.641460	2547.201777
742.970915	2547.143804
743.300323	2545.815460
743.629683	2546.364946
743.958996	2547.095913
744.288260	2547.297559
744.617477	2544.739173
744.946647	2541.777496
745.275768	2541.757331
745.604842	2543.274718
745.933869	2541.414533
746.262847	2540.799512
746.591778	2545.137425
746.920662	2543.282280
747.249498	2544.754297
747.578286	2542.531148
747.907027	2543.708257
748.235720	2545.913762
748.564365	2546.385110
748.892963	2546.375028
749.221514	2543.214224
749.550017	2545.331509
749.878473	2545.727240
750.206881	2543.793957
750.535242	2544.953422
750.863555	2546.125491
751.191821	2543.269677
751.520039	2546.579195
751.848210	2545.094575
752.176334	2544.839997
752.504411	2544.451828
752.832440	2543.960315
753.160421	2543.453679
753.488356	2547.607590
753.816243	2542.775644
754.144082	2542.664739
754.471875	2543.899821
754.799620	2543.584749
755.127318	2542.972249
755.454969	2543.448638
755.782572	2544.071221
756.110129	2542.652136
756.437638	2544.076262
756.765100	2545.208001
757.092515	2541.601055
757.419882	2541.573329
757.747203	2542.450490
758.074477	2541.270860
758.401703	2545.187836
758.728882	2544.479554
759.056014	2544.393854
759.383099	2544.398896
759.710138	2545.606252
760.037129	2542.591642
760.364073	2543.393185
760.690970	2543.579708
761.017820	2543.806560
761.344623	2542.321940
761.671379	2545.618855
761.998088	2538.430169
762.324751	2544.991231
762.651366	2545.901159
762.977935	2555.428940
763.304456	2555.433981
763.630931	2560.379353
763.957359	2558.226781
764.283740	2556.250648
764.610074	2550.075235
764.936362	2552.558003
765.262602	2546.858979
765.588796	2546.412837
765.914943	2544.444266
766.241044	2543.400747
766.567097	2544.353525
766.893104	2545.326468
767.219064	2543.047866
767.544978	2541.742208
767.870845	2542.455531
768.196665	2542.974770
768.522438	2540.406302
768.848165	2544.903011
769.173846	2538.107536
769.499479	2542.049718
769.825066	2538.795653
770.150607	2539.899666
770.476101	2540.744059
770.801548	2543.922507
771.126949	2541.149872
771.452303	2539.531662
771.777611	2539.526620
772.102872	2542.306817
772.428087	2540.736497
772.753256	2538.898997
773.078378	2537.663914
773.403453	2542.173226
773.728482	2537.754655
774.053465	2540.328164
774.378401	2537.197607
774.703291	2539.829090
775.028135	2537.825231
775.352932	2537.613503
775.677683	2541.492670
776.002388	2539.035108
776.327046	2539.095602
776.651658	2541.074255
776.976224	2537.053934
777.300743	2539.685417
777.625216	2535.881866
777.949643	2540.907897
778.274024	2536.350693
778.598359	2537.326157
778.922647	2534.853471
779.246889	2535.329860
779.571086	2532.136289
779.895236	2537.956301
780.219339	2538.115097
780.543397	2537.636188
780.867409	2536.673327
781.191374	2538.898997
781.515294	2536.859850
781.839167	2539.524100
782.162995	2538.147865
782.486776	2536.242309
782.810511	2539.098122
783.134201	2538.906558
783.457844	2535.841537
783.781441	2535.841537
784.104993	2535.418080
784.428498	2537.565612
784.751958	2537.278266
785.075372	2536.474202
785.398739	2536.096115
785.722061	2535.934798
786.045337	2536.496887
786.368568	2539.680376
786.691752	2536.922864
787.014891	2537.915972
787.337983	2538.626774
787.661030	2538.331867
787.984031	2541.964018
788.306987	2538.485622
788.629897	2540.555016
788.952760	2539.861857
789.275579	2541.396888
789.598351	2538.410005
789.921078	2540.819676
790.243759	2538.157947
790.566395	2538.999820
790.888984	2537.868081
791.211529	2537.747093
791.534027	2538.190715
791.856480	2537.389171
792.178888	2537.376568
792.501249	2538.581404
792.823566	2538.097453
793.145836	2537.779861
793.468062	2535.508821
793.790241	2537.152237
794.112375	2537.190046
794.434464	2536.693492
794.756507	2534.114942
795.078505	2537.580735
795.400457	2534.556043
795.722364	2533.895652
796.044226	2536.471681
796.366042	2535.788605
796.687812	2533.000847
797.009538	2537.222813
797.331218	2539.771116
797.652852	2538.951929
797.974442	2539.892104
798.295986	2537.714326
798.617484	2538.364634
798.938938	2535.503780
799.260346	2536.292720
799.581709	2539.614841
799.903026	2538.510828
800.224299	2537.248019
800.545526	2537.230375
800.866708	2537.058976
801.187845	2538.886394
801.508936	2539.652649
801.829983	2535.455889
802.150984	2536.378420
802.471940	2537.787422
802.792851	2534.538399
803.113717	2536.481763
803.434538	2531.841381
803.755314	2535.677699
804.076045	2534.314067
804.396731	2537.404295
804.717372	2536.685930
805.037967	2536.373379
805.358518	2532.937832
805.679024	2538.999820
805.999485	2532.224509
806.319901	2539.088040
806.640272	2535.760878
806.960598	2536.393543
807.280879	2535.471012
807.601115	2535.765920
807.921306	2534.208203
808.241453	2536.401105
808.561554	2537.225334
808.881611	2539.042670
809.201623	2538.949408
809.521590	2535.050076
809.841513	2534.430014
810.161390	2535.556712
810.481223	2536.953111
810.801011	2535.302133
811.120755	2536.431352
811.440453	2537.936136
811.760107	2534.551002
812.079716	2534.200641
812.399281	2529.721576
812.718801	2533.668800
813.038276	2530.583613
813.357707	2537.762217
813.677093	2534.946732
813.996434	2537.469830
814.315731	2536.776671
814.634983	2537.202648
814.954191	2536.993441
815.273354	2536.882535
815.592473	2537.905889
815.911547	2537.091743
816.230577	2533.666279
816.549562	2539.211548
816.868502	2536.950591
817.187399	2539.723225
817.506250	2538.011754
817.825058	2537.893287
818.143821	2538.445293
818.462539	2537.575694
818.781213	2537.842875
819.099843	2543.037784
819.418429	2540.209697
819.736970	2540.756662
820.055466	2546.369987
820.373919	2545.923845
820.692327	2549.127498
821.010691	2553.404917
821.329011	2565.813717
821.647286	2588.579568
821.965517	2611.264760
822.283704	2627.358644
822.601847	2632.336783
822.919945	2621.105092
823.237999	2606.447938
823.556010	2592.035279
823.873976	2578.429205
824.191897	2570.683472
824.509775	2563.169632
824.827609	2559.676112
825.145398	2556.255689
825.463144	2556.064126
825.780845	2556.283416
826.098502	2559.797100
826.416116	2563.484704
826.733685	2571.316137
827.051210	2576.337126
827.368692	2575.311251
827.686129	2565.919581
828.003522	2560.056719
828.320872	2548.139432
828.638177	2544.996272
828.955439	2542.553833
829.272656	2540.804553
829.589830	2535.786084
829.906960	2541.780016
830.224046	2536.063348
830.541088	2537.905889
830.858086	2538.969573
831.175041	2538.117618
831.491952	2537.066537
831.808819	2538.301620
832.125642	2537.358924
832.442421	2541.994265
832.759157	2545.011396
833.075849	2548.018444
833.392497	2552.890719
833.709101	2554.609753
834.025662	2554.453477
834.342179	2554.771070
834.658653	2550.786037
834.975083	2546.062476
835.291469	2548.157076
835.607811	2540.486960
835.924110	2540.812115
836.240366	2541.417053
836.556578	2537.414377
836.872746	2536.171732
837.188871	2538.369676
837.504952	2536.559901
837.820990	2535.218954
838.136984	2532.048069
838.452935	2535.763399
838.768842	2537.855478
839.084706	2535.400436
839.400526	2536.897659
839.716303	2538.064686
840.032037	2542.568957
840.347727	2542.473175
840.663373	2541.895963
840.978977	2538.702392
841.294537	2536.522093
841.610054	2533.847761
841.925527	2538.435211
842.240957	2534.419932
842.556344	2531.843902
842.871687	2535.269366
843.186987	2535.634850
843.502244	2534.881197
843.817458	2534.568646
844.132629	2533.131917
844.447756	2535.198790
844.762840	2526.772501
845.077881	2529.232584
845.392879	2529.852646
845.707833	2534.067051
846.022745	2528.899868
846.337613	2531.637215
846.652438	2534.361958
846.967221	2534.298944
847.281960	2532.060672
847.596656	2531.485980
847.911309	2531.758202
848.225919	2531.513706
848.540485	2532.214427
848.855009	2535.649973
849.169490	2532.287523
849.483928	2530.873480
849.798323	2531.612009
850.112675	2531.027235
850.426984	2530.248377
850.741251	2531.148223
851.055474	2533.000847
851.369654	2533.341125
851.683792	2530.112266
851.997887	2530.359282
852.311938	2529.693850
852.625947	2529.842564
852.939914	2531.743079
853.253837	2533.169725
853.567718	2533.630991
853.881555	2531.813655
854.195350	2530.059333
854.509103	2532.829448
854.822812	2533.154602
855.136479	2531.977492
855.450103	2534.064530
855.763685	2529.983716
856.077224	2531.014632
856.390720	2533.154602
856.704173	2531.102852
857.017584	2531.047400
857.330953	2530.533202
857.644278	2530.951618
857.957561	2538.480581
858.270802	2531.796011
858.584000	2529.593027
858.897155	2531.223840
859.210268	2532.133768
859.523339	2532.627801
859.836367	2532.254756
860.149352	2530.873480
860.462295	2530.434899
860.775195	2530.628984
861.088054	2529.847605
861.400869	2528.390712
861.713642	2527.059847
862.026373	2529.819879
862.339062	2530.578572
862.651708	2532.211906
862.964312	2531.087729
863.276873	2533.459592
863.589392	2533.275590
863.901869	2534.099818
864.214303	2530.477749
864.526696	2532.075795
864.839045	2532.234591
865.151353	2531.685106
865.463619	2530.737369
865.775842	2534.019160
866.088023	2533.245343
866.400162	2533.961187
866.712258	2533.227699
867.024313	2535.781043
867.336325	2532.665610
867.648296	2532.905065
867.960224	2533.938501
868.272110	2533.071423
868.583954	2534.006557
868.895755	2531.851464
869.207515	2531.400280
869.519233	2530.240815
869.830909	2532.118645
870.142542	2535.949922
870.454134	2535.428162
870.765684	2532.466484
871.077191	2531.125538
871.388657	2534.122503
871.700081	2532.700898
872.011463	2533.444468
872.322803	2533.000847
872.634101	2531.889272
872.945357	2531.705270
873.256571	2535.889428
873.567744	2531.475898
873.878874	2534.263656
874.189963	2532.206865
874.501010	2535.670138
874.812015	2532.521937
875.122979	2532.390867
875.433900	2534.301464
875.744780	2535.937319
876.055618	2535.103008
876.366415	2534.828265
876.677169	2534.011598
876.987882	2532.511855
877.298554	2528.864580
877.609183	2530.069416
877.919771	2531.017153
878.230317	2530.780218
878.540822	2535.556712
878.851285	2535.448327
879.161707	2536.564943
879.472087	2539.234233
879.782425	2540.549975
880.092722	2544.587939
880.402977	2552.840308
880.713191	2567.275652
881.023363	2578.971129
881.333494	2589.832295
881.643583	2585.126377
881.953631	2588.070411
882.263637	2582.575554
882.573602	2581.622776
882.883526	2575.223031
883.193408	2566.660631
883.503248	2561.102759
883.813048	2556.631255
884.122806	2554.216543
884.432522	2547.592467
884.742197	2544.691283
885.051831	2543.766231
885.361424	2540.169368
885.670975	2543.201622
885.980485	2536.978317
886.289954	2538.047042
886.599382	2536.945550
886.908768	2537.633667
887.218113	2536.108718
887.527417	2534.840868
887.836680	2536.902700
888.145901	2536.365817
888.455082	2534.283820
888.764221	2535.594520
889.073319	2533.540250
889.382376	2535.665097
889.691392	2533.010929
890.000366	2534.263656
890.309300	2532.380785
890.618193	2531.717873
890.927044	2536.363296
891.235855	2532.292565
891.544625	2535.465971
891.853353	2536.779192
892.162041	2534.699716
892.470687	2537.517721
892.779293	2535.234078
893.087858	2534.808100
893.396381	2533.825075
893.704864	2538.841023
894.013306	2537.477391
894.321707	2543.919986
894.630068	2550.637323
894.938387	2553.525905
895.246665	2550.085317
895.554903	2550.014741
895.863100	2543.723381
896.171256	2542.798329
896.479371	2540.774306
896.787446	2541.480068
897.095480	2538.420087
897.403473	2539.922351
897.711425	2536.474202
898.019336	2536.832124
898.327207	2536.201979
898.635038	2537.754655
898.942827	2535.864222
899.250576	2534.984541
899.558284	2534.220806
899.865952	2534.200641
900.173579	2532.315250
900.481165	2532.819365
900.788711	2533.525127
901.096216	2531.851464
901.403681	2531.707791
901.711105	2531.564118
902.018489	2532.509334
902.325832	2538.213400
902.633135	2535.385313
902.940397	2536.257432
903.247619	2537.237937
903.554800	2539.950077
903.861941	2544.030891
904.169041	2555.108827
904.476101	2558.713252
904.783121	2557.331976
905.090100	2554.433312
905.397039	2552.154711
905.703938	2547.279915
906.010796	2542.463092
906.317614	2540.141641
906.624391	2538.004192
906.931129	2537.477391
907.237826	2535.211393
907.544483	2535.513862
907.851099	2532.716022
908.157675	2533.903213
908.464211	2530.109745
908.770707	2529.623274
909.077163	2528.846936
909.383578	2526.409538
909.689954	2527.143026
909.996289	2526.089425
910.302584	2531.675023
910.608839	2531.032276
910.915054	2531.375075
911.221229	2528.511699
911.527363	2529.950949
911.833458	2530.276103
912.139513	2531.420445
912.445527	2531.475898
912.751502	2532.516896
913.057436	2533.532688
913.363331	2532.685775
913.669186	2534.283820
913.975000	2532.569828
914.280775	2534.969417
914.586510	2536.595189
914.892205	2541.399409
915.197859	2543.272198
915.503475	2547.564740
915.809050	2554.110678
916.114585	2555.426420
916.420081	2559.550083
916.725536	2555.764177
917.030952	2552.263096
917.336328	2550.055070
917.641665	2549.208156
917.946961	2544.479554
918.252218	2544.071221
918.557435	2542.188350
918.862612	2539.768596
919.167750	2538.092412
919.472848	2535.783564
919.777906	2533.991433
920.082925	2535.750796
920.387904	2532.632842
920.692843	2535.367668
920.997743	2535.085364
921.302603	2533.071423
921.607423	2531.286854
921.912204	2532.025383
922.216946	2531.823737
922.521647	2531.559077
922.826310	2531.793490
923.130932	2529.154446
923.435516	2534.364479
923.740059	2531.569159
924.044564	2528.070598
924.349028	2530.006401
924.653454	2523.717562
924.957840	2527.498427
925.262186	2526.901051
925.566493	2528.206709
925.870761	2524.277130
926.174989	2527.803417
926.479178	2527.957172
926.783328	2529.477080
927.087438	2528.461288
927.391509	2532.332894
927.695541	2528.214271
927.999533	2529.716535
928.303486	2528.458767
928.607400	2528.244518
928.911275	2529.189734
929.215110	2528.647810
929.518906	2528.914992
929.822663	2526.049096
930.126381	2526.870804
930.430060	2530.828109
930.733699	2530.724766
931.037299	2530.717204
931.340861	2527.299302
931.644383	2530.298788
931.947866	2528.481452
932.251309	2529.048582
932.554714	2527.200999
932.858080	2530.336597
933.161407	2526.724610
933.464694	2527.662265
933.767943	2527.011956
934.071153	2528.768798
934.374323	2527.667306
934.677455	2527.523633
934.980548	2531.150743
935.283602	2529.661082
935.586617	2527.939528
935.889593	2526.588499
936.192530	2531.168387
936.495428	2527.221164
936.798287	2531.871628
937.101108	2529.033459
937.403890	2528.514220
937.706632	2528.733510
938.009336	2527.926925
938.312002	2526.371729
938.614628	2530.339117
938.917216	2531.662420
939.219765	2529.502286
939.522275	2530.785260
939.824747	2529.207378
940.127179	2528.862059
940.429573	2524.335103
940.731929	2529.920702
941.034246	2526.021369
941.336524	2530.177801
941.638763	2527.803417
941.940964	2531.790970
942.243126	2527.546318
942.545250	2527.967255
942.847335	2527.594209
943.149381	2529.996319
943.451389	2528.088242
943.753359	2528.665454
944.055290	2527.753006
944.357182	2530.606299
944.659036	2529.870290
944.960851	2527.135464
945.262628	2527.112779
945.564367	2528.582275
945.866067	2527.750485
946.167729	2528.907430
946.469352	2528.683098
946.770937	2531.324663
947.072484	2528.559590
947.373992	2528.730989
947.675462	2529.935825
947.976893	2527.876514
948.278286	2531.017153
948.579641	2529.638397
948.880958	2528.471370
949.182236	2526.795186
949.483476	2528.806607
949.784678	2528.022707
950.085841	2528.975485
950.386967	2528.126051
950.688054	2528.481452
950.989103	2527.581606
951.290114	2526.777542
951.591087	2526.104548
951.892021	2526.328880
952.192917	2529.910619
952.493776	2529.792152
952.794596	2526.752337
953.095378	2527.563962
953.396122	2532.111083
953.696828	2530.054292
953.997496	2529.668644
954.298126	2526.699404
954.598718	2529.371216
954.899272	2527.385001
955.199788	2529.025897
955.500266	2527.937008
955.800706	2524.566996
956.101108	2523.692356
956.401472	2523.697397
956.701798	2523.210926
957.002087	2525.199661
957.302337	2525.371060
957.602550	2527.692512
957.902724	2526.049096
958.202861	2526.704446
958.502960	2526.195289
958.803022	2526.880886
959.103045	2524.637573
959.403031	2527.437933
959.702979	2529.214940
960.002889	2527.236287
960.302762	2526.611184
960.602596	2524.703108
960.902393	2524.793848
961.202153	2524.314939
961.501875	2526.328880
961.801559	2526.215454
962.101205	2525.398787
962.400814	2527.659744
962.700385	2525.784435
962.999918	2529.136802
963.299414	2526.238139
963.598873	2526.691843
963.898293	2525.023221
964.197677	2523.833508
964.497022	2526.810310
964.796331	2527.410207
965.095601	2524.589682
965.394835	2528.274765
965.694030	2528.683098
965.993189	2527.521112
966.292309	2525.895340
966.591393	2526.165042
966.890439	2525.058509
967.189447	2526.303674
967.488419	2524.425844
967.787353	2528.867101
968.086249	2526.890968
968.385108	2524.856863
968.683930	2523.566327
968.982714	2527.468180
969.281462	2527.672347
969.580172	2525.449198
969.878844	2524.725793
970.177480	2527.826102
970.476078	2524.035155
970.774639	2527.725279
971.073162	2525.645803
971.371649	2524.193951
971.670098	2523.873838
971.968510	2521.839732
972.266885	2522.066584
972.565223	2524.859383
972.863524	2526.787625
973.161788	2524.728313
973.460014	2525.454239
973.758204	2524.942562
974.056356	2526.928777
974.354471	2526.220495
974.652550	2528.559590
974.950591	2526.921215
975.248595	2525.146729
975.546563	2525.897861
975.844493	2524.078004
976.142386	2528.065557
976.440243	2525.048427
976.738062	2524.904754
977.035845	2525.318128
977.333590	2525.613036
977.631299	2525.928108
977.928971	2524.778725
978.226606	2524.292253
978.524204	2523.440298
978.821765	2527.871473
979.119290	2526.754857
979.416777	2523.851152
979.714228	2525.290402
980.011642	2524.115813
980.309020	2525.759229
980.606360	2526.664116
980.903664	2524.151101
981.200931	2526.144877
981.498162	2525.822244
981.795356	2525.325690
982.092513	2523.616739
982.389633	2525.789476
982.686717	2526.666637
982.983764	2528.085722
983.280775	2529.726617
983.577749	2528.516740
983.874686	2526.782583
984.171587	2528.647810
984.468451	2526.696884
984.765279	2527.488345
985.062070	2525.595392
985.358824	2526.064219
985.655543	2524.037675
985.952224	2526.059178
986.248869	2524.287212
986.545478	2519.717406
986.842050	2521.532222
987.138586	2523.503313
987.435086	2522.724455
987.731549	2523.795700
988.027975	2523.732685
988.324366	2526.086904
988.620719	2526.235618
988.917037	2525.247552
989.213318	2526.969106
989.509563	2523.962058
989.805772	2525.809641
990.101944	2521.489372
990.398080	2523.059691
990.694180	2525.285361
990.990244	2524.176307
991.286271	2525.466842
991.582262	2526.215454
991.878217	2524.193951
992.174136	2526.684281
992.470019	2524.206554
992.765865	2526.729651
993.061676	2524.730834
993.357450	2524.503982
993.653188	2525.156811
993.948890	2525.454239
994.244556	2528.567152
994.540186	2526.296112
994.835780	2523.178158
995.131337	2525.703777
995.426859	2527.243849
995.722345	2524.267048
996.017795	2526.636390
996.313208	2527.016997
996.608586	2524.040196
996.903928	2525.703777
997.199234	2525.476925
997.494504	2527.755526
997.789738	2525.106400
998.084936	2525.590351
998.380099	2526.850639
998.675225	2525.328211
998.970316	2524.395597
999.265371	2525.885258
999.560390	2525.812161
999.855373	2526.268386
1000.150320	2522.789990
1000.445232	2527.591689
1000.740108	2525.229908
1001.034948	2525.562624
1001.329752	2527.077491
1001.624521	2523.087418
1001.919254	2521.000380
1002.213951	2524.176307
1002.508613	2523.994825
1002.803239	2523.268899
1003.097829	2520.592047
1003.392384	2525.638242
1003.686903	2524.284692
1003.981386	2524.781245
1004.275834	2523.115144
1004.570246	2526.734693
1004.864623	2522.726975
1005.158964	2524.065402
1005.453270	2522.280833
1005.747540	2523.180679
1006.041775	2523.178158
1006.335974	2524.854342
1006.630138	2524.630011
1006.924266	2525.542460
1007.218359	2523.026924
1007.512416	2524.725793
1007.806438	2524.635052
1008.100425	2525.451719
1008.394376	2525.189579
1008.688292	2524.047758
1008.982172	2523.994825
1009.276017	2523.551204
1009.569827	2521.711183
1009.863602	2526.616225
1010.157341	2525.081194
1010.451045	2525.350896
1010.744714	2523.997346
1011.038347	2524.483817
1011.331945	2523.236132
1011.625508	2525.544980
1011.919036	2523.044568
1012.212528	2525.905423
1012.505986	2524.166225
1012.799408	2527.037162
1013.092795	2524.098169
1013.386147	2522.104393
1013.679464	2522.883251
1013.972745	2524.912315
1014.265992	2523.747809
1014.559204	2527.644621
1014.852380	2526.359127
1015.145521	2524.859383
1015.438628	2524.861904
1015.731699	2526.117151
1016.024736	2523.699918
1016.317737	2524.619928
1016.610703	2524.183869
1016.903635	2524.151101
1017.196531	2519.687159
1017.489393	2521.693539
1017.782219	2521.572551
1018.075011	2521.766635
1018.367768	2524.995494
1018.660490	2524.637572
1018.953177	2524.637572
1019.245829	2524.637572
