Dividing Wavelength (nm)	Counts (n)	Blue Motor Position (mm): 0.000000	Red Motor Position (mm): 6.500000	
326.493990	2084.832188
326.888308	2084.832188
327.282561	2084.832188
327.676750	2062.353683
328.070874	2067.992213
328.464933	2071.725188
328.858929	2079.150807
329.252859	2091.945256
329.646726	2109.763214
330.040528	2123.092025
330.434265	2143.876702
330.827938	2162.415545
331.221547	2182.680984
331.615091	2203.949612
332.008571	2223.642879
332.401986	2245.110633
332.795338	2264.045207
333.188625	2281.908535
333.581847	2301.342183
333.975006	2319.830615
334.368100	2339.397854
334.761129	2354.339834
335.154095	2368.999509
335.546996	2390.129506
335.939833	2401.114180
336.332606	2412.746642
336.725315	2426.093097
337.117960	2436.049376
337.510540	2443.290993
337.903056	2452.100410
338.295508	2457.625514
338.687896	2466.195476
339.080220	2471.962556
339.472480	2479.836838
339.864676	2478.833649
340.256807	2481.313896
340.648875	2485.992087
341.040879	2488.681543
341.432818	2486.181130
341.824694	2488.636172
342.216506	2486.914618
342.608253	2486.317242
342.999937	2486.166007
343.391557	2483.695842
343.783113	2484.630976
344.174605	2484.661222
344.566033	2481.152579
344.957397	2477.868268
345.348697	2477.596045
345.739934	2476.113946
346.131106	2474.092443
346.522215	2473.679069
346.913260	2470.578759
347.304241	2468.927781
347.695159	2467.947277
348.086012	2467.801083
348.476802	2461.711370
348.867528	2464.327728
349.258191	2463.379992
349.648789	2462.122224
350.039324	2460.861935
350.429796	2462.318829
350.820203	2461.416462
351.210548	2457.935545
351.600828	2458.505196
351.991045	2455.911522
352.381198	2460.625001
352.771288	2457.570062
353.161314	2458.220371
353.551276	2456.007304
353.941175	2458.613581
354.331010	2459.848663
354.720782	2456.977726
355.110490	2456.418158
355.500135	2459.326904
355.889717	2460.398149
356.279235	2461.988633
356.668689	2460.904785
357.058080	2459.273972
357.447408	2458.752212
357.836672	2458.842953
358.225873	2458.674074
358.615010	2455.326748
359.004084	2461.739096
359.393095	2464.181535
359.782043	2463.548870
360.170927	2461.562656
360.559748	2464.312605
360.948505	2465.993830
361.337199	2466.664303
361.725830	2467.009622
362.114398	2466.752523
362.502903	2466.959211
362.891344	2466.752523
363.279722	2467.455764
363.668037	2471.952474
364.056289	2468.544654
364.444478	2469.648666
364.832603	2470.185549
365.220665	2468.678244
365.608665	2470.891311
365.996601	2471.108080
366.384474	2474.621765
366.772284	2472.983390
367.160031	2471.922227
367.547715	2474.347022
367.935336	2472.184367
368.322893	2474.057155
368.710388	2476.723926
369.097820	2476.234934
369.485189	2477.732157
369.872495	2475.498925
370.259738	2477.717033
370.646918	2475.955150
371.034035	2480.976139
371.421090	2485.545945
371.808081	2485.190544
372.195010	2487.494351
372.581875	2492.202789
372.968678	2495.366113
373.355418	2500.273676
373.742096	2510.416478
374.128710	2521.139012
374.515262	2530.462626
374.901751	2541.785057
375.288177	2557.130330
375.674540	2572.150447
376.060841	2590.187696
376.447079	2612.222579
376.833254	2636.652011
377.219367	2657.592964
377.605417	2687.219825
377.991404	2710.875440
378.377329	2744.232755
378.763191	2774.111673
379.148991	2814.564412
379.534727	2857.630990
379.920402	2894.902761
380.306013	2940.308433
380.691563	2989.242914
381.077049	3036.218906
381.462474	3081.317068
381.847835	3137.967035
382.233134	3192.522402
382.618371	3236.493866
383.003545	3299.851087
383.388657	3353.710775
383.773706	3419.517998
384.158693	3462.176241
384.543618	3520.804861
384.928480	3568.121131
385.313280	3624.120788
385.698017	3678.424097
386.082692	3746.514962
386.467305	3764.993312
386.851856	3830.603929
387.236344	3906.705187
387.620770	3919.978546
388.005133	3962.546049
388.389435	4024.252292
388.773674	4040.910785
389.157851	4083.054831
389.541965	4120.172847
389.926018	4093.792489
390.310008	4153.593177
390.693936	4178.267104
391.077802	4191.553065
391.461606	4213.257753
391.845348	4221.726891
392.229027	4230.022110
392.612645	4279.087660
392.996200	4280.761323
393.379694	4297.941576
393.763125	4336.277030
394.146494	4303.449036
394.529801	4299.128768
394.913047	4332.546576
395.296230	4258.779372
395.679351	4210.182649
396.062410	4234.665013
396.445408	4128.326913
396.828343	4106.511320
397.211217	4075.606527
397.594028	3975.620281
397.976778	3961.053867
398.359466	3934.091256
398.742092	3858.310111
399.124656	3829.462108
399.507158	3806.124086
399.889598	3739.560691
400.271977	3714.100343
400.654294	3654.902073
401.036549	3622.580716
401.418742	3561.935635
401.800874	3545.856875
402.182944	3497.287878
402.564952	3481.861947
402.946898	3395.481776
403.328783	3344.316585
403.710606	3305.655976
404.092367	3277.949795
404.474067	3256.577823
404.855705	3178.712161
405.237282	3122.445322
405.618797	3107.362190
406.000250	3077.841193
406.381642	3055.750857
406.762972	3005.122548
407.144240	2949.989969
407.525447	2923.629776
407.906593	2883.638303
408.287677	2859.705425
408.668700	2832.442865
409.049661	2800.832309
409.430560	2774.232661
409.811399	2746.876840
410.192176	2728.988305
410.572891	2708.894266
410.953545	2698.590148
411.334138	2667.463543
411.714669	2661.212512
412.095139	2635.084212
412.475547	2628.792852
412.855894	2615.121243
413.236180	2606.909203
413.616405	2594.278592
413.996568	2586.835329
414.376670	2579.651684
414.756711	2573.267063
415.136691	2567.832699
415.516609	2563.025959
415.896466	2557.359702
416.276262	2551.068342
416.655997	2552.096737
417.035670	2547.680687
417.415283	2550.924669
417.794834	2543.983000
418.174324	2543.249513
418.553753	2539.019984
418.933121	2541.653987
419.312428	2537.820190
419.691674	2536.035621
420.070859	2537.240457
420.449983	2534.286341
420.829045	2535.377751
421.208047	2533.628470
421.586988	2533.961187
421.965867	2533.762061
422.344686	2533.199972
422.723444	2533.915816
423.102141	2527.548839
423.480777	2531.806093
423.859352	2529.802235
424.237866	2531.543953
424.616319	2532.325332
424.994712	2532.342976
425.373044	2531.652338
425.751314	2533.893131
426.129524	2530.318953
426.507673	2532.383305
426.885762	2531.574200
427.263789	2531.319622
427.641756	2527.563962
428.019662	2531.501103
428.397508	2532.143851
428.775292	2530.639066
429.153016	2529.235105
429.530679	2534.119983
429.908282	2529.346010
430.285824	2530.026566
430.663305	2530.255938
431.040726	2531.208717
431.418086	2531.710311
431.795385	2535.637370
432.172624	2530.094622
432.549802	2531.372554
432.926920	2531.364992
433.303977	2531.843902
433.680974	2533.242822
434.057910	2535.710467
434.434786	2534.296423
434.811601	2536.264994
435.188355	2534.798018
435.565050	2537.023687
435.941683	2537.348842
436.318257	2535.254243
436.694770	2536.101156
437.071222	2537.006043
437.447614	2530.576052
437.823946	2534.248532
438.200218	2533.893131
438.576429	2537.071578
438.952580	2539.100643
439.328670	2535.985210
439.704700	2537.147196
440.080670	2539.246836
440.456580	2537.671476
440.832429	2540.696168
441.208218	2535.667617
441.583947	2538.160468
441.959616	2537.439583
442.335224	2540.423946
442.710773	2540.093750
443.086261	2541.434697
443.461689	2540.333205
443.837057	2540.912938
444.212365	2540.837320
444.587612	2541.107022
444.962800	2540.605427
445.337927	2540.676003
445.712995	2539.914789
446.088002	2542.679862
446.462949	2541.837989
446.837837	2546.289328
447.212664	2543.441076
447.587431	2550.138249
447.962139	2555.668395
448.336786	2559.792059
448.711374	2555.897768
449.085901	2548.414175
449.460369	2547.930224
449.834776	2550.753270
450.209124	2553.445246
450.583412	2554.032541
450.957640	2556.225443
451.331808	2549.450132
451.705917	2551.716130
452.079965	2548.396531
452.453954	2549.520708
452.827883	2548.900646
453.201752	2548.257899
453.575562	2549.492982
453.949311	2548.759494
454.323001	2548.794782
454.696632	2550.110523
455.070202	2553.472972
455.443713	2553.435164
455.817164	2549.198074
456.190556	2553.992211
456.563888	2550.680173
456.937160	2549.934082
457.310373	2549.124977
457.683526	2552.159752
458.056619	2552.449618
458.429653	2549.477858
458.802628	2551.718651
459.175542	2551.572458
459.548398	2553.573796
459.921194	2553.977088
460.293930	2557.513457
460.666607	2561.309446
461.039224	2562.501679
461.411782	2562.531926
461.784280	2564.008984
462.156719	2560.911195
462.529099	2561.619477
462.901419	2557.697459
463.273680	2556.338868
463.645882	2556.205278
464.018024	2553.672098
464.390106	2556.036399
464.762130	2563.489745
465.134094	2569.062741
465.505999	2579.697055
465.877845	2586.290884
466.249631	2588.193920
466.621358	2586.268199
466.993026	2582.948599
467.364634	2582.215111
467.736184	2575.502815
468.107674	2572.329408
468.479105	2571.732032
468.850477	2571.061558
469.221790	2569.849161
469.593043	2563.721638
469.964238	2564.911351
470.335373	2561.367419
470.706449	2566.380847
471.077467	2570.529717
471.448425	2577.531879
471.819324	2580.667477
472.190164	2577.206725
472.560945	2572.843606
472.931667	2565.544015
473.302330	2564.001422
473.672934	2560.243242
474.043479	2561.808520
474.413965	2560.412121
474.784393	2555.514640
475.154761	2557.624363
475.525070	2554.120761
475.895321	2555.670916
476.265513	2551.269988
476.635645	2560.066802
477.005719	2557.397511
477.375734	2555.527243
477.745691	2559.363561
478.115588	2557.543704
478.485427	2559.482028
478.855207	2563.252811
479.224928	2567.265569
479.594591	2570.658266
479.964194	2567.605847
480.333739	2568.495611
480.703226	2568.039387
481.072653	2568.145251
481.442022	2571.011147
481.811333	2567.321022
482.180584	2566.390929
482.549777	2568.730025
482.918912	2561.042265
483.287988	2563.860270
483.657005	2561.521175
484.025964	2563.739282
484.394864	2562.073181
484.763706	2562.128634
485.132489	2559.224929
485.501213	2558.594785
485.869879	2559.078736
486.238487	2557.407593
486.607036	2558.004970
486.975527	2558.004970
487.343959	2559.562686
487.712333	2558.062943
488.080648	2558.025134
488.448905	2556.641338
488.817104	2558.156204
489.185244	2559.474466
489.553326	2562.151319
489.921350	2564.311453
490.289315	2565.780950
490.657222	2570.360838
491.025070	2568.258677
491.392861	2565.725497
491.760593	2563.351113
492.128267	2563.053685
492.495883	2560.817934
492.863440	2561.125444
493.230939	2554.975236
493.598380	2558.239383
493.965763	2553.420040
494.333088	2550.271840
494.700354	2549.568599
495.067563	2554.271995
495.434713	2548.880481
495.801805	2555.272664
496.168839	2552.391645
496.535815	2553.205791
496.902733	2549.893753
497.269593	2551.774104
497.636395	2550.990204
498.003139	2550.123126
498.369825	2551.796789
498.736453	2550.725544
499.103023	2553.041954
499.469535	2550.803682
499.835989	2551.305276
500.202385	2550.271840
500.568723	2549.515667
500.935003	2553.004145
501.301226	2548.431819
501.667390	2551.471634
502.033497	2550.332334
502.399546	2552.457180
502.765537	2548.600697
503.131470	2552.336192
503.497345	2549.371994
503.863163	2548.225131
504.228923	2548.157076
504.594625	2549.346788
504.960269	2549.619010
505.325856	2548.421736
505.691385	2545.361756
506.056856	2547.756304
506.422270	2546.869061
506.787625	2547.302600
507.152924	2545.984338
507.518164	2546.332178
507.883347	2546.070038
508.248472	2546.289328
508.613540	2546.586756
508.978550	2545.807898
509.343503	2548.081458
509.708398	2546.261602
510.073236	2546.347302
510.438016	2546.163299
510.802738	2546.546427
511.167403	2544.590459
511.532010	2547.375697
511.896561	2545.109698
512.261053	2546.059956
512.625488	2542.828576
512.989866	2540.411343
513.354186	2542.831097
513.718449	2539.387989
514.082655	2543.844369
514.446803	2544.819832
514.810894	2546.392672
515.174927	2545.961653
515.538904	2545.558361
515.902822	2546.501057
516.266684	2542.896632
516.630488	2543.678011
516.994235	2543.246992
517.357925	2546.274205
517.721558	2546.314534
518.085133	2544.890408
518.448651	2546.450645
518.812112	2543.436035
519.175516	2543.884698
519.538863	2543.627599
519.902152	2544.960984
520.265385	2544.998793
520.628560	2546.372507
520.991678	2542.243802
521.354739	2544.131714
521.717743	2544.504760
522.080690	2542.924358
522.443580	2543.763710
522.806413	2541.883360
523.169189	2546.296890
523.531908	2541.989224
523.894569	2546.455686
524.257174	2542.783206
524.619722	2544.487116
524.982213	2543.491488
525.344647	2541.346477
525.707025	2544.043494
526.069345	2543.065510
526.431608	2543.494008
526.793815	2543.050387
527.155964	2545.255892
527.518057	2542.828576
527.880093	2542.180788
528.242072	2539.713143
528.603995	2543.189019
528.965860	2541.215407
529.327669	2544.527445
529.689421	2543.173895
530.051117	2541.028884
530.412755	2539.778678
530.774337	2542.112732
531.135862	2540.439069
531.497331	2538.437731
531.858743	2537.857998
532.220098	2537.293389
532.581396	2536.469161
532.942638	2539.093081
533.303824	2539.556867
533.664953	2540.393699
534.026025	2540.623071
534.387040	2540.348328
534.747999	2539.203987
535.108902	2539.579552
535.469748	2538.084850
535.830537	2541.545603
536.191270	2538.445293
536.551947	2541.313709
536.912567	2539.796322
537.273131	2541.008720
537.633638	2537.429500
537.994089	2539.763555
538.354483	2539.168698
538.714821	2540.648277
539.075103	2539.496373
539.435328	2540.822197
539.795497	2539.869419
540.155609	2538.341949
540.515665	2537.981507
540.875665	2537.253060
541.235609	2536.537216
541.595496	2538.546116
541.955328	2538.147865
542.315102	2536.411187
542.674821	2541.447300
543.034483	2533.890610
543.394090	2537.600900
543.753640	2537.895807
544.113134	2537.590817
544.472571	2537.633667
544.831953	2536.360776
545.191278	2536.685930
545.550548	2539.070396
545.909761	2537.089223
546.268918	2539.188863
546.628019	2536.650642
546.987064	2536.325488
547.346053	2536.315405
547.704986	2534.840868
548.063863	2537.177443
548.422684	2537.487474
548.781449	2534.964376
549.140158	2538.341949
549.498811	2535.982689
549.857408	2536.312885
550.215949	2532.973120
550.574434	2532.824406
550.932864	2532.562266
551.291237	2533.794828
551.649555	2536.096115
552.007817	2535.745755
552.366022	2535.607123
552.724173	2539.014943
553.082267	2537.220292
553.440305	2536.451517
553.798288	2535.334901
554.156215	2536.438914
554.514086	2535.534027
554.871902	2535.148378
555.229661	2534.556043
555.587365	2535.720549
555.945014	2536.396064
556.302606	2534.301464
556.660143	2537.749614
557.017625	2534.934129
557.375050	2531.901875
557.732421	2534.089736
558.089735	2535.155940
558.446994	2536.479243
558.804197	2536.814480
559.161345	2534.011598
559.518437	2533.789787
559.875474	2536.101156
560.232455	2536.222144
560.589381	2537.469830
560.946251	2537.084181
561.303065	2533.812472
561.659825	2534.898841
562.016528	2535.735673
562.373177	2533.517565
562.729770	2536.522093
563.086307	2537.890766
563.442789	2533.900693
563.799216	2534.603934
564.155587	2534.901362
564.511904	2533.676361
564.868164	2535.160981
565.224370	2533.280631
565.580520	2535.251722
565.936615	2533.205013
566.292654	2537.086702
566.648638	2534.301464
567.004567	2538.478060
567.360441	2534.664427
567.716260	2534.538399
568.072023	2532.058151
568.427732	2529.751823
568.783385	2533.164684
569.138982	2530.230733
569.494525	2533.194931
569.850013	2528.544467
570.205445	2534.750127
570.560823	2531.823737
570.916145	2531.170908
571.271412	2534.979500
571.626625	2536.317926
571.981782	2531.702750
572.336884	2537.774819
572.691931	2534.064530
573.046923	2533.852802
573.401860	2531.236443
573.756743	2534.636701
574.111570	2536.007895
574.466342	2535.284489
574.821059	2533.255425
575.175722	2533.378933
575.530330	2534.132586
575.884882	2530.510517
576.239380	2533.565456
576.593823	2534.366999
576.948211	2531.927081
577.302544	2532.191742
577.656823	2531.105373
578.011047	2529.809796
578.365216	2533.295754
578.719330	2532.937832
579.073389	2534.987061
579.427394	2531.468336
579.781344	2532.859694
580.135239	2531.307019
580.489080	2529.146885
580.842866	2533.222657
581.196597	2535.060158
581.550273	2532.118645
581.903895	2530.631504
582.257463	2534.677030
582.610975	2531.238963
582.964434	2533.293234
583.317837	2531.367513
583.671186	2529.184693
584.024481	2532.257277
584.377721	2531.448171
584.730906	2528.950280
585.084037	2532.249715
585.437113	2531.808614
585.790135	2529.590506
586.143103	2532.181659
586.496016	2531.493542
586.848874	2524.791328
587.201679	2527.727800
587.554428	2523.941893
587.907124	2531.838861
588.259765	2528.161339
588.612352	2532.479087
588.964884	2533.893131
589.317362	2528.826771
589.669786	2530.225692
590.022155	2529.383819
590.374470	2529.814837
590.726731	2527.911802
591.078937	2531.075126
591.431090	2530.737369
591.783188	2530.964221
592.135232	2529.449354
592.487222	2528.529343
592.839157	2531.422966
593.191038	2528.262162
593.542866	2529.635877
593.894639	2529.446833
594.246358	2527.889117
594.598022	2529.086391
594.949633	2530.243336
595.301190	2528.879703
595.652692	2531.168387
596.004141	2530.331556
596.355535	2531.085208
596.706876	2527.521113
597.058162	2531.506145
597.409395	2525.759229
597.760573	2529.305681
598.111698	2527.231246
598.462768	2528.194107
598.813785	2529.230064
599.164748	2526.555732
599.515657	2531.049920
599.866511	2529.381298
600.217312	2529.424148
600.568060	2528.773839
600.918753	2531.967410
601.269392	2526.764939
601.619978	2528.178983
601.970510	2528.315094
602.320988	2529.409025
602.671412	2528.330218
603.021783	2529.648479
603.372100	2529.167049
603.722363	2529.144364
604.072572	2526.578417
604.422728	2527.632018
604.772830	2523.374763
605.122878	2524.672861
605.472872	2526.354085
605.822813	2523.586492
606.172701	2529.640918
606.522534	2528.204189
606.872314	2528.894827
607.222041	2528.957841
607.571714	2530.598737
607.921333	2528.799045
608.270899	2526.633869
608.620411	2528.773839
608.969870	2528.922553
609.319276	2527.967255
609.668627	2529.093953
610.017926	2526.326359
610.367171	2527.493386
610.716362	2528.680578
611.065500	2528.279806
611.414585	2527.531195
611.763616	2530.260980
612.112594	2530.651669
612.461518	2528.015146
612.810389	2526.515402
613.159207	2528.126051
613.507971	2527.558921
613.856682	2528.368026
614.205340	2527.357275
614.553945	2527.377440
614.902496	2527.727800
615.250994	2527.130423
615.599439	2529.388860
615.947830	2528.935156
616.296169	2529.106555
616.644454	2528.816689
616.992686	2529.910619
617.340864	2527.339631
617.688990	2525.996163
618.037063	2527.972296
618.385082	2529.257790
618.733048	2529.048582
619.080961	2528.332738
619.428821	2530.318953
619.776628	2529.537574
620.124382	2528.249559
620.472083	2527.886596
620.819731	2531.238963
621.167326	2527.016997
621.514868	2528.615043
621.862357	2527.198479
622.209793	2530.881042
622.557176	2527.851308
622.904506	2526.091945
623.251783	2524.272089
623.599007	2524.758560
623.946179	2523.959537
624.293297	2524.869466
624.640363	2526.265865
624.987376	2529.240146
625.334336	2527.561442
625.681243	2527.364837
626.028097	2524.511544
626.374899	2529.361134
626.721647	2530.157636
627.068343	2525.817203
627.414987	2526.812830
627.761577	2526.477594
628.108115	2527.258972
628.454600	2528.398273
628.801032	2527.369878
629.147412	2526.412059
629.493739	2525.388704
629.840014	2525.514733
630.186236	2526.815351
630.532405	2527.778211
630.878521	2526.752337
631.224585	2525.005577
631.570597	2524.685463
631.916556	2529.068747
632.262462	2526.621267
632.608316	2528.680578
632.954117	2527.226205
633.299866	2528.294930
633.645562	2524.050278
633.991206	2527.957172
634.336797	2523.183200
634.682336	2526.500279
635.027823	2524.728313
635.373257	2525.083715
635.718639	2526.611184
636.063968	2525.872655
636.409245	2524.544311
636.754470	2527.200999
637.099642	2521.892664
637.444762	2525.769312
637.789829	2523.697397
638.134845	2526.258303
638.479808	2521.396111
638.824719	2522.220339
639.169577	2520.705473
639.514383	2522.495082
639.859137	2523.972140
640.203839	2521.985926
640.548489	2524.304856
640.893086	2520.960051
641.237632	2521.501975
641.582125	2521.867458
641.926566	2519.442663
642.270955	2523.934332
642.615292	2520.977695
642.959576	2524.045237
643.303809	2522.109434
643.647990	2524.004908
643.992118	2524.584640
644.336195	2524.740916
644.680219	2523.014321
645.024192	2521.464166
645.368112	2522.553055
645.711981	2523.667150
646.055797	2521.945596
646.399562	2523.117665
646.743274	2525.222346
647.086935	2525.814682
647.430544	2524.425844
647.774101	2524.478776
648.117606	2522.578261
648.461059	2525.444157
648.804460	2524.972809
649.147810	2524.572038
649.491108	2524.004908
649.834354	2523.226049
650.177548	2523.573889
650.520690	2523.021883
650.863781	2524.105731
651.206820	2521.270082
651.549807	2524.292253
651.892742	2523.551204
652.235626	2525.741585
652.578458	2523.248735
652.921238	2520.183713
653.263967	2522.762263
653.606644	2522.822757
653.949269	2522.694208
654.291843	2523.493231
654.634365	2522.222860
654.976836	2522.384177
655.319255	2523.543642
655.661622	2522.931142
656.003938	2519.674557
656.346203	2519.936697
656.688416	2523.891482
657.030577	2520.347551
657.372687	2521.587674
657.714746	2522.830319
658.056753	2519.684639
658.398708	2518.109278
658.740612	2519.261182
659.082465	2519.961902
659.424266	2520.279495
659.766016	2518.520132
660.107715	2522.855525
660.449362	2520.733199
660.790958	2522.916018
661.132503	2522.626152
661.473996	2520.995339
661.815438	2522.512726
662.156829	2520.072808
662.498168	2521.396111
662.839456	2520.642458
663.180693	2521.083559
663.521879	2522.086749
663.863013	2523.397449
664.204097	2523.397449
664.545129	2523.125226
664.886110	2520.866789
665.227040	2520.513909
665.567918	2521.290246
665.908746	2522.270751
666.249522	2520.602129
666.590248	2521.504495
666.930922	2520.377798
667.271545	2522.411903
667.612118	2521.554907
667.952639	2524.962727
668.293109	2519.019207
668.633528	2523.341996
668.973896	2519.059536
669.314213	2523.223529
669.654480	2522.182531
669.994695	2520.992818
670.334859	2523.762932
670.674973	2523.004239
671.015035	2519.614063
671.355047	2520.513909
671.695008	2521.474248
672.034918	2519.155318
672.374777	2522.114475
672.714585	2521.323014
673.054342	2520.592047
673.394049	2522.137160
673.733705	2520.700431
674.073310	2522.444671
674.412864	2519.959382
674.752368	2522.840401
675.091820	2517.743795
675.431223	2519.369567
675.770574	2522.139681
676.109875	2513.557116
676.449125	2520.748322
676.788324	2518.389062
677.127473	2517.844618
677.466571	2516.228928
677.805619	2520.183713
678.144616	2520.874351
678.483562	2523.377284
678.822458	2523.125226
679.161303	2523.180679
679.500098	2518.177334
679.838842	2520.801254
680.177535	2518.666326
680.516179	2522.326203
680.854771	2517.645492
681.193314	2522.626152
681.531805	2521.002901
681.870247	2520.612211
682.208638	2520.962571
682.546978	2520.150946
682.885268	2522.709331
683.223508	2522.023734
683.561697	2522.086749
683.899836	2520.690349
684.237925	2522.674043
684.575963	2518.356295
684.913951	2522.686646
685.251889	2520.042561
685.589776	2521.010462
685.927614	2522.714372
686.265401	2521.985926
686.603137	2520.856707
686.940824	2519.006604
687.278460	2520.970133
687.616046	2520.962571
687.953582	2519.800585
688.291068	2521.272602
688.628504	2522.822757
688.965889	2521.345699
689.303224	2521.628004
689.640510	2518.973836
689.977745	2518.298322
690.314930	2519.735050
690.652065	2519.611542
690.989150	2520.592047
691.326185	2519.601460
691.663170	2519.180523
692.000105	2519.049453
692.336990	2519.160359
692.673825	2520.556758
693.010610	2517.716068
693.347345	2516.359998
693.684030	2515.755059
694.020665	2517.922756
694.357251	2515.235821
694.693786	2519.062056
695.030272	2516.115502
695.366707	2517.852179
695.703093	2517.915194
696.039429	2520.113137
696.375716	2517.080883
696.711952	2520.312262
697.048139	2519.787983
697.384276	2516.768331
697.720363	2518.079031
698.056400	2518.946110
698.392388	2517.668177
698.728326	2517.998373
699.064214	2519.329238
699.400053	2518.116840
699.735842	2516.879237
700.071581	2516.165913
700.407270	2517.726151
700.742910	2515.815553
701.078501	2519.077180
701.414042	2517.728671
701.749533	2516.639782
702.084974	2516.256654
702.420366	2516.889319
702.755709	2517.491737
703.091002	2517.469052
703.426246	2516.382683
703.761440	2513.408402
704.096584	2515.140039
704.431679	2515.815553
704.766725	2516.493588
705.101721	2516.468383
705.436668	2516.402848
705.771565	2514.817405
706.106413	2517.955523
706.441212	2517.174144
706.775961	2517.879906
707.110661	2517.748836
707.445311	2517.499299
707.779913	2516.929648
708.114465	2516.236490
708.448967	2518.804957
708.783421	2521.683456
709.117825	2517.882426
709.452180	2518.588188
709.786485	2519.757736
710.120742	2519.432581
710.454949	2518.502488
710.789107	2516.607014
711.123216	2513.055522
711.457275	2516.806140
711.791286	2512.629544
712.125247	2513.665501
712.459159	2518.230266
712.793023	2516.758249
713.126837	2516.087776
713.460602	2514.109123
713.794318	2518.293280
714.127985	2516.521315
714.461602	2518.968795
714.795171	2517.458969
715.128691	2519.389731
715.462162	2518.187416
715.795584	2516.160872
716.128957	2518.237828
716.462281	2514.993845
716.795556	2516.352436
717.128782	2517.259844
717.461960	2517.141377
717.795088	2516.070132
718.128167	2515.117353
718.461198	2516.604494
718.794180	2515.003927
719.127113	2516.201202
719.459997	2516.715399
719.792833	2514.908146
720.125619	2513.937723
720.458357	2514.837569
720.791046	2513.143742
721.123686	2515.865965
721.456278	2516.423012
721.788821	2513.463855
722.121315	2515.543331
722.453761	2513.685666
722.786158	2513.458814
723.118506	2514.913187
723.450805	2519.732530
723.783056	2513.748680
724.115259	2515.404699
724.447412	2515.203053
724.779518	2514.719102
725.111574	2515.500481
725.443582	2513.352950
725.775542	2515.200532
726.107453	2515.780265
726.439315	2518.217663
726.771129	2517.496778
727.102895	2515.727333
727.434612	2517.189268
727.766281	2515.457631
728.097901	2514.658608
728.429473	2515.704648
728.760996	2513.047960
729.092471	2512.382527
729.423897	2516.972498
729.755276	2516.659947
730.086606	2518.847807
730.417887	2515.137518
730.749120	2518.225225
731.080305	2514.131808
731.411442	2516.828825
731.742530	2513.541993
732.073570	2516.279339
732.404562	2513.791530
732.735506	2515.813033
733.066401	2514.928310
733.397249	2516.465862
733.728048	2513.821777
734.058798	2514.570388
734.389501	2517.166583
734.720156	2512.944616
735.050762	2515.513084
735.381320	2515.046777
735.711831	2515.497961
736.042293	2518.686490
736.372707	2516.294463
736.703073	2517.292611
737.033391	2517.479134
737.363661	2514.499812
737.693883	2515.606345
738.024056	2516.067611
738.354182	2514.162055
738.684260	2514.822446
739.014290	2513.383197
739.344272	2517.879906
739.674207	2514.121726
740.004093	2515.654236
740.333931	2519.175482
740.663722	2516.980060
740.993464	2513.993176
741.323159	2516.856552
741.652806	2514.547703
741.982405	2516.705317
742.311956	2514.421674
742.641460	2514.126767
742.970915	2515.795389
743.300323	2514.086437
743.629683	2513.652898
743.958996	2513.957888
744.288260	2515.129956
744.617477	2516.080214
744.946647	2510.804646
745.275768	2512.132990
745.604842	2510.398833
745.933869	2510.098885
746.262847	2511.707013
746.591778	2516.385204
746.920662	2514.593073
747.249498	2514.363701
747.578286	2513.821777
747.907027	2514.789678
748.235720	2513.022754
748.564365	2516.150790
748.892963	2513.713392
749.221514	2512.490912
749.550017	2512.763135
749.878473	2514.172137
750.206881	2511.298679
750.535242	2515.583660
750.863555	2511.901097
751.191821	2516.475944
751.520039	2512.627023
751.848210	2514.141890
752.176334	2514.419154
752.504411	2516.874196
752.832440	2515.198012
753.160421	2513.983094
753.488356	2511.787671
753.816243	2514.454442
754.144082	2513.204236
754.471875	2511.049142
754.799620	2511.843124
755.127318	2510.731550
755.454969	2511.926303
755.782572	2513.080727
756.110129	2512.997548
756.437638	2514.414113
756.765100	2513.524349
757.092515	2512.874040
757.419882	2513.254647
757.747203	2514.509894
758.074477	2513.204236
758.401703	2512.440501
758.728882	2513.405882
759.056014	2514.267919
759.383099	2513.862106
759.710138	2516.319669
760.037129	2514.459483
760.364073	2513.007631
760.690970	2513.393279
761.017820	2514.444359
761.344623	2513.874709
761.671379	2514.459483
761.998088	2507.359018
762.324751	2511.817918
762.651366	2513.045439
762.977935	2513.960409
763.304456	2515.286232
763.630931	2517.499299
763.957359	2517.355626
764.283740	2516.672549
764.610074	2515.858403
764.936362	2516.304545
765.262602	2515.180368
765.588796	2515.865965
765.914943	2517.431243
766.241044	2514.184740
766.567097	2513.816736
766.893104	2515.288753
767.219064	2512.984945
767.544978	2514.192302
767.870845	2512.352281
768.196665	2512.722805
768.522438	2514.088958
768.848165	2515.835718
769.173846	2508.883967
769.499479	2511.215500
769.825066	2510.189626
770.150607	2512.266581
770.476101	2509.083092
770.801548	2514.328413
771.126949	2511.454955
771.452303	2513.100892
771.777611	2506.509583
772.102872	2512.841273
772.428087	2512.006962
772.753256	2512.871519
773.078378	2514.051149
773.403453	2511.480161
773.728482	2510.618124
774.053465	2512.506036
774.378401	2510.953360
774.703291	2511.918741
775.028135	2511.500326
775.352932	2511.412105
775.677683	2510.260202
776.002388	2512.203567
776.327046	2509.851868
776.651658	2511.185253
776.976224	2510.050994
777.300743	2511.638957
777.625216	2510.338340
777.949643	2511.971673
778.274024	2513.257168
778.598359	2507.359018
778.922647	2509.032681
779.246889	2510.005623
779.571086	2505.201404
779.895236	2509.713237
780.219339	2511.185253
780.543397	2509.226765
780.867409	2514.330933
781.191374	2510.023268
781.515294	2512.443021
781.839167	2510.106447
782.162995	2513.133659
782.486776	2511.210459
782.810511	2513.468896
783.134201	2513.410923
783.457844	2510.224914
783.781441	2514.242713
784.104993	2509.446055
784.428498	2510.482012
784.751958	2509.718278
785.075372	2509.935047
785.398739	2508.528565
785.722061	2509.758607
786.045337	2514.330933
786.368568	2511.840603
786.691752	2512.158196
787.014891	2511.885974
787.337983	2510.313134
787.661030	2511.883453
787.984031	2511.386900
788.306987	2511.051663
788.629897	2511.613752
788.952760	2514.703979
789.275579	2511.553258
789.598351	2513.380676
789.921078	2509.995541
790.243759	2511.860768
790.566395	2510.023267
790.888984	2511.137363
791.211529	2509.746004
791.534027	2512.546365
791.856480	2511.212980
792.178888	2510.373628
792.501249	2508.747856
792.823566	2509.768689
793.145836	2508.568895
793.468062	2511.341529
793.790241	2507.227948
794.112375	2510.171982
794.434464	2510.570233
794.756507	2508.838596
795.078505	2512.243896
795.400457	2509.332629
795.722364	2508.001765
796.044226	2508.599142
796.366042	2507.079234
796.687812	2508.601662
797.009538	2511.588546
797.331218	2510.913031
797.652852	2509.793895
797.974442	2511.838083
798.295986	2509.841786
798.617484	2511.268433
798.938938	2508.513442
799.260346	2512.700120
799.581709	2510.628206
799.903026	2515.548372
800.224299	2510.358504
800.545526	2509.372959
800.866708	2511.114677
801.187845	2510.101405
801.508936	2509.435973
801.829983	2511.893536
802.150984	2510.560150
802.471940	2511.349091
802.792851	2509.899759
803.113717	2510.383710
803.434538	2510.514780
803.755314	2512.062414
804.076045	2507.505211
804.396731	2511.515449
804.717372	2509.403206
805.037967	2510.794564
805.358518	2512.488392
805.679024	2511.394461
805.999485	2511.243227
806.319901	2512.017044
806.640272	2509.037722
806.960598	2510.582836
807.280879	2509.625016
807.601115	2510.509739
807.921306	2510.134173
808.241453	2509.677948
808.561554	2508.762979
808.881611	2511.449914
809.201623	2509.370438
809.521590	2509.478823
809.841513	2511.843124
810.161390	2511.034019
810.481223	2509.141066
810.801011	2511.109636
811.120755	2512.132990
811.440453	2509.917403
811.760107	2508.989831
812.079716	2507.522855
812.399281	2507.379182
812.718801	2508.669718
813.038276	2504.934223
813.357707	2511.404544
813.677093	2508.606703
813.996434	2508.175685
814.315731	2511.863289
814.634983	2510.353463
814.954191	2508.810870
815.273354	2512.795902
815.592473	2510.522342
815.911547	2510.837414
816.230577	2510.368587
816.549562	2508.069820
816.868502	2510.076200
817.187399	2509.597290
817.506250	2509.753566
817.825058	2509.599811
818.143821	2512.778258
818.462539	2509.062928
818.781213	2510.441683
819.099843	2510.855058
819.418429	2514.096520
819.736970	2510.789523
820.055466	2511.717095
820.373919	2511.802795
820.692327	2513.491581
821.010691	2514.840090
821.329011	2518.590708
821.647286	2524.647655
821.965517	2529.156967
822.283704	2531.526309
822.601847	2531.443130
822.919945	2530.266021
823.237999	2527.324508
823.556010	2526.104548
823.873976	2522.789990
824.191897	2520.718075
824.509775	2518.636079
824.827609	2517.090965
825.145398	2514.819925
825.463144	2514.890502
825.780845	2513.872188
826.098502	2517.413599
826.416116	2514.646006
826.733685	2516.382683
827.051210	2515.702127
827.368692	2514.356139
827.686129	2515.687004
828.003522	2513.481499
828.320872	2509.897239
828.638177	2510.968484
828.955439	2507.575787
829.272656	2509.118380
829.589830	2507.293483
829.906960	2512.687517
830.224046	2508.021929
830.541088	2509.703154
830.858086	2512.243896
831.175041	2511.621313
831.491952	2509.201559
831.808819	2511.212980
832.125642	2510.358504
832.442421	2512.465707
832.759157	2511.117198
833.075849	2512.206087
833.392497	2509.372959
833.709101	2513.766324
834.025662	2513.375635
834.342179	2512.765655
834.658653	2512.672394
834.975083	2512.684997
835.291469	2514.091479
835.607811	2511.638957
835.924110	2508.727691
836.240366	2512.634585
836.556578	2511.916221
836.872746	2511.371776
837.188871	2507.084275
837.504952	2508.775582
837.820990	2510.116529
838.136984	2507.530417
838.452935	2509.246930
838.768842	2510.073679
839.084706	2510.794564
839.400526	2509.468741
839.716303	2512.546365
840.032037	2508.193329
840.347727	2510.749194
840.663373	2509.846827
840.978977	2510.177023
841.294537	2510.045953
841.610054	2507.948833
841.925527	2509.229286
842.240957	2510.590397
842.556344	2511.432270
842.871687	2508.463030
843.186987	2510.882784
843.502244	2508.069820
843.817458	2505.904645
844.132629	2509.153668
844.447756	2510.020747
844.762840	2502.605210
845.077881	2504.407422
845.392879	2504.614109
845.707833	2507.316168
846.022745	2504.382216
846.337613	2507.202742
846.652438	2507.946312
846.967221	2508.271467
847.281960	2503.376506
847.596656	2511.268433
847.911309	2506.862464
848.225919	2508.909172
848.540485	2509.433453
848.855009	2507.646363
849.169490	2509.113339
849.483928	2508.478154
849.798323	2505.705519
850.112675	2509.183915
850.426984	2506.320540
850.741251	2508.480674
851.055474	2506.209635
851.369654	2508.135355
851.683792	2508.778102
851.997887	2511.127280
852.311938	2507.996724
852.625947	2508.546209
852.939914	2506.895232
853.253837	2507.563184
853.567718	2507.873215
853.881555	2505.380365
854.195350	2509.017557
854.509103	2505.216527
854.822812	2507.926147
855.136479	2509.493946
855.450103	2507.555623
855.763685	2509.221724
856.077224	2507.744666
856.390720	2508.465551
856.704173	2507.273318
857.017584	2506.849861
857.330953	2506.507063
857.644278	2508.919255
857.957561	2510.066117
858.270802	2507.848010
858.584000	2508.352125
858.897155	2510.804646
859.210268	2505.521517
859.523339	2509.889677
859.836367	2509.206601
860.149352	2508.644512
860.462295	2508.773061
860.775195	2504.377175
861.088054	2505.582011
861.400869	2503.810045
861.713642	2504.495642
862.026373	2507.023781
862.339062	2508.936899
862.651708	2507.979080
862.964312	2507.848010
863.276873	2508.717609
863.589392	2504.427587
863.901869	2507.134686
864.214303	2506.081085
864.526696	2507.548061
864.839045	2506.441528
865.151353	2510.010665
865.463619	2507.023781
865.775842	2506.464213
866.088023	2507.966477
866.400162	2507.157372
866.712258	2506.844820
867.024313	2506.055879
867.336325	2509.509070
867.648296	2507.444717
867.960224	2507.880777
868.272110	2507.381703
868.583954	2508.878926
868.895755	2508.659635
869.207515	2504.914058
869.519233	2508.594100
869.830909	2509.645181
870.142542	2509.327588
870.454134	2505.859274
870.765684	2507.406909
871.077191	2506.829697
871.388657	2506.552433
871.700081	2507.381703
872.011463	2507.048987
872.322803	2508.503360
872.634101	2505.894562
872.945357	2507.411950
873.256571	2507.301044
873.567744	2505.773575
873.878874	2507.323730
874.189963	2509.695593
874.501010	2508.367248
874.812015	2508.437825
875.122979	2509.183915
875.433900	2506.630571
875.744780	2508.601662
876.055618	2511.868330
876.366415	2511.394461
876.677169	2506.353307
876.987882	2505.622340
877.298554	2503.973883
877.609183	2505.014881
877.919771	2503.041269
878.230317	2507.467402
878.540822	2510.146776
878.851285	2508.692403
879.161707	2506.386075
879.472087	2509.083092
879.782425	2509.385562
880.092722	2511.399502
880.402977	2511.376817
880.713191	2513.153824
881.023363	2516.080214
881.333494	2520.231604
881.643583	2514.018382
881.953631	2517.383352
882.263637	2517.015348
882.573602	2516.128105
882.883526	2514.172137
883.193408	2513.564678
883.503248	2513.186592
883.813048	2512.732888
884.122806	2513.030316
884.432522	2511.122239
884.742197	2510.171982
885.051831	2507.797598
885.361424	2510.620644
885.670975	2510.812208
885.980485	2507.578308
886.289954	2508.745335
886.599382	2508.843638
886.908768	2510.169461
887.218113	2508.815911
887.527417	2507.144769
887.836680	2508.258864
888.145901	2506.625530
888.455082	2508.117711
888.764221	2508.652074
889.073319	2506.406240
889.382376	2508.863802
889.691392	2506.668380
890.000366	2508.828514
890.309300	2508.732732
890.618193	2504.281393
890.927044	2508.004285
891.235855	2507.532937
891.544625	2506.950684
891.853353	2509.073010
892.162041	2508.037053
892.470687	2509.027640
892.779293	2507.991683
893.087858	2501.970024
893.396381	2504.407422
893.704864	2506.507063
894.013306	2504.364572
894.321707	2508.412619
894.630068	2508.452948
894.938387	2509.161230
895.246665	2509.521673
895.554903	2509.274656
895.863100	2508.793226
896.171256	2507.500170
896.479371	2510.734070
896.787446	2507.976559
897.095480	2507.943792
897.403473	2506.338184
897.711425	2508.349604
898.019336	2509.567043
898.327207	2507.653925
898.635038	2508.578977
898.942827	2507.661487
899.250576	2509.693072
899.558284	2507.074193
899.865952	2506.645694
900.173579	2505.844151
900.481165	2506.106291
900.788711	2507.626199
901.096216	2506.781806
901.403681	2506.663338
901.711105	2507.008658
902.018489	2507.227948
902.325832	2508.699965
902.633135	2507.444717
902.940397	2509.330109
903.247619	2509.262053
903.554800	2506.073523
903.861941	2507.968997
904.169041	2509.405726
904.476101	2510.474451
904.783121	2509.662825
905.090100	2511.497805
905.397039	2509.171313
905.703938	2507.207783
906.010796	2508.783144
906.317614	2509.378000
906.624391	2507.094357
906.931129	2507.951353
907.237826	2508.357166
907.544483	2505.123266
907.851099	2508.831035
908.157675	2506.988493
908.464211	2506.464213
908.770707	2505.309789
909.077163	2503.472288
909.383578	2502.275014
909.689954	2505.206445
909.996289	2502.355672
910.302584	2506.189470
910.608839	2503.381547
910.915054	2507.669049
911.221229	2505.584532
911.527363	2507.192660
911.833458	2508.463030
912.139513	2507.880777
912.445527	2505.110663
912.751502	2509.529234
913.057436	2505.297186
913.363331	2506.065962
913.669186	2506.496980
913.975000	2509.625016
914.280775	2504.697288
914.586510	2507.311127
914.892205	2504.593945
915.197859	2507.999244
915.503475	2508.586539
915.809050	2512.236334
916.114585	2509.158710
916.420081	2508.909172
916.725536	2512.780779
917.030952	2509.640140
917.336328	2506.507063
917.641665	2508.155520
917.946961	2508.362207
918.252218	2506.824655
918.557435	2509.156189
918.862612	2504.810714
919.167750	2506.265087
919.472848	2506.998575
919.777906	2506.116373
920.082925	2507.537979
920.387904	2506.585201
920.692843	2506.544871
920.997743	2507.482526
921.302603	2507.422032
921.607423	2505.201404
921.912204	2505.095540
922.216946	2510.605521
922.521647	2505.786178
922.826310	2506.749038
923.130932	2504.374655
923.435516	2505.216527
923.740059	2508.107629
924.044564	2505.677793
924.349028	2503.943636
924.653454	2500.359376
924.957840	2502.106135
925.262186	2503.610920
925.566493	2503.177381
925.870761	2502.640498
926.174989	2505.569408
926.479178	2504.919099
926.783328	2506.686024
927.087438	2503.124448
927.391509	2505.357680
927.695541	2503.966321
927.999533	2502.695950
928.303486	2505.627381
928.607400	2507.573267
928.911275	2505.934892
929.215110	2506.078565
929.518906	2505.816425
929.822663	2506.396157
930.126381	2501.899448
930.430060	2505.455982
930.733699	2505.899604
931.037299	2505.607217
931.340861	2506.229799
931.644383	2507.260715
931.947866	2505.332474
932.251309	2506.809532
932.554714	2505.357680
932.858080	2505.571929
933.161407	2504.115035
933.464694	2506.998575
933.767943	2506.582680
934.071153	2507.238030
934.374323	2506.509583
934.677455	2505.604696
934.980548	2504.059583
935.283602	2506.917917
935.586617	2503.172339
935.889593	2505.914727
936.192530	2504.064624
936.495428	2506.963287
936.798287	2503.502535
937.101108	2503.333656
937.403890	2505.990344
937.706632	2505.566888
938.009336	2504.296517
938.312002	2504.782988
938.614628	2506.464213
938.917216	2506.375993
939.219765	2506.494460
939.522275	2504.165447
939.824747	2507.316168
940.127179	2503.741990
940.429573	2500.762668
940.731929	2503.595796
941.034246	2501.042452
941.336524	2504.515807
941.638763	2501.962462
941.940964	2504.203255
942.243126	2504.825838
942.545250	2506.260046
942.847335	2504.934223
943.149381	2505.125787
943.451389	2505.400529
943.753359	2503.608399
944.055290	2504.546054
944.357182	2505.455982
944.659036	2506.164264
944.960851	2503.600837
945.262628	2502.660662
945.564367	2504.236023
945.866067	2503.434479
946.167729	2503.608399
946.469352	2506.862464
946.770937	2504.742659
947.072484	2504.500683
947.373992	2505.508914
947.675462	2502.118738
947.976893	2505.546723
948.278286	2504.495642
948.579641	2504.404902
948.880958	2503.328615
949.182236	2505.309789
949.483476	2504.036897
949.784678	2506.191991
950.085841	2505.733246
950.386967	2505.670231
950.688054	2505.302227
950.989103	2504.344408
951.290114	2504.631753
951.591087	2507.361538
951.892021	2504.115035
952.192917	2506.756600
952.493776	2504.621671
952.794596	2504.828358
953.095378	2505.100581
953.396122	2505.284583
953.696828	2504.994717
953.997496	2503.787360
954.298126	2501.246619
954.598718	2505.103101
954.899272	2502.746362
955.199788	2505.909686
955.500266	2502.554798
955.800706	2501.811228
956.101108	2500.734942
956.401472	2501.808707
956.701798	2501.082781
957.002087	2501.299551
957.302337	2506.232320
957.602550	2505.113184
957.902724	2502.559839
958.202861	2503.005981
958.502960	2502.905158
958.803022	2504.861126
959.103045	2504.669562
959.403031	2503.741990
959.702979	2505.148472
960.002889	2504.805673
960.302762	2501.602020
960.602596	2504.664521
960.902393	2503.542864
961.202153	2503.237874
961.501875	2505.254336
961.801559	2503.714263
962.101205	2504.351969
962.400814	2504.200735
962.700385	2504.336846
962.999918	2504.581342
963.299414	2503.494973
963.598873	2504.077227
963.898293	2502.360714
964.197677	2506.181908
964.497022	2506.426404
964.796331	2506.139058
965.095601	2504.344408
965.394835	2502.945488
965.694030	2505.508914
965.993189	2503.774757
966.292309	2504.450272
966.591393	2505.372803
966.890439	2503.444562
967.189447	2505.277021
967.488419	2504.437669
967.787353	2503.031187
968.086249	2502.741321
968.385108	2503.189983
968.683930	2506.456651
968.982714	2501.879283
969.281462	2504.094871
969.580172	2505.082937
969.878844	2502.428769
970.177480	2504.125117
970.476078	2504.437669
970.774639	2502.237205
971.073162	2502.524551
971.371649	2501.659993
971.670098	2498.952894
971.968510	2499.063799
972.266885	2498.874756
972.565223	2502.549757
972.863524	2507.079234
973.161788	2503.593276
973.460014	2503.641167
973.758204	2501.244098
974.056356	2501.987668
974.354471	2501.733090
974.652550	2503.285765
974.950591	2503.353821
975.248595	2503.439521
975.546563	2507.888339
975.844493	2501.786022
976.142386	2504.992196
976.440243	2502.418687
976.738062	2505.468585
977.035845	2501.980107
977.333590	2503.825169
977.631299	2504.982114
977.928971	2501.128152
978.226606	2502.280055
978.524204	2504.180570
978.821765	2505.259377
979.119290	2503.510097
979.416777	2502.847185
979.714228	2506.275170
980.011642	2506.166785
980.309020	2506.771723
980.606360	2502.769047
980.903664	2504.079747
981.200931	2503.986486
981.498162	2501.526403
981.795356	2504.412463
982.092513	2502.680827
982.389633	2503.265601
982.686717	2505.927330
982.983764	2502.353152
983.280775	2506.368431
983.577749	2502.708553
983.874686	2503.593276
984.171587	2501.594458
984.468451	2502.136382
984.765279	2503.444562
985.062070	2503.759634
985.358824	2503.333656
985.655543	2504.349449
985.952224	2504.674603
986.248869	2502.990858
986.545478	2499.237719
986.842050	2500.929026
987.138586	2498.978099
987.435086	2499.288130
987.731549	2498.781494
988.027975	2506.287773
988.324366	2503.366424
988.620719	2502.116218
988.917037	2505.801301
989.213318	2503.641167
989.509563	2502.181753
989.805772	2503.379027
990.101944	2501.967504
990.398080	2503.099243
990.694180	2506.058400
990.990244	2504.755262
991.286271	2503.353821
991.582262	2502.073368
991.878217	2501.186125
992.174136	2505.521517
992.470019	2503.348780
992.765865	2505.287103
993.061676	2503.699140
993.357450	2503.094202
993.653188	2503.431959
993.948890	2501.118069
994.244556	2501.536485
994.540186	2506.023112
994.835780	2503.956239
995.131337	2502.713594
995.426859	2502.103615
995.722345	2503.333656
996.017795	2501.687720
996.313208	2506.323061
996.608586	2503.406753
996.903928	2503.457165
997.199234	2501.438183
997.494504	2504.198214
997.789738	2501.700323
998.084936	2502.572442
998.380099	2502.287617
998.675225	2503.452123
998.970316	2501.607061
999.265371	2503.797443
999.560390	2502.884994
999.855373	2502.224602
1000.150320	2503.855416
1000.445232	2501.849037
1000.740108	2505.982783
1001.034948	2508.337002
1001.329752	2501.007164
1001.624521	2505.496311
1001.919254	2498.988182
1002.213951	2499.784684
1002.508613	2498.751247
1002.803239	2503.472288
1003.097829	2496.729745
1003.392384	2501.259222
1003.686903	2502.499345
1003.981386	2505.120745
1004.275834	2505.576970
1004.570246	2503.396671
1004.864623	2503.250477
1005.158964	2503.419356
1005.453270	2504.130159
1005.747540	2501.886845
1006.041775	2502.290138
1006.335974	2502.113697
1006.630138	2502.169150
1006.924266	2503.605879
1007.218359	2503.857936
1007.512416	2501.410456
1007.806438	2503.376506
1008.100425	2499.996412
1008.394376	2502.869870
1008.688292	2503.121928
1008.982172	2501.032370
1009.276017	2503.137051
1009.569827	2504.299037
1009.863602	2504.941784
1010.157341	2502.912720
1010.451045	2503.822648
1010.744714	2502.617812
1011.038347	2503.018584
1011.331945	2500.679489
1011.625508	2502.595127
1011.919036	2504.316681
1012.212528	2502.138903
1012.505986	2503.910868
1012.799408	2499.842657
1013.092795	2500.850888
1013.386147	2504.757782
1013.679464	2500.598830
1013.972745	2501.901969
1014.265992	2503.404233
1014.559204	2505.297186
1014.852380	2502.829541
1015.145521	2503.217710
1015.438628	2502.375837
1015.731699	2502.332987
1016.024736	2500.324088
1016.317737	2503.132010
1016.610703	2504.619151
1016.903635	2497.954745
1017.196531	2500.074550
1017.489393	2498.668068
1017.782219	2498.721001
1018.075011	2502.466578
1018.367768	2502.194356
1018.660490	2505.163595
1018.953177	2505.163595
1019.245829	2505.163595
