Dividing Wavelength (nm)	Counts (n)	Blue Motor Position (mm): 0.000000	Red Motor Position (mm): 4.000000	
326.493990	2085.043916
326.888308	2085.043916
327.282561	2085.043916
327.676750	2063.848385
328.070874	2062.338559
328.464933	2071.004303
328.858929	2082.200705
329.252859	2095.431213
329.646726	2109.276743
330.040528	2125.610081
330.434265	2145.741929
330.827938	2162.158446
331.221547	2183.301046
331.615091	2204.632688
332.008571	2224.958620
332.401986	2245.702968
332.795338	2267.722728
333.188625	2286.238887
333.581847	2300.989303
333.975006	2321.652992
334.368100	2339.198728
334.761129	2357.661954
335.154095	2371.696527
335.546996	2387.934083
335.939833	2402.404715
336.332606	2415.995666
336.725315	2426.309867
337.117960	2431.897986
337.510540	2442.451641
337.903056	2450.895574
338.295508	2460.809003
338.687896	2462.714559
339.080220	2475.060345
339.472480	2476.592856
339.864676	2480.222487
340.256807	2485.757673
340.648875	2482.317086
341.040879	2486.773466
341.432818	2482.763228
341.824694	2487.028044
342.216506	2486.377735
342.608253	2487.885040
342.999937	2485.336737
343.391557	2486.181130
343.783113	2483.433702
344.174605	2483.809268
344.566033	2482.387662
344.957397	2478.420274
345.348697	2480.144349
345.739934	2479.317599
346.131106	2472.872484
346.522215	2473.830303
346.913260	2470.624130
347.304241	2468.741259
347.695159	2467.203707
348.086012	2466.686988
348.476802	2465.482153
348.867528	2464.715897
349.258191	2461.451750
349.648789	2460.861935
350.039324	2460.435958
350.429796	2460.327573
350.820203	2457.438992
351.210548	2458.369085
351.600828	2458.427058
351.991045	2457.895216
352.381198	2456.513940
352.771288	2456.564352
353.161314	2457.005453
353.551276	2457.262551
353.941175	2454.830195
354.331010	2459.447892
354.720782	2456.894547
355.110490	2460.105762
355.500135	2460.640124
355.889717	2458.976544
356.279235	2460.317491
356.668689	2459.654579
357.058080	2459.878910
357.447408	2457.655761
357.836672	2458.023766
358.225873	2458.865638
358.615010	2456.534105
359.004084	2463.344703
359.393095	2463.274127
359.782043	2463.218675
360.170927	2461.252625
360.559748	2462.273458
360.948505	2462.941411
361.337199	2466.089612
361.725830	2467.153295
362.114398	2465.162039
362.502903	2464.116000
362.891344	2466.760085
363.279722	2464.806638
363.668037	2467.203707
364.056289	2468.237143
364.444478	2470.538430
364.832603	2466.419807
365.220665	2471.518934
365.608665	2468.668162
365.996601	2471.924747
366.384474	2468.534571
366.772284	2470.775364
367.160031	2469.598255
367.547715	2469.371403
367.935336	2471.508852
368.322893	2472.176805
368.710388	2472.096147
369.097820	2475.990438
369.485189	2471.758389
369.872495	2473.595890
370.259738	2473.069089
370.646918	2473.071610
371.034035	2479.443628
371.421090	2479.173927
371.808081	2483.718527
372.195010	2484.318424
372.581875	2489.447798
372.968678	2493.783190
373.355418	2497.919457
373.742096	2506.502022
374.128710	2510.081241
374.515262	2521.852335
374.901751	2533.744417
375.288177	2542.909235
375.674540	2557.400031
376.060841	2572.253791
376.447079	2585.605287
376.833254	2606.127824
377.219367	2619.330606
377.605417	2639.996817
377.991404	2655.846204
378.377329	2679.698424
378.763191	2693.470856
379.148991	2721.363560
379.534727	2743.355594
379.920402	2763.464757
380.306013	2783.291615
380.691563	2810.720533
381.077049	2831.737103
381.462474	2849.827284
381.847835	2876.860471
382.233134	2896.500807
382.618371	2914.996800
383.003545	2940.174843
383.388657	2958.668316
383.773706	2988.027996
384.158693	2999.484018
384.543618	3021.486134
384.928480	3032.493493
385.313280	3055.564334
385.698017	3069.177970
386.082692	3095.467587
386.467305	3093.854418
386.851856	3117.510032
387.236344	3140.434679
387.620770	3136.618526
388.005133	3145.138076
388.389435	3161.098369
388.773674	3160.377484
389.157851	3168.218999
389.541965	3171.707477
389.926018	3152.493119
390.310008	3163.908812
390.693936	3164.826302
391.077802	3160.110303
391.461606	3157.388080
391.845348	3150.912718
392.229027	3141.213538
392.612645	3151.316010
392.996200	3142.136069
393.379694	3136.699184
393.763125	3137.631798
394.146494	3121.918521
394.529801	3102.280707
394.913047	3100.775922
395.296230	3065.533216
395.679351	3038.963814
396.062410	3033.131199
396.445408	2987.571771
396.828343	2969.516879
397.211217	2945.082406
397.594028	2904.014646
397.976778	2890.660630
398.359466	2875.257384
398.742092	2836.082578
399.124656	2819.668581
399.507158	2807.242137
399.889598	2782.195164
400.271977	2763.691608
400.654294	2742.168402
401.036549	2726.399673
401.418742	2703.757330
401.800874	2695.794828
402.182944	2676.386386
402.564952	2664.080929
402.946898	2644.944709
403.328783	2631.134468
403.710606	2617.367077
404.092367	2607.345263
404.474067	2598.707246
404.855705	2583.339288
405.237282	2572.894018
405.618797	2567.384037
406.000250	2561.480845
406.381642	2558.055381
406.762972	2551.529608
407.144240	2543.138607
407.525447	2541.429656
407.906593	2532.484128
408.287677	2532.290044
408.668700	2528.098325
409.049661	2526.270906
409.430560	2527.503468
409.811399	2521.675895
410.192176	2521.968282
410.572891	2517.461490
410.953545	2516.687673
411.334138	2516.246572
411.714669	2515.588701
412.095139	2513.426046
412.475547	2513.864627
412.855894	2510.955881
413.236180	2511.124760
413.616405	2511.467558
413.996568	2508.430263
414.376670	2509.612413
414.756711	2509.488905
415.136691	2509.577125
415.516609	2508.515963
415.896466	2510.439163
416.276262	2511.694410
416.655997	2506.839779
417.035670	2504.225941
417.415283	2506.746517
417.794834	2505.314830
418.174324	2507.419512
418.553753	2507.502691
418.933121	2509.274656
419.312428	2508.299193
419.691674	2507.449758
420.070859	2507.285921
420.449983	2505.614778
420.829045	2506.428925
421.208047	2509.073010
421.586988	2505.582011
421.965867	2507.679131
422.344686	2508.614265
422.723444	2511.956550
423.102141	2508.384893
423.480777	2509.136024
423.859352	2507.860613
424.237866	2508.984790
424.616319	2511.669204
424.994712	2511.681807
425.373044	2510.260202
425.751314	2510.744152
426.129524	2509.347753
426.507673	2511.656601
426.885762	2510.736591
427.263789	2510.587877
427.641756	2511.475120
428.019662	2515.306397
428.397508	2511.465038
428.775292	2513.531911
429.153016	2512.503515
429.530679	2513.945285
429.908282	2514.756911
430.285824	2510.429080
430.663305	2513.161386
431.040726	2513.789009
431.418086	2514.179699
431.795385	2516.344874
432.172624	2514.081396
432.549802	2516.160872
432.926920	2514.131808
433.303977	2513.433608
433.680974	2514.930831
434.057910	2517.050636
434.434786	2516.730523
434.811601	2515.258506
435.188355	2517.181706
435.565050	2517.481655
435.941683	2516.186078
436.318257	2515.160203
436.694770	2514.164575
437.071222	2516.075173
437.447614	2512.581653
437.823946	2515.944103
438.200218	2517.975688
438.576429	2515.951664
438.952580	2516.828825
439.328670	2518.046264
439.704700	2516.428053
440.080670	2516.375121
440.456580	2518.041223
440.832429	2518.767149
441.208218	2517.017868
441.583947	2521.053312
441.959616	2519.417458
442.335224	2519.482993
442.710773	2518.671367
443.086261	2517.874865
443.461689	2517.305214
443.837057	2520.687828
444.212365	2519.901408
444.587612	2520.929804
444.962800	2521.595236
445.337927	2519.246058
445.712995	2518.966274
446.088002	2520.632376
446.462949	2520.365195
446.837837	2522.308559
447.212664	2518.683970
447.587431	2525.028262
447.962139	2523.649506
448.336786	2529.025897
448.711374	2527.760567
449.085901	2524.882068
449.460369	2524.904754
449.834776	2523.069774
450.209124	2523.541122
450.583412	2524.584640
450.957640	2525.761750
451.331808	2524.670340
451.705917	2523.142870
452.079965	2522.729496
452.453954	2525.683612
452.827883	2525.325690
453.201752	2523.813344
453.575562	2521.922911
453.949311	2522.832839
454.323001	2522.578261
454.696632	2523.203364
455.070202	2524.710669
455.443713	2524.420803
455.817164	2524.650175
456.190556	2520.627335
456.563888	2520.634896
456.937160	2520.163548
457.310373	2522.565658
457.683526	2523.836029
458.056619	2525.429034
458.429653	2521.751512
458.802628	2521.698580
459.175542	2526.389373
459.548398	2524.141019
459.921194	2524.635052
460.293930	2524.496420
460.666607	2528.330218
461.039224	2528.667975
461.411782	2529.671165
461.784280	2529.071267
462.156719	2527.107738
462.529099	2527.503468
462.901419	2526.485155
463.273680	2526.749816
463.645882	2528.100845
464.018024	2527.584127
464.390106	2526.132275
464.762130	2528.194107
465.134094	2531.652338
465.505999	2538.551157
465.877845	2539.677855
466.249631	2543.178936
466.621358	2534.992102
466.993026	2541.195242
467.364634	2540.466796
467.736184	2534.777853
468.107674	2534.462781
468.479105	2531.806093
468.850477	2531.546474
469.221790	2531.687626
469.593043	2530.626463
469.964238	2529.560259
470.335373	2528.907430
470.706449	2529.141843
471.077467	2528.960362
471.448425	2533.573018
471.819324	2535.259284
472.190164	2535.211393
472.560945	2528.841895
472.931667	2528.725948
473.302330	2528.577234
473.672934	2528.085722
474.043479	2527.775691
474.413965	2525.726462
474.784393	2525.184538
475.154761	2524.866945
475.525070	2522.800072
475.895321	2523.609177
476.265513	2521.743950
476.635645	2527.553880
477.005719	2528.173942
477.375734	2528.161339
477.745691	2527.195958
478.115588	2529.383819
478.485427	2532.128727
478.855207	2529.250228
479.224928	2533.462112
479.594591	2533.600744
479.964194	2531.377595
480.333739	2531.803573
480.703226	2531.453213
481.072653	2532.564787
481.442022	2533.825075
481.811333	2532.645445
482.180584	2531.256607
482.549777	2532.027904
482.918912	2529.265352
483.287988	2534.122503
483.657005	2531.987575
484.025964	2530.596216
484.394864	2530.444982
484.763706	2530.563449
485.132489	2530.596216
485.501213	2531.203675
485.869879	2530.109745
486.238487	2528.773839
486.607036	2530.694519
486.975527	2529.577903
487.343959	2529.282996
487.712333	2529.882893
488.080648	2528.768798
488.448905	2528.420958
488.817104	2529.827440
489.185244	2528.685619
489.553326	2529.751823
489.921350	2533.525127
490.289315	2533.268028
490.657222	2532.884900
491.025070	2532.804242
491.392861	2534.619057
491.760593	2530.976823
492.128267	2534.152750
492.495883	2531.705270
492.863440	2532.012781
493.230939	2532.146371
493.598380	2528.781401
493.965763	2527.695032
494.333088	2527.299302
494.700354	2523.687315
495.067563	2526.356606
495.434713	2520.798734
495.801805	2527.937008
496.168839	2527.959693
496.535815	2528.652852
496.902733	2532.166536
497.269593	2528.201668
497.636395	2527.221164
498.003139	2528.433561
498.369825	2526.964065
498.736453	2526.618746
499.103023	2524.851822
499.469535	2526.979188
499.835989	2525.509692
500.202385	2526.603623
500.568723	2527.921884
500.935003	2526.754857
501.301226	2526.742254
501.667390	2524.211595
502.033497	2527.838705
502.399546	2526.331400
502.765537	2524.183869
503.131470	2526.331400
503.497345	2528.398273
503.863163	2524.826616
504.228923	2527.498427
504.594625	2527.064888
504.960269	2526.550690
505.325856	2527.039682
505.691385	2526.722090
506.056856	2529.598068
506.422270	2529.174611
506.787625	2525.635721
507.152924	2524.859383
507.518164	2524.433406
507.883347	2525.572707
508.248472	2527.616894
508.613540	2525.975999
508.978550	2527.160670
509.343503	2525.978519
509.708398	2526.001205
510.073236	2526.389373
510.438016	2525.791997
510.802738	2526.583458
511.167403	2527.614374
511.532010	2525.078673
511.896561	2526.880886
512.261053	2526.139836
512.625488	2521.285205
512.989866	2521.534742
513.354186	2523.359640
513.718449	2518.746984
514.082655	2526.109589
514.446803	2525.691174
514.810894	2526.679240
515.174927	2526.490197
515.538904	2525.902902
515.902822	2523.089938
516.266684	2524.882068
516.630488	2526.591020
516.994235	2526.414579
517.357925	2524.141019
517.721558	2525.487007
518.085133	2527.473222
518.448651	2526.691843
518.812112	2527.042203
519.175516	2525.093797
519.538863	2526.220495
519.902152	2525.597912
520.265385	2525.272758
520.628560	2525.897861
520.991678	2524.612367
521.354739	2524.758560
521.717743	2522.893333
522.080690	2524.370391
522.443580	2523.110103
522.806413	2527.178314
523.169189	2525.852491
523.531908	2526.313756
523.894569	2524.962727
524.257174	2527.775691
524.619722	2523.775535
524.982213	2527.374919
525.344647	2524.534229
525.707025	2525.280320
526.069345	2527.034641
526.431608	2523.379805
526.793815	2523.866276
527.155964	2526.142357
527.518057	2525.993643
527.880093	2524.889630
528.242072	2523.931811
528.603995	2524.766122
528.965860	2525.363499
529.327669	2523.667150
529.689421	2524.176307
530.051117	2525.784435
530.412755	2523.037006
530.774337	2525.144208
531.135862	2526.701925
531.497331	2524.340144
531.858743	2520.947448
532.220098	2522.943745
532.581396	2521.668333
532.942638	2519.672036
533.303824	2523.707480
533.664953	2525.474404
534.026025	2521.234794
534.387040	2526.328880
534.747999	2524.319980
535.108902	2521.726306
535.469748	2524.718231
535.830537	2526.283509
536.191270	2523.926770
536.551947	2524.819054
536.912567	2523.914167
537.273131	2522.984074
537.633638	2521.660771
537.994089	2520.826460
538.354483	2526.333921
538.714821	2525.502130
539.075103	2523.163035
539.435328	2522.797551
539.795497	2524.148581
540.155609	2523.049609
540.515665	2525.270237
540.875665	2523.813344
541.235609	2525.988602
541.595496	2524.539270
541.955328	2522.694208
542.315102	2525.618077
542.674821	2523.717562
543.034483	2523.936852
543.394090	2524.506503
543.753640	2523.160514
544.113134	2523.170597
544.472571	2523.858714
544.831953	2524.887110
545.191278	2523.031965
545.550548	2520.554238
545.909761	2522.353930
546.268918	2524.859383
546.628019	2524.665299
546.987064	2522.611029
547.346053	2522.762263
547.704986	2520.206398
548.063863	2522.404341
548.422684	2523.951976
548.781449	2522.873169
549.140158	2522.200175
549.498811	2522.381656
549.857408	2522.114475
550.215949	2523.382325
550.574434	2519.356964
550.932864	2519.919052
551.291237	2517.504340
551.649555	2522.575741
552.007817	2523.999867
552.366022	2523.594054
552.724173	2523.155473
553.082267	2522.646317
553.440305	2523.765453
553.798288	2522.853004
554.156215	2522.026255
554.514086	2524.622449
554.871902	2522.679084
555.229661	2524.630011
555.587365	2523.785617
555.945014	2522.532891
556.302606	2523.586492
556.660143	2523.364681
557.017625	2524.410721
557.375050	2520.120699
557.732421	2523.715041
558.089735	2523.659589
558.446994	2522.704290
558.804197	2522.706811
559.161345	2522.921060
559.518437	2525.509692
559.875474	2520.034999
560.232455	2523.667150
560.589381	2519.805627
560.946251	2524.158663
561.303065	2519.649351
561.659825	2521.287726
562.016528	2519.225894
562.373177	2520.985257
562.729770	2522.369053
563.086307	2523.377284
563.442789	2521.706142
563.799216	2522.633714
564.155587	2521.575072
564.511904	2524.294774
564.868164	2522.253107
565.224370	2522.495082
565.580520	2522.434588
565.936615	2520.738240
566.292654	2518.497447
566.648638	2521.988446
567.004567	2521.577592
567.360441	2522.636234
567.716260	2521.086080
568.072023	2523.863755
568.427732	2519.732530
568.783385	2521.282685
569.138982	2519.235976
569.494525	2519.856038
569.850013	2516.607014
570.205445	2526.177645
570.560823	2522.812675
570.916145	2523.296626
571.271412	2521.650689
571.626625	2521.880061
571.981782	2522.747140
572.336884	2524.824095
572.691931	2521.875020
573.046923	2521.396111
573.401860	2522.114475
573.756743	2522.308559
574.111570	2522.810154
574.466342	2522.056502
574.821059	2518.809999
575.175722	2522.306039
575.530330	2522.981553
575.884882	2523.362161
576.239380	2520.395442
576.593823	2524.428365
576.948211	2522.215298
577.302544	2523.412572
577.656823	2522.258148
578.011047	2524.700587
578.365216	2522.530370
578.719330	2521.444002
579.073389	2521.559948
579.427394	2521.202026
579.781344	2521.151615
580.135239	2521.723786
580.489080	2520.113137
580.842866	2520.788652
581.196597	2524.965247
581.550273	2525.219826
581.903895	2520.644979
582.257463	2522.485000
582.610975	2518.308404
582.964434	2520.975174
583.317837	2522.106913
583.671186	2521.973323
584.024481	2523.289064
584.377721	2523.762932
584.730906	2524.269568
585.084037	2521.224711
585.437113	2521.547345
585.790135	2520.506347
586.143103	2521.615401
586.496016	2518.532735
586.848874	2520.702952
587.201679	2519.309073
587.554428	2518.142046
587.907124	2522.782428
588.259765	2518.041223
588.612352	2521.998528
588.964884	2518.525173
589.317362	2519.714886
589.669786	2522.036337
590.022155	2523.399969
590.374470	2524.267048
590.726731	2520.826460
591.078937	2522.195133
591.431090	2522.442150
591.783188	2520.581964
592.135232	2521.023065
592.487222	2521.375946
592.839157	2520.322345
593.191038	2522.177489
593.542866	2522.459794
593.894639	2520.927283
594.246358	2520.007273
594.598022	2521.887623
594.949633	2521.204547
595.301190	2520.040040
595.652692	2522.641276
596.004141	2520.221522
596.355535	2519.099865
596.706876	2519.656913
597.058162	2521.030627
597.409395	2517.534587
597.760573	2522.739578
598.111698	2519.649351
598.462768	2520.133302
598.813785	2522.311080
599.164748	2522.124557
599.515657	2521.154135
599.866511	2520.685308
600.217312	2520.776049
600.568060	2521.053312
600.918753	2523.626821
601.269392	2519.346882
601.619978	2521.252438
601.970510	2521.290246
602.320988	2520.554238
602.671412	2520.561800
603.021783	2518.694052
603.372100	2520.574402
603.722363	2519.946779
604.072572	2519.465349
604.422728	2521.232273
604.772830	2513.461334
605.122878	2516.662467
605.472872	2516.143228
605.822813	2514.512415
606.172701	2519.732530
606.522534	2520.844104
606.872314	2520.087931
607.222041	2521.759074
607.571714	2521.345699
607.921333	2518.734381
608.270899	2518.081552
608.620411	2520.423168
608.969870	2523.362161
609.319276	2518.255472
609.668627	2524.335103
610.017926	2522.263189
610.367171	2523.263858
610.716362	2516.947292
611.065500	2522.472397
611.414585	2519.770338
611.763616	2520.173631
612.112594	2522.742099
612.461518	2520.498785
612.810389	2521.907788
613.159207	2519.460308
613.507971	2519.228414
613.856682	2521.302849
614.205340	2520.166069
614.553945	2519.629186
614.902496	2520.163548
615.250994	2521.113806
615.599439	2520.750843
615.947830	2519.616583
616.296169	2518.389062
616.644454	2525.991122
616.992686	2521.668333
617.340864	2519.447705
617.688990	2522.169928
618.037063	2518.436953
618.385082	2523.473066
618.733048	2522.590864
619.080961	2519.049453
619.428821	2520.022396
619.776628	2519.364526
620.124382	2521.910308
620.472083	2521.091121
620.819731	2521.398631
621.167326	2517.567354
621.514868	2521.812006
621.862357	2520.077849
622.209793	2521.859897
622.557176	2520.380318
622.904506	2518.691532
623.251783	2515.351767
623.599007	2517.832015
623.946179	2517.060718
624.293297	2515.860924
624.640363	2519.815709
624.987376	2519.120030
625.334336	2518.802437
625.681243	2519.956861
626.028097	2519.298991
626.374899	2522.051461
626.721647	2520.251769
627.068343	2520.181192
627.414987	2520.481141
627.761577	2519.833353
628.108115	2521.983405
628.454600	2520.488703
628.801032	2518.915863
629.147412	2518.752025
629.493739	2517.668177
629.840014	2520.821419
630.186236	2521.010462
630.532405	2517.905112
630.878521	2517.542148
631.224585	2518.089114
631.570597	2519.777900
631.916556	2521.786800
632.262462	2517.705986
632.608316	2518.557941
632.954117	2518.245389
633.299866	2519.235976
633.645562	2515.825636
633.991206	2519.863600
634.336797	2517.821932
634.682336	2522.094310
635.027823	2516.889319
635.373257	2517.164062
635.718639	2516.475944
636.063968	2521.416275
636.409245	2519.200688
636.754470	2516.281860
637.099642	2519.082221
637.444762	2518.137005
637.789829	2517.466531
638.134845	2518.147087
638.479808	2517.010307
638.824719	2517.847138
639.169577	2518.154649
639.514383	2517.406037
639.859137	2517.854700
640.203839	2521.363343
640.548489	2516.239010
640.893086	2516.284381
641.237632	2514.290604
641.582125	2512.264060
641.926566	2512.422857
642.270955	2518.895698
642.615292	2517.153980
642.959576	2517.327899
643.303809	2519.283867
643.647990	2518.812519
643.992118	2516.206243
644.336195	2519.198167
644.680219	2517.274967
645.024192	2520.143384
645.368112	2516.826305
645.711981	2515.855883
646.055797	2517.146418
646.399562	2517.539628
646.743274	2519.793024
647.086935	2518.351254
647.430544	2515.679442
647.774101	2517.766480
648.117606	2516.712879
648.461059	2519.092303
648.804460	2521.484331
649.147810	2517.514422
649.491108	2517.960564
649.834354	2515.805471
650.177548	2517.234638
650.520690	2516.680111
650.863781	2521.191944
651.206820	2520.471059
651.549807	2517.892509
651.892742	2516.664988
652.235626	2517.834535
652.578458	2517.133815
652.921238	2515.508043
653.263967	2519.077180
653.606644	2515.744977
653.949269	2518.351254
654.291843	2514.618279
654.634365	2515.944103
654.976836	2518.767149
655.319255	2519.730009
655.661622	2517.854700
656.003938	2516.604494
656.346203	2516.702796
656.688416	2517.451408
657.030577	2516.808661
657.372687	2517.469052
657.714746	2518.653723
658.056753	2516.312107
658.398708	2511.323885
658.740612	2514.542662
659.082465	2513.909997
659.424266	2513.841942
659.766016	2511.643998
660.107715	2518.068949
660.449362	2515.916376
660.790958	2518.689011
661.132503	2518.290760
661.473996	2517.108609
661.815438	2515.659277
662.156829	2517.801768
662.498168	2516.309586
662.839456	2516.145749
663.180693	2516.755728
663.521879	2517.446367
663.863013	2515.755059
664.204097	2519.598939
664.545129	2517.085924
664.886110	2519.830832
665.227040	2515.361849
665.567918	2518.704134
665.908746	2518.131963
666.249522	2519.525843
666.590248	2516.269257
666.930922	2516.637261
667.271545	2516.755728
667.612118	2517.214473
667.952639	2517.705986
668.293109	2519.011645
668.633528	2516.836387
668.973896	2515.114833
669.314213	2517.421161
669.654480	2515.802950
669.994695	2517.000224
670.334859	2518.250431
670.674973	2515.306397
671.015035	2516.274298
671.355047	2518.048784
671.695008	2517.325379
672.034918	2516.551562
672.374777	2516.254134
672.714585	2515.422343
673.054342	2517.678260
673.394049	2515.802950
673.733705	2516.281860
674.073310	2518.424350
674.412864	2518.099196
674.752368	2517.146418
675.091820	2516.385204
675.431223	2513.347908
675.770574	2516.748167
676.109875	2511.810357
676.449125	2516.175996
676.788324	2510.895387
677.127473	2514.567868
677.466571	2513.761283
677.805619	2514.041067
678.144616	2516.617097
678.483562	2519.160359
678.822458	2514.688855
679.161303	2518.880575
679.500098	2514.875378
679.838842	2517.511902
680.177535	2516.904443
680.516179	2518.134484
680.854771	2515.860924
681.193314	2516.949813
681.531805	2515.792868
681.870247	2514.615759
682.208638	2516.213804
682.546978	2520.024917
682.885268	2515.099709
683.223508	2517.607683
683.561697	2515.119874
683.899836	2517.153980
684.237925	2516.715399
684.575963	2517.587519
684.913951	2516.791017
685.251889	2518.429392
685.589776	2515.069462
685.927614	2518.898219
686.265401	2514.852693
686.603137	2514.950995
686.940824	2517.466531
687.278460	2516.705317
687.616046	2516.165913
687.953582	2519.450225
688.291068	2517.655574
688.628504	2513.186592
688.965889	2515.503002
689.303224	2519.266223
689.640510	2513.715913
689.977745	2519.450225
690.314930	2514.991325
690.652065	2515.134997
690.989150	2514.996366
691.326185	2514.867816
691.663170	2515.898732
692.000105	2514.605676
692.336990	2515.339164
692.673825	2514.129287
693.010610	2518.663805
693.347345	2513.473937
693.684030	2510.154337
694.020665	2513.511746
694.357251	2512.248937
694.693786	2513.209277
695.030272	2516.170955
695.366707	2516.329751
695.703093	2516.012158
696.039429	2514.204905
696.375716	2516.745646
696.711952	2511.752383
697.048139	2514.613238
697.384276	2514.285563
697.720363	2515.359329
698.056400	2513.753721
698.392388	2515.311438
698.728326	2511.081910
699.064214	2514.227590
699.400053	2518.477282
699.735842	2512.674914
700.071581	2513.655419
700.407270	2516.231448
700.742910	2514.588032
701.078501	2515.946623
701.414042	2514.456962
701.749533	2513.831859
702.084974	2516.644823
702.420366	2513.773886
702.755709	2514.701458
703.091002	2510.499657
703.426246	2513.539472
703.761440	2514.479648
704.096584	2513.196674
704.431679	2516.725482
704.766725	2514.235152
705.101721	2511.333967
705.436668	2511.344050
705.771565	2513.743639
706.106413	2514.247754
706.441212	2513.715913
706.775961	2516.468383
707.110661	2516.851510
707.445311	2514.560306
707.779913	2515.533249
708.114465	2518.371418
708.448967	2514.046108
708.783421	2513.383197
709.117825	2517.678260
709.452180	2515.341685
709.786485	2514.656088
710.120742	2516.052488
710.454949	2514.335975
710.789107	2514.101561
711.123216	2510.106447
711.457275	2513.161386
711.791286	2509.390603
712.125247	2513.012672
712.459159	2517.337982
712.793023	2513.552075
713.126837	2518.255472
713.460602	2514.356139
713.794318	2514.353619
714.127985	2514.267919
714.461602	2512.090141
714.795171	2516.909484
715.128691	2512.725326
715.462162	2513.305059
715.795584	2512.173320
716.128957	2518.018538
716.462281	2516.133146
716.795556	2513.146262
717.128782	2514.540141
717.461960	2514.630882
717.795088	2512.478309
718.128167	2512.773217
718.461198	2514.580471
718.794180	2514.280522
719.127113	2512.311951
719.459997	2514.136849
719.792833	2512.942096
720.125619	2511.177692
720.458357	2513.383197
720.791046	2511.732219
721.123686	2512.924452
721.456278	2515.026613
721.788821	2513.300017
722.121315	2511.492764
722.453761	2513.045439
722.786158	2513.927641
723.118506	2512.841272
723.450805	2510.993690
723.783056	2514.099040
724.115259	2515.082065
724.447412	2512.304390
724.779518	2512.511077
725.111574	2512.765655
725.443582	2513.894874
725.775542	2514.830008
726.107453	2512.629544
726.439315	2516.410409
726.771129	2519.845956
727.102895	2513.148783
727.434612	2514.174658
727.766281	2511.747342
728.097901	2512.995028
728.429473	2508.788185
728.760996	2514.330933
729.092471	2507.590911
729.423897	2512.894205
729.755276	2515.626510
730.086606	2513.007631
730.417887	2514.504853
730.749120	2514.744308
731.080305	2513.247085
731.411442	2512.846314
731.742530	2513.967970
732.073570	2514.275481
732.404562	2514.681294
732.735506	2514.635923
733.066401	2513.000069
733.397249	2511.144924
733.728048	2511.689369
734.058798	2516.140708
734.389501	2513.337826
734.720156	2511.283556
735.050762	2514.151972
735.381320	2512.760614
735.711831	2515.019051
736.042293	2513.647857
736.372707	2511.845645
736.703073	2511.167609
737.033391	2514.164575
737.363661	2512.816067
737.693883	2512.276663
738.024056	2516.070132
738.354182	2508.909173
738.684260	2512.606859
739.014290	2510.494615
739.344272	2512.808505
739.674207	2512.274143
740.004093	2517.227076
740.333931	2513.267250
740.663722	2512.115346
740.993464	2513.007631
741.323159	2509.622496
741.652806	2513.731036
741.982405	2513.360511
742.311956	2514.469565
742.641460	2512.811026
742.970915	2512.117867
743.300323	2514.532580
743.629683	2512.483351
743.958996	2513.040398
744.288260	2513.118536
744.617477	2512.286746
744.946647	2509.355315
745.275768	2510.318175
745.604842	2510.227434
745.933869	2509.277177
746.262847	2508.720129
746.591778	2511.802795
746.920662	2511.462517
747.249498	2511.137363
747.578286	2508.347084
747.907027	2513.315141
748.235720	2512.657270
748.564365	2512.984945
748.892963	2512.942096
749.221514	2515.117353
749.550017	2512.357322
749.878473	2513.748680
750.206881	2512.543844
750.535242	2510.366066
750.863555	2515.223218
751.191821	2511.850686
751.520039	2513.733557
751.848210	2512.601818
752.176334	2511.492764
752.504411	2513.960409
752.832440	2512.337157
753.160421	2510.683659
753.488356	2511.558299
753.816243	2514.086438
754.144082	2511.888494
754.471875	2512.160717
754.799620	2511.994359
755.127318	2511.051663
755.454969	2511.283556
755.782572	2511.790192
756.110129	2512.248937
756.437638	2513.282373
756.765100	2511.974194
757.092515	2511.795233
757.419882	2511.646519
757.747203	2511.850686
758.074477	2511.586025
758.401703	2513.380676
758.728882	2510.862620
759.056014	2513.791530
759.383099	2515.293794
759.710138	2513.398320
760.037129	2511.737260
760.364073	2513.294976
760.690970	2513.022754
761.017820	2513.055522
761.344623	2513.912518
761.671379	2511.742301
761.998088	2507.898421
762.324751	2507.288442
762.651366	2507.500170
762.977935	2512.886643
763.304456	2509.897239
763.630931	2513.955368
763.957359	2511.490243
764.283740	2511.669204
764.610074	2513.168948
764.936362	2513.284894
765.262602	2512.826149
765.588796	2510.620644
765.914943	2511.805315
766.241044	2510.487054
766.567097	2512.896725
766.893104	2512.717764
767.219064	2513.148783
767.544978	2511.928824
767.870845	2510.734070
768.196665	2512.407733
768.522438	2509.952691
768.848165	2509.148627
769.173846	2513.136180
769.499479	2514.688855
769.825066	2509.297341
770.150607	2510.139214
770.476101	2508.117711
770.801548	2513.325223
771.126949	2512.319513
771.452303	2513.657939
771.777611	2509.441014
772.102872	2515.026613
772.428087	2510.219873
772.753256	2511.429749
773.078378	2508.873884
773.403453	2512.138032
773.728482	2512.432939
774.053465	2513.010151
774.378401	2510.726508
774.703291	2511.467558
775.028135	2509.493946
775.352932	2512.274143
775.677683	2509.930006
776.002388	2511.207939
776.327046	2511.500326
776.651658	2512.221211
776.976224	2511.283556
777.300743	2511.258350
777.625216	2510.618124
777.949643	2511.563340
778.274024	2513.143742
778.598359	2511.139883
778.922647	2506.590242
779.246889	2512.455624
779.571086	2506.864985
779.895236	2509.221724
780.219339	2511.893536
780.543397	2512.170799
780.867409	2510.418998
781.191374	2512.533762
781.515294	2509.662825
781.839167	2510.512259
782.162995	2511.959071
782.486776	2511.775068
782.810511	2510.449245
783.134201	2514.517456
783.457844	2508.344563
783.781441	2509.710716
784.104993	2513.862106
784.428498	2513.458814
784.751958	2510.625685
785.075372	2510.174502
785.398739	2510.398833
785.722061	2511.772548
786.045337	2509.806498
786.368568	2510.643329
786.691752	2511.901097
787.014891	2509.869512
787.337983	2511.641478
787.661030	2510.154337
787.984031	2510.098885
788.306987	2510.504698
788.629897	2508.127794
788.952760	2513.063083
789.275579	2510.963443
789.598351	2511.512928
789.921078	2508.273987
790.243759	2511.586025
790.566395	2508.641991
790.888984	2507.845489
791.211529	2507.812722
791.534027	2511.807836
791.856480	2509.327588
792.178888	2510.270284
792.501249	2514.356139
792.823566	2510.940758
793.145836	2510.797085
793.468062	2515.543331
793.790241	2510.108967
794.112375	2511.424708
794.434464	2509.647702
794.756507	2510.950840
795.078505	2512.140552
795.400457	2506.035715
795.722364	2507.202742
796.044226	2510.020747
796.366042	2507.671569
796.687812	2507.936230
797.009538	2511.346570
797.331218	2512.533762
797.652852	2509.050325
797.974442	2510.308093
798.295986	2510.083761
798.617484	2509.627537
798.938938	2510.187105
799.260346	2509.841786
799.581709	2512.805984
799.903026	2510.963443
800.224299	2513.148783
800.545526	2508.364728
800.866708	2510.862620
801.187845	2509.498988
801.508936	2513.234483
801.829983	2511.512928
802.150984	2513.257168
802.471940	2512.049811
802.792851	2511.439832
803.113717	2508.707526
803.434538	2511.666684
803.755314	2508.294152
804.076045	2510.393792
804.396731	2512.987466
804.717372	2510.061076
805.037967	2510.963443
805.358518	2507.727022
805.679024	2513.536952
805.999485	2510.222393
806.319901	2510.812208
806.640272	2504.810714
806.960598	2510.000582
807.280879	2509.299862
807.601115	2510.424039
807.921306	2509.415808
808.241453	2510.413957
808.561554	2509.728360
808.881611	2510.494615
809.201623	2512.599297
809.521590	2510.736591
809.841513	2511.233144
810.161390	2511.515449
810.481223	2509.879595
810.801011	2509.264574
811.120755	2508.641991
811.440453	2511.603669
811.760107	2509.423370
812.079716	2508.513442
812.399281	2504.770385
812.718801	2506.045797
813.038276	2507.147289
813.357707	2510.287928
813.677093	2509.688031
813.996434	2509.476302
814.315731	2510.484533
814.634983	2509.251971
814.954191	2510.111488
815.273354	2509.274656
815.592473	2509.572084
815.911547	2512.198525
816.230577	2509.816580
816.549562	2507.777433
816.868502	2507.759789
817.187399	2510.328257
817.506250	2507.222907
817.825058	2511.858248
818.143821	2511.245747
818.462539	2511.054183
818.781213	2508.979749
819.099843	2509.786333
819.418429	2507.981600
819.736970	2511.810357
820.055466	2510.580315
820.373919	2510.522342
820.692327	2510.048473
821.010691	2511.709533
821.329011	2512.188443
821.647286	2515.694566
821.965517	2518.515091
822.283704	2519.775380
822.601847	2516.491068
822.919945	2515.979391
823.237999	2516.254134
823.556010	2514.698938
823.873976	2514.157014
824.191897	2512.604338
824.509775	2511.855727
824.827609	2511.477640
825.145398	2509.420850
825.463144	2513.166427
825.780845	2511.205418
826.098502	2511.298679
826.416116	2513.289935
826.733685	2511.898577
827.051210	2512.140552
827.368692	2511.855727
827.686129	2509.640140
828.003522	2511.402023
828.320872	2503.540344
828.638177	2507.837927
828.955439	2504.117556
829.272656	2507.001096
829.589830	2507.197701
829.906960	2513.428567
830.224046	2509.196518
830.541088	2509.272136
830.858086	2510.950840
831.175041	2509.531755
831.491952	2508.599142
831.808819	2510.209790
832.125642	2510.648371
832.442421	2510.388751
832.759157	2512.077538
833.075849	2510.603000
833.392497	2510.003103
833.709101	2511.399503
834.025662	2511.402023
834.342179	2511.424708
834.658653	2509.476302
834.975083	2510.300531
835.291469	2510.744152
835.607811	2510.577794
835.924110	2509.098216
836.240366	2510.134173
836.556578	2511.472599
836.872746	2512.037208
837.188871	2509.650222
837.504952	2513.274812
837.820990	2507.936230
838.136984	2505.027484
838.452935	2511.021416
838.768842	2507.374141
839.084706	2508.944461
839.400526	2509.098216
839.716303	2508.919255
840.032037	2509.935047
840.347727	2509.277177
840.663373	2509.020078
840.978977	2511.071828
841.294537	2509.415808
841.610054	2508.969666
841.925527	2511.954029
842.240957	2508.306755
842.556344	2508.435304
842.871687	2507.185098
843.186987	2508.226096
843.502244	2508.606703
843.817458	2508.205932
844.132629	2507.222907
844.447756	2507.916065
844.762840	2503.489932
845.077881	2504.500683
845.392879	2506.088647
845.707833	2505.072854
846.022745	2502.968173
846.337613	2507.507732
846.652438	2510.028309
846.967221	2508.894049
847.281960	2509.146107
847.596656	2508.286590
847.911309	2508.742814
848.225919	2508.087464
848.540485	2510.232475
848.855009	2509.773730
849.169490	2507.742145
849.483928	2509.637619
849.798323	2507.046466
850.112675	2508.901611
850.426984	2507.631240
850.741251	2508.430263
851.055474	2509.375479
851.369654	2510.066117
851.683792	2508.460510
851.997887	2508.412619
852.311938	2509.589728
852.625947	2509.970335
852.939914	2506.774244
853.253837	2509.372959
853.567718	2508.765500
853.881555	2510.406395
854.195350	2511.780110
854.509103	2505.113184
854.822812	2505.745848
855.136479	2506.411281
855.450103	2508.563853
855.763685	2505.955056
856.077224	2508.838596
856.390720	2507.172495
856.704173	2508.992352
857.017584	2509.506549
857.330953	2508.730212
857.644278	2508.591580
857.957561	2514.139370
858.270802	2509.753566
858.584000	2507.948833
858.897155	2507.989162
859.210268	2509.619975
859.523339	2509.055366
859.836367	2510.918072
860.149352	2509.022598
860.462295	2509.703154
860.775195	2503.958759
861.088054	2504.619151
861.400869	2506.731394
861.713642	2506.272649
862.026373	2507.217865
862.339062	2507.598473
862.651708	2507.724501
862.964312	2509.700634
863.276873	2509.309944
863.589392	2507.623678
863.901869	2504.457834
864.214303	2508.195849
864.526696	2510.794564
864.839045	2506.174347
865.151353	2508.992352
865.463619	2509.105778
865.775842	2508.089985
866.088023	2509.151148
866.400162	2510.557630
866.712258	2506.350787
867.024313	2508.188287
867.336325	2508.405057
867.648296	2506.338184
867.960224	2505.859274
868.272110	2510.935716
868.583954	2506.370952
868.895755	2511.646519
869.207515	2507.827845
869.519233	2508.558812
869.830909	2506.922958
870.142542	2510.154338
870.454134	2509.118380
870.765684	2508.463030
871.077191	2507.177536
871.388657	2508.881446
871.700081	2508.626868
872.011463	2506.895232
872.322803	2506.063441
872.634101	2509.511590
872.945357	2510.628206
873.256571	2507.938750
873.567744	2508.210973
873.878874	2508.911693
874.189963	2506.996055
874.501010	2505.405571
874.812015	2507.238030
875.122979	2508.659635
875.433900	2507.769872
875.744780	2507.737104
876.055618	2504.906496
876.366415	2508.790705
876.677169	2508.745335
876.987882	2505.642505
877.298554	2505.347597
877.609183	2505.970180
877.919771	2505.385406
878.230317	2506.244923
878.540822	2508.798267
878.851285	2507.953874
879.161707	2509.320027
879.472087	2506.418842
879.782425	2505.955056
880.092722	2507.510252
880.402977	2508.856240
880.713191	2512.750532
881.023363	2513.484020
881.333494	2512.836231
881.643583	2511.734739
881.953631	2511.492764
882.263637	2510.938237
882.573602	2509.864471
882.883526	2508.107629
883.193408	2508.258864
883.503248	2510.282887
883.813048	2508.337002
884.122806	2505.075375
884.432522	2510.608041
884.742197	2508.755417
885.051831	2509.768689
885.361424	2507.238030
885.670975	2508.909172
885.980485	2507.842968
886.289954	2506.895232
886.599382	2509.806498
886.908768	2506.018071
887.218113	2505.829027
887.527417	2508.195849
887.836680	2504.929182
888.145901	2506.877588
888.455082	2505.944974
888.764221	2507.787516
889.073319	2506.101250
889.382376	2507.918586
889.691392	2508.324399
890.000366	2512.745491
890.309300	2507.167454
890.618193	2509.796416
890.927044	2509.680469
891.235855	2507.971518
891.544625	2508.200890
891.853353	2506.668380
892.162041	2505.617299
892.470687	2507.694254
892.779293	2505.156033
893.087858	2506.365910
893.396381	2503.557988
893.704864	2505.730725
894.013306	2500.908861
894.321707	2507.951353
894.630068	2508.558812
894.938387	2509.703154
895.246665	2508.843638
895.554903	2508.331960
895.863100	2506.139058
896.171256	2505.531599
896.479371	2508.415139
896.787446	2506.406240
897.095480	2507.162413
897.403473	2506.819614
897.711425	2506.955725
898.019336	2507.996724
898.327207	2505.047649
898.635038	2510.083761
898.942827	2506.970849
899.250576	2505.017402
899.558284	2506.471775
899.865952	2504.921620
900.173579	2505.057731
900.481165	2507.217865
900.788711	2505.778616
901.096216	2509.009996
901.403681	2508.321878
901.711105	2508.521004
902.018489	2504.591424
902.325832	2509.647702
902.633135	2507.853051
902.940397	2506.249964
903.247619	2507.205262
903.554800	2508.891528
903.861941	2507.951353
904.169041	2510.426560
904.476101	2509.466220
904.783121	2509.004954
905.090100	2511.344050
905.397039	2509.872033
905.703938	2505.229130
906.010796	2506.260046
906.317614	2506.267608
906.624391	2510.018226
906.931129	2508.432783
907.237826	2508.029491
907.544483	2505.816425
907.851099	2509.133504
908.157675	2507.989162
908.464211	2505.791219
908.770707	2500.208141
909.077163	2504.551095
909.383578	2503.767196
909.689954	2505.261898
909.996289	2502.481701
910.302584	2509.098216
910.608839	2504.225941
910.915054	2507.409429
911.221229	2505.846672
911.527363	2508.029491
911.833458	2507.495129
912.139513	2506.827176
912.445527	2507.197701
912.751502	2505.521517
913.057436	2507.046466
913.363331	2508.463030
913.669186	2506.875067
913.975000	2507.800119
914.280775	2507.754748
914.586510	2508.599142
914.892205	2506.955725
915.197859	2507.777433
915.503475	2504.926661
915.809050	2509.935047
916.114585	2506.907834
916.420081	2504.961949
916.725536	2509.221724
917.030952	2508.364728
917.336328	2507.210304
917.641665	2506.771723
917.946961	2504.591424
918.252218	2504.704850
918.557435	2505.710560
918.862612	2506.514624
919.167750	2506.406240
919.472848	2508.389934
919.777906	2504.977073
920.082925	2505.952536
920.387904	2505.219048
920.692843	2507.084275
920.997743	2506.176867
921.302603	2507.863133
921.607423	2507.028822
921.912204	2507.275839
922.216946	2506.398678
922.521647	2505.196363
922.826310	2509.468741
923.130932	2506.738956
923.435516	2504.704850
923.740059	2505.140910
924.044564	2507.162413
924.349028	2508.730212
924.653454	2503.041269
924.957840	2504.369613
925.262186	2502.259891
925.566493	2505.909686
925.870761	2499.164622
926.174989	2507.739625
926.479178	2505.206445
926.783328	2507.369100
927.087438	2505.639984
927.391509	2505.544202
927.695541	2506.428925
927.999533	2504.311640
928.303486	2508.730212
928.607400	2501.617143
928.911275	2506.287773
929.215110	2507.316168
929.518906	2507.258195
929.822663	2507.059069
930.126381	2505.622340
930.430060	2507.250633
930.733699	2506.567557
931.037299	2504.997237
931.340861	2507.235509
931.644383	2504.359531
931.947866	2507.114522
932.251309	2505.534120
932.554714	2504.881291
932.858080	2506.955725
933.161407	2503.288286
933.464694	2506.020591
933.767943	2508.203411
934.071153	2507.495129
934.374323	2507.416991
934.677455	2506.378513
934.980548	2506.199552
935.283602	2505.667711
935.586617	2507.747187
935.889593	2504.548574
936.192530	2505.831548
936.495428	2506.048318
936.798287	2505.680313
937.101108	2506.610406
937.403890	2505.294665
937.706632	2505.261898
938.009336	2506.159223
938.312002	2504.586383
938.614628	2504.440190
938.917216	2508.253822
939.219765	2503.081599
939.522275	2507.759789
939.824747	2506.686024
940.127179	2504.420025
940.429573	2500.243429
940.731929	2504.457834
941.034246	2502.060765
941.336524	2506.738956
941.638763	2505.408091
941.940964	2507.636281
942.243126	2505.198883
942.545250	2507.200221
942.847335	2507.250633
943.149381	2503.336177
943.451389	2506.202073
943.753359	2502.809376
944.055290	2505.682834
944.357182	2506.098729
944.659036	2506.771723
944.960851	2507.477485
945.262628	2507.696775
945.564367	2504.377175
945.866067	2505.823986
946.167729	2505.607217
946.469352	2506.204593
946.770937	2508.279028
947.072484	2504.425066
947.373992	2504.878770
947.675462	2505.821466
947.976893	2504.997237
948.278286	2504.987155
948.579641	2504.082268
948.880958	2505.183760
949.182236	2505.042608
949.483476	2505.677793
949.784678	2502.683348
950.085841	2505.251815
950.386967	2505.816425
950.688054	2506.383554
950.989103	2505.118225
951.290114	2506.174347
951.591087	2504.107473
951.892021	2504.147803
952.192917	2508.110150
952.493776	2505.781137
952.794596	2505.476147
953.095378	2504.573780
953.396122	2503.300889
953.696828	2506.076044
953.997496	2505.322392
954.298126	2503.051352
954.598718	2505.682834
954.899272	2504.170488
955.199788	2506.199552
955.500266	2504.898935
955.800706	2504.162926
956.101108	2499.255363
956.401472	2502.232164
956.701798	2501.987668
957.002087	2501.407936
957.302337	2503.442041
957.602550	2503.454644
957.902724	2504.430107
958.202861	2502.925323
958.502960	2505.783657
958.803022	2505.629902
959.103045	2504.601507
959.403031	2507.437156
959.702979	2504.382216
960.002889	2503.628564
960.302762	2507.469923
960.602596	2504.780467
960.902393	2505.279542
961.202153	2504.243585
961.501875	2503.162257
961.801559	2502.960611
962.101205	2504.800632
962.400814	2505.501352
962.700385	2503.721825
962.999918	2503.200066
963.299414	2507.608555
963.598873	2507.459841
963.898293	2503.547905
964.197677	2505.685355
964.497022	2506.116373
964.796331	2505.299706
965.095601	2506.375993
965.394835	2504.914058
965.694030	2501.962463
965.993189	2505.256857
966.292309	2504.210817
966.591393	2502.398522
966.890439	2504.014212
967.189447	2506.648215
967.488419	2503.343739
967.787353	2505.836589
968.086249	2503.310971
968.385108	2504.339367
968.683930	2504.488081
968.982714	2506.023112
969.281462	2504.334325
969.580172	2503.429438
969.878844	2507.510252
970.177480	2501.967504
970.476078	2503.658811
970.774639	2505.355159
971.073162	2503.585714
971.371649	2501.740652
971.670098	2498.824344
971.968510	2500.656804
972.266885	2498.673110
972.565223	2503.925992
972.863524	2501.206289
973.161788	2506.151661
973.460014	2500.656804
973.758204	2504.049500
974.056356	2503.767196
974.354471	2506.348266
974.652550	2503.704181
974.950591	2503.615961
975.248595	2504.765344
975.546563	2506.280211
975.844493	2506.890190
976.142386	2505.337515
976.440243	2503.668893
976.738062	2503.121928
977.035845	2501.927174
977.333590	2504.382216
977.631299	2502.761485
977.928971	2504.513286
978.226606	2504.513286
978.524204	2506.033194
978.821765	2502.678306
979.119290	2505.796260
979.416777	2504.520848
979.714228	2504.730056
980.011642	2503.051352
980.309020	2504.843482
980.606360	2504.213338
980.903664	2506.028153
981.200931	2503.681496
981.498162	2503.336177
981.795356	2501.541526
982.092513	2506.280211
982.389633	2504.059583
982.686717	2508.273987
982.983764	2503.689058
983.280775	2504.321722
983.577749	2502.794253
983.874686	2502.476660
984.171587	2504.190652
984.468451	2506.431445
984.765279	2503.129490
985.062070	2503.084119
985.358824	2503.542864
985.655543	2507.149810
985.952224	2502.857267
986.248869	2502.781650
986.545478	2497.425424
986.842050	2502.418687
987.138586	2500.026659
987.435086	2500.808038
987.731549	2498.816782
988.027975	2503.840292
988.324366	2501.193687
988.620719	2506.842299
988.917037	2503.787360
989.213318	2503.994047
989.509563	2504.863647
989.805772	2505.448420
990.101944	2504.137720
990.398080	2503.716784
990.694180	2502.494304
990.990244	2507.114522
991.286271	2504.951867
991.582262	2504.538492
991.878217	2506.073523
992.174136	2505.259377
992.470019	2506.335663
992.765865	2504.772906
993.061676	2503.653770
993.357450	2502.942967
993.653188	2506.136538
993.948890	2504.122597
994.244556	2506.050838
994.540186	2504.336846
994.835780	2503.621002
995.131337	2505.256857
995.426859	2502.098574
995.722345	2503.570591
996.017795	2502.859788
996.313208	2503.595796
996.608586	2503.293327
996.903928	2506.504542
997.199234	2502.786691
997.494504	2507.623678
997.789738	2503.794922
998.084936	2503.197545
998.380099	2504.079747
998.675225	2502.685868
998.970316	2504.966990
999.265371	2503.885663
999.560390	2504.029336
999.855373	2504.732577
1000.150320	2502.164109
1000.445232	2505.140910
1000.740108	2502.098574
1001.034948	2503.084119
1001.329752	2502.738800
1001.624521	2505.566888
1001.919254	2499.918275
1002.213951	2501.002123
1002.508613	2501.901969
1002.803239	2501.269304
1003.097829	2496.001298
1003.392384	2505.150992
1003.686903	2502.275014
1003.981386	2504.001609
1004.275834	2501.060096
1004.570246	2502.582524
1004.864623	2503.966321
1005.158964	2503.920951
1005.453270	2502.242247
1005.747540	2504.730056
1006.041775	2501.251660
1006.335974	2503.857936
1006.630138	2502.779129
1006.924266	2505.390447
1007.218359	2502.285096
1007.512416	2502.421207
1007.806438	2504.241064
1008.100425	2503.769716
1008.394376	2504.979593
1008.688292	2503.132010
1008.982172	2501.153357
1009.276017	2499.872904
1009.569827	2505.750890
1009.863602	2505.985303
1010.157341	2501.629746
1010.451045	2502.539675
1010.744714	2502.784171
1011.038347	2504.314161
1011.331945	2501.435662
1011.625508	2505.138389
1011.919036	2504.094871
1012.212528	2501.745693
1012.505986	2504.019253
1012.799408	2502.683347
1013.092795	2503.941115
1013.386147	2503.583193
1013.679464	2502.665703
1013.972745	2502.806856
1014.265992	2503.865498
1014.559204	2503.862978
1014.852380	2501.297030
1015.145521	2503.361383
1015.438628	2500.976917
1015.731699	2504.631753
1016.024736	2502.058244
1016.317737	2502.950529
1016.610703	2504.125117
1016.903635	2501.949860
1017.196531	2498.421052
1017.489393	2499.724190
1017.782219	2499.388953
1018.075011	2504.334325
1018.367768	2504.372134
1018.660490	2503.404232
1018.953177	2503.404232
1019.245829	2503.404232
