Dividing Wavelength (nm)	Counts (n)	Blue Motor Position (mm): 0.000000	Red Motor Position (mm): 33.500000	
326.493990	2125.816768
326.888308	2125.816768
327.282561	2125.816768
327.676750	2095.340473
328.070874	2092.106573
328.464933	2099.950608
328.858929	2104.008737
329.252859	2111.865375
329.646726	2122.953393
330.040528	2136.904786
330.434265	2153.580923
330.827938	2170.287307
331.221547	2188.417817
331.615091	2208.605117
332.008571	2227.181769
332.401986	2247.875706
332.795338	2266.114600
333.188625	2285.555810
333.581847	2300.729683
333.975006	2322.938487
334.368100	2342.777948
334.761129	2357.412417
335.154095	2372.571167
335.546996	2394.593447
335.939833	2410.747825
336.332606	2427.111410
336.725315	2440.931733
337.117960	2450.325924
337.510540	2456.047633
337.903056	2470.646815
338.295508	2476.174440
338.687896	2486.113075
339.080220	2493.223622
339.472480	2498.146309
339.864676	2502.748882
340.256807	2507.137207
340.648875	2513.368073
341.040879	2514.540141
341.432818	2514.920748
341.824694	2517.796727
342.216506	2519.914011
342.608253	2521.040709
342.999937	2517.330420
343.391557	2517.113650
343.783113	2516.365039
344.174605	2516.899401
344.566033	2514.426715
344.957397	2511.104595
345.348697	2509.562002
345.739934	2509.617455
346.131106	2508.357166
346.522215	2508.924296
346.913260	2503.348780
347.304241	2504.193173
347.695159	2498.872235
348.086012	2495.832419
348.476802	2496.928870
348.867528	2495.507265
349.258191	2495.398880
349.648789	2494.413335
350.039324	2490.763539
350.429796	2494.385608
350.820203	2489.694815
351.210548	2490.410658
351.600828	2486.929742
351.991045	2488.845380
352.381198	2488.149701
352.771288	2486.702890
353.161314	2487.517036
353.551276	2485.533342
353.941175	2487.716162
354.331010	2487.113744
354.720782	2487.809423
355.110490	2485.669453
355.500135	2488.285812
355.889717	2486.745740
356.279235	2487.582571
356.668689	2488.621049
357.058080	2486.644917
357.447408	2485.664412
357.836672	2484.562920
358.225873	2484.809937
358.615010	2485.419916
359.004084	2489.725062
359.393095	2489.941831
359.782043	2491.222284
360.170927	2490.869403
360.559748	2492.772439
360.948505	2493.009373
361.337199	2493.722697
361.725830	2494.672954
362.114398	2495.850063
362.502903	2497.553973
362.891344	2496.076915
363.279722	2493.876452
363.668037	2498.189159
364.056289	2497.833757
364.444478	2500.694612
364.832603	2497.929539
365.220665	2501.367606
365.608665	2499.656135
365.996601	2503.510097
366.384474	2504.062103
366.772284	2503.552947
367.160031	2502.592607
367.547715	2508.473113
367.935336	2507.752228
368.322893	2515.026613
368.710388	2513.005110
369.097820	2522.918539
369.485189	2525.716379
369.872495	2530.618902
370.259738	2537.913451
370.646918	2544.918134
371.034035	2553.006666
371.421090	2564.689540
371.808081	2571.611044
372.195010	2581.368197
372.581875	2597.699015
372.968678	2610.150665
373.355418	2619.910339
373.742096	2636.553708
374.128710	2653.870072
374.515262	2665.278203
374.901751	2685.742767
375.288177	2695.721731
375.674540	2718.296018
376.060841	2737.971642
376.447079	2756.669281
376.833254	2775.424894
377.219367	2788.418468
377.605417	2825.922132
377.991404	2836.316991
378.377329	2857.441947
378.763191	2873.586242
379.148991	2912.067890
379.534727	2936.945984
379.920402	2967.205510
380.306013	2980.224290
380.691563	3026.305477
381.077049	3050.492933
381.462474	3065.999522
381.847835	3104.702981
382.233134	3130.075108
382.618371	3127.236939
383.003545	3195.423586
383.388657	3203.403732
383.773706	3236.703074
384.158693	3254.458018
384.543618	3283.805095
384.928480	3313.873057
385.313280	3359.321579
385.698017	3359.228318
386.082692	3410.942995
386.467305	3418.305600
386.851856	3450.291721
387.236344	3472.009012
387.620770	3503.997654
388.005133	3530.990512
388.389435	3555.198133
388.773674	3569.837643
389.157851	3612.505970
389.541965	3626.623721
389.926018	3594.171293
390.310008	3664.024041
390.693936	3679.510466
391.077802	3721.473031
391.461606	3706.780588
391.845348	3775.189045
392.229027	3775.095784
392.612645	3788.011220
392.996200	3866.202037
393.379694	3905.281062
393.763125	3969.165084
394.146494	3937.652831
394.529801	3999.588447
394.913047	4044.656362
395.296230	4012.818955
395.679351	4066.645876
396.062410	4091.629834
396.445408	4069.904982
396.828343	4107.305302
397.211217	4131.666678
397.594028	4048.913617
397.976778	4114.577166
398.359466	4144.181342
398.742092	4171.643028
399.124656	4093.079166
399.507158	4175.131506
399.889598	4200.932132
400.271977	4263.366822
400.654294	4230.632090
401.036549	4240.530395
401.418742	4211.647104
401.800874	4312.432373
402.182944	4333.048171
402.564952	4398.847832
402.946898	4385.045152
403.328783	4382.965677
403.710606	4295.867141
404.092367	4488.935772
404.474067	4448.233495
404.855705	4458.855207
405.237282	4387.958939
405.618797	4498.377853
406.000250	4533.842370
406.381642	4612.779277
406.762972	4574.133792
407.144240	4585.940174
407.525447	4584.750462
407.906593	4647.291017
408.287677	4689.140155
408.668700	4615.108291
409.049661	4666.351619
409.430560	4707.605902
409.811399	4639.325994
410.192176	4799.564110
410.572891	4737.699070
410.953545	4838.819575
411.334138	4723.087285
411.714669	4785.738745
412.095139	4680.509700
412.475547	4822.703006
412.855894	4808.428979
413.236180	4813.699505
413.616405	4768.097227
413.996568	4849.050597
414.376670	4793.290394
414.756711	4748.570318
415.136691	4786.068941
415.516609	4860.385631
415.896466	4897.153287
416.276262	4930.676960
416.655997	4911.754989
417.035670	5094.408595
417.415283	5186.787740
417.794834	5130.190705
418.174324	5082.894600
418.553753	4994.649202
418.933121	5176.022356
419.312428	5243.732613
419.691674	5186.447462
420.070859	5309.083611
420.449983	5221.256629
420.829045	5335.877344
421.208047	5246.485083
421.586988	5319.382689
421.965867	5323.690355
422.344686	5458.566426
422.723444	5312.935053
423.102141	5134.362260
423.480777	5430.111633
423.859352	5196.983473
424.237866	5460.860151
424.616319	5450.745076
424.994712	5560.085182
425.373044	5439.586482
425.751314	5582.160395
426.129524	5382.099684
426.507673	5576.988171
426.885762	5662.163506
427.263789	5590.662301
427.641756	5474.143591
428.019662	5596.106747
428.397508	5603.237459
428.775292	5551.759716
429.153016	5646.152802
429.530679	5573.653447
429.908282	5655.423483
430.285824	5530.571747
430.663305	5802.766328
431.040726	5541.478283
431.418086	5539.020721
431.795385	5644.053161
432.172624	5660.938506
432.549802	5651.206558
432.926920	5667.532335
433.303977	5668.089382
433.680974	5710.825764
434.057910	5728.709258
434.434786	5733.316872
434.811601	5699.982242
435.188355	5935.091575
435.565050	5810.282688
435.941683	5794.806346
436.318257	6004.425085
436.694770	5994.851934
437.071222	6030.129928
437.447614	5958.611079
437.823946	5868.197984
438.200218	6020.728176
438.576429	5887.117435
438.952580	5986.881869
439.328670	6027.818559
439.704700	5942.844870
440.080670	5925.435245
440.456580	6200.447832
440.832429	6084.118165
441.208218	5929.246358
441.583947	6080.118010
441.959616	6086.273259
442.335224	6013.272310
442.710773	6149.950593
443.086261	6171.693090
443.461689	5971.828984
443.837057	6124.187777
444.212365	6279.835922
444.587612	6166.745197
444.962800	6318.468805
445.337927	6298.374766
445.712995	5914.014511
446.088002	6489.754610
446.462949	6316.096942
446.837837	6248.656386
447.212664	6423.191214
447.587431	6565.787812
447.962139	7111.280988
448.336786	8038.926392
448.711374	7777.955940
449.085901	6848.594023
449.460369	6768.600993
449.834776	6705.941972
450.209124	7095.587876
450.583412	7247.203098
450.957640	7391.559059
451.331808	7155.930487
451.705917	6713.541511
452.079965	6635.839686
452.453954	6847.782397
452.827883	6719.021245
453.201752	6816.633107
453.575562	6612.468897
453.949311	6819.740979
454.323001	6707.061108
454.696632	6777.944772
455.070202	6918.862666
455.443713	7078.057263
455.817164	7176.276584
456.190556	7259.042248
456.563888	7327.725449
456.937160	7372.337140
457.310373	7033.445572
457.683526	7055.049437
458.056619	6946.626821
458.429653	6934.482681
458.802628	6868.068000
459.175542	6973.992725
459.548398	7337.863209
459.921194	7500.122828
460.293930	7501.030236
460.666607	8029.915330
461.039224	8336.828338
461.411782	8466.655693
461.784280	8484.133374
462.156719	8375.904842
462.529099	8247.153772
462.901419	7844.342895
463.273680	7739.131494
463.645882	7745.684994
464.018024	7615.842515
464.390106	7778.608769
464.762130	8168.872215
465.134094	8631.922360
465.505999	9662.732458
465.877845	10884.037677
466.249631	11534.921214
466.621358	11147.125413
466.993026	10518.599393
467.364634	10261.079611
467.736184	9894.426409
468.107674	9562.942817
468.479105	9593.678732
468.850477	9360.437147
469.221790	9133.733938
469.593043	8798.701374
469.964238	8668.228750
470.335373	8677.164196
470.706449	8729.393070
471.077467	8714.302376
471.448425	10027.752325
471.819324	11100.761922
472.190164	11125.332505
472.560945	9875.640549
472.931667	9089.787679
473.302330	8945.214948
473.672934	8597.534129
474.043479	8948.330382
474.413965	8891.667812
474.784393	8774.788660
475.154761	8931.119882
475.525070	9015.854117
475.895321	8848.754990
476.265513	9018.835959
476.635645	9186.340899
477.005719	9189.509264
477.375734	9304.084608
477.745691	9538.818376
478.115588	9674.773254
478.485427	9913.754193
478.855207	10460.295928
479.224928	11273.882706
479.594591	11899.358829
479.964194	11708.165507
480.333739	11648.289203
480.703226	11567.063611
481.072653	11658.074082
481.442022	11900.546020
481.811333	12085.100142
482.180584	11886.367775
482.549777	11600.809095
482.918912	11418.412587
483.287988	11445.748244
483.657005	11453.599841
484.025964	11139.495627
484.394864	11265.607652
484.763706	11232.230173
485.132489	10988.946609
485.501213	10955.359921
485.869879	11030.331961
486.238487	10875.303878
486.607036	10980.437141
486.975527	10757.151834
487.343959	10943.417428
487.712333	10989.917031
488.080648	10918.960270
488.448905	10958.944182
488.817104	10891.632175
489.185244	11154.810652
489.553326	11311.993829
489.921350	11846.346055
490.289315	12898.654153
490.657222	13239.098395
491.025070	13138.003096
491.392861	13007.762366
491.760593	12625.547122
492.128267	12276.243052
492.495883	11954.113321
492.863440	11608.877462
493.230939	11271.001687
493.598380	11201.398476
493.965763	11057.241640
494.333088	10961.308483
494.700354	10873.166428
495.067563	10928.561147
495.434713	10747.112376
495.801805	10869.390604
496.168839	10785.268870
496.535815	10709.432272
496.902733	10706.183248
497.269593	10631.304470
497.636395	10724.734694
498.003139	10697.071363
498.369825	10555.750176
498.736453	10702.644358
499.103023	10618.754517
499.469535	10636.529626
499.835989	10617.342994
500.202385	10556.140866
500.568723	10409.072764
500.935003	10608.669689
501.301226	10398.806454
501.667390	10645.424742
502.033497	10721.921731
502.399546	10570.160315
502.765537	10459.781731
503.131470	10520.232727
503.497345	10666.645479
503.863163	10273.780798
504.228923	10560.413244
504.594625	10597.843811
504.960269	10339.945942
505.325856	10527.338233
505.691385	10313.013578
506.056856	10440.821951
506.422270	10432.569582
506.787625	10311.080295
507.152924	10391.337985
507.518164	10354.787099
507.883347	10247.390357
508.248472	10140.404470
508.613540	10338.806641
508.978550	10193.780207
509.343503	10150.020471
509.708398	10231.084745
510.073236	10306.581065
510.438016	10277.969997
510.802738	10193.200474
511.167403	10205.873935
511.532010	10071.305374
511.896561	10252.968394
512.261053	10275.996385
512.625488	10123.095668
512.989866	10069.966948
513.354186	10021.390389
513.718449	9892.846007
514.082655	10019.492395
514.446803	9892.881295
514.810894	9954.713568
515.174927	9792.269947
515.538904	9776.523903
515.902822	9848.725829
516.266684	9719.909225
516.630488	9616.318554
516.994235	9620.832907
517.357925	9613.316547
517.721558	9643.986927
518.085133	9603.216595
518.448651	9569.077902
518.812112	9419.864789
519.175516	9380.024550
519.538863	9420.215149
519.902152	9304.568559
520.265385	9361.432775
520.628560	9254.673739
520.991678	9175.683899
521.354739	9169.321963
521.717743	9065.748937
522.080690	8994.232608
522.443580	9020.882668
522.806413	8928.959748
523.169189	8898.974965
523.531908	8880.685659
523.894569	8696.103811
524.257174	8631.085529
524.619722	8645.904001
524.982213	8568.053462
525.344647	8528.692133
525.707025	8441.293648
526.069345	8437.613606
526.431608	8311.166344
526.793815	8319.166655
527.155964	8121.439998
527.518057	8103.087678
527.880093	8007.817432
528.242072	7986.251376
528.603995	7859.723455
528.965860	7752.984584
529.327669	7718.271199
529.689421	7627.671582
530.051117	7552.167700
530.412755	7535.685648
530.774337	7427.714215
531.135862	7340.111564
531.497331	7301.387941
531.858743	7149.813047
532.220098	7183.157759
532.581396	7052.049951
532.942638	6984.090156
533.303824	6906.216932
533.664953	6844.389700
534.026025	6745.890595
534.387040	6726.996351
534.747999	6672.884605
535.108902	6634.019830
535.469748	6468.390200
535.830537	6454.746317
536.191270	6385.962293
536.551947	6334.146793
536.912567	6268.773110
537.273131	6194.204363
537.633638	6120.986644
537.994089	6052.351334
538.354483	5979.650334
538.714821	5984.026056
539.075103	5929.445483
539.435328	5855.259863
539.795497	5742.249797
540.155609	5738.121092
540.515665	5723.506787
540.875665	5568.019958
541.235609	5531.708527
541.595496	5485.798739
541.955328	5476.291123
542.315102	5389.242999
542.674821	5323.579449
543.034483	5272.701604
543.394090	5221.980035
543.753640	5142.236543
544.113134	5164.009286
544.472571	5072.396397
544.831953	5060.032967
545.191278	4952.427018
545.550548	4916.707922
545.909761	4901.685284
546.268918	4852.521431
546.628019	4827.386238
546.987064	4739.397939
547.346053	4682.778219
547.704986	4655.503056
548.063863	4608.811889
548.422684	4566.929983
548.781449	4501.077391
549.140158	4487.345287
549.498811	4412.509359
549.857408	4349.104246
550.215949	4341.051003
550.574434	4273.839819
550.932864	4250.688320
551.291237	4230.811051
551.649555	4174.839119
552.007817	4143.657062
552.366022	4105.004015
552.724173	4067.674271
553.082267	4034.828633
553.440305	4008.763347
553.798288	3951.387455
554.156215	3934.333231
554.514086	3897.520205
554.871902	3848.575642
555.229661	3820.279646
555.587365	3785.659522
555.945014	3740.994899
556.302606	3723.187023
556.660143	3684.276877
557.017625	3667.005884
557.375050	3629.731592
557.732421	3615.054273
558.089735	3578.483222
558.446994	3551.722257
558.804197	3530.554452
559.161345	3500.602437
559.518437	3464.928711
559.875474	3444.295269
560.232455	3424.763318
560.589381	3398.181314
560.946251	3368.851881
561.303065	3362.444574
561.659825	3328.459636
562.016528	3300.821510
562.373177	3271.154319
562.729770	3255.740991
563.086307	3233.005387
563.442789	3222.943244
563.799216	3192.247659
564.155587	3176.869619
564.511904	3152.173006
564.868164	3135.920326
565.224370	3124.126547
565.580520	3097.529419
565.936615	3085.861668
566.292654	3056.565003
566.648638	3052.912687
567.004567	3037.375851
567.360441	3020.140146
567.716260	2999.436127
568.072023	2993.835405
568.427732	2971.208186
568.783385	2958.786783
569.138982	2946.745987
569.494525	2939.756427
569.850013	2919.957295
570.205445	2915.510998
570.560823	2901.904923
570.916145	2887.449415
571.271412	2880.870709
571.626625	2866.919316
571.981782	2855.473376
572.336884	2846.303517
572.691931	2839.220696
573.046923	2827.913388
573.401860	2818.753611
573.756743	2807.080820
574.111570	2801.091929
574.466342	2793.537760
574.821059	2788.746143
575.175722	2778.857920
575.530330	2773.037908
575.884882	2765.007350
576.239380	2758.264806
576.593823	2755.028386
576.948211	2747.207035
577.302544	2737.911148
577.656823	2729.505024
578.011047	2729.981413
578.365216	2721.035885
578.719330	2716.216542
579.073389	2713.050697
579.427394	2709.973073
579.781344	2702.733976
580.135239	2698.181814
580.489080	2695.749457
580.842866	2689.692511
581.196597	2688.497758
581.550273	2686.887109
581.903895	2682.859227
582.257463	2683.370904
582.610975	2673.742300
582.964434	2675.473937
583.317837	2672.025787
583.671186	2669.326250
584.024481	2668.807011
584.377721	2663.869201
584.730906	2661.759478
585.084037	2660.511792
585.437113	2655.614311
585.790135	2657.192192
586.143103	2652.682880
586.496016	2650.220277
586.848874	2647.132570
587.201679	2645.418577
587.554428	2642.217445
587.907124	2642.030922
588.259765	2639.041518
588.612352	2642.164513
588.964884	2638.005561
589.317362	2638.076137
589.669786	2634.312916
590.022155	2635.903400
590.374470	2634.186887
590.726731	2635.389202
591.078937	2633.264356
591.431090	2632.193110
591.783188	2630.597585
592.135232	2629.596916
592.487222	2626.032820
592.839157	2623.862604
593.191038	2621.634414
593.542866	2623.562655
593.894639	2622.927470
594.246358	2623.209774
594.598022	2622.440998
594.949633	2621.364712
595.301190	2616.416819
595.652692	2617.750205
596.004141	2619.338168
596.355535	2620.631224
596.706876	2616.512601
597.058162	2613.760131
597.409395	2614.788527
597.760573	2613.329113
598.111698	2611.758793
598.462768	2614.294494
598.813785	2609.616303
599.164748	2611.239554
599.515657	2613.271139
599.866511	2609.782661
600.217312	2609.613782
600.568060	2610.168309
600.918753	2611.279884
601.269392	2605.656477
601.619978	2606.904162
601.970510	2607.826693
602.320988	2608.386261
602.671412	2607.249481
603.021783	2605.427104
603.372100	2608.310644
603.722363	2604.849892
604.072572	2606.458020
604.422728	2604.907865
604.772830	2601.404263
605.122878	2599.667586
605.472872	2601.419387
605.822813	2601.164808
606.172701	2603.841661
606.522534	2600.355703
606.872314	2604.199583
607.222041	2603.297217
607.571714	2604.330653
607.921333	2602.785539
608.270899	2606.369800
608.620411	2604.547423
608.969870	2603.428287
609.319276	2604.166816
609.668627	2607.073041
610.017926	2607.020109
610.367171	2611.325254
610.716362	2608.817280
611.065500	2605.711929
611.414585	2602.793101
611.763616	2605.694285
612.112594	2604.421394
612.461518	2601.308481
612.810389	2604.446600
613.159207	2602.283945
613.507971	2602.583893
613.856682	2602.596496
614.205340	2600.867380
614.553945	2601.855447
614.902496	2602.309150
615.250994	2600.910230
615.599439	2600.784201
615.947830	2599.518872
616.296169	2599.007195
616.644454	2599.523913
616.992686	2600.459047
617.340864	2601.190014
617.688990	2599.165991
618.037063	2601.931064
618.385082	2600.953080
618.733048	2602.059613
619.080961	2600.340580
619.428821	2601.863008
619.776628	2600.524582
620.124382	2602.689757
620.472083	2602.331836
620.819731	2599.445775
621.167326	2598.876125
621.514868	2600.353183
621.862357	2596.859663
622.209793	2600.426279
622.557176	2596.143819
622.904506	2595.949735
623.251783	2593.308170
623.599007	2597.220106
623.946179	2591.886565
624.293297	2592.589806
624.640363	2591.095104
624.987376	2594.747420
625.334336	2592.660382
625.681243	2593.179621
626.028097	2594.429827
626.374899	2593.003180
626.721647	2591.120309
627.068343	2595.022162
627.414987	2591.316914
627.761577	2592.085690
628.108115	2590.971595
628.454600	2591.742892
628.801032	2590.006214
629.147412	2590.081832
629.493739	2588.158632
629.840014	2589.895309
630.186236	2591.173242
630.532405	2588.322469
630.878521	2590.865731
631.224585	2589.875144
631.570597	2586.792479
631.916556	2589.229877
632.262462	2587.720051
632.608316	2583.790472
632.954117	2588.032603
633.299866	2588.559403
633.645562	2588.819023
633.991206	2586.858014
634.336797	2584.022365
634.682336	2586.190061
635.027823	2586.885740
635.373257	2582.898188
635.718639	2583.568661
636.063968	2583.780389
636.409245	2582.409196
636.754470	2583.664443
637.099642	2583.248548
637.444762	2584.453383
637.789829	2579.243351
638.134845	2576.717733
638.479808	2582.363825
638.824719	2579.742425
639.169577	2582.520101
639.514383	2581.446335
639.859137	2581.441294
640.203839	2581.174113
640.548489	2581.431212
640.893086	2576.001889
641.237632	2576.223700
641.582125	2575.233113
641.926566	2574.492063
642.270955	2581.441294
642.615292	2577.791499
642.959576	2579.346695
643.303809	2576.937023
643.647990	2580.687642
643.992118	2578.398958
644.336195	2579.538258
644.680219	2579.500450
645.024192	2577.352918
645.368112	2581.161510
645.711981	2579.782754
646.055797	2578.068762
646.399562	2579.901222
646.743274	2578.237641
647.086935	2582.260482
647.430544	2579.392065
647.774101	2584.171079
648.117606	2579.860892
648.461059	2583.571182
648.804460	2582.764597
649.147810	2581.234607
649.491108	2579.324009
649.834354	2581.741243
650.177548	2581.416088
650.520690	2580.793506
650.863781	2578.996334
651.206820	2579.712178
651.549807	2579.931468
651.892742	2578.343505
652.235626	2575.951477
652.578458	2575.190263
652.921238	2572.460478
653.263967	2576.085068
653.606644	2577.713361
653.949269	2575.399471
654.291843	2575.689338
654.634365	2576.692527
654.976836	2574.618092
655.319255	2576.790830
655.661622	2575.994327
656.003938	2573.332598
656.346203	2574.240006
656.688416	2576.566498
657.030577	2575.608679
657.372687	2574.290417
657.714746	2573.110787
658.056753	2574.539954
658.398708	2567.174829
658.740612	2572.031980
659.082465	2568.412432
659.424266	2572.841086
659.766016	2567.600806
660.107715	2574.227403
660.449362	2572.571384
660.790958	2571.434604
661.132503	2575.195304
661.473996	2575.696899
661.815438	2572.704974
662.156829	2576.753021
662.498168	2574.739080
662.839456	2573.864440
663.180693	2573.304872
663.521879	2570.680951
663.863013	2574.325705
664.204097	2573.234296
664.545129	2575.018864
664.886110	2575.515418
665.227040	2576.596745
665.567918	2573.262022
665.908746	2576.813515
666.249522	2572.006775
666.590248	2573.481312
666.930922	2575.626323
667.271545	2573.292269
667.612118	2575.613720
667.952639	2576.107753
668.293109	2574.091292
668.633528	2574.502146
668.973896	2572.863771
669.314213	2574.784450
669.654480	2573.786302
669.994695	2574.824780
670.334859	2572.727660
670.674973	2574.129100
671.015035	2575.510377
671.355047	2573.239337
671.695008	2572.641960
672.034918	2575.386868
672.374777	2574.083730
672.714585	2574.728998
673.054342	2574.348391
673.394049	2572.936868
673.733705	2574.343349
674.073310	2574.797053
674.412864	2577.252095
674.752368	2573.398133
675.091820	2575.706982
675.431223	2574.842424
675.770574	2570.280179
676.109875	2565.959911
676.449125	2567.734397
676.788324	2568.193142
677.127473	2570.408729
677.466571	2566.446382
677.805619	2572.329408
678.144616	2569.435786
678.483562	2568.951835
678.822458	2569.282031
679.161303	2572.319326
679.500098	2569.750858
679.838842	2567.537792
680.177535	2570.464182
680.516179	2571.129614
680.854771	2571.232958
681.193314	2573.057855
681.531805	2574.502146
681.870247	2575.868298
682.208638	2575.775037
682.546978	2577.030284
682.885268	2577.799060
683.223508	2574.882753
683.561697	2572.049624
683.899836	2573.619944
684.237925	2571.195149
684.575963	2573.637588
684.913951	2572.508369
685.251889	2577.262177
685.589776	2572.344532
685.927614	2569.879408
686.265401	2571.686661
686.603137	2574.270253
686.940824	2573.839234
687.278460	2574.436611
687.616046	2575.132290
687.953582	2573.798905
688.291068	2572.551219
688.628504	2574.933164
688.965889	2573.403174
689.303224	2573.950139
689.640510	2574.451734
689.977745	2573.314954
690.314930	2572.888977
690.652065	2571.916034
690.989150	2572.062227
691.326185	2570.675910
691.663170	2567.200034
692.000105	2569.531568
692.336990	2568.888821
692.673825	2568.803121
693.010610	2567.774726
693.347345	2565.042421
693.684030	2563.860270
694.020665	2561.274158
694.357251	2558.322563
694.693786	2562.925136
695.030272	2563.855229
695.366707	2567.631053
695.703093	2562.967986
696.039429	2565.465878
696.375716	2564.250959
696.711952	2561.180897
697.048139	2562.542008
697.384276	2562.647872
697.720363	2561.558983
698.056400	2562.317677
698.392388	2561.317008
698.728326	2563.744323
699.064214	2563.540157
699.400053	2562.710887
699.735842	2560.686864
700.071581	2559.600495
700.407270	2560.117213
700.742910	2560.079405
701.078501	2559.532439
701.414042	2559.935732
701.749533	2558.652758
702.084974	2560.202913
702.420366	2558.693087
702.755709	2561.019580
703.091002	2558.781308
703.426246	2559.371122
703.761440	2560.404559
704.096584	2559.144271
704.431679	2558.556976
704.766725	2560.770043
705.101721	2558.854404
705.436668	2558.569579
705.771565	2557.523540
706.106413	2558.186451
706.441212	2561.528736
706.775961	2559.638304
707.110661	2558.282233
707.445311	2559.073694
707.779913	2558.645196
708.114465	2559.633263
708.448967	2560.364230
708.783421	2562.166442
709.117825	2561.006977
709.452180	2562.201730
709.786485	2562.899930
710.120742	2562.012687
710.454949	2562.544529
710.789107	2562.395815
711.123216	2563.603171
711.457275	2562.947821
711.791286	2559.597974
712.125247	2565.138203
712.459159	2566.383368
712.793023	2566.413614
713.126837	2566.098542
713.460602	2564.634087
713.794318	2565.483522
714.127985	2564.785322
714.461602	2562.700805
714.795171	2562.287430
715.128691	2560.084446
715.462162	2561.208623
715.795584	2559.963458
716.128957	2559.482028
716.462281	2560.641493
716.795556	2556.951369
717.128782	2558.030176
717.461960	2554.027499
717.795088	2560.437327
718.128167	2556.096893
718.461198	2557.521019
718.794180	2555.088662
719.127113	2557.306770
719.459997	2560.162584
719.792833	2554.990360
720.125619	2556.938766
720.458357	2555.665874
720.791046	2553.062118
721.123686	2555.197047
721.456278	2554.950031
721.788821	2555.282747
722.121315	2557.563869
722.453761	2553.498178
722.786158	2553.414999
723.118506	2552.089176
723.450805	2557.047151
723.783056	2556.941286
724.115259	2553.725030
724.447412	2555.557490
724.779518	2554.050185
725.111574	2555.928014
725.443582	2555.928014
725.775542	2555.421378
726.107453	2558.365412
726.439315	2555.123950
726.771129	2560.875907
727.102895	2558.453632
727.434612	2555.965823
727.766281	2558.294836
728.097901	2554.052705
728.429473	2556.996739
728.760996	2556.485062
729.092471	2552.061449
729.423897	2556.396842
729.755276	2558.481359
730.086606	2558.771225
730.417887	2559.030845
730.749120	2560.144940
731.080305	2558.851884
731.411442	2563.767009
731.742530	2560.868345
732.073570	2561.453119
732.404562	2561.127965
732.735506	2561.115362
733.066401	2559.867676
733.397249	2561.443037
733.728048	2558.302398
734.058798	2558.299877
734.389501	2555.791903
734.720156	2555.537325
735.050762	2557.044630
735.381320	2554.453477
735.711831	2556.290977
736.042293	2552.805020
736.372707	2554.745864
736.703073	2552.371480
737.033391	2552.915925
737.363661	2553.772921
737.693883	2554.450956
738.024056	2557.775597
738.354182	2553.505740
738.684260	2554.259392
739.014290	2554.294681
739.344272	2556.908519
739.674207	2557.304249
740.004093	2556.918601
740.333931	2557.420196
740.663722	2556.417006
740.993464	2556.520350
741.323159	2553.767880
741.652806	2556.752243
741.982405	2556.941286
742.311956	2555.582695
742.641460	2555.328117
742.970915	2554.284598
743.300323	2554.599670
743.629683	2555.194527
743.958996	2554.148487
744.288260	2551.942982
744.617477	2550.304607
744.946647	2548.875440
745.275768	2550.269319
745.604842	2546.806047
745.933869	2549.321582
746.262847	2548.890564
746.591778	2549.901315
746.920662	2549.341747
747.249498	2550.579350
747.578286	2552.041285
747.907027	2552.820143
748.235720	2555.759136
748.564365	2553.150339
748.892963	2549.944165
749.221514	2553.377191
749.550017	2555.890206
749.878473	2552.636141
750.206881	2549.649257
750.535242	2551.665719
750.863555	2551.824515
751.191821	2552.734443
751.520039	2551.267468
751.848210	2551.085986
752.176334	2552.149670
752.504411	2551.232180
752.832440	2548.273022
753.160421	2553.351985
753.488356	2552.106820
753.816243	2548.782179
754.144082	2548.787220
754.471875	2550.647406
754.799620	2549.253527
755.127318	2549.941644
755.454969	2549.581202
755.782572	2550.501212
756.110129	2548.547765
756.437638	2550.070194
756.765100	2549.692107
757.092515	2551.811912
757.419882	2547.489123
757.747203	2553.288970
758.074477	2551.131357
758.401703	2549.130018
758.728882	2550.496171
759.056014	2551.577499
759.383099	2550.738147
759.710138	2552.754608
760.037129	2549.230842
760.364073	2551.774104
760.690970	2550.150852
761.017820	2553.339382
761.344623	2550.387786
761.671379	2552.792417
761.998088	2546.475851
762.324751	2552.089176
762.651366	2558.937583
762.977935	2565.990157
763.304456	2572.115159
763.630931	2574.774368
763.957359	2572.684810
764.283740	2564.946639
764.610074	2563.799776
764.936362	2558.967830
765.262602	2555.577654
765.588796	2555.544887
765.914943	2549.271171
766.241044	2550.619679
766.567097	2550.743188
766.893104	2550.899463
767.219064	2548.396531
767.544978	2550.297046
767.870845	2545.518032
768.196665	2548.343598
768.522438	2544.688762
768.848165	2545.717157
769.173846	2546.798485
769.499479	2548.769576
769.825066	2544.703885
770.150607	2547.673125
770.476101	2545.891077
770.801548	2548.608259
771.126949	2544.411498
771.452303	2548.076417
771.777611	2544.109029
772.102872	2542.919317
772.428087	2540.870088
772.753256	2545.991900
773.078378	2546.516180
773.403453	2540.819676
773.728482	2542.694986
774.053465	2544.693803
774.378401	2541.981662
774.703291	2544.277908
775.028135	2542.876467
775.352932	2544.691282
775.677683	2542.110212
776.002388	2543.854451
776.327046	2541.379244
776.651658	2541.923689
776.976224	2542.838658
777.300743	2544.832435
777.625216	2540.439069
777.949643	2543.688093
778.274024	2542.833617
778.598359	2539.498894
778.922647	2539.776158
779.246889	2539.193904
779.571086	2537.492515
779.895236	2539.423277
780.219339	2545.094575
780.543397	2541.467465
780.867409	2541.936292
781.191374	2542.614327
781.515294	2541.132228
781.839167	2544.119112
782.162995	2544.121632
782.486776	2542.352187
782.810511	2541.139790
783.134201	2540.791950
783.457844	2543.337733
783.781441	2543.998124
784.104993	2541.001158
784.428498	2542.153062
784.751958	2541.444779
785.075372	2543.027702
785.398739	2542.689944
785.722061	2542.659697
786.045337	2542.148020
786.368568	2543.514173
786.691752	2543.136087
787.014891	2542.994934
787.337983	2542.286652
787.661030	2544.398896
787.984031	2545.507949
788.306987	2545.485264
788.629897	2548.169679
788.952760	2546.609442
789.275579	2543.962836
789.598351	2544.744215
789.921078	2545.046684
790.243759	2543.259595
790.566395	2542.100129
790.888984	2540.091230
791.211529	2540.123997
791.534027	2543.423432
791.856480	2539.766075
792.178888	2543.872095
792.501249	2542.276570
792.823566	2542.899152
793.145836	2541.434697
793.468062	2541.132228
793.790241	2542.226158
794.112375	2543.710778
794.434464	2538.092412
794.756507	2541.354039
795.078505	2540.839841
795.400457	2540.103833
795.722364	2539.435880
796.044226	2540.260108
796.366042	2537.893287
796.687812	2539.700540
797.009538	2541.805222
797.331218	2540.733977
797.652852	2541.722043
797.974442	2544.154400
798.295986	2541.855633
798.617484	2543.249512
798.938938	2542.664739
799.260346	2545.442414
799.581709	2542.694986
799.903026	2544.953423
800.224299	2541.701878
800.545526	2542.793288
800.866708	2540.769265
801.187845	2541.343956
801.508936	2540.963349
801.829983	2542.505942
802.150984	2539.125849
802.471940	2540.872608
802.792851	2540.350849
803.113717	2541.023843
803.434538	2538.646939
803.755314	2539.640046
804.076045	2539.882022
804.396731	2538.808256
804.717372	2539.975283
805.037967	2541.356559
805.358518	2538.964532
805.679024	2541.008720
805.999485	2539.811446
806.319901	2541.575849
806.640272	2540.323123
806.960598	2543.977959
807.280879	2540.862526
807.601115	2538.767927
807.921306	2542.480737
808.241453	2542.344625
808.561554	2541.250695
808.881611	2539.569470
809.201623	2542.591642
809.521590	2539.657690
809.841513	2539.554347
810.161390	2538.677186
810.481223	2538.445293
810.801011	2542.274049
811.120755	2540.456713
811.440453	2540.000489
811.760107	2539.665252
812.079716	2537.855478
812.399281	2537.363965
812.718801	2534.268697
813.038276	2535.017308
813.357707	2539.587114
813.677093	2539.299768
813.996434	2539.166178
814.315731	2538.692309
814.634983	2539.307330
814.954191	2540.923020
815.273354	2539.279604
815.592473	2537.578214
815.911547	2539.201466
816.230577	2541.991745
816.549562	2540.408822
816.868502	2541.316230
817.187399	2539.498894
817.506250	2541.207845
817.825058	2542.014430
818.143821	2540.706250
818.462539	2542.594163
818.781213	2544.035932
819.099843	2543.796478
819.418429	2547.945347
819.736970	2550.226469
820.055466	2550.566747
820.373919	2556.026317
820.692327	2557.180741
821.010691	2568.362020
821.329011	2584.097982
821.647286	2616.336161
821.965517	2650.212715
822.283704	2672.303051
822.601847	2681.051973
822.919945	2666.243584
823.237999	2642.265336
823.556010	2621.584002
823.873976	2605.835437
824.191897	2589.169383
824.509775	2581.320306
824.827609	2574.313102
825.145398	2572.281518
825.463144	2568.770354
825.780845	2568.679613
826.098502	2572.813359
826.416116	2582.696541
826.733685	2595.599375
827.051210	2598.119952
827.368692	2592.438571
827.686129	2583.251068
828.003522	2574.597928
828.320872	2561.352296
828.638177	2557.072356
828.955439	2551.486758
829.272656	2546.377548
829.589830	2544.434184
829.906960	2546.433001
830.224046	2546.344781
830.541088	2544.025850
830.858086	2543.191539
831.175041	2541.661549
831.491952	2542.747918
831.808819	2544.033412
832.125642	2544.028371
832.442421	2549.298897
832.759157	2551.305276
833.075849	2558.584702
833.392497	2563.933367
833.709101	2569.450910
834.025662	2570.222206
834.342179	2566.106104
834.658653	2559.703839
834.975083	2555.426420
835.291469	2557.944476
835.607811	2547.859648
835.924110	2541.495191
836.240366	2545.119781
836.556578	2540.655839
836.872746	2540.663401
837.188871	2538.692309
837.504952	2536.980838
837.820990	2540.761703
838.136984	2536.280117
838.452935	2537.527803
838.768842	2538.357073
839.084706	2538.107536
839.400526	2540.804553
839.716303	2546.395192
840.032037	2549.868548
840.347727	2549.845862
840.663373	2550.322251
840.978977	2546.803526
841.294537	2541.865716
841.610054	2536.559901
841.925527	2539.486291
842.240957	2537.353883
842.556344	2539.992927
842.871687	2539.423277
843.186987	2539.335057
843.502244	2535.574356
843.817458	2537.268183
844.132629	2533.935981
844.447756	2538.346990
844.762840	2530.455064
845.077881	2531.725435
845.392879	2531.271731
845.707833	2535.241640
846.022745	2528.650331
846.337613	2534.298944
846.652438	2535.082843
846.967221	2535.644932
847.281960	2533.711649
847.596656	2534.848430
847.911309	2534.440096
848.225919	2535.871784
848.540485	2534.117462
848.855009	2534.699716
849.169490	2533.179808
849.483928	2536.073430
849.798323	2534.377082
850.112675	2535.050076
850.426984	2532.501772
850.741251	2533.111752
851.055474	2534.959335
851.369654	2533.759540
851.683792	2532.471526
851.997887	2534.805580
852.311938	2534.689633
852.625947	2534.235929
852.939914	2533.890610
853.253837	2535.415559
853.567718	2535.506300
853.881555	2534.079654
854.195350	2533.847761
854.509103	2533.938501
854.822812	2533.336083
855.136479	2532.834489
855.450103	2534.934129
855.763685	2535.007226
856.077224	2533.593182
856.390720	2535.176105
856.704173	2537.046373
857.017584	2531.627132
857.330953	2531.675023
857.644278	2532.675692
857.957561	2537.036290
858.270802	2534.422452
858.584000	2533.648635
858.897155	2534.240971
859.210268	2535.007226
859.523339	2534.631660
859.836367	2531.291896
860.149352	2535.453368
860.462295	2535.433203
860.775195	2532.713501
861.088054	2531.722914
861.400869	2530.442461
861.713642	2531.145702
862.026373	2534.394726
862.339062	2534.024201
862.651708	2534.024201
862.964312	2533.399098
863.276873	2534.399767
863.589392	2534.563604
863.901869	2534.954294
864.214303	2536.126362
864.526696	2533.008408
864.839045	2536.764068
865.151353	2534.455220
865.463619	2535.402957
865.775842	2535.460930
866.088023	2536.043183
866.400162	2538.352032
866.712258	2537.157278
867.024313	2537.663914
867.336325	2534.888759
867.648296	2534.712318
867.960224	2533.961187
868.272110	2534.969417
868.583954	2535.206352
868.895755	2537.011085
869.207515	2537.346321
869.519233	2535.488656
869.830909	2536.827082
870.142542	2533.036135
870.454134	2534.717360
870.765684	2537.391692
871.077191	2534.387164
871.388657	2535.002185
871.700081	2533.830117
872.011463	2535.254243
872.322803	2535.947401
872.634101	2536.887576
872.945357	2535.609644
873.256571	2537.767258
873.567744	2534.528316
873.878874	2538.122659
874.189963	2538.226003
874.501010	2538.346990
874.812015	2536.312885
875.122979	2535.614685
875.433900	2538.669624
875.744780	2537.883204
876.055618	2537.346321
876.366415	2538.009233
876.677169	2540.890253
876.987882	2534.193080
877.298554	2534.808100
877.609183	2535.977648
877.919771	2537.449665
878.230317	2532.673172
878.540822	2542.856303
878.851285	2540.676003
879.161707	2543.496529
879.472087	2543.758669
879.782425	2547.922662
880.092722	2557.357182
880.402977	2565.695250
880.713191	2586.376584
881.023363	2606.352156
881.333494	2618.705503
881.643583	2621.989815
881.953631	2619.902777
882.263637	2610.072527
882.573602	2606.097577
882.883526	2596.675661
883.193408	2586.096800
883.503248	2579.389544
883.813048	2570.290262
884.122806	2566.380847
884.432522	2561.654765
884.742197	2557.326935
885.051831	2552.852911
885.361424	2550.634803
885.670975	2550.677653
885.980485	2545.812939
886.289954	2547.763866
886.599382	2542.594162
886.908768	2544.439225
887.218113	2542.664739
887.527417	2541.159954
887.836680	2540.504604
888.145901	2540.497042
888.455082	2539.035108
888.764221	2537.757175
889.073319	2537.235416
889.382376	2535.592000
889.691392	2536.786753
890.000366	2538.714995
890.309300	2539.763555
890.618193	2538.241126
890.927044	2538.694830
891.235855	2539.254398
891.544625	2536.912782
891.853353	2538.223482
892.162041	2540.262629
892.470687	2542.193391
892.779293	2542.110212
893.087858	2540.320602
893.396381	2540.305479
893.704864	2544.136756
894.013306	2545.744884
894.321707	2558.796431
894.630068	2563.898079
894.938387	2566.597617
895.246665	2564.649211
895.554903	2562.216854
895.863100	2556.580844
896.171256	2551.857283
896.479371	2551.622869
896.787446	2548.935934
897.095480	2545.235727
897.403473	2542.629451
897.711425	2544.038453
898.019336	2542.016950
898.327207	2540.103832
898.635038	2540.965870
898.942827	2540.635674
899.250576	2542.700027
899.558284	2540.534851
899.865952	2538.213400
900.173579	2538.304141
900.481165	2538.467978
900.788711	2538.901517
901.096216	2536.506969
901.403681	2536.577545
901.711105	2539.650129
902.018489	2537.600900
902.325832	2542.821014
902.633135	2538.372196
902.940397	2541.283463
903.247619	2539.740869
903.554800	2546.985007
903.861941	2556.648899
904.169041	2566.562328
904.476101	2578.673701
904.783121	2574.086251
905.090100	2571.164902
905.397039	2563.404046
905.703938	2555.199568
906.010796	2551.620348
906.317614	2548.446942
906.624391	2547.589946
906.931129	2542.475695
907.237826	2539.965201
907.544483	2539.120808
907.851099	2538.410005
908.157675	2535.861702
908.464211	2535.355066
908.770707	2527.448016
909.077163	2532.501773
909.383578	2529.053623
909.689954	2531.816176
909.996289	2528.546987
910.302584	2533.278110
910.608839	2531.203675
910.915054	2532.209386
911.221229	2534.021680
911.527363	2534.651825
911.833458	2534.838347
912.139513	2533.527647
912.445527	2536.600231
912.751502	2534.808100
913.057436	2536.224665
913.363331	2534.886238
913.669186	2536.476722
913.975000	2537.986548
914.280775	2540.060983
914.586510	2543.955274
914.892205	2546.070038
915.197859	2551.091027
915.503475	2558.408262
915.809050	2563.469581
916.114585	2569.284552
916.420081	2573.516600
916.725536	2572.427711
917.030952	2569.314798
917.336328	2560.228119
917.641665	2559.073694
917.946961	2554.466080
918.252218	2551.247303
918.557435	2547.403423
918.862612	2544.532486
919.167750	2544.661036
919.472848	2541.709440
919.777906	2539.698020
920.082925	2541.200283
920.387904	2539.561908
920.692843	2537.774819
920.997743	2534.750127
921.302603	2535.279448
921.607423	2536.408667
921.912204	2537.353883
922.216946	2536.028060
922.521647	2534.286341
922.826310	2533.154602
923.130932	2533.930940
923.435516	2534.777853
923.740059	2533.497400
924.044564	2534.092257
924.349028	2532.947915
924.653454	2529.396422
924.957840	2530.046731
925.262186	2527.437933
925.566493	2531.987575
925.870761	2527.299302
926.174989	2531.115455
926.479178	2531.586803
926.783328	2532.642925
927.087438	2529.812317
927.391509	2532.138809
927.695541	2532.199303
927.999533	2529.371216
928.303486	2528.617563
928.607400	2529.688809
928.911275	2530.243336
929.215110	2530.724766
929.518906	2529.721576
929.822663	2528.955321
930.126381	2528.796524
930.430060	2533.507483
930.733699	2530.351720
931.037299	2529.000691
931.340861	2531.962369
931.644383	2531.609488
931.947866	2531.339787
932.251309	2529.560259
932.554714	2531.778367
932.858080	2533.076464
933.161407	2530.757533
933.464694	2533.270548
933.767943	2527.717717
934.071153	2530.450023
934.374323	2529.756864
934.677455	2532.612678
934.980548	2529.104035
935.283602	2530.694519
935.586617	2530.094622
935.889593	2529.913140
936.192530	2531.170908
936.495428	2529.714014
936.798287	2530.470187
937.101108	2531.843902
937.403890	2527.594209
937.706632	2531.130579
938.009336	2530.969262
938.312002	2533.973789
938.614628	2529.882893
938.917216	2534.351876
939.219765	2532.526978
939.522275	2532.673172
939.824747	2535.738193
940.127179	2527.644621
940.429573	2529.756864
940.731929	2529.575383
941.034246	2526.953983
941.336524	2531.405322
941.638763	2532.156453
941.940964	2532.186700
942.243126	2530.379447
942.545250	2531.503624
942.847335	2532.965559
943.149381	2529.673685
943.451389	2530.117307
943.753359	2529.577903
944.055290	2528.811648
944.357182	2531.193593
944.659036	2531.286854
944.960851	2531.584283
945.262628	2529.840043
945.564367	2530.044210
945.866067	2529.338448
946.167729	2529.719056
946.469352	2533.144520
946.770937	2530.187883
947.072484	2531.286854
947.373992	2530.742410
947.675462	2528.834333
947.976893	2529.121679
948.278286	2531.455733
948.579641	2530.896165
948.880958	2530.112266
949.182236	2531.322142
949.483476	2529.739220
949.784678	2528.194107
950.085841	2530.628984
950.386967	2529.469518
950.688054	2530.170239
950.989103	2531.150743
951.290114	2529.605630
951.591087	2530.639066
951.892021	2529.164529
952.192917	2529.628315
952.493776	2529.668644
952.794596	2529.938346
953.095378	2530.840712
953.396122	2530.152595
953.696828	2530.588655
953.997496	2532.562266
954.298126	2529.270393
954.598718	2530.903727
954.899272	2528.589837
955.199788	2529.015815
955.500266	2528.433561
955.800706	2529.250228
956.101108	2525.232429
956.401472	2525.378622
956.701798	2525.292922
957.002087	2525.091276
957.302337	2528.168901
957.602550	2525.867614
957.902724	2526.187727
958.202861	2528.602440
958.502960	2529.257790
958.803022	2529.643438
959.103045	2529.391381
959.403031	2528.892306
959.702979	2526.790145
960.002889	2528.894827
960.302762	2528.496576
960.602596	2527.455578
960.902393	2530.260980
961.202153	2526.810310
961.501875	2526.212933
961.801559	2527.843746
962.101205	2525.285361
962.400814	2527.306863
962.700385	2527.526154
962.999918	2527.856349
963.299414	2524.962727
963.598873	2526.838036
963.898293	2524.133457
964.197677	2525.552542
964.497022	2523.518436
964.796331	2526.359127
965.095601	2525.529857
965.394835	2528.403314
965.694030	2527.647141
965.993189	2527.662265
966.292309	2527.251411
966.591393	2526.059178
966.890439	2526.714528
967.189447	2528.345341
967.488419	2527.271575
967.787353	2526.250742
968.086249	2524.274609
968.385108	2528.776360
968.683930	2526.966586
968.982714	2526.117151
969.281462	2525.920546
969.580172	2528.446164
969.878844	2526.359127
970.177480	2526.205371
970.476078	2529.093953
970.774639	2526.873324
971.073162	2529.003212
971.371649	2524.541791
971.670098	2523.538601
971.968510	2522.653878
972.266885	2522.081707
972.565223	2526.333921
972.863524	2525.938190
973.161788	2525.023221
973.460014	2525.350896
973.758204	2528.688140
974.056356	2525.776873
974.354471	2525.270237
974.652550	2527.606812
974.950591	2526.785104
975.248595	2524.740916
975.546563	2528.468849
975.844493	2528.458767
976.142386	2525.449198
976.440243	2524.887110
976.738062	2526.618746
977.035845	2525.590351
977.333590	2529.136802
977.631299	2524.176307
977.928971	2523.833508
978.226606	2524.874507
978.524204	2526.648993
978.821765	2524.413241
979.119290	2529.633356
979.416777	2522.600946
979.714228	2527.637059
980.011642	2528.229395
980.309020	2530.177801
980.606360	2528.857018
980.903664	2528.471370
981.200931	2528.100845
981.498162	2525.658406
981.795356	2526.470032
982.092513	2527.478263
982.389633	2526.313756
982.686717	2529.593027
982.983764	2529.204858
983.280775	2531.763243
983.577749	2529.570342
983.874686	2532.181659
984.171587	2524.607326
984.468451	2526.956503
984.765279	2529.214940
985.062070	2526.689322
985.358824	2527.856349
985.655543	2529.429189
985.952224	2527.674868
986.248869	2527.929446
986.545478	2520.488703
986.842050	2525.824764
987.138586	2523.631862
987.435086	2525.204702
987.731549	2521.605318
988.027975	2523.165556
988.324366	2525.129085
988.620719	2524.521626
988.917037	2526.712007
989.213318	2528.846936
989.509563	2524.254445
989.805772	2527.725279
990.101944	2525.832326
990.398080	2525.166894
990.694180	2524.889630
990.990244	2526.573376
991.286271	2525.630680
991.582262	2526.948942
991.878217	2527.092614
992.174136	2528.539426
992.470019	2525.761750
992.765865	2525.887779
993.061676	2525.791997
993.357450	2528.703263
993.653188	2525.575227
993.948890	2526.049096
994.244556	2525.855011
994.540186	2527.410207
994.835780	2527.558921
995.131337	2529.708973
995.426859	2525.585309
995.722345	2526.129754
996.017795	2526.510361
996.313208	2524.650175
996.608586	2525.280320
996.903928	2525.471883
997.199234	2527.919364
997.494504	2527.417769
997.789738	2526.439785
998.084936	2527.067409
998.380099	2524.982892
998.675225	2527.891637
998.970316	2526.316277
999.265371	2524.811492
999.560390	2523.425175
999.855373	2525.449198
1000.150320	2523.803262
1000.445232	2528.032790
1000.740108	2525.169414
1001.034948	2526.812830
1001.329752	2523.271420
1001.624521	2528.962883
1001.919254	2521.358302
1002.213951	2522.822757
1002.508613	2523.790659
1002.803239	2524.254445
1003.097829	2523.200844
1003.392384	2526.061698
1003.686903	2524.632531
1003.981386	2525.628159
1004.275834	2525.476925
1004.570246	2527.105217
1004.864623	2525.718900
1005.158964	2527.740403
1005.453270	2522.578261
1005.747540	2525.890299
1006.041775	2525.648324
1006.335974	2524.488858
1006.630138	2525.194620
1006.924266	2526.207892
1007.218359	2523.155473
1007.512416	2524.418282
1007.806438	2525.514733
1008.100425	2525.086235
1008.394376	2524.841739
1008.688292	2526.298633
1008.982172	2523.757891
1009.276017	2526.386853
1009.569827	2524.433406
1009.863602	2526.185207
1010.157341	2523.132788
1010.451045	2524.703108
1010.744714	2521.585154
1011.038347	2526.906092
1011.331945	2523.415093
1011.625508	2524.917357
1011.919036	2526.979188
1012.212528	2525.910464
1012.505986	2524.549352
1012.799408	2524.161183
1013.092795	2525.063550
1013.386147	2526.419620
1013.679464	2524.854342
1013.972745	2525.547501
1014.265992	2526.533046
1014.559204	2523.324352
1014.852380	2523.601615
1015.145521	2524.531708
1015.438628	2523.997346
1015.731699	2523.583971
1016.024736	2524.458612
1016.317737	2523.936852
1016.610703	2524.899713
1016.903635	2520.836543
1017.196531	2521.819567
1017.489393	2524.284692
1017.782219	2521.748991
1018.075011	2525.602953
1018.367768	2521.491892
1018.660490	2524.655217
1018.953177	2524.655217
1019.245829	2524.655217
