Dividing Wavelength (nm)	Counts (n)	Blue Motor Position (mm): 0.000000	Red Motor Position (mm): 5.000000	
326.493990	2148.300314
326.888308	2148.300314
327.282561	2148.300314
327.676750	2124.793414
328.070874	2124.531274
328.464933	2131.520834
328.858929	2138.233130
329.252859	2150.989770
329.646726	2167.844868
330.040528	2178.101095
330.434265	2197.388550
330.827938	2216.348330
331.221547	2238.027812
331.615091	2258.358785
332.008571	2277.305962
332.401986	2298.980403
332.795338	2316.238793
333.188625	2336.131186
333.581847	2356.046264
333.975006	2377.269522
334.368100	2394.916081
334.761129	2412.703792
335.154095	2429.785742
335.546996	2445.652774
335.939833	2456.196347
336.332606	2471.637402
336.725315	2483.794144
337.117960	2492.288488
337.510540	2498.315188
337.903056	2509.599811
338.295508	2515.931500
338.687896	2521.375946
339.080220	2530.432379
339.472480	2535.022349
339.864676	2538.742721
340.256807	2542.090047
340.648875	2542.722712
341.040879	2546.982487
341.432818	2547.312683
341.824694	2549.165307
342.216506	2548.494833
342.608253	2548.673794
342.999937	2543.856972
343.391557	2546.332178
343.783113	2544.212373
344.174605	2542.558874
344.566033	2540.653318
344.957397	2540.670962
345.348697	2536.068389
345.739934	2536.932947
346.131106	2534.843388
346.522215	2534.581248
346.913260	2529.005732
347.304241	2532.022863
347.695159	2529.270393
348.086012	2524.962727
348.476802	2526.928777
348.867528	2525.600433
349.258191	2522.157325
349.648789	2523.740247
350.039324	2519.054495
350.429796	2521.146573
350.820203	2518.086593
351.210548	2516.443177
351.600828	2517.769000
351.991045	2517.153980
352.381198	2518.484844
352.771288	2517.176665
353.161314	2513.516787
353.551276	2517.156500
353.941175	2513.547034
354.331010	2515.782786
354.720782	2515.954185
355.110490	2514.870337
355.500135	2516.092817
355.889717	2520.105575
356.279235	2516.531397
356.668689	2520.118178
357.058080	2518.205060
357.447408	2514.608197
357.836672	2514.857734
358.225873	2515.140039
358.615010	2515.860924
359.004084	2522.147242
359.393095	2521.033147
359.782043	2520.849145
360.170927	2523.006759
360.559748	2521.827129
360.948505	2521.423837
361.337199	2521.592716
361.725830	2523.881399
362.114398	2524.561955
362.502903	2524.871986
362.891344	2524.919877
363.279722	2524.440967
363.668037	2526.916174
364.056289	2528.524302
364.444478	2528.468849
364.832603	2527.934487
365.220665	2525.187058
365.608665	2526.999353
365.996601	2531.579241
366.384474	2528.277286
366.772284	2529.257790
367.160031	2527.672347
367.547715	2529.560259
367.935336	2527.785773
368.322893	2533.106711
368.710388	2530.132430
369.097820	2533.318439
369.485189	2526.439785
369.872495	2532.683254
370.259738	2528.478932
370.646918	2531.317101
371.034035	2530.530681
371.421090	2533.613347
371.808081	2534.253573
372.195010	2532.935312
372.581875	2533.593182
372.968678	2532.297606
373.355418	2534.414890
373.742096	2535.917154
374.128710	2535.602082
374.515262	2538.150385
374.901751	2540.252547
375.288177	2537.484953
375.674540	2539.496373
376.060841	2540.179450
376.447079	2546.881664
376.833254	2545.223124
377.219367	2544.353525
377.605417	2547.196736
377.991404	2546.682538
378.377329	2551.448949
378.763191	2549.407282
379.148991	2556.457336
379.534727	2560.785166
379.920402	2563.565362
380.306013	2563.585527
380.691563	2566.895045
381.077049	2567.676423
381.462474	2571.719429
381.847835	2574.050963
382.233134	2577.879719
382.618371	2578.956005
383.003545	2581.116140
383.388657	2585.975812
383.773706	2586.048909
384.158693	2587.583940
384.543618	2594.452512
384.928480	2598.140116
385.313280	2600.101125
385.698017	2602.873760
386.082692	2606.037084
386.467305	2603.526589
386.851856	2610.891715
387.236344	2615.403548
387.620770	2613.873557
388.005133	2614.544031
388.389435	2618.191306
388.773674	2620.114506
389.157851	2620.633745
389.541965	2622.773714
389.926018	2619.612911
390.310008	2622.698097
390.693936	2622.786317
391.077802	2622.244393
391.461606	2623.227418
391.845348	2619.978395
392.229027	2623.391256
392.612645	2621.899074
392.996200	2620.928652
393.379694	2618.438322
393.763125	2618.773559
394.146494	2618.453446
394.529801	2614.435646
394.913047	2613.830707
395.296230	2612.041098
395.679351	2608.902980
396.062410	2604.771754
396.445408	2600.708584
396.828343	2602.193204
397.211217	2593.774477
397.594028	2589.308015
397.976778	2585.854824
398.359466	2586.951275
398.742092	2579.954154
399.124656	2583.180492
399.507158	2581.317786
399.889598	2577.637743
400.271977	2573.352763
400.654294	2571.409398
401.036549	2571.358986
401.418742	2568.999726
401.800874	2566.958059
402.182944	2566.143913
402.564952	2565.130641
402.946898	2560.649055
403.328783	2561.821123
403.710606	2560.437327
404.092367	2557.495813
404.474067	2559.459343
404.855705	2555.628066
405.237282	2555.834753
405.618797	2555.675957
406.000250	2555.670916
406.381642	2556.817778
406.762972	2552.595812
407.144240	2554.627397
407.525447	2558.922460
407.906593	2550.523897
408.287677	2553.387273
408.668700	2552.983981
409.049661	2552.379042
409.430560	2555.837274
409.811399	2555.166800
410.192176	2551.801830
410.572891	2553.573796
410.953545	2552.222766
411.334138	2552.827705
411.714669	2553.588919
412.095139	2552.810061
412.475547	2554.042623
412.855894	2553.241079
413.236180	2554.297201
413.616405	2552.464742
413.996568	2554.824002
414.376670	2553.170503
414.756711	2555.900288
415.136691	2555.043292
415.516609	2552.689073
415.896466	2552.394166
416.276262	2554.140925
416.655997	2551.448949
417.035670	2552.628579
417.415283	2551.171686
417.794834	2551.685883
418.174324	2550.521377
418.553753	2557.001780
418.933121	2555.169321
419.312428	2553.969526
419.691674	2556.981616
420.070859	2557.261400
420.449983	2557.848694
420.829045	2559.005639
421.208047	2557.311811
421.586988	2554.876934
421.965867	2555.406255
422.344686	2559.242573
422.723444	2558.488921
423.102141	2555.766697
423.480777	2556.240566
423.859352	2560.409600
424.237866	2558.312480
424.616319	2556.580844
424.994712	2560.487738
425.373044	2557.949517
425.751314	2555.633107
426.129524	2557.805844
426.507673	2558.975392
426.885762	2558.594785
427.263789	2560.079405
427.641756	2558.768705
428.019662	2561.203582
428.397508	2558.688046
428.775292	2559.834909
429.153016	2559.875238
429.530679	2559.474466
429.908282	2560.505382
430.285824	2557.805844
430.663305	2558.788869
431.040726	2559.744168
431.418086	2556.774928
431.795385	2559.986143
432.172624	2560.306257
432.549802	2562.423541
432.926920	2558.619991
433.303977	2562.158881
433.680974	2561.364899
434.057910	2562.463870
434.434786	2561.259035
434.811601	2563.928326
435.188355	2560.883469
435.565050	2561.193500
435.941683	2562.675599
436.318257	2557.954558
436.694770	2559.061092
437.071222	2558.070505
437.447614	2557.344579
437.823946	2559.746688
438.200218	2562.136195
438.576429	2562.123592
438.952580	2561.425393
439.328670	2561.632080
439.704700	2560.979251
440.080670	2562.506720
440.456580	2562.249621
440.832429	2564.195507
441.208218	2563.310784
441.583947	2562.632749
441.959616	2564.757595
442.335224	2561.690053
442.710773	2560.661658
443.086261	2563.716597
443.461689	2564.019066
443.837057	2563.164591
444.212365	2562.305074
444.587612	2564.989488
444.962800	2565.281875
445.337927	2564.492935
445.712995	2562.489076
446.088002	2566.350600
446.462949	2565.496124
446.837837	2566.153995
447.212664	2565.186093
447.587431	2564.455126
447.962139	2565.967472
448.336786	2567.164746
448.711374	2565.082750
449.085901	2565.614592
449.460369	2564.966803
449.834776	2567.827658
450.209124	2565.445713
450.583412	2563.479663
450.957640	2566.789180
451.331808	2566.136351
451.705917	2565.841443
452.079965	2566.857236
452.453954	2565.468398
452.827883	2565.027297
453.201752	2565.796073
453.575562	2567.126938
453.949311	2566.325394
454.323001	2566.159036
454.696632	2564.828172
455.070202	2567.716753
455.443713	2568.901424
455.817164	2563.061247
456.190556	2563.537636
456.563888	2565.133161
456.937160	2565.793552
457.310373	2567.293296
457.683526	2565.211299
458.056619	2564.024107
458.429653	2565.743141
458.802628	2567.832699
459.175542	2566.758933
459.548398	2567.010991
459.921194	2569.690364
460.293930	2564.976886
460.666607	2568.989644
461.039224	2567.391598
461.411782	2570.759089
461.784280	2569.082905
462.156719	2571.752196
462.529099	2571.613565
462.901419	2568.205745
463.273680	2569.576938
463.645882	2569.294634
464.018024	2569.992834
464.390106	2568.251115
464.762130	2569.448389
465.134094	2568.891342
465.505999	2571.341342
465.877845	2570.123904
466.249631	2568.851012
466.621358	2570.653225
466.993026	2575.137331
467.364634	2572.135324
467.736184	2568.208265
468.107674	2572.200859
468.479105	2569.665159
468.850477	2570.562484
469.221790	2570.736404
469.593043	2573.312433
469.964238	2570.078533
470.335373	2573.302351
470.706449	2570.204562
471.077467	2570.615416
471.448425	2572.170612
471.819324	2570.721280
472.190164	2572.089954
472.560945	2572.052145
472.931667	2570.128945
473.302330	2568.500652
473.672934	2570.423852
474.043479	2569.939902
474.413965	2572.329408
474.784393	2567.351269
475.154761	2568.137689
475.525070	2569.287072
475.895321	2569.329922
476.265513	2565.566701
476.635645	2570.413770
477.005719	2569.607185
477.375734	2571.167422
477.745691	2571.636250
478.115588	2570.716239
478.485427	2572.757907
478.855207	2573.385530
479.224928	2570.491908
479.594591	2573.168761
479.964194	2571.777402
480.333739	2571.510221
480.703226	2572.009295
481.072653	2574.761765
481.442022	2570.585169
481.811333	2572.999882
482.180584	2571.984089
482.549777	2570.184398
482.918912	2573.501477
483.287988	2574.761765
483.657005	2570.562484
484.025964	2571.963925
484.394864	2573.403174
484.763706	2574.192115
485.132489	2573.801425
485.501213	2572.762948
485.869879	2572.009295
486.238487	2570.373441
486.607036	2571.389233
486.975527	2572.979717
487.343959	2572.760427
487.712333	2571.227916
488.080648	2570.776733
488.448905	2571.290931
488.817104	2572.389902
489.185244	2574.557598
489.553326	2574.378637
489.921350	2572.059707
490.289315	2571.779923
490.657222	2575.119687
491.025070	2571.258163
491.392861	2575.737228
491.760593	2574.774368
492.128267	2571.174984
492.495883	2575.860737
492.863440	2570.867474
493.230939	2574.595407
493.598380	2571.961404
493.965763	2567.736917
494.333088	2569.934860
494.700354	2570.411249
495.067563	2571.369069
495.434713	2569.493759
495.801805	2574.073648
496.168839	2574.673545
496.535815	2573.945098
496.902733	2572.518452
497.269593	2575.243195
497.636395	2574.030798
498.003139	2573.844275
498.369825	2572.808318
498.736453	2575.414595
499.103023	2575.742270
499.469535	2572.828483
499.835989	2572.321847
500.202385	2573.783781
500.568723	2574.081209
500.935003	2574.618092
501.301226	2572.402505
501.667390	2574.202197
502.033497	2573.579615
502.399546	2573.027608
502.765537	2573.627506
503.131470	2575.613720
503.497345	2575.008782
503.863163	2573.859399
504.228923	2572.609192
504.594625	2574.119018
504.960269	2573.763617
505.325856	2577.804102
505.691385	2574.008113
506.056856	2574.083730
506.422270	2575.268401
506.787625	2573.284707
507.152924	2573.088102
507.518164	2577.118505
507.883347	2573.098184
508.248472	2571.454768
508.613540	2573.894687
508.978550	2573.627506
509.343503	2577.274780
509.708398	2575.505335
510.073236	2576.644636
510.438016	2572.324367
510.802738	2571.275807
511.167403	2574.968452
511.532010	2572.969635
511.896561	2577.526838
512.261053	2575.641447
512.625488	2572.528534
512.989866	2567.923440
513.354186	2571.600962
513.718449	2572.072310
514.082655	2572.957032
514.446803	2576.972311
514.810894	2573.405695
515.174927	2576.934502
515.538904	2576.085068
515.902822	2576.155644
516.266684	2572.228585
516.630488	2574.056004
516.994235	2575.520459
517.357925	2574.650860
517.721558	2575.346539
518.085133	2574.061045
518.448651	2577.078175
518.812112	2576.574060
519.175516	2573.430901
519.538863	2574.789492
519.902152	2575.026426
520.265385	2576.258988
520.628560	2575.759914
520.991678	2576.090109
521.354739	2574.358473
521.717743	2573.919893
522.080690	2576.803432
522.443580	2575.563309
522.806413	2576.465675
523.169189	2575.308730
523.531908	2575.888463
523.894569	2575.769996
524.257174	2576.455593
524.619722	2576.319482
524.982213	2576.316961
525.344647	2574.691189
525.707025	2575.313772
526.069345	2575.286045
526.431608	2575.341498
526.793815	2575.119687
527.155964	2574.345870
527.518057	2576.649677
527.880093	2575.399471
528.242072	2576.730336
528.603995	2576.314441
528.965860	2575.454924
529.327669	2576.810994
529.689421	2575.107084
530.051117	2575.659091
530.412755	2574.260170
530.774337	2574.270253
531.135862	2576.909297
531.497331	2572.135324
531.858743	2575.147413
532.220098	2573.879563
532.581396	2573.304872
532.942638	2572.513411
533.303824	2576.488360
533.664953	2577.519276
534.026025	2575.946436
534.387040	2576.785788
534.747999	2576.853844
535.108902	2580.806109
535.469748	2576.929461
535.830537	2575.356621
536.191270	2577.032805
536.551947	2575.336457
536.912567	2573.282187
537.273131	2577.511715
537.633638	2577.312589
537.994089	2575.714543
538.354483	2575.651529
538.714821	2576.589183
539.075103	2574.305541
539.435328	2575.689338
539.795497	2575.747311
540.155609	2578.162023
540.515665	2575.459965
540.875665	2579.087075
541.235609	2576.551375
541.595496	2577.224369
541.955328	2576.064903
542.315102	2574.885273
542.674821	2575.071796
543.034483	2578.464493
543.394090	2578.371231
543.753640	2576.402661
544.113134	2576.178329
544.472571	2574.673545
544.831953	2577.262178
545.191278	2575.278483
545.550548	2574.481981
545.909761	2576.904256
546.268918	2576.412743
546.628019	2577.221848
546.987064	2575.643967
547.346053	2577.463824
547.704986	2576.599266
548.063863	2574.663463
548.422684	2576.763103
548.781449	2578.557754
549.140158	2579.223186
549.498811	2577.471385
549.857408	2576.793350
550.215949	2572.926785
550.574434	2569.970148
550.932864	2573.907290
551.291237	2570.910324
551.649555	2577.370562
552.007817	2577.736046
552.366022	2574.161868
552.724173	2575.719584
553.082267	2573.980386
553.440305	2578.716550
553.798288	2579.356777
554.156215	2576.155644
554.514086	2577.065572
554.871902	2575.465006
555.229661	2577.065572
555.587365	2576.697568
555.945014	2575.674214
556.302606	2576.160685
556.660143	2576.097671
557.017625	2577.645305
557.375050	2578.164544
557.732421	2576.604307
558.089735	2579.770152
558.446994	2575.722105
558.804197	2576.823597
559.161345	2573.740932
559.518437	2578.545151
559.875474	2575.875860
560.232455	2578.167065
560.589381	2577.357959
560.946251	2579.119843
561.303065	2579.127404
561.659825	2578.003227
562.016528	2575.482650
562.373177	2575.724626
562.729770	2576.316961
563.086307	2578.789647
563.442789	2577.597414
563.799216	2576.531210
564.155587	2579.747466
564.511904	2576.019533
564.868164	2576.311920
565.224370	2578.940882
565.580520	2576.248906
565.936615	2576.929461
566.292654	2574.615572
566.648638	2575.880901
567.004567	2574.991138
567.360441	2577.103381
567.716260	2578.540110
568.072023	2578.802250
568.427732	2573.188925
568.783385	2573.909810
569.138982	2574.807136
569.494525	2573.352763
569.850013	2575.381827
570.205445	2576.745459
570.560823	2577.181519
570.916145	2576.352249
571.271412	2578.582960
571.626625	2577.463824
571.981782	2580.117991
572.336884	2579.578588
572.691931	2577.816704
573.046923	2578.262847
573.401860	2577.373083
573.756743	2580.266705
574.111570	2576.442990
574.466342	2577.431056
574.821059	2577.932651
575.175722	2580.024730
575.530330	2578.038515
575.884882	2579.916345
576.239380	2577.337795
576.593823	2576.667321
576.948211	2579.671849
577.302544	2578.315779
577.656823	2577.521797
578.011047	2578.381314
578.365216	2575.764955
578.719330	2575.830490
579.073389	2576.758062
579.427394	2574.048442
579.781344	2576.453072
580.135239	2577.851992
580.489080	2579.175295
580.842866	2577.904925
581.196597	2581.617734
581.550273	2577.909966
581.903895	2577.380645
582.257463	2580.367528
582.610975	2577.133628
582.964434	2579.480285
583.317837	2576.233782
583.671186	2579.404668
584.024481	2577.839390
584.377721	2576.372414
584.730906	2577.892322
585.084037	2578.162023
585.437113	2577.776375
585.790135	2578.343505
586.143103	2577.158834
586.496016	2579.152610
586.848874	2575.278483
587.201679	2575.291086
587.554428	2572.110118
587.907124	2575.676735
588.259765	2574.643298
588.612352	2578.635892
588.964884	2573.347722
589.317362	2575.520459
589.669786	2577.143710
590.022155	2578.232600
590.374470	2577.299986
590.726731	2577.156313
591.078937	2577.143710
591.431090	2576.616910
591.783188	2579.197981
592.135232	2578.860223
592.487222	2578.046077
592.839157	2575.238154
593.191038	2577.292424
593.542866	2576.914338
593.894639	2576.397620
594.246358	2577.320151
594.598022	2579.109760
594.949633	2576.011971
595.301190	2578.146900
595.652692	2579.003896
596.004141	2578.376272
596.355535	2579.087075
596.706876	2578.706468
597.058162	2576.195973
597.409395	2576.241344
597.760573	2576.584142
598.111698	2577.431056
598.462768	2577.534400
598.813785	2578.751838
599.164748	2577.297466
599.515657	2578.015830
599.866511	2577.751169
600.217312	2576.193453
600.568060	2577.529359
600.918753	2578.061200
601.269392	2577.650346
601.619978	2574.965932
601.970510	2577.962898
602.320988	2576.223700
602.671412	2578.588001
603.021783	2577.330233
603.372100	2576.553895
603.722363	2573.609862
604.072572	2578.386355
604.422728	2581.595049
604.772830	2572.936867
605.122878	2571.646332
605.472872	2573.090623
605.822813	2573.569532
606.172701	2575.638926
606.522534	2576.195973
606.872314	2578.507342
607.222041	2575.991807
607.571714	2576.838721
607.921333	2575.505335
608.270899	2575.719584
608.620411	2576.420305
608.969870	2577.441138
609.319276	2577.781416
609.668627	2576.596745
610.017926	2575.893504
610.367171	2578.623289
610.716362	2576.969791
611.065500	2573.607341
611.414585	2575.215469
611.763616	2576.445511
612.112594	2575.434759
612.461518	2576.460634
612.810389	2578.726633
613.159207	2577.758731
613.507971	2577.357959
613.856682	2578.252764
614.205340	2578.777044
614.553945	2579.923907
614.902496	2575.273442
615.250994	2579.303845
615.599439	2578.129256
615.947830	2577.058011
616.296169	2576.034657
616.644454	2577.536920
616.992686	2575.782599
617.340864	2575.601117
617.688990	2575.888463
618.037063	2579.276118
618.385082	2577.426015
618.733048	2576.601786
619.080961	2575.580953
619.428821	2577.466344
619.776628	2574.635736
620.124382	2579.714699
620.472083	2576.339646
620.819731	2577.582291
621.167326	2576.533731
621.514868	2579.563464
621.862357	2576.034657
622.209793	2577.794019
622.557176	2574.829821
622.904506	2571.782443
623.251783	2570.660787
623.599007	2573.544327
623.946179	2572.276476
624.293297	2573.793864
624.640363	2574.870150
624.987376	2576.468196
625.334336	2577.547003
625.681243	2575.601117
626.028097	2577.173957
626.374899	2579.041705
626.721647	2574.557598
627.068343	2578.368711
627.414987	2575.873340
627.761577	2576.795871
628.108115	2574.539954
628.454600	2577.796540
628.801032	2576.190932
629.147412	2576.269070
629.493739	2576.750500
629.840014	2576.937023
630.186236	2579.074472
630.532405	2577.206725
630.878521	2576.382496
631.224585	2578.409040
631.570597	2574.023236
631.916556	2575.326374
632.262462	2575.253278
632.608316	2577.418453
632.954117	2577.776375
633.299866	2579.901222
633.645562	2578.530028
633.991206	2578.512384
634.336797	2577.869637
634.682336	2576.165727
635.027823	2576.334605
635.373257	2577.244533
635.718639	2574.464337
636.063968	2578.366190
636.409245	2576.690007
636.754470	2577.582291
637.099642	2574.529872
637.444762	2579.155131
637.789829	2575.805284
638.134845	2574.716395
638.479808	2573.836713
638.824719	2575.712023
639.169577	2578.391396
639.514383	2574.897876
639.859137	2573.211610
640.203839	2576.939544
640.548489	2576.760583
640.893086	2572.415108
641.237632	2569.463512
641.582125	2573.383010
641.926566	2571.568194
642.270955	2571.301013
642.615292	2575.409553
642.959576	2577.506673
643.303809	2577.000037
643.647990	2575.152455
643.992118	2574.366035
644.336195	2578.310737
644.680219	2576.286714
645.024192	2572.309244
645.368112	2577.055490
645.711981	2576.896694
646.055797	2573.791343
646.399562	2573.551888
646.743274	2576.977352
647.086935	2574.761765
647.430544	2578.565316
647.774101	2573.251940
648.117606	2574.514749
648.461059	2577.325192
648.804460	2577.915007
649.147810	2575.545665
649.491108	2575.238154
649.834354	2576.309399
650.177548	2575.767475
650.520690	2575.575912
650.863781	2575.522979
651.206820	2578.822415
651.549807	2576.841241
651.892742	2578.041036
652.235626	2574.456775
652.578458	2574.088771
652.921238	2576.337126
653.263967	2578.172106
653.606644	2573.221693
653.949269	2575.207907
654.291843	2575.903587
654.634365	2576.087589
654.976836	2574.600448
655.319255	2574.325705
655.661622	2575.555747
656.003938	2576.760583
656.346203	2575.732187
656.688416	2576.712692
657.030577	2573.887125
657.372687	2574.655901
657.714746	2573.866960
658.056753	2574.527352
658.398708	2571.744635
658.740612	2574.698751
659.082465	2571.553071
659.424266	2570.895200
659.766016	2570.312947
660.107715	2575.696899
660.449362	2575.918710
660.790958	2576.609348
661.132503	2575.752352
661.473996	2576.105233
661.815438	2577.879719
662.156829	2575.296127
662.498168	2575.407033
662.839456	2573.766137
663.180693	2577.080696
663.521879	2575.250757
663.863013	2577.965418
664.204097	2574.489543
664.545129	2575.530541
664.886110	2574.287897
665.227040	2575.628844
665.567918	2573.574573
665.908746	2576.848803
666.249522	2574.507187
666.590248	2576.503484
666.930922	2574.166909
667.271545	2572.198338
667.612118	2575.439800
667.952639	2574.802094
668.293109	2576.422825
668.633528	2573.604820
668.973896	2573.771178
669.314213	2572.904100
669.654480	2577.917527
669.994695	2576.248906
670.334859	2574.355952
670.674973	2575.802763
671.015035	2575.686817
671.355047	2573.836713
671.695008	2575.938875
672.034918	2573.052814
672.374777	2576.531210
672.714585	2574.073648
673.054342	2572.762948
673.394049	2576.684965
673.733705	2574.817218
674.073310	2576.437949
674.412864	2573.115828
674.752368	2575.676735
675.091820	2575.500294
675.431223	2574.436611
675.770574	2574.169430
676.109875	2569.929819
676.449125	2571.348904
676.788324	2572.984758
677.127473	2572.079871
677.466571	2569.493759
677.805619	2576.296797
678.144616	2576.405181
678.483562	2577.030284
678.822458	2574.401323
679.161303	2576.412743
679.500098	2576.682445
679.838842	2575.487691
680.177535	2575.182702
680.516179	2572.715057
680.854771	2574.585325
681.193314	2577.630182
681.531805	2575.974163
681.870247	2575.097002
682.208638	2574.454255
682.546978	2576.563978
682.885268	2577.133628
683.223508	2575.641447
683.561697	2576.322002
683.899836	2573.718246
684.237925	2572.904100
684.575963	2572.029460
684.913951	2573.614903
685.251889	2572.420149
685.589776	2574.708833
685.927614	2574.799574
686.265401	2577.219328
686.603137	2574.222362
686.940824	2575.157496
687.278460	2575.074317
687.616046	2575.419636
687.953582	2572.636919
688.291068	2574.315623
688.628504	2573.435942
688.965889	2573.143555
689.303224	2573.481312
689.640510	2573.201528
689.977745	2577.456262
690.314930	2574.779409
690.652065	2575.109605
690.989150	2578.489698
691.326185	2573.909810
691.663170	2573.972825
692.000105	2577.741087
692.336990	2573.950139
692.673825	2573.917372
693.010610	2576.006930
693.347345	2569.269428
693.684030	2570.091136
694.020665	2572.916703
694.357251	2571.028791
694.693786	2571.832855
695.030272	2575.376786
695.366707	2571.916034
695.703093	2573.435942
696.039429	2572.760427
696.375716	2573.919893
696.711952	2572.488205
697.048139	2572.034501
697.384276	2574.958370
697.720363	2572.226065
698.056400	2574.807136
698.392388	2573.292269
698.728326	2575.296127
699.064214	2574.565160
699.400053	2574.247567
699.735842	2574.310582
700.071581	2574.224882
700.407270	2575.424677
700.742910	2571.358986
701.078501	2574.849985
701.414042	2573.589697
701.749533	2577.446180
702.084974	2574.544996
702.420366	2570.696075
702.755709	2575.596076
703.091002	2574.119018
703.426246	2572.137845
703.761440	2575.543144
704.096584	2574.013154
704.431679	2572.294120
704.766725	2575.510377
705.101721	2571.472412
705.436668	2574.169430
705.771565	2574.918041
706.106413	2573.781261
706.441212	2572.742783
706.775961	2575.391909
707.110661	2572.770509
707.445311	2575.260839
707.779913	2572.382341
708.114465	2573.924934
708.448967	2575.006261
708.783421	2573.267063
709.117825	2574.252609
709.452180	2571.661456
709.786485	2572.087433
710.120742	2574.063565
710.454949	2573.738411
710.789107	2569.818914
711.123216	2568.314129
711.457275	2570.010478
711.791286	2570.660787
712.125247	2572.800756
712.459159	2574.703792
712.793023	2576.155644
713.126837	2572.760427
713.460602	2573.166240
713.794318	2573.393092
714.127985	2577.395768
714.461602	2575.764955
714.795171	2575.391909
715.128691	2573.110787
715.462162	2574.048442
715.795584	2572.079871
716.128957	2573.511559
716.462281	2571.447207
716.795556	2573.990469
717.128782	2574.018195
717.461960	2575.039029
717.795088	2574.240006
718.128167	2570.680951
718.461198	2576.218659
718.794180	2574.318144
719.127113	2572.092474
719.459997	2573.982907
719.792833	2572.767989
720.125619	2572.556260
720.458357	2575.071796
720.791046	2572.188256
721.123686	2574.164388
721.456278	2572.226065
721.788821	2571.263204
722.121315	2573.340160
722.453761	2574.255129
722.786158	2572.715057
723.118506	2574.950808
723.450805	2574.635736
723.783056	2571.825293
724.115259	2570.580128
724.447412	2573.632547
724.779518	2572.342011
725.111574	2573.461147
725.443582	2577.017682
725.775542	2574.744121
726.107453	2575.482650
726.439315	2575.243195
726.771129	2577.085737
727.102895	2576.385017
727.434612	2572.974676
727.766281	2571.890828
728.097901	2570.857392
728.429473	2572.198338
728.760996	2568.782957
729.092471	2568.793039
729.423897	2574.701271
729.755276	2570.940571
730.086606	2573.317475
730.417887	2571.671538
730.749120	2573.491394
731.080305	2574.519790
731.411442	2574.265212
731.742530	2572.122721
732.073570	2573.587176
732.404562	2574.313102
732.735506	2571.535427
733.066401	2570.466702
733.397249	2573.206569
733.728048	2572.773030
734.058798	2573.652711
734.389501	2574.532393
734.720156	2572.904100
735.050762	2572.372258
735.381320	2572.326888
735.711831	2574.547516
736.042293	2573.108267
736.372707	2572.770509
736.703073	2576.395099
737.033391	2572.626837
737.363661	2572.226065
737.693883	2574.234965
738.024056	2574.199677
738.354182	2571.812690
738.684260	2574.005592
739.014290	2572.306723
739.344272	2572.586507
739.674207	2572.725139
740.004093	2571.611044
740.333931	2572.092474
740.663722	2573.511559
740.993464	2572.074830
741.323159	2571.104408
741.652806	2572.485684
741.982405	2572.112639
742.311956	2572.006775
742.641460	2573.052814
742.970915	2573.141034
743.300323	2571.240519
743.629683	2571.820252
743.958996	2573.062896
744.288260	2571.258163
744.617477	2574.330747
744.946647	2570.426373
745.275768	2568.145251
745.604842	2569.098029
745.933869	2567.416804
746.262847	2567.638615
746.591778	2571.167422
746.920662	2572.465520
747.249498	2573.635067
747.578286	2572.047104
747.907027	2570.696075
748.235720	2572.253791
748.564365	2574.870150
748.892963	2572.215982
749.221514	2570.854871
749.550017	2572.052145
749.878473	2570.386044
750.206881	2572.208421
750.535242	2572.268915
750.863555	2572.054666
751.191821	2574.096333
751.520039	2571.031311
751.848210	2572.107598
752.176334	2574.113977
752.504411	2569.256825
752.832440	2572.077351
753.160421	2571.079202
753.488356	2571.323698
753.816243	2574.222362
754.144082	2571.742114
754.471875	2571.545509
754.799620	2570.754048
755.127318	2569.874367
755.454969	2573.075499
755.782572	2573.332598
756.110129	2574.676066
756.437638	2572.881415
756.765100	2569.506362
757.092515	2571.336301
757.419882	2573.708164
757.747203	2571.507700
758.074477	2574.073648
758.401703	2573.118349
758.728882	2570.769171
759.056014	2571.333781
759.383099	2574.585325
759.710138	2574.134142
760.037129	2571.220355
760.364073	2573.564491
760.690970	2574.305541
761.017820	2574.005592
761.344623	2573.451065
761.671379	2571.689182
761.998088	2567.686506
762.324751	2566.947977
762.651366	2570.930488
762.977935	2571.777402
763.304456	2567.648697
763.630931	2573.385530
763.957359	2571.558112
764.283740	2571.817731
764.610074	2571.986610
764.936362	2572.238668
765.262602	2572.228585
765.588796	2573.141034
765.914943	2569.937381
766.241044	2572.649522
766.567097	2574.487022
766.893104	2571.016188
767.219064	2572.967114
767.544978	2571.111970
767.870845	2570.484346
768.196665	2571.202711
768.522438	2571.545509
768.848165	2571.951322
769.173846	2572.054666
769.499479	2572.394943
769.825066	2571.646332
770.150607	2572.064748
770.476101	2572.137845
770.801548	2574.396282
771.126949	2572.538616
771.452303	2570.963256
771.777611	2572.150447
772.102872	2574.209759
772.428087	2573.012485
772.753256	2572.445355
773.078378	2572.669686
773.403453	2571.979048
773.728482	2572.163050
774.053465	2571.164902
774.378401	2571.951322
774.703291	2570.875036
775.028135	2568.747669
775.352932	2571.689182
775.677683	2573.509038
776.002388	2571.850499
776.327046	2572.480643
776.651658	2574.671024
776.976224	2571.243040
777.300743	2571.079202
777.625216	2572.117680
777.949643	2570.890159
778.274024	2572.727660
778.598359	2565.826320
778.922647	2568.394788
779.246889	2569.140879
779.571086	2569.377813
779.895236	2564.356824
780.219339	2569.161043
780.543397	2570.428893
780.867409	2568.634243
781.191374	2570.421332
781.515294	2571.167423
781.839167	2570.038204
782.162995	2570.683472
782.486776	2573.004923
782.810511	2571.343863
783.134201	2571.621126
783.457844	2570.781774
783.781441	2573.733370
784.104993	2573.940057
784.428498	2572.682289
784.751958	2572.014336
785.075372	2574.608010
785.398739	2569.849161
785.722061	2573.756055
786.045337	2571.714388
786.368568	2571.192628
786.691752	2570.007957
787.014891	2569.460992
787.337983	2570.116342
787.661030	2571.439645
787.984031	2571.953842
788.306987	2569.002247
788.629897	2572.125242
788.952760	2570.703636
789.275579	2571.064079
789.598351	2570.673389
789.921078	2571.825293
790.243759	2569.385375
790.566395	2571.043914
790.888984	2573.685479
791.211529	2571.653894
791.534027	2572.445355
791.856480	2570.469223
792.178888	2571.328739
792.501249	2568.659448
792.823566	2571.434604
793.145836	2572.042063
793.468062	2570.859912
793.790241	2572.205900
794.112375	2570.837227
794.434464	2570.068451
794.756507	2571.190108
795.078505	2570.869994
795.400457	2567.711712
795.722364	2568.170457
796.044226	2566.446382
796.366042	2569.410580
796.687812	2562.630228
797.009538	2571.636250
797.331218	2568.619119
797.652852	2570.693554
797.974442	2569.082905
798.295986	2569.345045
798.617484	2568.926630
798.938938	2571.482495
799.260346	2570.875036
799.581709	2570.398647
799.903026	2570.254974
800.224299	2569.498801
800.545526	2571.469892
800.866708	2572.500808
801.187845	2570.323029
801.508936	2568.488049
801.829983	2571.122052
802.150984	2571.046435
802.471940	2568.878739
802.792851	2569.032494
803.113717	2572.115159
803.434538	2569.929819
803.755314	2572.097515
804.076045	2568.339335
804.396731	2569.587021
804.717372	2570.930488
805.037967	2572.014336
805.358518	2568.977041
805.679024	2574.862588
805.999485	2569.481157
806.319901	2571.646332
806.640272	2569.788667
806.960598	2569.418142
807.280879	2567.938563
807.601115	2568.288924
807.921306	2569.650035
808.241453	2568.903944
808.561554	2570.290262
808.881611	2571.490056
809.201623	2571.611044
809.521590	2572.039542
809.841513	2571.757238
810.161390	2569.556774
810.481223	2570.708678
810.801011	2569.113152
811.120755	2571.800087
811.440453	2570.363358
811.760107	2571.273287
812.079716	2566.617781
812.399281	2567.237843
812.718801	2569.108111
813.038276	2566.368244
813.357707	2571.651373
813.677093	2570.754048
813.996434	2571.666497
814.315731	2568.304047
814.634983	2570.169274
814.954191	2568.724983
815.273354	2571.958884
815.592473	2567.545353
815.911547	2571.053997
816.230577	2570.438976
816.549562	2569.072823
816.868502	2567.565518
817.187399	2571.333781
817.506250	2570.464182
817.825058	2571.565674
818.143821	2570.317988
818.462539	2572.120201
818.781213	2571.611044
819.099843	2572.031980
819.418429	2570.136507
819.736970	2570.169274
820.055466	2570.698595
820.373919	2570.058369
820.692327	2569.408060
821.010691	2568.926630
821.329011	2569.723132
821.647286	2573.514080
821.965517	2572.871333
822.283704	2573.806467
822.601847	2573.698082
822.919945	2571.790005
823.237999	2572.457958
823.556010	2572.465520
823.873976	2573.362845
824.191897	2573.723287
824.509775	2573.972825
824.827609	2572.079871
825.145398	2568.752710
825.463144	2569.287072
825.780845	2571.910993
826.098502	2569.309757
826.416116	2570.275138
826.733685	2570.837227
827.051210	2570.028122
827.368692	2571.716908
827.686129	2569.193811
828.003522	2568.046948
828.320872	2565.228943
828.638177	2567.568039
828.955439	2570.713719
829.272656	2562.685681
829.589830	2566.942936
829.906960	2572.901579
830.224046	2571.928637
830.541088	2570.885118
830.858086	2569.234140
831.175041	2570.796898
831.491952	2568.649366
831.808819	2569.211455
832.125642	2569.067782
832.442421	2565.183573
832.759157	2565.601989
833.075849	2568.157854
833.392497	2565.987637
833.709101	2572.999882
834.025662	2569.428224
834.342179	2569.934860
834.658653	2570.559963
834.975083	2569.455951
835.291469	2572.914182
835.607811	2570.335632
835.924110	2570.156671
836.240366	2568.576269
836.556578	2567.948646
836.872746	2570.817062
837.188871	2571.071641
837.504952	2574.159347
837.820990	2569.503842
838.136984	2566.887483
838.452935	2569.050138
838.768842	2567.905796
839.084706	2569.143399
839.400526	2568.712381
839.716303	2570.151630
840.032037	2569.221537
840.347727	2566.680796
840.663373	2571.122052
840.978977	2567.802452
841.294537	2569.309757
841.610054	2569.103070
841.925527	2570.249933
842.240957	2572.147927
842.556344	2569.866805
842.871687	2568.775395
843.186987	2570.648184
843.502244	2567.210117
843.817458	2569.975190
844.132629	2567.131979
844.447756	2570.776733
844.762840	2567.855384
845.077881	2565.619633
845.392879	2566.988306
845.707833	2566.456464
846.022745	2566.867318
846.337613	2568.523337
846.652438	2568.540981
846.967221	2568.379664
847.281960	2570.635581
847.596656	2570.567525
847.911309	2568.077195
848.225919	2567.159705
848.540485	2567.537792
848.855009	2570.184397
849.169490	2569.123235
849.483928	2569.004767
849.798323	2569.554253
850.112675	2568.430076
850.426984	2567.605847
850.741251	2566.824468
851.055474	2569.382854
851.369654	2568.752710
851.683792	2569.055179
851.997887	2568.800601
852.311938	2565.869170
852.625947	2567.986454
852.939914	2570.305385
853.253837	2567.094170
853.567718	2566.988306
853.881555	2569.773543
854.195350	2569.738255
854.509103	2570.585169
854.822812	2569.975190
855.136479	2567.089129
855.450103	2568.059551
855.763685	2571.401836
856.077224	2569.161043
856.390720	2569.592062
856.704173	2565.720456
857.017584	2569.418142
857.330953	2568.198183
857.644278	2568.546023
857.957561	2569.002247
858.270802	2567.326063
858.584000	2568.576269
858.897155	2570.965776
859.210268	2568.336815
859.523339	2567.167267
859.836367	2567.315981
860.149352	2569.738255
860.462295	2569.960066
860.775195	2564.099725
861.088054	2562.491597
861.400869	2562.985630
861.713642	2562.902451
862.026373	2567.442010
862.339062	2567.464695
862.651708	2568.326732
862.964312	2568.336815
863.276873	2567.348748
863.589392	2567.268090
863.901869	2567.943605
864.214303	2566.993347
864.526696	2567.149623
864.839045	2568.667010
865.151353	2571.270766
865.463619	2569.188770
865.775842	2570.239850
866.088023	2566.383367
866.400162	2570.507031
866.712258	2566.859757
867.024313	2570.832186
867.336325	2565.740620
867.648296	2566.789180
867.960224	2567.744479
868.272110	2569.760941
868.583954	2567.850343
868.895755	2568.140210
869.207515	2567.941084
869.519233	2567.081567
869.830909	2569.231619
870.142542	2571.013667
870.454134	2567.338666
870.765684	2569.082905
871.077191	2568.596434
871.388657	2568.944274
871.700081	2569.040056
872.011463	2569.186249
872.322803	2568.102401
872.634101	2571.255643
872.945357	2567.194993
873.256571	2568.011660
873.567744	2567.996537
873.878874	2569.171126
874.189963	2567.986454
874.501010	2565.836402
874.812015	2567.376475
875.122979	2567.835220
875.433900	2567.794891
875.744780	2566.726166
876.055618	2566.532082
876.366415	2568.883780
876.677169	2569.972669
876.987882	2566.141392
877.298554	2564.122410
877.609183	2566.025446
877.919771	2566.312791
878.230317	2564.775239
878.540822	2569.236661
878.851285	2567.762123
879.161707	2567.091650
879.472087	2570.491908
879.782425	2567.903275
880.092722	2568.906465
880.402977	2568.566187
880.713191	2567.333625
881.023363	2566.890003
881.333494	2568.883780
881.643583	2569.662638
881.953631	2568.659448
882.263637	2571.021229
882.573602	2572.546178
882.883526	2568.672051
883.193408	2569.249263
883.503248	2568.447720
883.813048	2570.033163
884.122806	2569.206414
884.432522	2569.859243
884.742197	2566.910168
885.051831	2569.428224
885.361424	2566.527040
885.670975	2567.951166
885.980485	2566.464026
886.289954	2570.171795
886.599382	2567.878070
886.908768	2569.365210
887.218113	2566.365723
887.527417	2568.442679
887.836680	2565.725497
888.145901	2567.404201
888.455082	2566.612740
888.764221	2567.681465
889.073319	2567.555436
889.382376	2568.241033
889.691392	2566.080898
890.000366	2565.627194
890.309300	2569.198852
890.618193	2568.684654
890.927044	2565.002091
891.235855	2568.795560
891.544625	2569.387895
891.853353	2566.572411
892.162041	2568.150292
892.470687	2567.457133
892.779293	2569.052658
893.087858	2567.409242
893.396381	2560.132337
893.704864	2563.842626
894.013306	2562.257183
894.321707	2569.980231
894.630068	2566.809345
894.938387	2568.508214
895.246665	2566.204407
895.554903	2567.963769
895.863100	2568.089798
896.171256	2568.684654
896.479371	2568.283882
896.787446	2565.516289
897.095480	2567.494942
897.403473	2567.023594
897.711425	2568.740107
898.019336	2567.686506
898.327207	2565.506207
898.635038	2569.256825
898.942827	2567.273131
899.250576	2564.082081
899.558284	2565.312122
899.865952	2564.515620
900.173579	2566.527040
900.481165	2566.458985
900.788711	2568.185580
901.096216	2567.396639
901.403681	2566.332956
901.711105	2566.521999
902.018489	2568.679613
902.325832	2570.015519
902.633135	2566.859757
902.940397	2565.286917
903.247619	2564.165260
903.554800	2568.314129
903.861941	2569.420663
904.169041	2568.009140
904.476101	2566.998388
904.783121	2567.323543
905.090100	2567.016032
905.397039	2567.744479
905.703938	2568.987123
906.010796	2568.087277
906.317614	2568.969479
906.624391	2571.764799
906.931129	2564.939077
907.237826	2568.057031
907.544483	2568.362020
907.851099	2567.315981
908.157675	2567.036197
908.464211	2567.873028
908.770707	2563.086453
909.077163	2565.400343
909.383578	2562.564693
909.689954	2564.102245
909.996289	2562.466391
910.302584	2567.300858
910.608839	2566.118707
910.915054	2567.653738
911.221229	2566.431258
911.527363	2568.755230
911.833458	2564.787842
912.139513	2564.636608
912.445527	2566.819427
912.751502	2566.438820
913.057436	2565.569221
913.363331	2565.513768
913.669186	2569.760941
913.975000	2564.681978
914.280775	2567.106773
914.586510	2567.522668
914.892205	2567.472257
915.197859	2568.326732
915.503475	2568.266238
915.809050	2567.497463
916.114585	2566.980744
916.420081	2563.217523
916.725536	2570.277659
917.030952	2569.579459
917.336328	2569.642473
917.641665	2566.174160
917.946961	2565.969993
918.252218	2566.748851
918.557435	2568.319171
918.862612	2568.629202
919.167750	2567.066444
919.472848	2567.043759
919.777906	2566.632905
920.082925	2570.912844
920.387904	2567.051320
920.692843	2569.723132
920.997743	2563.951011
921.302603	2565.140723
921.607423	2566.821948
921.912204	2566.658110
922.216946	2566.983265
922.521647	2567.207596
922.826310	2569.118193
923.130932	2570.663307
923.435516	2565.591906
923.740059	2567.184911
924.044564	2567.502504
924.349028	2566.779098
924.653454	2563.577965
924.957840	2565.251628
925.262186	2562.647872
925.566493	2566.015363
925.870761	2561.667368
926.174989	2564.394632
926.479178	2566.577452
926.783328	2568.160374
927.087438	2563.157029
927.391509	2565.690209
927.695541	2566.426217
927.999533	2566.718604
928.303486	2565.859088
928.607400	2565.982596
928.911275	2564.447564
929.215110	2567.300857
929.518906	2564.878583
929.822663	2568.205745
930.126381	2565.697771
930.430060	2565.954869
930.733699	2566.360682
931.037299	2566.116186
931.340861	2565.748182
931.644383	2566.781619
931.947866	2567.023594
932.251309	2567.386557
932.554714	2568.871177
932.858080	2567.341187
933.161407	2568.435117
933.464694	2566.214489
933.767943	2566.040569
934.071153	2568.341856
934.374323	2566.738769
934.677455	2565.228943
934.980548	2563.802297
935.283602	2565.176011
935.586617	2565.380178
935.889593	2567.585683
936.192530	2564.455126
936.495428	2567.074006
936.798287	2563.094015
937.101108	2565.304561
937.403890	2567.515107
937.706632	2568.326732
938.009336	2565.518810
938.312002	2566.398491
938.614628	2563.996381
938.917216	2568.346897
939.219765	2566.403532
939.522275	2564.303892
939.824747	2565.488563
940.127179	2563.386402
940.429573	2560.981771
940.731929	2562.819272
941.034246	2563.547718
941.336524	2562.700805
941.638763	2565.995199
941.940964	2565.060065
942.243126	2564.354303
942.545250	2566.484191
942.847335	2568.845971
943.149381	2565.488563
943.451389	2565.675085
943.753359	2568.687175
944.055290	2566.045610
944.357182	2566.451423
944.659036	2566.675754
944.960851	2563.585527
945.262628	2567.520148
945.564367	2563.477142
945.866067	2565.458316
946.167729	2566.819427
946.469352	2566.012843
946.770937	2566.892524
947.072484	2567.857905
947.373992	2567.094170
947.675462	2567.242884
947.976893	2565.176011
948.278286	2566.295147
948.579641	2566.496793
948.880958	2565.100394
949.182236	2566.900086
949.483476	2564.717266
949.784678	2566.189283
950.085841	2563.993861
950.386967	2568.641804
950.688054	2566.050651
950.989103	2567.192473
951.290114	2564.001422
951.591087	2567.419325
951.892021	2562.514282
952.192917	2564.387071
952.493776	2564.845816
952.794596	2564.601320
953.095378	2562.811710
953.396122	2566.605178
953.696828	2566.355641
953.997496	2568.394788
954.298126	2566.090981
954.598718	2565.629715
954.899272	2564.568552
955.199788	2566.733728
955.500266	2565.720456
955.800706	2566.290106
956.101108	2562.554611
956.401472	2560.820454
956.701798	2561.372461
957.002087	2561.896741
957.302337	2564.104766
957.602550	2566.801783
957.902724	2564.225754
958.202861	2565.082750
958.502960	2565.296999
958.803022	2566.811866
959.103045	2563.051165
959.403031	2564.460167
959.702979	2564.261042
960.002889	2565.821279
960.302762	2564.934036
960.602596	2565.899417
960.902393	2565.952349
961.202153	2565.952349
961.501875	2562.978068
961.801559	2565.314643
962.101205	2565.846485
962.400814	2561.175856
962.700385	2566.884962
962.999918	2563.976217
963.299414	2564.054354
963.598873	2567.210117
963.898293	2565.889334
964.197677	2567.348748
964.497022	2565.569221
964.796331	2565.826320
965.095601	2566.877401
965.394835	2565.402863
965.694030	2561.914385
965.993189	2566.516958
966.292309	2565.377657
966.591393	2566.005281
966.890439	2563.230126
967.189447	2564.505538
967.488419	2563.033521
967.787353	2565.004612
968.086249	2567.623491
968.385108	2564.029149
968.683930	2564.802966
968.982714	2568.369582
969.281462	2565.682647
969.580172	2564.576114
969.878844	2564.319015
970.177480	2566.847154
970.476078	2565.788511
970.774639	2565.455795
971.073162	2567.810014
971.371649	2561.231308
971.670098	2562.098387
971.968510	2562.670558
972.266885	2559.439178
972.565223	2564.351783
972.863524	2561.677450
973.161788	2565.864129
973.460014	2563.154508
973.758204	2566.552246
974.056356	2565.702812
974.354471	2562.584858
974.652550	2564.119889
974.950591	2562.910012
975.248595	2563.270455
975.546563	2565.377657
975.844493	2567.142061
976.142386	2562.463870
976.440243	2564.780281
976.738062	2563.603171
977.035845	2565.612071
977.333590	2565.677606
977.631299	2567.131979
977.928971	2564.298850
978.226606	2565.397822
978.524204	2564.503017
978.821765	2563.373799
979.119290	2566.945456
979.416777	2563.421690
979.714228	2565.914540
980.011642	2565.032338
980.309020	2567.505024
980.606360	2565.251628
980.903664	2566.446382
981.200931	2565.370096
981.498162	2564.339180
981.795356	2565.286917
982.092513	2562.516802
982.389633	2564.427400
982.686717	2565.685168
982.983764	2562.607543
983.280775	2563.739282
983.577749	2562.854560
983.874686	2566.189283
984.171587	2564.903789
984.468451	2565.193655
984.765279	2566.025446
985.062070	2565.455795
985.358824	2564.946639
985.655543	2566.557287
985.952224	2563.227605
986.248869	2564.208110
986.545478	2561.090156
986.842050	2560.810372
987.138586	2560.822975
987.435086	2561.831206
987.731549	2560.565876
988.027975	2566.290106
988.324366	2564.404715
988.620719	2564.303892
988.917037	2564.840774
989.213318	2563.683830
989.509563	2564.167780
989.805772	2565.823799
990.101944	2563.499827
990.398080	2563.741803
990.694180	2563.356155
990.990244	2562.383212
991.286271	2565.213820
991.582262	2564.145095
991.878217	2563.341031
992.174136	2563.862791
992.470019	2564.273645
992.765865	2567.648697
993.061676	2565.647359
993.357450	2568.228430
993.653188	2562.436144
993.948890	2565.791032
994.244556	2563.046124
994.540186	2563.252811
994.835780	2565.460836
995.131337	2564.825651
995.426859	2564.099725
995.722345	2562.892368
996.017795	2563.517472
996.313208	2565.967472
996.608586	2563.998902
996.903928	2563.388922
997.199234	2565.354972
997.494504	2562.516802
997.789738	2565.680127
998.084936	2564.261042
998.380099	2566.249777
998.675225	2567.061403
998.970316	2564.684499
999.265371	2564.674416
999.560390	2564.737431
999.855373	2564.780281
1000.150320	2566.758933
1000.445232	2563.434293
1000.740108	2563.845147
1001.034948	2562.927657
1001.329752	2560.853222
1001.624521	2562.761298
1001.919254	2559.988664
1002.213951	2560.318859
1002.508613	2558.130999
1002.803239	2563.031000
1003.097829	2557.989846
1003.392384	2563.514951
1003.686903	2565.223902
1003.981386	2563.285578
1004.275834	2563.116700
1004.570246	2565.312122
1004.864623	2562.461350
1005.158964	2564.697102
1005.453270	2565.367575
1005.747540	2563.308264
1006.041775	2562.917574
1006.335974	2565.554098
1006.630138	2565.657441
1006.924266	2564.800445
1007.218359	2563.676268
1007.512416	2564.198027
1007.806438	2564.071998
1008.100425	2563.431772
1008.394376	2564.878583
1008.688292	2563.653583
1008.982172	2563.600651
1009.276017	2565.496124
1009.569827	2564.308933
1009.863602	2564.818089
1010.157341	2563.139385
1010.451045	2564.790363
1010.744714	2565.503686
1011.038347	2564.145095
1011.331945	2564.069478
1011.625508	2563.363716
1011.919036	2562.922615
1012.212528	2561.838767
1012.505986	2563.638459
1012.799408	2563.845147
1013.092795	2561.359858
1013.386147	2560.943963
1013.679464	2565.460836
1013.972745	2561.100238
1014.265992	2563.106617
1014.559204	2564.689540
1014.852380	2561.707697
1015.145521	2563.124262
1015.438628	2563.031000
1015.731699	2563.963614
1016.024736	2564.954200
1016.317737	2567.356310
1016.610703	2565.833882
1016.903635	2560.510423
1017.196531	2559.348437
1017.489393	2561.090156
1017.782219	2558.017573
1018.075011	2561.901782
1018.367768	2563.227605
1018.660490	2565.717935
1018.953177	2565.717935
1019.245829	2565.717935
