Dividing Wavelength (nm)	Counts (n)	Blue Motor Position (mm): 0.000000	Red Motor Position (mm): 16.900000	
326.493990	2128.634773
326.888308	2128.634773
327.282561	2128.634773
327.676750	2096.646132
328.070874	2096.240319
328.464933	2098.372727
328.858929	2105.679879
329.252859	2111.394027
329.646726	2127.719804
330.040528	2138.344036
330.434265	2155.667961
330.827938	2175.325940
331.221547	2191.172807
331.615091	2208.993286
332.008571	2228.341235
332.401986	2248.180696
332.795338	2265.920516
333.188625	2289.107303
333.581847	2306.862247
333.975006	2325.229691
334.368100	2343.234172
334.761129	2359.834692
335.154095	2376.898997
335.546996	2396.315001
335.939833	2409.704306
336.332606	2425.901533
336.725315	2434.282452
337.117960	2447.553289
337.510540	2455.097376
337.903056	2466.313943
338.295508	2472.839717
338.687896	2477.890953
339.080220	2487.378404
339.472480	2496.533140
339.864676	2499.204951
340.256807	2509.249450
340.648875	2509.090654
341.040879	2511.253309
341.432818	2511.853206
341.824694	2513.841942
342.216506	2516.274298
342.608253	2513.403361
342.999937	2516.367560
343.391557	2516.286901
343.783113	2513.017713
344.174605	2512.110305
344.566033	2511.006292
344.957397	2508.626868
345.348697	2507.946312
345.739934	2506.678462
346.131106	2503.570591
346.522215	2500.840806
346.913260	2502.862308
347.304241	2498.816782
347.695159	2497.117914
348.086012	2494.478870
348.476802	2493.843684
348.867528	2492.394353
349.258191	2493.349651
349.648789	2488.202633
350.039324	2487.307828
350.429796	2489.833446
350.820203	2485.893785
351.210548	2485.987046
351.600828	2485.072077
351.991045	2483.990749
352.381198	2484.394041
352.771288	2483.375728
353.161314	2481.076962
353.551276	2483.695842
353.941175	2483.020327
354.331010	2481.525625
354.720782	2483.358084
355.110490	2484.217601
355.500135	2482.138125
355.889717	2481.679380
356.279235	2481.818012
356.668689	2486.281953
357.058080	2483.597539
357.447408	2482.435553
357.836672	2480.600573
358.225873	2484.199957
358.615010	2478.765593
359.004084	2486.914618
359.393095	2484.799854
359.782043	2485.848414
360.170927	2487.655668
360.559748	2489.238590
360.948505	2491.202120
361.337199	2489.914105
361.725830	2490.098107
362.114398	2491.708756
362.502903	2491.386122
362.891344	2492.094404
363.279722	2492.890906
363.668037	2494.078098
364.056289	2490.957624
364.444478	2496.228150
364.832603	2495.426607
365.220665	2495.834940
365.608665	2496.931391
365.996601	2497.879128
366.384474	2499.716628
366.772284	2502.804335
367.160031	2501.828872
367.547715	2504.664521
367.935336	2506.149141
368.322893	2507.732063
368.710388	2511.724657
369.097820	2517.232118
369.485189	2520.002232
369.872495	2527.246370
370.259738	2534.578728
370.646918	2543.128525
371.034035	2546.634647
371.421090	2557.674774
371.808081	2569.760941
372.195010	2576.327043
372.581875	2589.199630
372.968678	2603.680344
373.355418	2614.249123
373.742096	2631.585651
374.128710	2647.369504
374.515262	2662.024138
374.901751	2676.580470
375.288177	2692.066895
375.674540	2714.920966
376.060841	2731.415621
376.447079	2748.817684
376.833254	2767.240581
377.219367	2784.055349
377.605417	2819.298056
377.991404	2828.732575
378.377329	2852.778879
378.763191	2866.516023
379.148991	2904.150758
379.534727	2930.321908
379.920402	2958.171762
380.306013	2970.630974
380.691563	3021.365146
381.077049	3042.490101
381.462474	3059.882082
381.847835	3098.557814
382.233134	3120.832153
382.618371	3118.253602
383.003545	3186.478058
383.388657	3197.490459
383.773706	3227.374419
384.158693	3241.955956
384.543618	3269.871346
384.928480	3307.291831
385.313280	3349.370342
385.698017	3349.362780
386.082692	3401.483270
386.467305	3405.874115
386.851856	3440.539609
387.236344	3462.004842
387.620770	3491.344358
388.005133	3517.550796
388.389435	3543.419477
388.773674	3554.237793
389.157851	3597.599278
389.541965	3613.851958
389.926018	3578.440373
390.310008	3647.393275
390.693936	3669.433199
391.077802	3711.126062
391.461606	3697.956048
391.845348	3759.211108
392.229027	3761.608177
392.612645	3775.486473
392.996200	3848.981455
393.379694	3887.606776
393.763125	3953.361066
394.146494	3920.603649
394.529801	3982.584635
394.913047	4031.403169
395.296230	3998.232377
395.679351	4052.056776
396.062410	4075.780446
396.445408	4053.760686
396.828343	4085.194801
397.211217	4111.575159
397.594028	4025.830173
397.976778	4092.522118
398.359466	4121.102940
398.742092	4146.407012
399.124656	4066.434147
399.507158	4145.963390
399.889598	4167.869724
400.271977	4223.045153
400.654294	4190.484340
401.036549	4196.511040
401.418742	4155.506294
401.800874	4246.864605
402.182944	4256.082355
402.564952	4309.805931
402.946898	4286.409936
403.328783	4271.747740
403.710606	4175.154192
404.092367	4341.169470
404.474067	4291.327582
404.855705	4282.747538
405.237282	4199.747461
405.618797	4279.029687
406.000250	4288.930513
406.381642	4335.566228
406.762972	4284.506901
407.144240	4263.311369
407.525447	4243.618102
407.906593	4265.433695
408.287677	4270.585754
408.668700	4184.941592
409.049661	4198.270403
409.430560	4200.029765
409.811399	4107.146506
410.192176	4198.252758
410.572891	4118.955408
410.953545	4153.078979
411.334138	4036.272924
411.714669	4048.084347
412.095139	3938.348510
412.475547	3990.806757
412.855894	3938.189714
413.236180	3903.446082
413.616405	3835.307326
413.996568	3847.148996
414.376670	3773.598561
414.756711	3709.548181
415.136691	3685.045653
415.516609	3682.865354
415.896466	3658.650171
416.276262	3633.399032
416.655997	3581.901125
417.035670	3611.883387
417.415283	3612.440435
417.794834	3543.033828
418.174324	3488.992659
418.553753	3407.247829
418.933121	3431.092487
419.312428	3407.847726
419.691674	3342.247191
420.070859	3338.315091
420.449983	3273.758075
420.829045	3262.740633
421.208047	3205.369782
421.586988	3177.719053
421.965867	3142.897283
422.344686	3132.101652
422.723444	3070.347517
423.102141	3003.532064
423.480777	3026.693646
423.859352	2957.586988
424.237866	2964.276599
424.616319	2937.500511
424.994712	2922.225815
425.373044	2878.987838
425.751314	2867.768750
426.129524	2818.307469
426.507673	2817.790751
426.885762	2802.052269
427.263789	2773.070675
427.641756	2747.320461
428.019662	2736.595407
428.397508	2716.813919
428.775292	2698.801876
429.153016	2689.059846
429.530679	2671.645180
429.908282	2661.391473
430.285824	2645.587456
430.663305	2641.806591
431.040726	2621.359671
431.418086	2615.106119
431.795385	2607.826693
432.172624	2601.512648
432.549802	2593.406473
432.926920	2588.819023
433.303977	2584.017324
433.680974	2576.042218
434.057910	2574.539954
434.434786	2571.406877
434.811601	2563.151988
435.188355	2563.220043
435.565050	2559.713921
435.941683	2557.367264
436.318257	2555.771739
436.694770	2550.055070
437.071222	2549.576161
437.447614	2545.608773
437.823946	2545.545758
438.200218	2548.232693
438.576429	2544.797147
438.952580	2544.179605
439.328670	2545.616334
439.704700	2541.394368
440.080670	2541.570808
440.456580	2545.767569
440.832429	2543.178936
441.208218	2543.123484
441.583947	2543.199101
441.959616	2544.469472
442.335224	2540.426466
442.710773	2540.975952
443.086261	2540.676003
443.461689	2541.454862
443.837057	2542.906714
444.212365	2539.569470
444.587612	2540.189532
444.962800	2540.907897
445.337927	2540.749100
445.712995	2538.851106
446.088002	2540.991076
446.462949	2540.890252
446.837837	2544.129194
447.212664	2540.620551
447.587431	2542.752959
447.962139	2546.100285
448.336786	2550.518856
448.711374	2544.900490
449.085901	2546.034750
449.460369	2542.828576
449.834776	2541.969059
450.209124	2541.880839
450.583412	2543.988042
450.957640	2545.011396
451.331808	2543.345294
451.705917	2541.467465
452.079965	2542.117773
452.453954	2542.689944
452.827883	2541.472506
453.201752	2540.668442
453.575562	2542.692465
453.949311	2542.387475
454.323001	2542.286652
454.696632	2545.293700
455.070202	2544.376210
455.443713	2544.227496
455.817164	2542.861344
456.190556	2540.509645
456.563888	2543.672969
456.937160	2540.620551
457.310373	2542.889070
457.683526	2541.994265
458.056619	2546.364946
458.429653	2543.473844
458.802628	2544.542568
459.175542	2545.830583
459.548398	2547.514329
459.921194	2546.614483
460.293930	2547.925183
460.666607	2551.201933
461.039224	2548.681356
461.411782	2547.116078
461.784280	2552.898281
462.156719	2550.811243
462.529099	2550.894422
462.901419	2547.476520
463.273680	2552.686553
463.645882	2549.251006
464.018024	2552.363919
464.390106	2551.025492
464.762130	2553.772921
465.134094	2551.864844
465.505999	2557.518498
465.877845	2563.265414
466.249631	2563.464539
466.621358	2565.115517
466.993026	2561.458160
467.364634	2565.730538
467.736184	2560.031514
468.107674	2559.635783
468.479105	2558.115875
468.850477	2557.168138
469.221790	2558.506565
469.593043	2555.640669
469.964238	2555.353323
470.335373	2555.388611
470.706449	2557.722665
471.077467	2558.650238
471.448425	2562.453788
471.819324	2567.731876
472.190164	2566.842113
472.560945	2563.756926
472.931667	2557.266441
473.302330	2558.491441
473.672934	2554.745864
474.043479	2557.205947
474.413965	2556.268292
474.784393	2554.221584
475.154761	2558.307439
475.525070	2556.250648
475.895321	2557.193344
476.265513	2556.870710
476.635645	2560.616287
477.005719	2559.827347
477.375734	2562.433623
477.745691	2562.131154
478.115588	2561.521175
478.485427	2564.986968
478.855207	2566.844633
479.224928	2569.828996
479.594591	2573.859399
479.964194	2573.526682
480.333739	2569.496280
480.703226	2569.513924
481.072653	2572.894018
481.442022	2572.215982
481.811333	2574.434090
482.180584	2574.134142
482.549777	2571.840417
482.918912	2567.373954
483.287988	2570.038204
483.657005	2570.945612
484.025964	2572.553740
484.394864	2568.457802
484.763706	2571.865622
485.132489	2567.789849
485.501213	2567.956208
485.869879	2569.297154
486.238487	2566.209448
486.607036	2564.981927
486.975527	2565.423028
487.343959	2567.368913
487.712333	2565.614592
488.080648	2566.373285
488.448905	2569.203893
488.817104	2566.436300
489.185244	2567.759602
489.553326	2565.319684
489.921350	2570.413770
490.289315	2574.512228
490.657222	2573.693041
491.025070	2574.681107
491.392861	2573.945098
491.760593	2574.146744
492.128267	2569.992834
492.495883	2571.091805
492.863440	2568.026784
493.230939	2565.780950
493.598380	2566.685837
493.965763	2561.821123
494.333088	2563.807338
494.700354	2558.405742
495.067563	2563.141906
495.434713	2557.836091
495.801805	2566.282544
496.168839	2565.899417
496.535815	2566.300188
496.902733	2566.486711
497.269593	2564.500497
497.636395	2564.578634
498.003139	2563.184755
498.369825	2566.554767
498.736453	2564.747513
499.103023	2567.835220
499.469535	2565.334807
499.835989	2562.857080
500.202385	2565.095353
500.568723	2566.668193
500.935003	2569.057700
501.301226	2563.908161
501.667390	2564.450085
502.033497	2569.990313
502.399546	2564.936556
502.765537	2564.770198
503.131470	2565.155847
503.497345	2566.166598
503.863163	2565.148285
504.228923	2567.046279
504.594625	2569.536609
504.960269	2565.702812
505.325856	2569.801270
505.691385	2567.265569
506.056856	2565.322205
506.422270	2568.278841
506.787625	2566.882442
507.152924	2567.643656
507.518164	2566.290106
507.883347	2569.380333
508.248472	2567.799932
508.613540	2567.562997
508.978550	2566.108625
509.343503	2564.215671
509.708398	2566.602658
510.073236	2569.566856
510.438016	2570.580128
510.802738	2571.147258
511.167403	2568.220868
511.532010	2565.947308
511.896561	2569.743297
512.261053	2569.944943
512.625488	2564.714746
512.989866	2563.456978
513.354186	2563.625856
513.718449	2562.345403
514.082655	2565.712894
514.446803	2568.140210
514.810894	2568.876218
515.174927	2568.178018
515.538904	2567.936043
515.902822	2568.762792
516.266684	2564.833213
516.630488	2569.740776
516.994235	2569.970148
517.357925	2568.926630
517.721558	2569.115673
518.085133	2567.464695
518.448651	2571.515262
518.812112	2569.876887
519.175516	2571.351425
519.538863	2570.081054
519.902152	2569.387895
520.265385	2571.094326
520.628560	2567.033676
520.991678	2568.528378
521.354739	2570.290262
521.717743	2568.271280
522.080690	2571.051476
522.443580	2569.070302
522.806413	2568.167936
523.169189	2568.992165
523.531908	2568.924109
523.894569	2571.187587
524.257174	2569.554253
524.619722	2569.904613
524.982213	2572.105077
525.344647	2569.788667
525.707025	2570.655745
526.069345	2569.329922
526.431608	2570.708677
526.793815	2568.064592
527.155964	2569.657597
527.518057	2569.161043
527.880093	2570.529717
528.242072	2569.924778
528.603995	2570.325550
528.965860	2567.431927
529.327669	2571.409398
529.689421	2564.689540
530.051117	2570.002916
530.412755	2566.895045
530.774337	2568.445199
531.135862	2570.174315
531.497331	2565.987637
531.858743	2566.895045
532.220098	2568.183059
532.581396	2565.198696
532.942638	2565.135682
533.303824	2568.722463
533.664953	2571.043914
534.026025	2567.527709
534.387040	2568.979562
534.747999	2568.175498
535.108902	2569.768502
535.469748	2569.657597
535.830537	2569.869325
536.191270	2566.547205
536.551947	2568.220868
536.912567	2567.391598
537.273131	2566.665672
537.633638	2568.442679
537.994089	2566.249777
538.354483	2565.647359
538.714821	2569.455951
539.075103	2567.197514
539.435328	2568.926630
539.795497	2567.401681
540.155609	2568.891342
540.515665	2569.070302
540.875665	2567.747000
541.235609	2566.335477
541.595496	2569.327401
541.955328	2568.450241
542.315102	2567.424366
542.674821	2568.674572
543.034483	2567.416804
543.394090	2566.741289
543.753640	2569.229099
544.113134	2565.029818
544.472571	2568.886300
544.831953	2567.794891
545.191278	2567.326063
545.550548	2563.507389
545.909761	2567.038717
546.268918	2565.286917
546.628019	2568.326732
546.987064	2570.660787
547.346053	2567.028635
547.704986	2569.080385
548.063863	2568.961918
548.422684	2566.509396
548.781449	2567.502504
549.140158	2567.016032
549.498811	2567.691547
549.857408	2567.038718
550.215949	2564.576114
550.574434	2562.829354
550.932864	2563.925805
551.291237	2565.672565
551.649555	2567.172308
552.007817	2568.949315
552.366022	2569.947463
552.724173	2568.152812
553.082267	2567.235322
553.440305	2567.963769
553.798288	2564.923953
554.156215	2568.883780
554.514086	2568.886300
554.871902	2567.164746
555.229661	2567.074006
555.587365	2565.697771
555.945014	2569.506362
556.302606	2568.790518
556.660143	2569.511403
557.017625	2566.532082
557.375050	2566.332956
557.732421	2568.674572
558.089735	2568.094839
558.446994	2568.914027
558.804197	2568.641804
559.161345	2567.391598
559.518437	2568.198183
559.875474	2569.413101
560.232455	2565.508727
560.589381	2567.880590
560.946251	2565.322205
561.303065	2567.114335
561.659825	2565.269272
562.016528	2565.120558
562.373177	2568.689695
562.729770	2566.942936
563.086307	2569.511403
563.442789	2567.573080
563.799216	2566.146433
564.155587	2565.894376
564.511904	2567.870508
564.868164	2565.846485
565.224370	2567.764644
565.580520	2567.182390
565.936615	2567.983934
566.292654	2564.409756
566.648638	2564.069478
567.004567	2566.075857
567.360441	2565.100394
567.716260	2567.999057
568.072023	2565.652400
568.427732	2562.952862
568.783385	2565.007132
569.138982	2563.630897
569.494525	2566.436300
569.850013	2560.225598
570.205445	2565.959911
570.560823	2566.345559
570.916145	2566.597617
571.271412	2564.225754
571.626625	2566.063254
571.981782	2565.617112
572.336884	2565.483522
572.691931	2564.220712
573.046923	2562.897410
573.401860	2562.930177
573.756743	2565.130641
574.111570	2562.849519
574.466342	2562.869683
574.821059	2566.388409
575.175722	2564.394632
575.530330	2567.008471
575.884882	2562.846998
576.239380	2566.874880
576.593823	2563.882955
576.948211	2563.935887
577.302544	2564.566032
577.656823	2564.931515
578.011047	2564.283727
578.365216	2564.878583
578.719330	2565.302040
579.073389	2564.308933
579.427394	2562.967986
579.781344	2562.814231
580.135239	2563.217523
580.489080	2561.921946
580.842866	2562.985630
581.196597	2562.516802
581.550273	2564.815569
581.903895	2564.074519
582.257463	2565.266752
582.610975	2563.963614
582.964434	2562.063099
583.317837	2562.242060
583.671186	2565.294478
584.024481	2561.279199
584.377721	2563.784653
584.730906	2560.976730
585.084037	2564.939077
585.437113	2561.047306
585.790135	2564.177863
586.143103	2562.151319
586.496016	2564.472770
586.848874	2559.489590
587.201679	2560.941442
587.554428	2561.004456
587.907124	2560.490259
588.259765	2557.561348
588.612352	2564.566032
588.964884	2561.435475
589.317362	2562.287430
589.669786	2561.768191
590.022155	2561.826164
590.374470	2564.460167
590.726731	2565.034859
591.078937	2562.882286
591.431090	2558.597305
591.783188	2560.722152
592.135232	2562.857080
592.487222	2561.821123
592.839157	2563.053685
593.191038	2563.043603
593.542866	2559.892882
593.894639	2562.877245
594.246358	2562.194169
594.598022	2558.501523
594.949633	2562.705846
595.301190	2559.071174
595.652692	2560.878428
596.004141	2560.001267
596.355535	2563.333469
596.706876	2560.480176
597.058162	2557.092521
597.409395	2559.308108
597.760573	2560.051678
598.111698	2561.153170
598.462768	2562.549570
598.813785	2560.893551
599.164748	2560.714590
599.515657	2558.241904
599.866511	2557.337017
600.217312	2559.345917
600.568060	2558.902295
600.918753	2556.878272
601.269392	2559.517316
601.619978	2558.869528
601.970510	2562.320197
602.320988	2560.089487
602.671412	2559.852553
603.021783	2557.274002
603.372100	2561.664847
603.722363	2557.047151
604.072572	2559.688715
604.422728	2560.230639
604.772830	2555.996070
605.122878	2556.593447
605.472872	2555.144115
605.822813	2554.445915
606.172701	2556.303580
606.522534	2557.382387
606.872314	2559.600495
607.222041	2560.051678
607.571714	2560.071843
607.921333	2558.166287
608.270899	2556.222922
608.620411	2558.753581
608.969870	2559.660989
609.319276	2560.051678
609.668627	2562.789025
610.017926	2565.012174
610.367171	2567.197514
610.716362	2564.772719
611.065500	2562.753737
611.414585	2563.046124
611.763616	2563.633418
612.112594	2559.270299
612.461518	2561.952193
612.810389	2559.388767
613.159207	2559.454302
613.507971	2563.368757
613.856682	2561.876576
614.205340	2558.239383
614.553945	2560.117213
614.902496	2560.510423
615.250994	2557.768036
615.599439	2559.930691
615.947830	2559.043448
616.296169	2560.520506
616.644454	2560.691905
616.992686	2557.914229
617.340864	2560.238201
617.688990	2556.900957
618.037063	2560.797769
618.385082	2560.152501
618.733048	2558.572100
619.080961	2560.021431
619.428821	2559.333314
619.776628	2557.962120
620.124382	2561.314487
620.472083	2560.885989
620.819731	2559.083777
621.167326	2559.918088
621.514868	2557.899106
621.862357	2556.898437
622.209793	2555.386090
622.557176	2561.526216
622.904506	2557.294167
623.251783	2554.892057
623.599007	2554.080432
623.946179	2556.117058
624.293297	2553.046995
624.640363	2559.852553
624.987376	2556.464897
625.334336	2559.040927
625.681243	2557.251317
626.028097	2558.864487
626.374899	2558.433468
626.721647	2553.183106
627.068343	2556.422048
627.414987	2558.279713
627.761577	2557.223591
628.108115	2555.078580
628.454600	2555.433981
628.801032	2552.245452
629.147412	2556.759805
629.493739	2555.484393
629.840014	2556.611091
630.186236	2557.082439
630.532405	2555.242418
630.878521	2555.980947
631.224585	2555.350802
631.570597	2555.262582
631.916556	2554.211502
632.262462	2556.056564
632.608316	2556.096893
632.954117	2551.721172
633.299866	2554.367777
633.645562	2553.616645
633.991206	2555.071018
634.336797	2554.771070
634.682336	2553.634289
635.027823	2554.526574
635.373257	2553.175544
635.718639	2552.545400
636.063968	2552.126984
636.409245	2551.779145
636.754470	2551.607746
637.099642	2553.127653
637.444762	2555.496996
637.789829	2553.046995
638.134845	2552.280740
638.479808	2551.983312
638.824719	2552.429454
639.169577	2552.976419
639.514383	2552.825184
639.859137	2551.741336
640.203839	2554.511450
640.548489	2552.709238
640.893086	2549.538352
641.237632	2548.061294
641.582125	2551.194371
641.926566	2548.076417
642.270955	2550.901984
642.615292	2552.250493
642.959576	2551.910215
643.303809	2548.620862
643.647990	2551.731254
643.992118	2551.277550
644.336195	2550.566747
644.680219	2549.823177
645.024192	2549.389638
645.368112	2549.979453
645.711981	2553.384752
646.055797	2552.689073
646.399562	2553.110009
646.743274	2550.990204
647.086935	2551.630431
647.430544	2552.096737
647.774101	2550.831408
648.117606	2553.621687
648.461059	2551.771583
648.804460	2552.857952
649.147810	2551.017931
649.491108	2552.729402
649.834354	2551.915256
650.177548	2551.401058
650.520690	2552.590771
650.863781	2549.762683
651.206820	2553.626728
651.549807	2550.740667
651.892742	2549.770245
652.235626	2549.671943
652.578458	2550.523897
652.921238	2551.390976
653.263967	2550.705379
653.606644	2553.377191
653.949269	2552.079093
654.291843	2550.395348
654.634365	2550.344937
654.976836	2549.911397
655.319255	2554.435833
655.661622	2550.153373
656.003938	2550.221428
656.346203	2551.085986
656.688416	2549.122457
657.030577	2550.269319
657.372687	2548.106664
657.714746	2548.968702
658.056753	2548.275543
658.398708	2546.715306
658.740612	2548.688917
659.082465	2546.130532
659.424266	2548.330996
659.766016	2545.976777
660.107715	2551.902653
660.449362	2548.240255
660.790958	2548.071376
661.132503	2548.182282
661.473996	2550.836449
661.815438	2547.630275
662.156829	2553.341903
662.498168	2546.790923
662.839456	2548.290666
663.180693	2548.741850
663.521879	2550.846531
663.863013	2549.349309
664.204097	2550.019782
664.545129	2552.056408
664.886110	2548.620862
665.227040	2550.886861
665.567918	2549.823177
665.908746	2549.583722
666.249522	2551.940462
666.590248	2547.201777
666.930922	2549.308979
667.271545	2551.363250
667.612118	2552.341233
667.952639	2549.346788
668.293109	2548.658671
668.633528	2549.462735
668.973896	2548.671273
669.314213	2549.480379
669.654480	2548.346119
669.994695	2550.171017
670.334859	2551.267468
670.674973	2551.385935
671.015035	2551.748898
671.355047	2551.408620
671.695008	2549.369473
672.034918	2550.844011
672.374777	2549.077086
672.714585	2552.008517
673.054342	2551.146480
673.394049	2550.576830
673.733705	2548.267981
674.073310	2549.477858
674.412864	2551.809392
674.752368	2550.070194
675.091820	2549.142621
675.431223	2549.308979
675.770574	2548.890564
676.109875	2545.792775
676.449125	2546.927034
676.788324	2543.126004
677.127473	2547.111036
677.466571	2543.758669
677.805619	2546.818649
678.144616	2547.370656
678.483562	2546.286808
678.822458	2548.056253
679.161303	2549.855945
679.500098	2548.986346
679.838842	2547.857127
680.177535	2547.453835
680.516179	2547.748742
680.854771	2547.388300
681.193314	2547.874771
681.531805	2548.298228
681.870247	2553.220915
682.208638	2551.043136
682.546978	2547.978115
682.885268	2549.830739
683.223508	2551.348126
683.561697	2550.024823
683.899836	2549.636654
684.237925	2547.489123
684.575963	2548.925852
684.913951	2547.216901
685.251889	2548.920811
685.589776	2548.194884
685.927614	2549.530790
686.265401	2548.139432
686.603137	2548.646068
686.940824	2547.211859
687.278460	2551.844680
687.616046	2548.003321
687.953582	2550.070194
688.291068	2551.469114
688.628504	2547.282436
688.965889	2548.983825
689.303224	2548.550286
689.640510	2550.337375
689.977745	2548.129349
690.314930	2548.744370
690.652065	2551.254865
690.989150	2548.555327
691.326185	2548.946016
691.663170	2549.813095
692.000105	2551.479196
692.336990	2546.997610
692.673825	2549.800492
693.010610	2547.521890
693.347345	2545.354194
693.684030	2540.408822
694.020665	2543.960315
694.357251	2539.859337
694.693786	2546.160779
695.030272	2545.230686
695.366707	2547.516849
695.703093	2547.055584
696.039429	2546.317055
696.375716	2545.618855
696.711952	2544.421581
697.048139	2544.023330
697.384276	2541.696837
697.720363	2547.983156
698.056400	2546.029709
698.392388	2547.060625
698.728326	2546.201108
699.064214	2542.803370
699.400053	2546.191026
699.735842	2543.642723
700.071581	2546.047353
700.407270	2545.938968
700.742910	2549.472817
701.078501	2541.901004
701.414042	2545.986859
701.749533	2540.958308
702.084974	2545.903680
702.420366	2545.253371
702.755709	2544.048535
703.091002	2541.490150
703.426246	2543.531817
703.761440	2545.296221
704.096584	2544.822353
704.431679	2544.739173
704.766725	2544.295552
705.101721	2541.802701
705.436668	2546.054915
705.771565	2542.596683
706.106413	2546.627086
706.441212	2544.371169
706.775961	2545.074410
707.110661	2542.876467
707.445311	2546.763197
707.779913	2544.396375
708.114465	2544.625747
708.448967	2542.866385
708.783421	2542.936961
709.117825	2546.185985
709.452180	2545.318906
709.786485	2541.666590
710.120742	2546.075079
710.454949	2544.136756
710.789107	2542.725233
711.123216	2541.222969
711.457275	2545.354194
711.791286	2543.380582
712.125247	2542.513504
712.459159	2543.660367
712.793023	2547.990718
713.126837	2543.781354
713.460602	2545.424770
713.794318	2546.916952
714.127985	2544.731612
714.461602	2544.280428
714.795171	2545.160110
715.128691	2543.436035
715.462162	2546.024668
715.795584	2542.783206
716.128957	2544.776982
716.462281	2543.078113
716.795556	2542.715150
717.128782	2544.179605
717.461960	2543.216745
717.795088	2543.531817
718.128167	2543.105840
718.461198	2541.928730
718.794180	2543.637681
719.127113	2545.530635
719.459997	2545.253371
719.792833	2540.040818
720.125619	2543.783875
720.458357	2540.668442
720.791046	2541.472506
721.123686	2542.148020
721.456278	2542.437887
721.788821	2542.934440
722.121315	2541.923689
722.453761	2540.791950
722.786158	2540.766744
723.118506	2541.686755
723.450805	2542.999975
723.783056	2541.762372
724.115259	2539.791281
724.447412	2540.895294
724.779518	2544.555171
725.111574	2542.606765
725.443582	2544.245140
725.775542	2541.399409
726.107453	2540.338246
726.439315	2539.793802
726.771129	2546.813608
727.102895	2541.943854
727.434612	2543.224307
727.766281	2543.325130
728.097901	2539.924872
728.429473	2539.524100
728.760996	2542.611807
729.092471	2537.227854
729.423897	2543.113401
729.755276	2541.858154
730.086606	2543.625078
730.417887	2542.279090
730.749120	2544.290511
731.080305	2544.020809
731.411442	2542.667259
731.742530	2540.194573
732.073570	2545.772610
732.404562	2544.766900
732.735506	2544.267826
733.066401	2541.038967
733.397249	2544.194729
733.728048	2542.763041
734.058798	2542.813453
734.389501	2540.043339
734.720156	2543.683052
735.050762	2543.851930
735.381320	2543.183977
735.711831	2542.667259
736.042293	2540.204656
736.372707	2543.015099
736.703073	2543.559543
737.033391	2540.814635
737.363661	2539.168698
737.693883	2540.008051
738.024056	2545.533155
738.354182	2542.392516
738.684260	2542.591642
739.014290	2538.500746
739.344272	2543.511653
739.674207	2543.461241
740.004093	2543.882177
740.333931	2540.328164
740.663722	2543.062990
740.993464	2539.040149
741.323159	2547.451314
741.652806	2541.036446
741.982405	2542.271529
742.311956	2542.621889
742.641460	2542.722712
742.970915	2542.180788
743.300323	2540.552495
743.629683	2542.432846
743.958996	2541.830428
744.288260	2542.536189
744.617477	2541.956457
744.946647	2535.491177
745.275768	2541.321271
745.604842	2536.045704
745.933869	2538.420087
746.262847	2537.550488
746.591778	2540.570139
746.920662	2538.188194
747.249498	2541.444779
747.578286	2541.182639
747.907027	2541.608617
748.235720	2540.774306
748.564365	2540.534851
748.892963	2539.148534
749.221514	2544.063659
749.550017	2538.921682
749.878473	2541.661549
750.206881	2538.684748
750.535242	2541.596014
750.863555	2538.873791
751.191821	2540.668442
751.520039	2539.927392
751.848210	2539.821528
752.176334	2539.846734
752.504411	2539.965201
752.832440	2537.926054
753.160421	2541.361600
753.488356	2538.049562
753.816243	2541.439738
754.144082	2537.903369
754.471875	2540.144162
754.799620	2541.464944
755.127318	2536.801877
755.454969	2539.032587
755.782572	2539.806404
756.110129	2541.830428
756.437638	2539.614841
756.765100	2538.709953
757.092515	2538.757844
757.419882	2539.965201
757.747203	2539.957639
758.074477	2538.226003
758.401703	2539.433359
758.728882	2540.035777
759.056014	2537.933616
759.383099	2540.040818
759.710138	2543.380582
760.037129	2542.077444
760.364073	2539.569470
760.690970	2539.516538
761.017820	2540.272711
761.344623	2539.067875
761.671379	2540.471837
761.998088	2536.496887
762.324751	2537.895807
762.651366	2541.091899
762.977935	2544.280428
763.304456	2545.079451
763.630931	2551.199412
763.957359	2547.731098
764.283740	2545.018958
764.610074	2542.573998
764.936362	2541.596014
765.262602	2541.732125
765.588796	2543.294883
765.914943	2541.540561
766.241044	2541.175078
766.567097	2540.572660
766.893104	2539.418236
767.219064	2539.617361
767.544978	2541.046528
767.870845	2539.055272
768.196665	2537.641229
768.522438	2540.093750
768.848165	2541.424615
769.173846	2539.113246
769.499479	2542.211035
769.825066	2539.854295
770.150607	2538.261291
770.476101	2541.769934
770.801548	2540.282793
771.126949	2537.658873
771.452303	2540.353370
771.777611	2536.829603
772.102872	2538.513348
772.428087	2538.220962
772.753256	2540.116435
773.078378	2536.804397
773.403453	2536.287679
773.728482	2537.021167
774.053465	2536.189377
774.378401	2540.595345
774.703291	2535.211393
775.028135	2536.164171
775.352932	2536.915303
775.677683	2539.889583
776.002388	2535.685261
776.327046	2535.826413
776.651658	2536.844727
776.976224	2536.131403
777.300743	2537.469830
777.625216	2538.001671
777.949643	2534.898841
778.274024	2540.602907
778.598359	2534.198121
778.922647	2529.620753
779.246889	2534.624098
779.571086	2532.776515
779.895236	2536.375899
780.219339	2537.389171
780.543397	2538.399922
780.867409	2535.624767
781.191374	2535.584438
781.515294	2537.336239
781.839167	2536.693492
782.162995	2539.259439
782.486776	2535.584438
782.810511	2535.024870
783.134201	2536.814480
783.457844	2537.202648
783.781441	2535.523944
784.104993	2535.849099
784.428498	2534.495549
784.751958	2533.888090
785.075372	2537.220293
785.398739	2536.232226
785.722061	2536.454037
786.045337	2537.560570
786.368568	2537.994110
786.691752	2536.562422
787.014891	2534.480425
787.337983	2535.712988
787.661030	2538.228523
787.984031	2536.864891
788.306987	2539.582073
788.629897	2537.636188
788.952760	2538.654501
789.275579	2538.326826
789.598351	2539.267001
789.921078	2537.026208
790.243759	2536.033101
790.566395	2534.253573
790.888984	2533.925898
791.211529	2535.526465
791.534027	2538.115097
791.856480	2536.247350
792.178888	2534.888759
792.501249	2535.763399
792.823566	2538.306661
793.145836	2537.366486
793.468062	2537.114428
793.790241	2535.173584
794.112375	2539.072917
794.434464	2535.949922
794.756507	2537.164840
795.078505	2536.885056
795.400457	2534.750127
795.722364	2531.780888
796.044226	2536.900179
796.366042	2533.210055
796.687812	2534.346835
797.009538	2539.249357
797.331218	2537.187525
797.652852	2537.421939
797.974442	2536.759027
798.295986	2537.341280
798.617484	2537.242978
798.938938	2535.571835
799.260346	2535.808769
799.581709	2534.200641
799.903026	2534.886238
800.224299	2533.091587
800.545526	2537.495035
800.866708	2536.227185
801.187845	2537.537885
801.508936	2536.890097
801.829983	2537.404295
802.150984	2537.232895
802.471940	2535.387833
802.792851	2535.055117
803.113717	2536.375899
803.434538	2536.348173
803.755314	2536.632998
804.076045	2539.103163
804.396731	2535.498738
804.717372	2535.327339
805.037967	2534.445137
805.358518	2534.155271
805.679024	2535.566794
805.999485	2536.101156
806.319901	2535.811290
806.640272	2535.087884
806.960598	2534.409849
807.280879	2535.075282
807.601115	2536.564943
807.921306	2537.026208
808.241453	2536.244829
808.561554	2536.043183
808.881611	2537.593338
809.201623	2535.244160
809.521590	2539.178781
809.841513	2537.222813
810.161390	2536.496887
810.481223	2535.778523
810.801011	2538.921682
811.120755	2533.063861
811.440453	2533.242822
811.760107	2536.552340
812.079716	2531.788449
812.399281	2530.399611
812.718801	2531.246525
813.038276	2532.693336
813.357707	2532.844571
813.677093	2535.539068
813.996434	2536.701054
814.315731	2535.176105
814.634983	2535.448327
814.954191	2536.703574
815.273354	2534.399767
815.592473	2534.916485
815.911547	2534.200641
816.230577	2537.089222
816.549562	2534.707277
816.868502	2535.168543
817.187399	2534.760209
817.506250	2536.454037
817.825058	2535.347504
818.143821	2537.469830
818.462539	2538.664583
818.781213	2537.076620
819.099843	2537.706764
819.418429	2537.167360
819.736970	2537.840354
820.055466	2538.611651
820.373919	2541.240613
820.692327	2542.931920
821.010691	2542.218597
821.329011	2549.571119
821.647286	2560.674261
821.965517	2576.621951
822.283704	2585.123857
822.601847	2587.394897
822.919945	2582.081521
823.237999	2571.540468
823.556010	2564.079560
823.873976	2560.402038
824.191897	2554.332489
824.509775	2546.864020
824.827609	2547.111036
825.145398	2544.358566
825.463144	2546.193546
825.780845	2546.700182
826.098502	2545.747404
826.416116	2548.792261
826.733685	2553.412479
827.051210	2556.774928
827.368692	2554.302242
827.686129	2548.162117
828.003522	2546.874102
828.320872	2539.882022
828.638177	2535.138296
828.955439	2538.924202
829.272656	2534.745086
829.589830	2532.799201
829.906960	2537.994110
830.224046	2540.290355
830.541088	2536.290200
830.858086	2538.581404
831.175041	2536.494366
831.491952	2537.525282
831.808819	2538.954449
832.125642	2536.892617
832.442421	2538.266332
832.759157	2537.058976
833.075849	2541.545603
833.392497	2541.288504
833.709101	2547.161448
834.025662	2546.133052
834.342179	2545.596170
834.658653	2543.128525
834.975083	2541.623740
835.291469	2542.669780
835.607811	2536.524613
835.924110	2539.123328
836.240366	2536.935467
836.556578	2535.776002
836.872746	2536.549819
837.188871	2534.535878
837.504952	2535.486136
837.820990	2533.656197
838.136984	2532.872297
838.452935	2533.245343
838.768842	2535.181146
839.084706	2534.334232
839.400526	2537.111908
839.716303	2539.627443
840.032037	2537.888245
840.347727	2537.714326
840.663373	2537.812628
840.978977	2539.793802
841.294537	2535.284489
841.610054	2536.809438
841.925527	2533.515044
842.240957	2536.650642
842.556344	2536.658204
842.871687	2534.646783
843.186987	2537.013605
843.502244	2535.662576
843.817458	2532.148892
844.132629	2534.828265
844.447756	2532.839530
844.762840	2525.900382
845.077881	2531.228881
845.392879	2528.610002
845.707833	2533.071423
846.022745	2526.656555
846.337613	2531.354910
846.652438	2534.193080
846.967221	2532.650487
847.281960	2534.205683
847.596656	2535.050076
847.911309	2533.331042
848.225919	2533.542771
848.540485	2532.131248
848.855009	2532.874818
849.169490	2533.235260
849.483928	2533.048738
849.798323	2534.099818
850.112675	2535.317257
850.426984	2533.600744
850.741251	2529.814837
851.055474	2532.451361
851.369654	2531.748120
851.683792	2531.785929
851.997887	2533.734335
852.311938	2531.707791
852.625947	2533.661238
852.939914	2534.873635
853.253837	2530.565969
853.567718	2534.583769
853.881555	2533.673841
854.195350	2529.759385
854.509103	2531.077647
854.822812	2536.486805
855.136479	2533.212575
855.450103	2532.005219
855.763685	2534.503111
856.077224	2532.554705
856.390720	2533.825075
856.704173	2530.195445
857.017584	2534.097298
857.330953	2530.888603
857.644278	2531.763243
857.957561	2532.965559
858.270802	2531.352389
858.584000	2532.337935
858.897155	2532.965559
859.210268	2534.717360
859.523339	2534.762730
859.836367	2533.956145
860.149352	2533.469674
860.462295	2531.985054
860.775195	2530.795342
861.088054	2527.372398
861.400869	2533.091588
861.713642	2527.816020
862.026373	2534.813142
862.339062	2532.252235
862.651708	2535.279448
862.964312	2535.445806
863.276873	2535.367668
863.589392	2531.664941
863.901869	2531.460774
864.214303	2531.533871
864.526696	2533.341125
864.839045	2531.332225
865.151353	2533.089067
865.463619	2534.445137
865.775842	2533.779705
866.088023	2529.421627
866.400162	2533.467153
866.712258	2531.438089
867.024313	2534.140147
867.336325	2534.046886
867.648296	2531.042358
867.960224	2531.695188
868.272110	2535.501259
868.583954	2533.578059
868.895755	2536.759027
869.207515	2531.725435
869.519233	2531.614529
869.830909	2533.525127
870.142542	2534.853471
870.454134	2533.230219
870.765684	2533.504962
871.077191	2532.441279
871.388657	2533.938501
871.700081	2531.241484
872.011463	2531.125537
872.322803	2532.156453
872.634101	2532.678213
872.945357	2533.131917
873.256571	2534.228368
873.567744	2534.054448
873.878874	2533.331042
874.189963	2533.593182
874.501010	2535.949922
874.812015	2534.671989
875.122979	2533.227699
875.433900	2534.354397
875.744780	2534.553522
876.055618	2536.295241
876.366415	2533.746938
876.677169	2533.116793
876.987882	2532.526978
877.298554	2530.223171
877.609183	2529.535053
877.919771	2530.389529
878.230317	2532.259797
878.540822	2533.462112
878.851285	2534.798018
879.161707	2534.795498
879.472087	2538.800694
879.782425	2538.321785
880.092722	2540.403781
880.402977	2543.025181
880.713191	2549.389638
881.023363	2557.311811
881.333494	2561.042265
881.643583	2563.562842
881.953631	2563.646021
882.263637	2562.995712
882.573602	2556.573282
882.883526	2553.044474
883.193408	2549.999617
883.503248	2544.577857
883.813048	2546.178423
884.122806	2543.932589
884.432522	2544.232538
884.742197	2541.139790
885.051831	2540.549975
885.361424	2536.567463
885.670975	2540.703730
885.980485	2538.694830
886.289954	2537.958822
886.599382	2534.924047
886.908768	2536.937988
887.218113	2532.791639
887.527417	2536.333049
887.836680	2535.065199
888.145901	2533.946063
888.455082	2533.262987
888.764221	2531.518748
889.073319	2532.063192
889.382376	2533.701567
889.691392	2531.223840
890.000366	2533.542771
890.309300	2532.763913
890.618193	2534.545960
890.927044	2534.251053
891.235855	2537.139634
891.544625	2533.061341
891.853353	2532.322812
892.162041	2532.768954
892.470687	2535.344983
892.779293	2535.236598
893.087858	2533.704088
893.396381	2532.884900
893.704864	2531.770805
894.013306	2533.441948
894.321707	2540.058462
894.630068	2544.499719
894.938387	2544.391334
895.246665	2544.245140
895.554903	2542.821014
895.863100	2540.098791
896.171256	2538.977135
896.479371	2536.701054
896.787446	2537.190046
897.095480	2534.424973
897.403473	2536.557381
897.711425	2532.441279
898.019336	2535.811290
898.327207	2534.629139
898.635038	2532.466484
898.942827	2534.682072
899.250576	2533.058820
899.558284	2534.167874
899.865952	2534.119983
900.173579	2534.450178
900.481165	2533.091587
900.788711	2533.754499
901.096216	2533.411701
901.403681	2532.519417
901.711105	2532.358100
902.018489	2529.729138
902.325832	2533.961187
902.633135	2534.024201
902.940397	2533.300795
903.247619	2534.692154
903.554800	2535.503780
903.861941	2539.829090
904.169041	2544.348484
904.476101	2546.024668
904.783121	2544.789585
905.090100	2541.449821
905.397039	2539.950077
905.703938	2537.550488
906.010796	2539.009902
906.317614	2535.536547
906.624391	2536.217103
906.931129	2534.994623
907.237826	2535.198790
907.544483	2530.132430
907.851099	2536.421270
908.157675	2529.910619
908.464211	2531.632173
908.770707	2529.446833
909.077163	2530.578572
909.383578	2524.335103
909.689954	2530.571011
909.996289	2528.920033
910.302584	2531.518748
910.608839	2531.072605
910.915054	2533.293234
911.221229	2529.872811
911.527363	2534.908923
911.833458	2529.645959
912.139513	2530.518078
912.445527	2530.699560
912.751502	2532.882380
913.057436	2532.380785
913.363331	2531.987575
913.669186	2529.512368
913.975000	2533.961187
914.280775	2532.569828
914.586510	2536.562422
914.892205	2532.917668
915.197859	2538.364634
915.503475	2540.542413
915.809050	2546.410316
916.114585	2545.674307
916.420081	2544.628268
916.725536	2546.735470
917.030952	2544.325799
917.336328	2542.468134
917.641665	2541.994265
917.946961	2539.624923
918.252218	2538.412525
918.557435	2534.246012
918.862612	2536.209541
919.167750	2533.905734
919.472848	2534.082174
919.777906	2533.086546
920.082925	2535.128214
920.387904	2534.835827
920.692843	2532.779036
920.997743	2534.356917
921.302603	2534.740045
921.607423	2531.964890
921.912204	2533.706608
922.216946	2531.967410
922.521647	2532.562266
922.826310	2533.850281
923.130932	2530.354241
923.435516	2531.246525
923.740059	2533.152081
924.044564	2531.009591
924.349028	2528.347862
924.653454	2526.270906
924.957840	2530.631504
925.262186	2526.918695
925.566493	2530.041689
925.870761	2528.738551
926.174989	2531.266690
926.479178	2530.732327
926.783328	2531.629653
927.087438	2529.199817
927.391509	2529.620753
927.695541	2531.697708
927.999533	2530.613860
928.303486	2530.107224
928.607400	2530.104704
928.911275	2531.586803
929.215110	2529.371216
929.518906	2530.818027
929.822663	2529.666123
930.126381	2529.998840
930.430060	2528.519261
930.733699	2529.676206
931.037299	2530.613860
931.340861	2531.087729
931.644383	2529.666123
931.947866	2530.066895
932.251309	2531.223840
932.554714	2529.381298
932.858080	2528.206709
933.161407	2528.783922
933.464694	2528.115969
933.767943	2531.455733
934.071153	2528.736031
934.374323	2530.172759
934.677455	2531.604447
934.980548	2529.330887
935.283602	2529.963552
935.586617	2529.580424
935.889593	2530.235774
936.192530	2528.645290
936.495428	2531.738038
936.798287	2529.910619
937.101108	2530.442461
937.403890	2528.143695
937.706632	2530.533202
938.009336	2529.819879
938.312002	2532.509334
938.614628	2529.487163
938.917216	2531.823737
939.219765	2532.310209
939.522275	2529.978675
939.824747	2530.286185
940.127179	2529.015815
940.429573	2526.528005
940.731929	2527.294261
941.034246	2525.839888
941.336524	2527.899199
941.638763	2527.947090
941.940964	2530.122348
942.243126	2531.125537
942.545250	2531.473377
942.847335	2529.945907
943.149381	2529.035979
943.451389	2527.329549
943.753359	2527.979858
944.055290	2531.687626
944.357182	2526.311236
944.659036	2528.746113
944.960851	2531.501103
945.262628	2527.269055
945.564367	2531.281813
945.866067	2530.399611
946.167729	2528.877183
946.469352	2529.182173
946.770937	2530.752492
947.072484	2529.134282
947.373992	2530.102183
947.675462	2529.051103
947.976893	2529.383819
948.278286	2528.615043
948.579641	2527.737882
948.880958	2532.353058
949.182236	2530.480270
949.483476	2530.598737
949.784678	2526.850639
950.085841	2529.736700
950.386967	2529.277955
950.688054	2530.069416
950.989103	2526.873324
951.290114	2528.451205
951.591087	2529.726617
951.892021	2529.514889
952.192917	2530.659231
952.493776	2530.525640
952.794596	2528.184024
953.095378	2527.546318
953.396122	2530.840712
953.696828	2528.486493
953.997496	2531.291896
954.298126	2529.703932
954.598718	2528.675537
954.899272	2528.078160
955.199788	2529.441792
955.500266	2530.775177
955.800706	2528.143695
956.101108	2525.706297
956.401472	2525.872655
956.701798	2524.541791
957.002087	2527.216123
957.302337	2526.165042
957.602550	2528.118489
957.902724	2529.832482
958.202861	2526.767460
958.502960	2530.291227
958.803022	2530.583613
959.103045	2527.853829
959.403031	2528.168901
959.702979	2529.003212
960.002889	2527.364837
960.302762	2530.109745
960.602596	2528.249559
960.902393	2529.386339
961.202153	2528.620084
961.501875	2525.101359
961.801559	2529.000691
962.101205	2525.494569
962.400814	2528.420958
962.700385	2528.032790
962.999918	2526.417100
963.299414	2527.319466
963.598873	2526.921215
963.898293	2529.257790
964.197677	2529.512368
964.497022	2527.004394
964.796331	2529.572862
965.095601	2529.504807
965.394835	2529.827440
965.694030	2528.368026
965.993189	2528.536905
966.292309	2526.855680
966.591393	2528.037831
966.890439	2528.829292
967.189447	2527.228726
967.488419	2528.431041
967.787353	2524.582120
968.086249	2525.998684
968.385108	2530.092101
968.683930	2529.787111
968.982714	2527.763088
969.281462	2529.666123
969.580172	2529.807276
969.878844	2528.887265
970.177480	2528.206709
970.476078	2525.741585
970.774639	2532.746268
971.073162	2528.806607
971.371649	2525.040865
971.670098	2525.544980
971.968510	2526.258303
972.266885	2522.336286
972.565223	2528.441123
972.863524	2529.668644
973.161788	2529.033459
973.460014	2526.686802
973.758204	2529.434230
974.056356	2528.133613
974.354471	2530.258459
974.652550	2531.017153
974.950591	2531.065044
975.248595	2527.374919
975.546563	2528.804086
975.844493	2526.033972
976.142386	2529.303160
976.440243	2530.291227
976.738062	2529.426669
977.035845	2527.884076
977.333590	2526.840557
977.631299	2527.095135
977.928971	2526.863242
978.226606	2527.788294
978.524204	2529.976154
978.821765	2526.754857
979.119290	2527.929446
979.416777	2527.586648
979.714228	2527.798376
980.011642	2527.442975
980.309020	2531.080167
980.606360	2526.845598
980.903664	2530.092101
981.200931	2527.185876
981.498162	2525.882737
981.795356	2525.260155
982.092513	2529.590506
982.389633	2529.222502
982.686717	2525.802079
982.983764	2527.810979
983.280775	2530.160157
983.577749	2530.364323
983.874686	2529.522451
984.171587	2529.663603
984.468451	2528.594878
984.765279	2527.195958
985.062070	2528.665454
985.358824	2526.704446
985.655543	2529.686288
985.952224	2528.264683
986.248869	2527.967255
986.545478	2519.929135
986.842050	2526.575896
987.138586	2523.818385
987.435086	2524.556914
987.731549	2524.698066
988.027975	2527.478263
988.324366	2527.460619
988.620719	2529.933305
988.917037	2526.820392
989.213318	2528.983047
989.509563	2529.676206
989.805772	2527.342152
990.101944	2525.865093
990.398080	2528.307533
990.694180	2526.810310
990.990244	2530.492873
991.286271	2526.346524
991.582262	2526.999353
991.878217	2525.431554
992.174136	2525.124044
992.470019	2525.681091
992.765865	2528.509179
993.061676	2526.023890
993.357450	2529.212420
993.653188	2528.168901
993.948890	2527.296781
994.244556	2529.814838
994.540186	2529.222502
994.835780	2526.001205
995.131337	2527.405166
995.426859	2525.812161
995.722345	2524.554393
996.017795	2527.805938
996.313208	2529.335928
996.608586	2528.579755
996.903928	2530.011442
997.199234	2524.687984
997.494504	2528.642769
997.789738	2525.955834
998.084936	2526.291071
998.380099	2528.173942
998.675225	2524.269568
998.970316	2530.490352
999.265371	2525.313087
999.560390	2529.784591
999.855373	2528.005063
1000.150320	2526.633869
1000.445232	2529.945908
1000.740108	2526.225536
1001.034948	2526.888448
1001.329752	2526.122192
1001.624521	2528.108407
1001.919254	2523.200844
1002.213951	2526.570855
1002.508613	2524.027593
1002.803239	2525.809641
1003.097829	2525.297964
1003.392384	2530.187883
1003.686903	2527.029600
1003.981386	2529.335928
1004.275834	2524.108251
1004.570246	2526.061698
1004.864623	2521.655730
1005.158964	2528.000022
1005.453270	2528.854498
1005.747540	2526.543129
1006.041775	2528.431041
1006.335974	2527.957172
1006.630138	2528.788963
1006.924266	2525.986081
1007.218359	2528.305012
1007.512416	2527.647141
1007.806438	2528.342821
1008.100425	2529.703932
1008.394376	2526.099507
1008.688292	2526.258303
1008.982172	2526.225536
1009.276017	2524.824095
1009.569827	2526.860721
1009.863602	2527.891637
1010.157341	2525.935670
1010.451045	2529.192255
1010.744714	2526.490197
1011.038347	2526.742254
1011.331945	2526.603623
1011.625508	2526.817872
1011.919036	2526.671678
1012.212528	2526.790145
1012.505986	2525.887779
1012.799408	2526.580937
1013.092795	2527.899199
1013.386147	2524.745957
1013.679464	2526.162522
1013.972745	2523.190761
1014.265992	2526.467511
1014.559204	2525.933149
1014.852380	2526.046575
1015.145521	2529.109076
1015.438628	2525.532377
1015.731699	2526.399456
1016.024736	2522.963909
1016.317737	2527.284178
1016.610703	2528.368026
1016.903635	2525.655886
1017.196531	2524.297295
1017.489393	2525.033303
1017.782219	2519.349402
1018.075011	2524.418282
1018.367768	2526.091945
1018.660490	2528.768798
1018.953177	2528.768798
1019.245829	2528.768798
