Dividing Wavelength (nm)	Counts (n)	Blue Motor Position (mm): 0.000000	Red Motor Position (mm): 5.500000	
326.493990	2099.640577
326.888308	2099.640577
327.282561	2099.640577
327.676750	2092.078846
328.070874	2013.940962
328.464933	2081.996538
328.858929	2034.105577
329.252859	2008.899808
329.646726	1998.817500
330.040528	2129.887500
330.434265	2114.764038
330.827938	2124.846346
331.221547	2137.449231
331.615091	2132.408077
332.008571	2192.901923
332.401986	2129.887500
332.795338	2255.916346
333.188625	2303.807308
333.581847	2240.792885
333.975006	2276.080962
334.368100	2298.766154
334.761129	2356.739423
335.154095	2286.163269
335.546996	2369.342308
335.939833	2286.163269
336.332606	2339.095385
336.725315	2427.315577
337.117960	2366.821731
337.510540	2465.124231
337.903056	2422.274423
338.295508	2379.424615
338.687896	2472.685962
339.080220	2432.356731
339.472480	2543.262115
339.864676	2455.041923
340.256807	2515.535769
340.648875	2455.041923
341.040879	2434.877308
341.432818	2505.453462
341.824694	2437.397885
342.216506	2568.467885
342.608253	2487.809423
342.999937	2422.274423
343.391557	2442.439038
343.783113	2437.397885
344.174605	2457.562500
344.566033	2568.467885
344.957397	2409.671538
345.348697	2460.083077
345.739934	2447.480192
346.131106	2452.521346
346.522215	2472.685962
346.913260	2409.671538
347.304241	2490.330000
347.695159	2467.644808
348.086012	2465.124231
348.476802	2470.165385
348.867528	2419.753846
349.258191	2419.753846
349.648789	2437.397885
350.039324	2447.480192
350.429796	2485.288846
350.820203	2424.795000
351.210548	2404.630385
351.600828	2412.192115
351.991045	2392.027500
352.381198	2366.821731
352.771288	2422.274423
353.161314	2502.932885
353.551276	2419.753846
353.941175	2359.260000
354.331010	2467.644808
354.720782	2414.712692
355.110490	2364.301154
355.500135	2379.424615
355.889717	2485.288846
356.279235	2381.945192
356.668689	2452.521346
357.058080	2518.056346
357.447408	2450.000769
357.836672	2361.780577
358.225873	2450.000769
358.615010	2530.659231
359.004084	2492.850577
359.393095	2424.795000
359.782043	2485.288846
360.170927	2349.177692
360.559748	2409.671538
360.948505	2424.795000
361.337199	2487.809423
361.725830	2447.480192
362.114398	2399.589231
362.502903	2495.371154
362.891344	2523.097500
363.279722	2432.356731
363.668037	2523.097500
364.056289	2379.424615
364.444478	2397.068654
364.832603	2359.260000
365.220665	2525.618077
365.608665	2455.041923
365.996601	2505.453462
366.384474	2437.397885
366.772284	2470.165385
367.160031	2447.480192
367.547715	2457.562500
367.935336	2452.521346
368.322893	2502.932885
368.710388	2444.959615
369.097820	2472.685962
369.485189	2437.397885
369.872495	2510.494615
370.259738	2409.671538
370.646918	2432.356731
371.034035	2495.371154
371.421090	2583.591346
371.808081	2414.712692
372.195010	2439.918462
372.581875	2444.959615
372.968678	2452.521346
373.355418	2485.288846
373.742096	2482.768269
374.128710	2455.041923
374.515262	2513.015192
374.901751	2525.618077
375.288177	2442.439038
375.674540	2505.453462
376.060841	2467.644808
376.447079	2384.465769
376.833254	2472.685962
377.219367	2404.630385
377.605417	2366.821731
377.991404	2422.274423
378.377329	2351.698269
378.763191	2434.877308
379.148991	2472.685962
379.534727	2472.685962
379.920402	2475.206538
380.306013	2399.589231
380.691563	2442.439038
381.077049	2439.918462
381.462474	2460.083077
381.847835	2533.179808
382.233134	2460.083077
382.618371	2409.671538
383.003545	2389.506923
383.388657	2500.412308
383.773706	2419.753846
384.158693	2429.836154
384.543618	2515.535769
384.928480	2460.083077
385.313280	2510.494615
385.698017	2424.795000
386.082692	2354.218846
386.467305	2538.220962
386.851856	2419.753846
387.236344	2424.795000
387.620770	2487.809423
388.005133	2487.809423
388.389435	2467.644808
388.773674	2525.618077
389.157851	2528.138654
389.541965	2472.685962
389.926018	2497.891731
390.310008	2487.809423
390.693936	2427.315577
391.077802	2538.220962
391.461606	2485.288846
391.845348	2437.397885
392.229027	2467.644808
392.612645	2407.150962
392.996200	2472.685962
393.379694	2487.809423
393.763125	2457.562500
394.146494	2457.562500
394.529801	2452.521346
394.913047	2470.165385
395.296230	2502.932885
395.679351	2507.974038
396.062410	2558.385577
396.445408	2560.906154
396.828343	2404.630385
397.211217	2475.206538
397.594028	2528.138654
397.976778	2412.192115
398.359466	2404.630385
398.742092	2497.891731
399.124656	2523.097500
399.507158	2427.315577
399.889598	2505.453462
400.271977	2397.068654
400.654294	2507.974038
401.036549	2455.041923
401.418742	2462.603654
401.800874	2427.315577
402.182944	2417.233269
402.564952	2492.850577
402.946898	2442.439038
403.328783	2409.671538
403.710606	2502.932885
404.092367	2482.768269
404.474067	2480.247692
404.855705	2495.371154
405.237282	2475.206538
405.618797	2465.124231
406.000250	2470.165385
406.381642	2470.165385
406.762972	2507.974038
407.144240	2558.385577
407.525447	2477.727115
407.906593	2455.041923
408.287677	2495.371154
408.668700	2442.439038
409.049661	2467.644808
409.430560	2568.467885
409.811399	2452.521346
410.192176	2528.138654
410.572891	2444.959615
410.953545	2477.727115
411.334138	2513.015192
411.714669	2460.083077
412.095139	2487.809423
412.475547	2518.056346
412.855894	2467.644808
413.236180	2540.741538
413.616405	2480.247692
413.996568	2432.356731
414.376670	2513.015192
414.756711	2422.274423
415.136691	2555.865000
415.516609	2429.836154
415.896466	2530.659231
416.276262	2475.206538
416.655997	2465.124231
417.035670	2513.015192
417.415283	2465.124231
417.794834	2485.288846
418.174324	2568.467885
418.553753	2437.397885
418.933121	2495.371154
419.312428	2523.097500
419.691674	2442.439038
420.070859	2482.768269
420.449983	2497.891731
420.829045	2472.685962
421.208047	2480.247692
421.586988	2490.330000
421.965867	2500.412308
422.344686	2432.356731
422.723444	2444.959615
423.102141	2444.959615
423.480777	2419.753846
423.859352	2475.206538
424.237866	2465.124231
424.616319	2477.727115
424.994712	2442.439038
425.373044	2465.124231
425.751314	2518.056346
426.129524	2437.397885
426.507673	2502.932885
426.885762	2545.782692
427.263789	2467.644808
427.641756	2523.097500
428.019662	2472.685962
428.397508	2530.659231
428.775292	2492.850577
429.153016	2477.727115
429.530679	2525.618077
429.908282	2530.659231
430.285824	2576.029615
430.663305	2565.947308
431.040726	2553.344423
431.418086	2472.685962
431.795385	2495.371154
432.172624	2427.315577
432.549802	2376.904038
432.926920	2439.918462
433.303977	2510.494615
433.680974	2467.644808
434.057910	2467.644808
434.434786	2462.603654
434.811601	2490.330000
435.188355	2455.041923
435.565050	2487.809423
435.941683	2467.644808
436.318257	2510.494615
436.694770	2439.918462
437.071222	2467.644808
437.447614	2513.015192
437.823946	2492.850577
438.200218	2475.206538
438.576429	2495.371154
438.952580	2447.480192
439.328670	2475.206538
439.704700	2480.247692
440.080670	2427.315577
440.456580	2553.344423
440.832429	2462.603654
441.208218	2513.015192
441.583947	2419.753846
441.959616	2467.644808
442.335224	2439.918462
442.710773	2505.453462
443.086261	2450.000769
443.461689	2505.453462
443.837057	2492.850577
444.212365	2470.165385
444.587612	2533.179808
444.962800	2439.918462
445.337927	2487.809423
445.712995	2485.288846
446.088002	2525.618077
446.462949	2535.700385
446.837837	2379.424615
447.212664	2502.932885
447.587431	2467.644808
447.962139	2492.850577
448.336786	2467.644808
448.711374	2450.000769
449.085901	2515.535769
449.460369	2442.439038
449.834776	2475.206538
450.209124	2432.356731
450.583412	2455.041923
450.957640	2563.426731
451.331808	2460.083077
451.705917	2513.015192
452.079965	2470.165385
452.453954	2518.056346
452.827883	2520.576923
453.201752	2465.124231
453.575562	2429.836154
453.949311	2500.412308
454.323001	2442.439038
454.696632	2495.371154
455.070202	2523.097500
455.443713	2460.083077
455.817164	2515.535769
456.190556	2535.700385
456.563888	2543.262115
456.937160	2480.247692
457.310373	2450.000769
457.683526	2422.274423
458.056619	2472.685962
458.429653	2530.659231
458.802628	2480.247692
459.175542	2520.576923
459.548398	2535.700385
459.921194	2500.412308
460.293930	2455.041923
460.666607	2460.083077
461.039224	2485.288846
461.411782	2553.344423
461.784280	2450.000769
462.156719	2487.809423
462.529099	2490.330000
462.901419	2533.179808
463.273680	2555.865000
463.645882	2545.782692
464.018024	2507.974038
464.390106	2419.753846
464.762130	2555.865000
465.134094	2442.439038
465.505999	2442.439038
465.877845	2497.891731
466.249631	2444.959615
466.621358	2518.056346
466.993026	2485.288846
467.364634	2525.618077
467.736184	2462.603654
468.107674	2558.385577
468.479105	2432.356731
468.850477	2402.109808
469.221790	2533.179808
469.593043	2510.494615
469.964238	2457.562500
470.335373	2465.124231
470.706449	2414.712692
471.077467	2495.371154
471.448425	2475.206538
471.819324	2563.426731
472.190164	2492.850577
472.560945	2381.945192
472.931667	2518.056346
473.302330	2523.097500
473.672934	2495.371154
474.043479	2535.700385
474.413965	2540.741538
474.784393	2502.932885
475.154761	2444.959615
475.525070	2457.562500
475.895321	2513.015192
476.265513	2485.288846
476.635645	2500.412308
477.005719	2487.809423
477.375734	2523.097500
477.745691	2414.712692
478.115588	2432.356731
478.485427	2510.494615
478.855207	2412.192115
479.224928	2535.700385
479.594591	2427.315577
479.964194	2500.412308
480.333739	2460.083077
480.703226	2530.659231
481.072653	2462.603654
481.442022	2548.303269
481.811333	2429.836154
482.180584	2525.618077
482.549777	2475.206538
482.918912	2510.494615
483.287988	2457.562500
483.657005	2460.083077
484.025964	2467.644808
484.394864	2548.303269
484.763706	2429.836154
485.132489	2492.850577
485.501213	2450.000769
485.869879	2583.591346
486.238487	2442.439038
486.607036	2525.618077
486.975527	2510.494615
487.343959	2570.988462
487.712333	2540.741538
488.080648	2535.700385
488.448905	2523.097500
488.817104	2530.659231
489.185244	2535.700385
489.553326	2470.165385
489.921350	2507.974038
490.289315	2530.659231
490.657222	2465.124231
491.025070	2497.891731
491.392861	2555.865000
491.760593	2543.262115
492.128267	2540.741538
492.495883	2497.891731
492.863440	2467.644808
493.230939	2492.850577
493.598380	2510.494615
493.965763	2505.453462
494.333088	2507.974038
494.700354	2492.850577
495.067563	2525.618077
495.434713	2505.453462
495.801805	2442.439038
496.168839	2462.603654
496.535815	2495.371154
496.902733	2497.891731
497.269593	2467.644808
497.636395	2555.865000
498.003139	2439.918462
498.369825	2502.932885
498.736453	2502.932885
499.103023	2558.385577
499.469535	2472.685962
499.835989	2500.412308
500.202385	2520.576923
500.568723	2485.288846
500.935003	2573.509038
501.301226	2475.206538
501.667390	2540.741538
502.033497	2525.618077
502.399546	2472.685962
502.765537	2495.371154
503.131470	2528.138654
503.497345	2465.124231
503.863163	2477.727115
504.228923	2540.741538
504.594625	2447.480192
504.960269	2583.591346
505.325856	2533.179808
505.691385	2467.644808
506.056856	2500.412308
506.422270	2472.685962
506.787625	2510.494615
507.152924	2520.576923
507.518164	2548.303269
507.883347	2444.959615
508.248472	2530.659231
508.613540	2530.659231
508.978550	2586.111923
509.343503	2492.850577
509.708398	2563.426731
510.073236	2560.906154
510.438016	2490.330000
510.802738	2392.027500
511.167403	2505.453462
511.532010	2500.412308
511.896561	2505.453462
512.261053	2490.330000
512.625488	2495.371154
512.989866	2341.615962
513.354186	2485.288846
513.718449	2538.220962
514.082655	2515.535769
514.446803	2507.974038
514.810894	2560.906154
515.174927	2518.056346
515.538904	2523.097500
515.902822	2422.274423
516.266684	2538.220962
516.630488	2419.753846
516.994235	2528.138654
517.357925	2626.441154
517.721558	2565.947308
518.085133	2492.850577
518.448651	2505.453462
518.812112	2437.397885
519.175516	2492.850577
519.538863	2467.644808
519.902152	2520.576923
520.265385	2513.015192
520.628560	2513.015192
520.991678	2500.412308
521.354739	2593.673654
521.717743	2525.618077
522.080690	2470.165385
522.443580	2505.453462
522.806413	2510.494615
523.169189	2525.618077
523.531908	2502.932885
523.894569	2424.795000
524.257174	2528.138654
524.619722	2505.453462
524.982213	2603.755962
525.344647	2515.535769
525.707025	2533.179808
526.069345	2502.932885
526.431608	2497.891731
526.793815	2444.959615
527.155964	2548.303269
527.518057	2545.782692
527.880093	2510.494615
528.242072	2558.385577
528.603995	2452.521346
528.965860	2518.056346
529.327669	2548.303269
529.689421	2530.659231
530.051117	2497.891731
530.412755	2490.330000
530.774337	2502.932885
531.135862	2573.509038
531.497331	2530.659231
531.858743	2523.097500
532.220098	2565.947308
532.581396	2450.000769
532.942638	2500.412308
533.303824	2576.029615
533.664953	2631.482308
534.026025	2538.220962
534.387040	2495.371154
534.747999	2470.165385
535.108902	2442.439038
535.469748	2515.535769
535.830537	2502.932885
536.191270	2518.056346
536.551947	2540.741538
536.912567	2530.659231
537.273131	2538.220962
537.633638	2485.288846
537.994089	2487.809423
538.354483	2450.000769
538.714821	2505.453462
539.075103	2462.603654
539.435328	2538.220962
539.795497	2487.809423
540.155609	2611.317692
540.515665	2578.550192
540.875665	2505.453462
541.235609	2467.644808
541.595496	2497.891731
541.955328	2429.836154
542.315102	2548.303269
542.674821	2467.644808
543.034483	2492.850577
543.394090	2608.797115
543.753640	2515.535769
544.113134	2492.850577
544.472571	2472.685962
544.831953	2434.877308
545.191278	2528.138654
545.550548	2452.521346
545.909761	2510.494615
546.268918	2520.576923
546.628019	2447.480192
546.987064	2533.179808
547.346053	2510.494615
547.704986	2475.206538
548.063863	2525.618077
548.422684	2427.315577
548.781449	2525.618077
549.140158	2510.494615
549.498811	2497.891731
549.857408	2462.603654
550.215949	2528.138654
550.574434	2417.233269
550.932864	2535.700385
551.291237	2467.644808
551.649555	2485.288846
552.007817	2487.809423
552.366022	2583.591346
552.724173	2507.974038
553.082267	2462.603654
553.440305	2598.714808
553.798288	2523.097500
554.156215	2520.576923
554.514086	2523.097500
554.871902	2384.465769
555.229661	2487.809423
555.587365	2515.535769
555.945014	2450.000769
556.302606	2500.412308
556.660143	2487.809423
557.017625	2502.932885
557.375050	2447.480192
557.732421	2550.823846
558.089735	2490.330000
558.446994	2518.056346
558.804197	2480.247692
559.161345	2427.315577
559.518437	2525.618077
559.875474	2515.535769
560.232455	2573.509038
560.589381	2475.206538
560.946251	2563.426731
561.303065	2523.097500
561.659825	2452.521346
562.016528	2515.535769
562.373177	2462.603654
562.729770	2500.412308
563.086307	2480.247692
563.442789	2500.412308
563.799216	2452.521346
564.155587	2510.494615
564.511904	2455.041923
564.868164	2535.700385
565.224370	2540.741538
565.580520	2490.330000
565.936615	2505.453462
566.292654	2467.644808
566.648638	2507.974038
567.004567	2560.906154
567.360441	2475.206538
567.716260	2482.768269
568.072023	2482.768269
568.427732	2518.056346
568.783385	2500.412308
569.138982	2507.974038
569.494525	2480.247692
569.850013	2500.412308
570.205445	2497.891731
570.560823	2444.959615
570.916145	2513.015192
571.271412	2404.630385
571.626625	2535.700385
571.981782	2538.220962
572.336884	2492.850577
572.691931	2520.576923
573.046923	2467.644808
573.401860	2533.179808
573.756743	2538.220962
574.111570	2510.494615
574.466342	2480.247692
574.821059	2492.850577
575.175722	2495.371154
575.530330	2553.344423
575.884882	2384.465769
576.239380	2475.206538
576.593823	2495.371154
576.948211	2482.768269
577.302544	2550.823846
577.656823	2518.056346
578.011047	2507.974038
578.365216	2452.521346
578.719330	2525.618077
579.073389	2434.877308
579.427394	2427.315577
579.781344	2523.097500
580.135239	2439.918462
580.489080	2543.262115
580.842866	2447.480192
581.196597	2417.233269
581.550273	2409.671538
581.903895	2520.576923
582.257463	2455.041923
582.610975	2563.426731
582.964434	2553.344423
583.317837	2444.959615
583.671186	2510.494615
584.024481	2528.138654
584.377721	2560.906154
584.730906	2540.741538
585.084037	2432.356731
585.437113	2555.865000
585.790135	2412.192115
586.143103	2485.288846
586.496016	2424.795000
586.848874	2414.712692
587.201679	2513.015192
587.554428	2470.165385
587.907124	2502.932885
588.259765	2502.932885
588.612352	2492.850577
588.964884	2490.330000
589.317362	2555.865000
589.669786	2560.906154
590.022155	2455.041923
590.374470	2495.371154
590.726731	2515.535769
591.078937	2497.891731
591.431090	2485.288846
591.783188	2513.015192
592.135232	2462.603654
592.487222	2467.644808
592.839157	2502.932885
593.191038	2442.439038
593.542866	2424.795000
593.894639	2450.000769
594.246358	2578.550192
594.598022	2480.247692
594.949633	2429.836154
595.301190	2513.015192
595.652692	2490.330000
596.004141	2497.891731
596.355535	2515.535769
596.706876	2545.782692
597.058162	2530.659231
597.409395	2444.959615
597.760573	2502.932885
598.111698	2548.303269
598.462768	2472.685962
598.813785	2525.618077
599.164748	2487.809423
599.515657	2530.659231
599.866511	2442.439038
600.217312	2565.947308
600.568060	2447.480192
600.918753	2477.727115
601.269392	2495.371154
601.619978	2495.371154
601.970510	2462.603654
602.320988	2543.262115
602.671412	2447.480192
603.021783	2502.932885
603.372100	2518.056346
603.722363	2450.000769
604.072572	2439.918462
604.422728	2502.932885
604.772830	2429.836154
605.122878	2417.233269
605.472872	2500.412308
605.822813	2570.988462
606.172701	2500.412308
606.522534	2409.671538
606.872314	2538.220962
607.222041	2485.288846
607.571714	2530.659231
607.921333	2505.453462
608.270899	2520.576923
608.620411	2472.685962
608.969870	2477.727115
609.319276	2495.371154
609.668627	2583.591346
610.017926	2530.659231
610.367171	2455.041923
610.716362	2447.480192
611.065500	2462.603654
611.414585	2429.836154
611.763616	2515.535769
612.112594	2472.685962
612.461518	2598.714808
612.810389	2500.412308
613.159207	2495.371154
613.507971	2417.233269
613.856682	2560.906154
614.205340	2447.480192
614.553945	2490.330000
614.902496	2533.179808
615.250994	2457.562500
615.599439	2465.124231
615.947830	2523.097500
616.296169	2515.535769
616.644454	2555.865000
616.992686	2432.356731
617.340864	2447.480192
617.688990	2510.494615
618.037063	2518.056346
618.385082	2472.685962
618.733048	2515.535769
619.080961	2553.344423
619.428821	2444.959615
619.776628	2528.138654
620.124382	2510.494615
620.472083	2513.015192
620.819731	2470.165385
621.167326	2497.891731
621.514868	2518.056346
621.862357	2434.877308
622.209793	2530.659231
622.557176	2555.865000
622.904506	2457.562500
623.251783	2442.439038
623.599007	2497.891731
623.946179	2515.535769
624.293297	2497.891731
624.640363	2548.303269
624.987376	2555.865000
625.334336	2492.850577
625.681243	2502.932885
626.028097	2482.768269
626.374899	2442.439038
626.721647	2472.685962
627.068343	2490.330000
627.414987	2424.795000
627.761577	2434.877308
628.108115	2419.753846
628.454600	2490.330000
628.801032	2470.165385
629.147412	2482.768269
629.493739	2492.850577
629.840014	2550.823846
630.186236	2535.700385
630.532405	2455.041923
630.878521	2505.453462
631.224585	2424.795000
631.570597	2444.959615
631.916556	2462.603654
632.262462	2507.974038
632.608316	2568.467885
632.954117	2472.685962
633.299866	2442.439038
633.645562	2530.659231
633.991206	2447.480192
634.336797	2548.303269
634.682336	2515.535769
635.027823	2480.247692
635.373257	2480.247692
635.718639	2518.056346
636.063968	2462.603654
636.409245	2492.850577
636.754470	2495.371154
637.099642	2495.371154
637.444762	2497.891731
637.789829	2500.412308
638.134845	2621.400000
638.479808	2452.521346
638.824719	2477.727115
639.169577	2558.385577
639.514383	2490.330000
639.859137	2565.947308
640.203839	2535.700385
640.548489	2447.480192
640.893086	2482.768269
641.237632	2510.494615
641.582125	2492.850577
641.926566	2492.850577
642.270955	2563.426731
642.615292	2490.330000
642.959576	2570.988462
643.303809	2465.124231
643.647990	2444.959615
643.992118	2525.618077
644.336195	2545.782692
644.680219	2520.576923
645.024192	2502.932885
645.368112	2563.426731
645.711981	2482.768269
646.055797	2452.521346
646.399562	2460.083077
646.743274	2460.083077
647.086935	2485.288846
647.430544	2455.041923
647.774101	2535.700385
648.117606	2480.247692
648.461059	2510.494615
648.804460	2422.274423
649.147810	2502.932885
649.491108	2457.562500
649.834354	2535.700385
650.177548	2465.124231
650.520690	2545.782692
650.863781	2520.576923
651.206820	2573.509038
651.549807	2412.192115
651.892742	2518.056346
652.235626	2482.768269
652.578458	2460.083077
652.921238	2510.494615
653.263967	2505.453462
653.606644	2447.480192
653.949269	2465.124231
654.291843	2485.288846
654.634365	2570.988462
654.976836	2472.685962
655.319255	2523.097500
655.661622	2462.603654
656.003938	2492.850577
656.346203	2510.494615
656.688416	2495.371154
657.030577	2419.753846
657.372687	2470.165385
657.714746	2500.412308
658.056753	2465.124231
658.398708	2422.274423
658.740612	2560.906154
659.082465	2510.494615
659.424266	2570.988462
659.766016	2447.480192
660.107715	2565.947308
660.449362	2429.836154
660.790958	2641.564615
661.132503	2510.494615
661.473996	2482.768269
661.815438	2538.220962
662.156829	2490.330000
662.498168	2500.412308
662.839456	2560.906154
663.180693	2485.288846
663.521879	2477.727115
663.863013	2404.630385
664.204097	2530.659231
664.545129	2505.453462
664.886110	2457.562500
665.227040	2543.262115
665.567918	2442.439038
665.908746	2525.618077
666.249522	2477.727115
666.590248	2502.932885
666.930922	2525.618077
667.271545	2460.083077
667.612118	2452.521346
667.952639	2538.220962
668.293109	2540.741538
668.633528	2523.097500
668.973896	2485.288846
669.314213	2500.412308
669.654480	2467.644808
669.994695	2545.782692
670.334859	2439.918462
670.674973	2502.932885
671.015035	2399.589231
671.355047	2583.591346
671.695008	2482.768269
672.034918	2475.206538
672.374777	2455.041923
672.714585	2525.618077
673.054342	2480.247692
673.394049	2495.371154
673.733705	2563.426731
674.073310	2457.562500
674.412864	2467.644808
674.752368	2389.506923
675.091820	2507.974038
675.431223	2505.453462
675.770574	2578.550192
676.109875	2518.056346
676.449125	2535.700385
676.788324	2507.974038
677.127473	2573.509038
677.466571	2447.480192
677.805619	2497.891731
678.144616	2502.932885
678.483562	2502.932885
678.822458	2596.194231
679.161303	2528.138654
679.500098	2502.932885
679.838842	2480.247692
680.177535	2570.988462
680.516179	2462.603654
680.854771	2467.644808
681.193314	2510.494615
681.531805	2439.918462
681.870247	2424.795000
682.208638	2525.618077
682.546978	2538.220962
682.885268	2495.371154
683.223508	2490.330000
683.561697	2487.809423
683.899836	2417.233269
684.237925	2457.562500
684.575963	2523.097500
684.913951	2515.535769
685.251889	2497.891731
685.589776	2477.727115
685.927614	2432.356731
686.265401	2495.371154
686.603137	2412.192115
686.940824	2437.397885
687.278460	2492.850577
687.616046	2439.918462
687.953582	2457.562500
688.291068	2510.494615
688.628504	2467.644808
688.965889	2475.206538
689.303224	2515.535769
689.640510	2533.179808
689.977745	2520.576923
690.314930	2528.138654
690.652065	2472.685962
690.989150	2447.480192
691.326185	2565.947308
691.663170	2611.317692
692.000105	2482.768269
692.336990	2515.535769
692.673825	2639.044038
693.010610	2482.768269
693.347345	2510.494615
693.684030	2525.618077
694.020665	2492.850577
694.357251	2563.426731
694.693786	2550.823846
695.030272	2485.288846
695.366707	2457.562500
695.703093	2444.959615
696.039429	2520.576923
696.375716	2555.865000
696.711952	2553.344423
697.048139	2482.768269
697.384276	2492.850577
697.720363	2586.111923
698.056400	2467.644808
698.392388	2550.823846
698.728326	2495.371154
699.064214	2485.288846
699.400053	2472.685962
699.735842	2507.974038
700.071581	2520.576923
700.407270	2507.974038
700.742910	2502.932885
701.078501	2525.618077
701.414042	2497.891731
701.749533	2576.029615
702.084974	2452.521346
702.420366	2601.235385
702.755709	2523.097500
703.091002	2553.344423
703.426246	2502.932885
703.761440	2495.371154
704.096584	2510.494615
704.431679	2586.111923
704.766725	2500.412308
705.101721	2490.330000
705.436668	2462.603654
705.771565	2465.124231
706.106413	2497.891731
706.441212	2586.111923
706.775961	2475.206538
707.110661	2505.453462
707.445311	2462.603654
707.779913	2472.685962
708.114465	2442.439038
708.448967	2492.850577
708.783421	2578.550192
709.117825	2520.576923
709.452180	2540.741538
709.786485	2550.823846
710.120742	2500.412308
710.454949	2528.138654
710.789107	2455.041923
711.123216	2470.165385
711.457275	2485.288846
711.791286	2419.753846
712.125247	2523.097500
712.459159	2457.562500
712.793023	2450.000769
713.126837	2472.685962
713.460602	2540.741538
713.794318	2520.576923
714.127985	2507.974038
714.461602	2535.700385
714.795171	2470.165385
715.128691	2520.576923
715.462162	2500.412308
715.795584	2528.138654
716.128957	2513.015192
716.462281	2475.206538
716.795556	2545.782692
717.128782	2550.823846
717.461960	2427.315577
717.795088	2570.988462
718.128167	2422.274423
718.461198	2497.891731
718.794180	2495.371154
719.127113	2452.521346
719.459997	2444.959615
719.792833	2394.548077
720.125619	2568.467885
720.458357	2518.056346
720.791046	2520.576923
721.123686	2548.303269
721.456278	2452.521346
721.788821	2523.097500
722.121315	2447.480192
722.453761	2490.330000
722.786158	2412.192115
723.118506	2520.576923
723.450805	2465.124231
723.783056	2422.274423
724.115259	2576.029615
724.447412	2465.124231
724.779518	2555.865000
725.111574	2573.509038
725.443582	2475.206538
725.775542	2528.138654
726.107453	2452.521346
726.439315	2507.974038
726.771129	2545.782692
727.102895	2518.056346
727.434612	2513.015192
727.766281	2565.947308
728.097901	2462.603654
728.429473	2548.303269
728.760996	2533.179808
729.092471	2444.959615
729.423897	2437.397885
729.755276	2515.535769
730.086606	2467.644808
730.417887	2560.906154
730.749120	2533.179808
731.080305	2497.891731
731.411442	2502.932885
731.742530	2477.727115
732.073570	2480.247692
732.404562	2540.741538
732.735506	2507.974038
733.066401	2434.877308
733.397249	2467.644808
733.728048	2475.206538
734.058798	2455.041923
734.389501	2452.521346
734.720156	2502.932885
735.050762	2518.056346
735.381320	2563.426731
735.711831	2482.768269
736.042293	2450.000769
736.372707	2389.506923
736.703073	2487.809423
737.033391	2540.741538
737.363661	2475.206538
737.693883	2419.753846
738.024056	2550.823846
738.354182	2558.385577
738.684260	2545.782692
739.014290	2533.179808
739.344272	2510.494615
739.674207	2545.782692
740.004093	2427.315577
740.333931	2482.768269
740.663722	2500.412308
740.993464	2515.535769
741.323159	2497.891731
741.652806	2523.097500
741.982405	2520.576923
742.311956	2515.535769
742.641460	2518.056346
742.970915	2538.220962
743.300323	2581.070769
743.629683	2515.535769
743.958996	2502.932885
744.288260	2497.891731
744.617477	2492.850577
744.946647	2570.988462
745.275768	2558.385577
745.604842	2455.041923
745.933869	2553.344423
746.262847	2444.959615
746.591778	2470.165385
746.920662	2487.809423
747.249498	2452.521346
747.578286	2565.947308
747.907027	2533.179808
748.235720	2515.535769
748.564365	2432.356731
748.892963	2495.371154
749.221514	2442.439038
749.550017	2485.288846
749.878473	2502.932885
750.206881	2520.576923
750.535242	2432.356731
750.863555	2535.700385
751.191821	2412.192115
751.520039	2480.247692
751.848210	2510.494615
752.176334	2535.700385
752.504411	2578.550192
752.832440	2450.000769
753.160421	2525.618077
753.488356	2434.877308
753.816243	2523.097500
754.144082	2452.521346
754.471875	2480.247692
754.799620	2492.850577
755.127318	2442.439038
755.454969	2470.165385
755.782572	2510.494615
756.110129	2470.165385
756.437638	2490.330000
756.765100	2520.576923
757.092515	2570.988462
757.419882	2444.959615
757.747203	2480.247692
758.074477	2540.741538
758.401703	2475.206538
758.728882	2495.371154
759.056014	2412.192115
759.383099	2540.741538
759.710138	2530.659231
760.037129	2497.891731
760.364073	2477.727115
760.690970	2475.206538
761.017820	2525.618077
761.344623	2419.753846
761.671379	2462.603654
761.998088	2487.809423
762.324751	2558.385577
762.651366	2518.056346
762.977935	2545.782692
763.304456	2495.371154
763.630931	2518.056346
763.957359	2497.891731
764.283740	2427.315577
764.610074	2533.179808
764.936362	2507.974038
765.262602	2497.891731
765.588796	2568.467885
765.914943	2533.179808
766.241044	2515.535769
766.567097	2492.850577
766.893104	2533.179808
767.219064	2371.862885
767.544978	2450.000769
767.870845	2523.097500
768.196665	2565.947308
768.522438	2490.330000
768.848165	2419.753846
769.173846	2525.618077
769.499479	2500.412308
769.825066	2462.603654
770.150607	2515.535769
770.476101	2545.782692
770.801548	2467.644808
771.126949	2495.371154
771.452303	2434.877308
771.777611	2543.262115
772.102872	2457.562500
772.428087	2497.891731
772.753256	2452.521346
773.078378	2432.356731
773.403453	2444.959615
773.728482	2482.768269
774.053465	2467.644808
774.378401	2581.070769
774.703291	2505.453462
775.028135	2457.562500
775.352932	2500.412308
775.677683	2437.397885
776.002388	2515.535769
776.327046	2507.974038
776.651658	2518.056346
776.976224	2525.618077
777.300743	2497.891731
777.625216	2472.685962
777.949643	2492.850577
778.274024	2538.220962
778.598359	2528.138654
778.922647	2593.673654
779.246889	2495.371154
779.571086	2485.288846
779.895236	2497.891731
780.219339	2452.521346
780.543397	2414.712692
780.867409	2376.904038
781.191374	2462.603654
781.515294	2442.439038
781.839167	2520.576923
782.162995	2528.138654
782.486776	2518.056346
782.810511	2485.288846
783.134201	2535.700385
783.457844	2460.083077
783.781441	2497.891731
784.104993	2507.974038
784.428498	2639.044038
784.751958	2452.521346
785.075372	2530.659231
785.398739	2497.891731
785.722061	2513.015192
786.045337	2477.727115
786.368568	2495.371154
786.691752	2465.124231
787.014891	2533.179808
787.337983	2439.918462
787.661030	2528.138654
787.984031	2507.974038
788.306987	2497.891731
788.629897	2500.412308
788.952760	2490.330000
789.275579	2452.521346
789.598351	2482.768269
789.921078	2472.685962
790.243759	2535.700385
790.566395	2510.494615
790.888984	2434.877308
791.211529	2444.959615
791.534027	2550.823846
791.856480	2502.932885
792.178888	2530.659231
792.501249	2467.644808
792.823566	2497.891731
793.145836	2500.412308
793.468062	2545.782692
793.790241	2540.741538
794.112375	2583.591346
794.434464	2502.932885
794.756507	2394.548077
795.078505	2533.179808
795.400457	2409.671538
795.722364	2450.000769
796.044226	2520.576923
796.366042	2472.685962
796.687812	2505.453462
797.009538	2414.712692
797.331218	2560.906154
797.652852	2515.535769
797.974442	2550.823846
798.295986	2578.550192
798.617484	2467.644808
798.938938	2530.659231
799.260346	2351.698269
799.581709	2460.083077
799.903026	2472.685962
800.224299	2447.480192
800.545526	2424.795000
800.866708	2530.659231
801.187845	2525.618077
801.508936	2490.330000
801.829983	2492.850577
802.150984	2518.056346
802.471940	2505.453462
802.792851	2422.274423
803.113717	2485.288846
803.434538	2455.041923
803.755314	2482.768269
804.076045	2482.768269
804.396731	2545.782692
804.717372	2477.727115
805.037967	2502.932885
805.358518	2560.906154
805.679024	2475.206538
805.999485	2507.974038
806.319901	2452.521346
806.640272	2550.823846
806.960598	2404.630385
807.280879	2533.179808
807.601115	2482.768269
807.921306	2444.959615
808.241453	2404.630385
808.561554	2492.850577
808.881611	2545.782692
809.201623	2505.453462
809.521590	2502.932885
809.841513	2457.562500
810.161390	2414.712692
810.481223	2477.727115
810.801011	2366.821731
811.120755	2480.247692
811.440453	2467.644808
811.760107	2502.932885
812.079716	2437.397885
812.399281	2553.344423
812.718801	2394.548077
813.038276	2462.603654
813.357707	2374.383462
813.677093	2502.932885
813.996434	2495.371154
814.315731	2518.056346
814.634983	2505.453462
814.954191	2588.632500
815.273354	2560.906154
815.592473	2467.644808
815.911547	2437.397885
816.230577	2578.550192
816.549562	2528.138654
816.868502	2495.371154
817.187399	2417.233269
817.506250	2553.344423
817.825058	2558.385577
818.143821	2442.439038
818.462539	2467.644808
818.781213	2452.521346
819.099843	2500.412308
819.418429	2402.109808
819.736970	2450.000769
820.055466	2543.262115
820.373919	2460.083077
820.692327	2460.083077
821.010691	2500.412308
821.329011	2465.124231
821.647286	2520.576923
821.965517	2535.700385
822.283704	2450.000769
822.601847	2576.029615
822.919945	2518.056346
823.237999	2470.165385
823.556010	2538.220962
823.873976	2515.535769
824.191897	2507.974038
824.509775	2523.097500
824.827609	2565.947308
825.145398	2492.850577
825.463144	2533.179808
825.780845	2452.521346
826.098502	2444.959615
826.416116	2462.603654
826.733685	2485.288846
827.051210	2535.700385
827.368692	2465.124231
827.686129	2507.974038
828.003522	2444.959615
828.320872	2502.932885
828.638177	2487.809423
828.955439	2533.179808
829.272656	2472.685962
829.589830	2513.015192
829.906960	2465.124231
830.224046	2578.550192
830.541088	2465.124231
830.858086	2485.288846
831.175041	2500.412308
831.491952	2472.685962
831.808819	2528.138654
832.125642	2603.755962
832.442421	2467.644808
832.759157	2500.412308
833.075849	2530.659231
833.392497	2477.727115
833.709101	2460.083077
834.025662	2477.727115
834.342179	2460.083077
834.658653	2364.301154
834.975083	2507.974038
835.291469	2429.836154
835.607811	2487.809423
835.924110	2490.330000
836.240366	2487.809423
836.556578	2482.768269
836.872746	2460.083077
837.188871	2462.603654
837.504952	2520.576923
837.820990	2518.056346
838.136984	2530.659231
838.452935	2480.247692
838.768842	2424.795000
839.084706	2545.782692
839.400526	2553.344423
839.716303	2500.412308
840.032037	2444.959615
840.347727	2548.303269
840.663373	2467.644808
840.978977	2480.247692
841.294537	2460.083077
841.610054	2492.850577
841.925527	2427.315577
842.240957	2467.644808
842.556344	2475.206538
842.871687	2510.494615
843.186987	2510.494615
843.502244	2392.027500
843.817458	2518.056346
844.132629	2472.685962
844.447756	2535.700385
844.762840	2560.906154
845.077881	2465.124231
845.392879	2487.809423
845.707833	2505.453462
846.022745	2442.439038
846.337613	2545.782692
846.652438	2492.850577
846.967221	2538.220962
847.281960	2533.179808
847.596656	2450.000769
847.911309	2502.932885
848.225919	2510.494615
848.540485	2513.015192
848.855009	2500.412308
849.169490	2510.494615
849.483928	2500.412308
849.798323	2460.083077
850.112675	2520.576923
850.426984	2550.823846
850.741251	2550.823846
851.055474	2505.453462
851.369654	2560.906154
851.683792	2490.330000
851.997887	2439.918462
852.311938	2465.124231
852.625947	2482.768269
852.939914	2500.412308
853.253837	2525.618077
853.567718	2530.659231
853.881555	2502.932885
854.195350	2540.741538
854.509103	2475.206538
854.822812	2482.768269
855.136479	2545.782692
855.450103	2565.947308
855.763685	2455.041923
856.077224	2497.891731
856.390720	2475.206538
856.704173	2386.986346
857.017584	2457.562500
857.330953	2467.644808
857.644278	2518.056346
857.957561	2472.685962
858.270802	2477.727115
858.584000	2457.562500
858.897155	2412.192115
859.210268	2442.439038
859.523339	2485.288846
859.836367	2538.220962
860.149352	2397.068654
860.462295	2465.124231
860.775195	2525.618077
861.088054	2523.097500
861.400869	2482.768269
861.713642	2477.727115
862.026373	2442.439038
862.339062	2518.056346
862.651708	2520.576923
862.964312	2424.795000
863.276873	2507.974038
863.589392	2475.206538
863.901869	2467.644808
864.214303	2495.371154
864.526696	2417.233269
864.839045	2452.521346
865.151353	2437.397885
865.463619	2518.056346
865.775842	2518.056346
866.088023	2432.356731
866.400162	2555.865000
866.712258	2502.932885
867.024313	2533.179808
867.336325	2538.220962
867.648296	2434.877308
867.960224	2392.027500
868.272110	2470.165385
868.583954	2414.712692
868.895755	2497.891731
869.207515	2432.356731
869.519233	2470.165385
869.830909	2470.165385
870.142542	2548.303269
870.454134	2472.685962
870.765684	2555.865000
871.077191	2434.877308
871.388657	2535.700385
871.700081	2543.262115
872.011463	2525.618077
872.322803	2528.138654
872.634101	2502.932885
872.945357	2472.685962
873.256571	2586.111923
873.567744	2573.509038
873.878874	2457.562500
874.189963	2475.206538
874.501010	2520.576923
874.812015	2518.056346
875.122979	2540.741538
875.433900	2487.809423
875.744780	2533.179808
876.055618	2424.795000
876.366415	2442.439038
876.677169	2500.412308
876.987882	2553.344423
877.298554	2606.276538
877.609183	2472.685962
877.919771	2465.124231
878.230317	2490.330000
878.540822	2480.247692
878.851285	2467.644808
879.161707	2535.700385
879.472087	2497.891731
879.782425	2530.659231
880.092722	2455.041923
880.402977	2528.138654
880.713191	2472.685962
881.023363	2507.974038
881.333494	2414.712692
881.643583	2417.233269
881.953631	2523.097500
882.263637	2419.753846
882.573602	2492.850577
882.883526	2492.850577
883.193408	2573.509038
883.503248	2424.795000
883.813048	2480.247692
884.122806	2480.247692
884.432522	2515.535769
884.742197	2450.000769
885.051831	2482.768269
885.361424	2545.782692
885.670975	2505.453462
885.980485	2482.768269
886.289954	2500.412308
886.599382	2399.589231
886.908768	2507.974038
887.218113	2558.385577
887.527417	2535.700385
887.836680	2444.959615
888.145901	2434.877308
888.455082	2462.603654
888.764221	2422.274423
889.073319	2472.685962
889.382376	2492.850577
889.691392	2487.809423
890.000366	2475.206538
890.309300	2510.494615
890.618193	2455.041923
890.927044	2475.206538
891.235855	2507.974038
891.544625	2518.056346
891.853353	2515.535769
892.162041	2538.220962
892.470687	2452.521346
892.779293	2507.974038
893.087858	2543.262115
893.396381	2482.768269
893.704864	2533.179808
894.013306	2389.506923
894.321707	2462.603654
894.630068	2515.535769
894.938387	2555.865000
895.246665	2520.576923
895.554903	2500.412308
895.863100	2429.836154
896.171256	2598.714808
896.479371	2442.439038
896.787446	2419.753846
897.095480	2495.371154
897.403473	2545.782692
897.711425	2528.138654
898.019336	2460.083077
898.327207	2515.535769
898.635038	2518.056346
898.942827	2467.644808
899.250576	2502.932885
899.558284	2485.288846
899.865952	2422.274423
900.173579	2528.138654
900.481165	2513.015192
900.788711	2525.618077
901.096216	2518.056346
901.403681	2540.741538
901.711105	2513.015192
902.018489	2535.700385
902.325832	2472.685962
902.633135	2543.262115
902.940397	2550.823846
903.247619	2485.288846
903.554800	2548.303269
903.861941	2465.124231
904.169041	2470.165385
904.476101	2530.659231
904.783121	2482.768269
905.090100	2467.644808
905.397039	2538.220962
905.703938	2399.589231
906.010796	2460.083077
906.317614	2465.124231
906.624391	2452.521346
906.931129	2513.015192
907.237826	2490.330000
907.544483	2510.494615
907.851099	2457.562500
908.157675	2485.288846
908.464211	2480.247692
908.770707	2475.206538
909.077163	2465.124231
909.383578	2467.644808
909.689954	2452.521346
909.996289	2439.918462
910.302584	2563.426731
910.608839	2523.097500
910.915054	2502.932885
911.221229	2460.083077
911.527363	2570.988462
911.833458	2530.659231
912.139513	2550.823846
912.445527	2465.124231
912.751502	2500.412308
913.057436	2414.712692
913.363331	2475.206538
913.669186	2424.795000
913.975000	2492.850577
914.280775	2444.959615
914.586510	2452.521346
914.892205	2563.426731
915.197859	2407.150962
915.503475	2495.371154
915.809050	2497.891731
916.114585	2540.741538
916.420081	2460.083077
916.725536	2573.509038
917.030952	2402.109808
917.336328	2437.397885
917.641665	2505.453462
917.946961	2525.618077
918.252218	2555.865000
918.557435	2434.877308
918.862612	2457.562500
919.167750	2482.768269
919.472848	2467.644808
919.777906	2543.262115
920.082925	2447.480192
920.387904	2402.109808
920.692843	2480.247692
920.997743	2487.809423
921.302603	2520.576923
921.607423	2447.480192
921.912204	2525.618077
922.216946	2510.494615
922.521647	2502.932885
922.826310	2540.741538
923.130932	2553.344423
923.435516	2513.015192
923.740059	2535.700385
924.044564	2460.083077
924.349028	2500.412308
924.653454	2460.083077
924.957840	2535.700385
925.262186	2568.467885
925.566493	2475.206538
925.870761	2419.753846
926.174989	2525.618077
926.479178	2492.850577
926.783328	2533.179808
927.087438	2482.768269
927.391509	2475.206538
927.695541	2497.891731
927.999533	2555.865000
928.303486	2470.165385
928.607400	2545.782692
928.911275	2518.056346
929.215110	2452.521346
929.518906	2593.673654
929.822663	2455.041923
930.126381	2507.974038
930.430060	2462.603654
930.733699	2455.041923
931.037299	2505.453462
931.340861	2482.768269
931.644383	2573.509038
931.947866	2429.836154
932.251309	2462.603654
932.554714	2513.015192
932.858080	2515.535769
933.161407	2540.741538
933.464694	2444.959615
933.767943	2490.330000
934.071153	2550.823846
934.374323	2533.179808
934.677455	2490.330000
934.980548	2523.097500
935.283602	2495.371154
935.586617	2555.865000
935.889593	2444.959615
936.192530	2450.000769
936.495428	2495.371154
936.798287	2472.685962
937.101108	2518.056346
937.403890	2487.809423
937.706632	2525.618077
938.009336	2477.727115
938.312002	2510.494615
938.614628	2492.850577
938.917216	2457.562500
939.219765	2417.233269
939.522275	2472.685962
939.824747	2455.041923
940.127179	2530.659231
940.429573	2482.768269
940.731929	2497.891731
941.034246	2409.671538
941.336524	2528.138654
941.638763	2495.371154
941.940964	2470.165385
942.243126	2553.344423
942.545250	2419.753846
942.847335	2361.780577
943.149381	2467.644808
943.451389	2510.494615
943.753359	2470.165385
944.055290	2525.618077
944.357182	2409.671538
944.659036	2518.056346
944.960851	2490.330000
945.262628	2470.165385
945.564367	2467.644808
945.866067	2520.576923
946.167729	2417.233269
946.469352	2465.124231
946.770937	2510.494615
947.072484	2427.315577
947.373992	2485.288846
947.675462	2548.303269
947.976893	2563.426731
948.278286	2596.194231
948.579641	2507.974038
948.880958	2502.932885
949.182236	2573.509038
949.483476	2485.288846
949.784678	2462.603654
950.085841	2497.891731
950.386967	2505.453462
950.688054	2384.465769
950.989103	2548.303269
951.290114	2510.494615
951.591087	2452.521346
951.892021	2366.821731
952.192917	2507.974038
952.493776	2518.056346
952.794596	2500.412308
953.095378	2515.535769
953.396122	2528.138654
953.696828	2457.562500
953.997496	2507.974038
954.298126	2439.918462
954.598718	2492.850577
954.899272	2548.303269
955.199788	2467.644808
955.500266	2467.644808
955.800706	2550.823846
956.101108	2485.288846
956.401472	2477.727115
956.701798	2502.932885
957.002087	2437.397885
957.302337	2530.659231
957.602550	2518.056346
957.902724	2452.521346
958.202861	2480.247692
958.502960	2447.480192
958.803022	2550.823846
959.103045	2523.097500
959.403031	2450.000769
959.702979	2465.124231
960.002889	2497.891731
960.302762	2460.083077
960.602596	2495.371154
960.902393	2480.247692
961.202153	2432.356731
961.501875	2427.315577
961.801559	2510.494615
962.101205	2442.439038
962.400814	2540.741538
962.700385	2495.371154
962.999918	2548.303269
963.299414	2525.618077
963.598873	2505.453462
963.898293	2510.494615
964.197677	2432.356731
964.497022	2442.439038
964.796331	2518.056346
965.095601	2477.727115
965.394835	2535.700385
965.694030	2535.700385
965.993189	2500.412308
966.292309	2513.015192
966.591393	2472.685962
966.890439	2568.467885
967.189447	2558.385577
967.488419	2439.918462
967.787353	2495.371154
968.086249	2465.124231
968.385108	2447.480192
968.683930	2528.138654
968.982714	2490.330000
969.281462	2613.838269
969.580172	2502.932885
969.878844	2573.509038
970.177480	2518.056346
970.476078	2490.330000
970.774639	2530.659231
971.073162	2460.083077
971.371649	2520.576923
971.670098	2432.356731
971.968510	2520.576923
972.266885	2545.782692
972.565223	2540.741538
972.863524	2389.506923
973.161788	2460.083077
973.460014	2490.330000
973.758204	2442.439038
974.056356	2444.959615
974.354471	2475.206538
974.652550	2384.465769
974.950591	2399.589231
975.248595	2485.288846
975.546563	2523.097500
975.844493	2563.426731
976.142386	2472.685962
976.440243	2576.029615
976.738062	2613.838269
977.035845	2455.041923
977.333590	2535.700385
977.631299	2550.823846
977.928971	2457.562500
978.226606	2505.453462
978.524204	2447.480192
978.821765	2502.932885
979.119290	2505.453462
979.416777	2447.480192
979.714228	2543.262115
980.011642	2548.303269
980.309020	2616.358846
980.606360	2513.015192
980.903664	2523.097500
981.200931	2480.247692
981.498162	2583.591346
981.795356	2487.809423
982.092513	2439.918462
982.389633	2475.206538
982.686717	2500.412308
982.983764	2520.576923
983.280775	2538.220962
983.577749	2540.741538
983.874686	2447.480192
984.171587	2465.124231
984.468451	2465.124231
984.765279	2518.056346
985.062070	2450.000769
985.358824	2513.015192
985.655543	2497.891731
985.952224	2447.480192
986.248869	2507.974038
986.545478	2535.700385
986.842050	2455.041923
987.138586	2497.891731
987.435086	2402.109808
987.731549	2533.179808
988.027975	2457.562500
988.324366	2402.109808
988.620719	2457.562500
988.917037	2510.494615
989.213318	2480.247692
989.509563	2407.150962
989.805772	2535.700385
990.101944	2497.891731
990.398080	2520.576923
990.694180	2515.535769
990.990244	2432.356731
991.286271	2457.562500
991.582262	2442.439038
991.878217	2450.000769
992.174136	2507.974038
992.470019	2560.906154
992.765865	2492.850577
993.061676	2495.371154
993.357450	2576.029615
993.653188	2528.138654
993.948890	2510.494615
994.244556	2460.083077
994.540186	2437.397885
994.835780	2447.480192
995.131337	2412.192115
995.426859	2530.659231
995.722345	2455.041923
996.017795	2528.138654
996.313208	2482.768269
996.608586	2490.330000
996.903928	2429.836154
997.199234	2447.480192
997.494504	2573.509038
997.789738	2419.753846
998.084936	2500.412308
998.380099	2525.618077
998.675225	2487.809423
998.970316	2465.124231
999.265371	2515.535769
999.560390	2485.288846
999.855373	2563.426731
1000.150320	2432.356731
1000.445232	2543.262115
1000.740108	2553.344423
1001.034948	2507.974038
1001.329752	2550.823846
1001.624521	2495.371154
1001.919254	2490.330000
1002.213951	2465.124231
1002.508613	2523.097500
1002.803239	2465.124231
1003.097829	2513.015192
1003.392384	2530.659231
1003.686903	2513.015192
1003.981386	2424.795000
1004.275834	2507.974038
1004.570246	2419.753846
1004.864623	2530.659231
1005.158964	2500.412308
1005.453270	2543.262115
1005.747540	2477.727115
1006.041775	2424.795000
1006.335974	2510.494615
1006.630138	2500.412308
1006.924266	2490.330000
1007.218359	2548.303269
1007.512416	2432.356731
1007.806438	2485.288846
1008.100425	2490.330000
1008.394376	2500.412308
1008.688292	2502.932885
1008.982172	2439.918462
1009.276017	2502.932885
1009.569827	2570.988462
1009.863602	2465.124231
1010.157341	2520.576923
1010.451045	2450.000769
1010.744714	2470.165385
1011.038347	2495.371154
1011.331945	2543.262115
1011.625508	2470.165385
1011.919036	2565.947308
1012.212528	2490.330000
1012.505986	2553.344423
1012.799408	2535.700385
1013.092795	2419.753846
1013.386147	2573.509038
1013.679464	2480.247692
1013.972745	2485.288846
1014.265992	2442.439038
1014.559204	2399.589231
1014.852380	2495.371154
1015.145521	2460.083077
1015.438628	2518.056346
1015.731699	2434.877308
1016.024736	2555.865000
1016.317737	2442.439038
1016.610703	2485.288846
1016.903635	2427.315577
1017.196531	2502.932885
1017.489393	2492.850577
1017.782219	2485.288846
1018.075011	2467.644808
1018.367768	2386.986346
1018.660490	2505.453462
1018.953177	2505.453462
1019.245829	2505.453462
