Dividing Wavelength (nm)	Counts (n)	Blue Motor Position (mm): 0.000000	Red Motor Position (mm): 41.000000	
326.493990	2075.306927
326.888308	2075.306927
327.282561	2075.306927
327.676750	2054.766746
328.070874	2057.224308
328.464933	2060.806048
328.858929	2074.596125
329.252859	2086.437795
329.646726	2097.888776
330.040528	2113.828904
330.434265	2134.169960
330.827938	2154.558907
331.221547	2173.700168
331.615091	2194.890658
332.008571	2215.226673
332.401986	2237.634602
332.795338	2255.707138
333.188625	2273.504932
333.581847	2292.447068
333.975006	2312.583957
334.368100	2328.703046
334.761129	2347.325068
335.154095	2361.011801
335.546996	2396.156205
335.939833	2447.376849
336.332606	2459.566359
336.725315	2471.332412
337.117960	2479.468834
337.510540	2486.768425
337.903056	2496.802842
338.295508	2502.272493
338.687896	2511.580984
339.080220	2516.788496
339.472480	2519.208250
339.864676	2525.121523
340.256807	2528.768798
340.648875	2530.782739
341.040879	2531.770805
341.432818	2531.082688
341.824694	2533.434386
342.216506	2531.763243
342.608253	2532.012781
342.999937	2532.128727
343.391557	2532.655528
343.783113	2530.838192
344.174605	2531.619571
344.566033	2527.044723
344.957397	2523.405010
345.348697	2524.083046
345.739934	2521.585154
346.131106	2522.361492
346.522215	2521.320493
346.913260	2517.106089
347.304241	2517.340502
347.695159	2517.539628
348.086012	2515.795389
348.476802	2512.879081
348.867528	2513.541993
349.258191	2511.805315
349.648789	2509.889677
350.039324	2510.751714
350.429796	2510.318175
350.820203	2507.522855
351.210548	2506.711229
351.600828	2504.238543
351.991045	2507.374141
352.381198	2505.312309
352.771288	2509.788854
353.161314	2505.110663
353.551276	2507.532938
353.941175	2505.534120
354.331010	2504.420025
354.720782	2507.384223
355.110490	2507.273318
355.500135	2505.692916
355.889717	2508.674759
356.279235	2506.829697
356.668689	2509.914883
357.058080	2511.986797
357.447408	2508.326919
357.836672	2507.190139
358.225873	2506.980931
358.615010	2508.314316
359.004084	2513.599966
359.393095	2514.772034
359.782043	2517.559792
360.170927	2516.140708
360.559748	2516.702796
360.948505	2517.625328
361.337199	2519.160359
361.725830	2520.531553
362.114398	2520.947448
362.502903	2521.035668
362.891344	2522.684125
363.279722	2520.740761
363.668037	2524.196472
364.056289	2523.679753
364.444478	2524.665299
364.832603	2527.160670
365.220665	2525.721421
365.608665	2524.529188
365.996601	2529.308202
366.384474	2529.890455
366.772284	2530.810465
367.160031	2533.555374
367.547715	2533.278110
367.935336	2532.723583
368.322893	2534.646783
368.710388	2535.891948
369.097820	2538.241126
369.485189	2534.757689
369.872495	2539.950077
370.259738	2541.792619
370.646918	2539.808925
371.034035	2545.812939
371.421090	2545.011396
371.808081	2548.817467
372.195010	2554.271995
372.581875	2561.296843
372.968678	2563.519992
373.355418	2570.620457
373.742096	2579.664287
374.128710	2590.548138
374.515262	2600.862339
374.901751	2611.105964
375.288177	2626.400825
375.674540	2645.978146
376.060841	2662.802997
376.447079	2684.356450
376.833254	2708.327136
377.219367	2730.790518
377.605417	2760.472832
377.991404	2786.805299
378.377329	2824.906340
378.763191	2854.913808
379.148991	2900.785787
379.534727	2948.102057
379.920402	2990.611587
380.306013	3035.566077
380.691563	3098.615788
381.077049	3149.357522
381.462474	3202.284596
381.847835	3271.003085
382.233134	3337.992458
382.618371	3392.447001
383.003545	3475.265597
383.388657	3552.601938
383.773706	3639.103097
384.158693	3706.349569
384.543618	3798.156542
384.928480	3874.522461
385.313280	3975.211948
385.698017	4074.011001
386.082692	4189.375287
386.467305	4248.858381
386.851856	4368.167369
387.236344	4516.384854
387.620770	4574.146395
388.005133	4692.462276
388.389435	4827.292977
388.773674	4916.042490
389.157851	5040.518661
389.541965	5166.239997
389.926018	5194.992217
390.310008	5363.328947
390.693936	5477.773222
391.077802	5595.781592
391.461606	5721.749945
391.845348	5829.905380
392.229027	5951.331653
392.612645	6164.542213
392.996200	6281.373474
393.379694	6450.219361
393.763125	6665.118708
394.146494	6753.772439
394.529801	6884.862604
394.913047	7120.970086
395.296230	7120.191227
395.679351	7169.786099
396.062410	7422.052999
396.445408	7325.817372
396.828343	7479.060887
397.211217	7612.893440
397.594028	7504.075093
397.976778	7701.602624
398.359466	7867.358283
398.742092	7853.059050
399.124656	7988.257755
399.507158	8179.637599
399.889598	8200.606278
400.271977	8417.060822
400.654294	8445.225748
401.036549	8643.136407
401.418742	8668.684975
401.800874	8968.041293
402.182944	9052.546155
402.564952	9415.305065
402.946898	9251.954037
403.328783	9304.321543
403.710606	9496.175255
404.092367	9742.133151
404.474067	10102.890723
404.855705	9910.482484
405.237282	9867.383139
405.618797	10284.364700
406.000250	10533.392659
406.381642	10885.010619
406.762972	10834.858700
407.144240	10647.295010
407.525447	10908.406614
407.906593	10854.294869
408.287677	11116.092070
408.668700	11260.463155
409.049661	11253.755900
409.430560	11408.910012
409.811399	11383.353883
410.192176	11543.922194
410.572891	11629.173147
410.953545	12106.401538
411.334138	11584.642115
411.714669	12167.041577
412.095139	11528.191274
412.475547	11991.501039
412.855894	11862.323992
413.236180	12185.477077
413.616405	11886.836603
413.996568	12159.452120
414.376670	12136.386321
414.756711	12020.142354
415.136691	12299.467648
415.516609	12471.580202
415.896466	12556.803428
416.276262	12844.615504
416.655997	13303.594918
417.035670	13352.239532
417.415283	13971.870436
417.794834	14057.038210
418.174324	13803.689982
418.553753	13714.985839
418.933121	14206.500860
419.312428	14040.712433
419.691674	13946.944451
420.070859	14411.925358
420.449983	14056.047623
420.829045	14620.608963
421.208047	14375.908835
421.586988	14834.633670
421.965867	15081.690538
422.344686	15079.641309
422.723444	15653.700182
423.102141	14346.949926
423.480777	15549.698658
423.859352	15034.664134
424.237866	16151.246943
424.616319	15859.457397
424.994712	16508.284144
425.373044	16296.711958
425.751314	16993.565778
426.129524	16129.340609
426.507673	17205.352213
426.885762	16936.353723
427.263789	17113.474663
427.641756	17300.854352
428.019662	17365.217283
428.397508	17414.396260
428.775292	17699.788582
429.153016	17681.640428
429.530679	17758.228158
429.908282	17799.724416
430.285824	17518.974996
430.663305	18242.123474
431.040726	17860.414867
431.418086	17683.200665
431.795385	18325.189087
432.172624	18772.609135
432.549802	18334.190067
432.926920	18545.084218
433.303977	18421.076874
433.680974	18675.582047
434.057910	18972.473241
434.434786	19033.940030
434.811601	18953.894068
435.188355	20001.912144
435.565050	19665.768006
435.941683	19631.268869
436.318257	20527.959069
436.694770	20330.711322
437.071222	20936.272366
437.447614	19995.358644
437.823946	20025.540032
438.200218	20206.517455
438.576429	19982.470934
438.952580	20293.709252
439.328670	20254.887327
439.704700	20691.158863
440.080670	20254.849518
440.456580	20873.852799
440.832429	21044.543747
441.208218	20043.244565
441.583947	20492.297946
441.959616	20615.254209
442.335224	20865.476922
442.710773	21014.261536
443.086261	21554.113660
443.461689	20895.996067
443.837057	21067.601985
444.212365	21711.695088
444.587612	21711.984955
444.962800	21322.265954
445.337927	21756.016913
445.712995	20458.255034
446.088002	22361.726671
446.462949	22570.574113
446.837837	22751.173450
447.212664	22764.988732
447.587431	25727.765588
447.962139	28739.837367
448.336786	31057.114638
448.711374	29395.136956
449.085901	25651.049309
449.460369	25664.824262
449.834776	25647.722147
450.209124	28217.349497
450.583412	27693.659312
450.957640	28195.463328
451.331808	26834.031676
451.705917	25452.755522
452.079965	25490.861604
452.453954	25876.656067
452.827883	25803.002289
453.201752	25590.172335
453.575562	25751.227118
453.949311	26895.866469
454.323001	26956.814019
454.696632	26736.492911
455.070202	28352.336474
455.443713	28555.182422
455.817164	29125.097468
456.190556	29693.238027
456.563888	29114.919378
456.937160	29538.754388
457.310373	27833.513523
457.683526	28269.631304
458.056619	28273.565924
458.429653	28252.849303
458.802628	28876.780311
459.175542	29006.716052
459.548398	30381.632790
459.921194	32012.446059
460.293930	32767.850360
460.666607	34868.315166
461.039224	36688.466612
461.411782	37019.511623
461.784280	35744.558445
462.156719	35200.559972
462.529099	34611.307060
462.901419	33271.774181
463.273680	32230.607033
463.645882	32375.857799
464.018024	32347.289580
464.390106	33291.795123
464.762130	36217.083439
465.134094	40573.883007
465.505999	46070.830257
465.877845	50630.286730
466.249631	51657.046260
466.621358	49817.259520
466.993026	47574.324145
467.364634	45434.195541
467.736184	43454.554590
468.107674	42164.283866
468.479105	41372.316076
468.850477	40650.664821
469.221790	39181.780975
469.593043	37393.971051
469.964238	36506.357450
470.335373	36440.847655
470.706449	38312.814601
471.077467	41079.785480
471.448425	45805.554659
471.819324	48584.533567
472.190164	46584.780933
472.560945	42929.543623
472.931667	39752.721895
473.302330	38647.012854
473.672934	37792.307905
474.043479	38337.375103
474.413965	37522.235649
474.784393	37165.442945
475.154761	38093.216898
475.525070	38139.121645
475.895321	37655.632142
476.265513	38291.283833
476.635645	39312.838372
477.005719	39141.686158
477.375734	39658.293522
477.745691	40389.782589
478.115588	41770.168979
478.485427	43904.853137
478.855207	47401.367198
479.224928	50063.469474
479.594591	51624.089717
479.964194	50500.802173
480.333739	50670.673934
480.703226	50718.143959
481.072653	51386.646329
481.442022	51864.774566
481.811333	52070.428437
482.180584	50795.102214
482.549777	50261.579258
482.918912	49729.941694
483.287988	49413.561399
483.657005	48583.293443
484.025964	47901.303466
484.394864	47891.536230
484.763706	47458.027246
485.132489	46560.779999
485.501213	46403.579178
485.869879	46544.371044
486.238487	46147.382699
486.607036	46334.790114
486.975527	45783.779395
487.343959	45994.703793
487.712333	46075.163129
488.080648	45965.601212
488.448905	46424.951150
488.817104	46233.309166
489.185244	47241.839884
489.553326	49022.793838
489.921350	51781.537554
490.289315	54583.476397
490.657222	55106.624658
491.025070	55332.178484
491.392861	54431.200783
491.760593	53177.826264
492.128267	51469.359061
492.495883	49917.107133
492.863440	48508.593625
493.230939	47120.723642
493.598380	46024.645726
493.965763	45682.404312
494.333088	44865.429879
494.700354	44365.352458
495.067563	44052.926949
495.434713	43895.153957
495.801805	43982.522194
496.168839	43590.159108
496.535815	43233.999068
496.902733	43255.222326
497.269593	42823.628980
497.636395	42754.000563
498.003139	43162.288655
498.369825	42603.741411
498.736453	42904.337853
499.103023	42413.702514
499.469535	42288.301292
499.835989	42383.402659
500.202385	42027.489636
500.568723	42044.349775
500.935003	42230.537230
501.301226	42027.242619
501.667390	42654.236129
502.033497	42897.484405
502.399546	42321.683812
502.765537	41591.613830
503.131470	41974.673467
503.497345	42335.040350
503.863163	40971.166259
504.228923	41609.527570
504.594625	42021.165508
504.960269	41264.029571
505.325856	41967.734319
505.691385	41334.159583
506.056856	41452.001595
506.422270	41899.013309
506.787625	41454.678448
507.152924	41666.880778
507.518164	41752.172060
507.883347	40958.969187
508.248472	41187.280524
508.613540	41685.401977
508.978550	41972.654485
509.343503	41731.825963
509.708398	41911.974116
510.073236	42459.438382
510.438016	42442.459776
510.802738	41899.411561
511.167403	42537.072152
511.532010	42744.510591
511.896561	43044.681056
512.261053	43899.083536
512.625488	43452.505361
512.989866	43309.326509
513.354186	43144.596725
513.718449	43115.751243
514.082655	43816.678315
514.446803	43479.412520
514.810894	43998.772353
515.174927	43907.033436
515.538904	43805.663394
515.902822	44481.868647
516.266684	43911.847738
516.630488	44333.646121
516.994235	44185.345457
517.357925	44762.280309
517.721558	44933.460250
518.085133	45237.010808
518.448651	45360.869438
518.812112	45121.114681
519.175516	45216.891563
519.538863	45537.755964
519.902152	45506.657086
520.265385	45962.969729
520.628560	45982.305075
520.991678	45755.160765
521.354739	45996.110275
521.717743	46323.409709
522.080690	46192.843824
522.443580	46743.269769
522.806413	46785.842313
523.169189	46735.002276
523.531908	46914.875687
523.894569	46742.634583
524.257174	46919.143023
524.619722	47188.716205
524.982213	47169.292639
525.344647	47084.744927
525.707025	47141.233577
526.069345	47545.914722
526.431608	47449.968962
526.793815	47769.517622
527.155964	47290.489539
527.518057	47448.179352
527.880093	47226.839931
528.242072	47740.883868
528.603995	47444.693394
528.965860	47423.182791
529.327669	47531.129018
529.689421	47417.637522
530.051117	47371.258906
530.412755	47504.052981
530.774337	47585.369313
531.135862	47381.212664
531.497331	47564.682938
531.858743	47453.364179
532.220098	47791.365982
532.581396	47498.018720
532.942638	47147.900503
533.303824	47463.874985
533.664953	47429.993390
534.026025	47141.480593
534.387040	47616.145557
534.747999	47546.428920
535.108902	47706.460349
535.469748	47208.061633
535.830537	47332.716764
536.191270	47510.533384
536.551947	47146.476377
536.912567	47456.595558
537.273131	47574.646779
537.633638	47063.829180
537.994089	47402.645130
538.354483	46967.442318
538.714821	47563.803257
539.075103	47897.053773
539.435328	47662.294800
539.795497	47519.662914
540.155609	47518.143006
540.515665	48001.912293
540.875665	47413.302129
541.235609	47736.210718
541.595496	47712.953355
541.955328	48383.464625
542.315102	47729.143021
542.674821	47509.109258
543.034483	47553.378151
543.394090	47526.468471
543.753640	47461.987072
544.113134	48466.426894
544.472571	47440.814226
544.831953	48695.189414
545.191278	47885.073471
545.550548	47609.077859
545.909761	48066.499557
546.268918	48252.515613
546.628019	48572.346577
546.987064	48096.007951
547.346053	47361.771455
547.704986	48229.560719
548.063863	47784.555384
548.422684	47946.111762
548.781449	47785.523285
549.140158	48171.998304
549.498811	48001.090585
549.857408	47414.781708
550.215949	48261.284700
550.574434	48163.254422
550.932864	47935.268240
551.291237	48651.883382
551.649555	48248.966641
552.007817	48457.536819
552.366022	48112.863048
552.724173	48273.766597
553.082267	48654.255245
553.440305	48914.557745
553.798288	48209.670846
554.156215	48501.538531
554.514086	48719.394515
554.871902	48440.908573
555.229661	48439.365980
555.587365	48248.719624
555.945014	48354.077219
556.302606	48273.292728
556.660143	48463.165268
557.017625	48534.560609
557.375050	48308.968974
557.732421	48655.235750
558.089735	48612.368298
558.446994	48506.814098
558.804197	48960.641453
559.161345	48874.878823
559.518437	48102.057335
559.875474	48399.109846
560.232455	48568.744673
560.589381	48733.290455
560.946251	48404.924817
561.303065	49059.833716
561.659825	48829.470629
562.016528	48482.959358
562.373177	48191.706695
562.729770	48669.492133
563.086307	48153.151950
563.442789	48607.125498
563.799216	48611.808730
564.155587	48393.330163
564.511904	48395.061800
564.868164	48448.976940
565.224370	48683.894709
565.580520	48407.626876
565.936615	48589.683106
566.292654	48271.452707
566.648638	48517.095531
567.004567	48439.678532
567.360441	48486.893979
567.716260	48308.427050
568.072023	48568.391792
568.427732	48532.786123
568.783385	48042.390238
569.138982	48408.496475
569.494525	48332.188529
569.850013	48072.536338
570.205445	48024.305099
570.560823	47942.580433
570.916145	47793.788257
571.271412	47800.581212
571.626625	47512.600257
571.981782	47520.272893
572.336884	47163.908687
572.691931	47457.928944
573.046923	47048.677992
573.401860	46856.010133
573.756743	46795.909497
574.111570	46867.612349
574.466342	46687.673403
574.821059	46754.503980
575.175722	46252.831034
575.530330	46244.172853
575.884882	45901.482776
576.239380	45838.579258
576.593823	45773.949145
576.948211	45675.097160
577.302544	45152.011913
577.656823	45116.794412
578.011047	45296.783769
578.365216	45002.881979
578.719330	44736.441875
579.073389	44551.910439
579.427394	44588.093320
579.781344	44497.632335
580.135239	44110.731339
580.489080	44121.141322
580.842866	43569.911313
581.196597	43961.356910
581.550273	43853.889592
581.903895	43680.063046
582.257463	44009.961194
582.610975	43355.039693
582.964434	43569.999534
583.317837	43156.138447
583.671186	42931.875156
584.024481	43088.687808
584.377721	42577.303080
584.730906	42812.520798
585.084037	42778.165334
585.437113	42443.687297
585.790135	42403.161462
586.143103	41955.358286
586.496016	42005.542973
586.848874	41968.414874
587.201679	41909.589650
587.554428	41356.149096
587.907124	41459.873357
588.259765	41167.191526
588.612352	41318.746255
588.964884	40664.744763
589.317362	40884.473536
589.669786	40753.380851
590.022155	40464.880657
590.374470	40785.745059
590.726731	40273.798242
591.078937	39748.648642
591.431090	39779.679465
591.783188	39386.497191
592.135232	39023.183754
592.487222	39186.814567
592.839157	39195.528201
593.191038	38797.617325
593.542866	38500.287551
593.894639	37882.789055
594.246358	38069.646984
594.598022	37969.751479
594.949633	37527.155815
595.301190	37411.095851
595.652692	37203.513738
596.004141	37410.506036
596.355535	36447.338141
596.706876	36329.284400
597.058162	36094.323781
597.409395	36461.476057
597.760573	36457.057486
598.111698	36022.757041
598.462768	35944.306604
598.813785	35895.314151
599.164748	35324.431204
599.515657	35596.915652
599.866511	35070.609108
600.217312	35543.658382
600.568060	34555.728339
600.918753	35137.260723
601.269392	35005.986557
601.619978	34624.315758
601.970510	34734.898509
602.320988	34810.926670
602.671412	34977.592258
603.021783	34687.630130
603.372100	34302.054957
603.722363	34303.365657
604.072572	34270.646048
604.422728	34220.393306
604.772830	33965.305880
605.122878	33960.894871
605.472872	33820.506298
605.822813	33956.262050
606.172701	33735.177207
606.522534	33842.604196
606.872314	33969.870645
607.222041	33681.844320
607.571714	33916.084054
607.921333	33346.831921
608.270899	33509.388967
608.620411	33713.848085
608.969870	33422.650874
609.319276	33341.316898
609.668627	33299.419869
610.017926	33599.807103
610.367171	33618.822335
610.716362	33583.660287
611.065500	33444.655511
611.414585	33479.207579
611.763616	33623.311483
612.112594	33474.219358
612.461518	33553.894794
612.810389	33677.118238
613.159207	33462.324755
613.507971	33419.487550
613.856682	33684.405226
614.205340	33496.972606
614.553945	33935.709266
614.902496	33368.261866
615.250994	33644.247395
615.599439	33580.363372
615.947830	33613.755976
616.296169	33541.952301
616.644454	33514.367107
616.992686	33514.452807
617.340864	33785.379538
617.688990	33437.998667
618.037063	33787.179230
618.385082	33614.534834
618.733048	33726.045157
619.080961	33604.613843
619.428821	33495.767770
619.776628	33463.580003
620.124382	33203.229612
620.472083	33196.151832
620.819731	33178.280942
621.167326	32820.033864
621.514868	32688.754656
621.862357	32262.310850
622.209793	32191.868286
622.557176	31826.389674
622.904506	31527.625691
623.251783	31181.457218
623.599007	30912.935117
623.946179	30657.867856
624.293297	30509.831853
624.640363	29979.673868
624.987376	29867.969460
625.334336	29569.533152
625.681243	29219.762775
626.028097	29087.351828
626.374899	28873.581699
626.721647	28747.734335
627.068343	28554.544716
627.414987	28267.521581
627.761577	28009.832920
628.108115	28113.421070
628.454600	27624.595505
628.801032	27645.594431
629.147412	27490.616759
629.493739	27382.985604
629.840014	27023.097631
630.186236	27128.072098
630.532405	26750.305673
630.878521	26786.707844
631.224585	26562.099235
631.570597	26256.670847
631.916556	26255.980209
632.262462	26101.236950
632.608316	26011.955595
632.954117	25826.483983
633.299866	25722.731996
633.645562	25561.830968
633.991206	25149.404090
634.336797	24794.527023
634.682336	24679.001421
635.027823	24435.594349
635.373257	24223.447472
635.718639	23975.810871
636.063968	23791.234064
636.409245	23347.927598
636.754470	23281.495273
637.099642	23037.314383
637.444762	22648.331391
637.789829	22637.639103
638.134845	22344.591789
638.479808	22217.171585
638.824719	22058.155948
639.169577	21739.824727
639.514383	21689.135925
639.859137	21414.100653
640.203839	21453.842590
640.548489	21144.676186
640.893086	21094.642734
641.237632	20868.683095
641.582125	20823.451343
641.926566	20705.508507
642.270955	20587.742112
642.615292	20504.568115
642.959576	20389.382791
643.303809	20300.630757
643.647990	20300.489604
643.992118	20176.852786
644.336195	20077.794112
644.680219	20034.972031
645.024192	20096.842112
645.368112	20287.851432
645.711981	20188.326452
646.055797	20550.414888
646.399562	20409.370966
646.743274	20806.490380
647.086935	20930.830440
647.430544	20774.279928
647.774101	20732.977754
648.117606	20771.993765
648.461059	20807.760751
648.804460	20524.611742
649.147810	20111.615214
649.491108	19890.989116
649.834354	19630.583273
650.177548	19125.290778
650.520690	18824.757351
650.863781	18735.647395
651.206820	18569.344771
651.549807	18279.400287
651.892742	17943.586344
652.235626	17764.506915
652.578458	17617.524513
652.921238	17235.480669
653.263967	17312.917833
653.606644	17079.716577
653.949269	16968.339844
654.291843	16696.616611
654.634365	16799.262065
654.976836	16544.835030
655.319255	16459.334540
655.661622	16388.599590
656.003938	16213.033846
656.346203	16073.023359
656.688416	16100.510251
657.030577	15931.485403
657.372687	15774.713080
657.714746	15824.547407
658.056753	15798.494724
658.398708	15495.740668
658.740612	15435.642552
659.082465	15468.422655
659.424266	15337.710577
659.766016	15310.027081
660.107715	15177.752245
660.449362	15155.735005
660.790958	15077.705506
661.132503	15007.058776
661.473996	14954.381238
661.815438	14930.380305
662.156829	14930.687815
662.498168	14775.105205
662.839456	14711.604310
663.180693	14698.588051
663.521879	14681.324620
663.863013	14606.871819
664.204097	14534.974882
664.545129	14627.764881
664.886110	14544.883270
665.227040	14511.067210
665.567918	14482.609897
665.908746	14433.327577
666.249522	14425.654941
666.590248	14356.271020
666.930922	14324.206761
667.271545	14248.584412
667.612118	14204.980952
667.952639	14055.951841
668.293109	14004.789171
668.633528	13898.239343
668.973896	13795.510710
669.314213	13750.213422
669.654480	13588.251231
669.994695	13522.368392
670.334859	13419.203699
670.674973	13317.185868
671.015035	13300.923106
671.355047	13213.088562
671.695008	13136.946974
672.034918	13044.119168
672.374777	13011.568437
672.714585	12883.956669
673.054342	12895.659707
673.394049	12755.374478
673.733705	12781.759877
674.073310	12596.434459
674.412864	12559.076988
674.752368	12370.124460
675.091820	12393.777554
675.431223	12200.847555
675.770574	12046.895758
676.109875	11931.753283
676.449125	11789.605348
676.788324	11695.897859
677.127473	11477.212606
677.466571	11390.832434
677.805619	11236.421892
678.144616	11177.248828
678.483562	11094.710016
678.822458	10944.912130
679.161303	10869.632579
679.500098	10789.609303
679.838842	10707.501510
680.177535	10692.302431
680.516179	10724.654036
680.854771	10746.441903
681.193314	10945.517068
681.531805	11224.953267
681.870247	11403.498333
682.208638	11549.429655
682.546978	11554.110366
682.885268	11519.495283
683.223508	11325.945223
683.561697	11175.958293
683.899836	11070.172200
684.237925	10887.891639
684.575963	10798.484255
684.913951	10634.992074
685.251889	10633.845211
685.589776	10591.136556
685.927614	10546.608044
686.265401	10544.213496
686.603137	10531.529953
686.940824	10629.842535
687.278460	10699.493637
687.616046	10702.674605
687.953582	10819.117697
688.291068	10759.201063
688.628504	10781.442634
688.965889	10719.171781
689.303224	10572.673330
689.640510	10424.246637
689.977745	10183.745790
690.314930	9922.296428
690.652065	9736.182069
690.989150	9498.199278
691.326185	9228.482424
691.663170	9005.837344
692.000105	8784.460114
692.336990	8570.412722
692.673825	8414.978825
693.010610	8258.690453
693.347345	8089.199299
693.684030	7893.715956
694.020665	7797.127448
694.357251	7608.447142
694.693786	7564.752941
695.030272	7475.524518
695.366707	7328.663103
695.703093	7237.574495
696.039429	7203.082920
696.375716	7126.457382
696.711952	7086.208809
697.048139	7035.010851
697.384276	6974.491799
697.720363	6975.341233
698.056400	6912.024341
698.392388	6842.448856
698.728326	6804.378062
699.064214	6734.253092
699.400053	6686.558735
699.735842	6588.881338
700.071581	6502.266753
700.407270	6415.642086
700.742910	6351.874011
701.078501	6268.384941
701.414042	6184.578279
701.749533	6105.122133
702.084974	6005.352657
702.420366	6019.987127
702.755709	5916.585500
703.091002	5833.903015
703.426246	5809.962575
703.761440	5770.679384
704.096584	5696.408064
704.431679	5665.193240
704.766725	5629.290142
705.101721	5596.595739
705.436668	5595.975677
705.771565	5518.863667
706.106413	5556.785747
706.441212	5537.021903
706.775961	5542.257141
707.110661	5537.009300
707.445311	5575.523716
707.779913	5536.875710
708.114465	5566.535338
708.448967	5595.678249
708.783421	5689.781467
709.117825	5727.736315
709.452180	5761.640595
709.786485	5813.682947
710.120742	5938.885044
710.454949	5947.034069
710.789107	6016.687692
711.123216	6133.778572
711.457275	6152.030069
711.791286	6233.111988
712.125247	6233.905970
712.459159	6174.306928
712.793023	6246.365181
713.126837	6056.643877
713.460602	6057.495832
713.794318	5962.971677
714.127985	5870.370722
714.461602	5698.076686
714.795171	5653.374254
715.128691	5475.587882
715.462162	5363.011355
715.795584	5272.235297
716.128957	5206.859094
716.462281	5121.968583
716.795556	5060.342998
717.128782	4971.641376
717.461960	4880.305750
717.795088	4846.156974
718.128167	4779.500317
718.461198	4701.942166
718.794180	4664.511598
719.127113	4603.927011
719.459997	4566.226742
719.792833	4505.188452
720.125619	4491.128673
720.458357	4438.801497
720.791046	4398.000918
721.123686	4371.713821
721.456278	4329.093386
721.788821	4316.674503
722.121315	4274.238070
722.453761	4270.835292
722.786158	4255.444649
723.118506	4246.146241
723.450805	4220.433835
723.783056	4232.850197
724.115259	4211.755489
724.447412	4194.182027
724.779518	4218.593814
725.111574	4216.111046
725.443582	4236.099221
725.775542	4228.250144
726.107453	4273.227319
726.439315	4259.754835
726.771129	4309.624450
727.102895	4345.356148
727.434612	4370.531671
727.766281	4376.901168
728.097901	4397.789189
728.429473	4391.308786
728.760996	4382.610275
729.092471	4375.335890
729.423897	4348.635419
729.755276	4321.516532
730.086606	4321.987880
730.417887	4371.897823
730.749120	4417.895832
731.080305	4427.670629
731.411442	4450.355821
731.742530	4443.104121
732.073570	4442.133699
732.404562	4465.958192
732.735506	4438.478863
733.066401	4393.534456
733.397249	4312.157630
733.728048	4230.105289
734.058798	4126.280205
734.389501	4033.941390
734.720156	3973.127431
735.050762	3909.301382
735.381320	3862.572406
735.711831	3832.141481
736.042293	3792.462559
736.372707	3779.600055
736.703073	3755.760438
737.033391	3773.429683
737.363661	3771.239301
737.693883	3778.206176
738.024056	3796.203095
738.354182	3813.259839
738.684260	3843.453830
739.014290	3867.464846
739.344272	3889.038464
739.674207	3913.251126
740.004093	3924.424843
740.333931	3916.248092
740.663722	3917.203390
740.993464	3903.468767
741.323159	3874.144375
741.652806	3838.263962
741.982405	3804.256338
742.311956	3761.056171
742.641460	3737.748396
742.970915	3694.344061
743.300323	3654.922238
743.629683	3624.831591
743.958996	3587.096034
744.288260	3557.217115
744.617477	3524.747043
744.946647	3507.516379
745.275768	3474.728714
745.604842	3453.238276
745.933869	3435.516099
746.262847	3421.582350
746.591778	3414.867533
746.920662	3404.591141
747.249498	3400.530492
747.578286	3405.105339
747.907027	3417.080600
748.235720	3437.829989
748.564365	3435.944597
748.892963	3423.371960
749.221514	3421.252154
749.550017	3405.561563
749.878473	3399.623084
750.206881	3374.951677
750.535242	3362.437013
750.863555	3352.785723
751.191821	3341.344825
751.520039	3336.696881
751.848210	3325.308914
752.176334	3324.141887
752.504411	3313.827687
752.832440	3300.171201
753.160421	3303.984834
753.488356	3291.059315
753.816243	3282.781741
754.144082	3267.033176
754.471875	3260.799789
754.799620	3251.148500
755.127318	3246.167840
755.454969	3241.280442
755.782572	3237.305492
756.110129	3237.176942
756.437638	3226.633369
756.765100	3220.783110
757.092515	3222.204715
757.419882	3224.279150
757.747203	3223.008779
758.074477	3227.901219
758.401703	3227.082032
758.728882	3236.793815
759.056014	3237.582755
759.383099	3245.900659
759.710138	3251.763521
760.037129	3253.522884
760.364073	3253.648913
760.690970	3249.101792
761.017820	3246.399733
761.344623	3253.686721
761.671379	3275.945936
761.998088	3306.608754
762.324751	3421.269798
762.651366	3636.915237
762.977935	3896.454001
763.304456	4037.674364
763.630931	4058.766552
763.957359	3957.328454
764.283740	3817.615396
764.610074	3678.056093
764.936362	3528.487579
765.262602	3417.851896
765.588796	3316.106288
765.914943	3243.889239
766.241044	3183.944878
766.567097	3133.374543
766.893104	3094.857608
767.219064	3066.216292
767.544978	3042.457334
767.870845	3018.174096
768.196665	3003.136334
768.522438	2987.208808
768.848165	2973.333032
769.173846	2960.445323
769.499479	2949.715227
769.825066	2936.948504
770.150607	2921.595670
770.476101	2915.972263
770.801548	2907.785429
771.126949	2893.478635
771.452303	2890.368243
771.777611	2875.300234
772.102872	2874.344935
772.428087	2867.801518
772.753256	2854.588653
773.078378	2849.703775
773.403453	2835.772547
773.728482	2831.353975
774.053465	2826.146463
774.378401	2821.052377
774.703291	2815.711275
775.028135	2805.475212
775.352932	2803.985551
775.677683	2796.658234
776.002388	2792.269910
776.327046	2789.151956
776.651658	2785.189609
776.976224	2778.076541
777.300743	2777.794236
777.625216	2773.700819
777.949643	2768.218565
778.274024	2770.736621
778.598359	2762.199427
778.922647	2760.117430
779.246889	2759.333531
779.571086	2758.542070
779.895236	2758.335382
780.219339	2762.950559
780.543397	2763.774787
780.867409	2763.837802
781.191374	2763.242946
781.515294	2759.336052
781.839167	2760.863521
782.162995	2758.723551
782.486776	2755.991246
782.810511	2752.079311
783.134201	2746.750811
783.457844	2744.310892
783.781441	2741.933988
784.104993	2738.639594
784.428498	2738.581621
784.751958	2735.627505
785.075372	2735.085581
785.398739	2730.697257
785.722061	2729.716752
786.045337	2728.539643
786.368568	2735.471229
786.691752	2739.557084
787.014891	2751.252561
787.337983	2769.481374
787.661030	2794.452729
787.984031	2817.362253
788.306987	2827.169818
788.629897	2829.052689
788.952760	2824.992039
789.275579	2811.519556
789.598351	2794.122534
789.921078	2778.222734
790.243759	2763.893255
790.566395	2751.330699
790.888984	2742.642271
791.211529	2731.403018
791.534027	2725.174672
791.856480	2718.900957
792.178888	2716.536655
792.501249	2712.775955
792.823566	2704.198431
793.145836	2704.460571
793.468062	2705.118442
793.790241	2702.280272
794.112375	2702.575180
794.434464	2708.674976
794.756507	2708.932075
795.078505	2717.822150
795.400457	2728.743809
795.722364	2735.529202
796.044226	2748.308527
796.366042	2753.480751
796.687812	2749.959505
797.009538	2754.685587
797.331218	2747.486819
797.652852	2744.764596
797.974442	2736.081209
798.295986	2734.538616
798.617484	2725.769529
798.938938	2720.022613
799.260346	2719.168138
799.581709	2710.807384
799.903026	2707.666745
800.224299	2701.284644
800.545526	2695.338603
800.866708	2695.235260
801.187845	2691.638397
801.508936	2685.868796
801.829983	2686.564475
802.150984	2679.012827
802.471940	2680.018537
802.792851	2677.865964
803.113717	2677.742456
803.434538	2676.716581
803.755314	2674.314471
804.076045	2672.527382
804.396731	2671.292300
804.717372	2672.328257
805.037967	2673.820438
805.358518	2672.812207
805.679024	2676.278001
805.999485	2676.870336
806.319901	2679.257323
806.640272	2678.964936
806.960598	2681.112467
807.280879	2679.244720
807.601115	2684.003569
807.921306	2679.922755
808.241453	2680.137004
808.561554	2680.086592
808.881611	2680.517611
809.201623	2678.181036
809.521590	2673.805315
809.841513	2673.437311
810.161390	2676.721622
810.481223	2668.484377
810.801011	2669.278359
811.120755	2664.615291
811.440453	2665.439520
811.760107	2662.687050
812.079716	2658.066832
812.399281	2657.502223
812.718801	2658.041627
813.038276	2655.387459
813.357707	2656.030206
813.677093	2656.995587
813.996434	2652.340082
814.315731	2655.808396
814.634983	2655.586585
814.954191	2655.024496
815.273354	2658.588592
815.592473	2659.838798
815.911547	2664.078408
816.230577	2668.484377
816.549562	2672.628205
816.868502	2673.901097
817.187399	2677.717250
817.506250	2679.431242
817.825058	2683.058353
818.143821	2689.765608
818.462539	2699.260621
818.781213	2711.200594
819.099843	2725.333469
819.418429	2759.071391
819.736970	2787.644651
820.055466	2819.035916
820.373919	2866.833616
820.692327	2934.140582
821.010691	3068.804924
821.329011	3395.312897
821.647286	3914.463523
821.965517	4471.677381
822.283704	4760.454838
822.601847	4797.905570
822.919945	4525.746277
823.237999	4248.079523
823.556010	3986.292404
823.873976	3756.645161
824.191897	3551.288718
824.509775	3398.224164
824.827609	3258.251486
825.145398	3175.039680
825.463144	3135.065851
825.780845	3142.420894
826.098502	3199.668237
826.416116	3308.360555
826.733685	3405.168353
827.051210	3426.852876
827.368692	3363.808206
827.686129	3249.043818
828.003522	3138.108187
828.320872	3029.294881
828.638177	2954.055660
828.955439	2896.369737
829.272656	2845.033146
829.589830	2799.282155
829.906960	2767.112031
830.224046	2739.299986
830.541088	2723.863972
830.858086	2707.868391
831.175041	2698.864891
831.491952	2695.406659
831.808819	2696.190558
832.125642	2708.478371
832.442421	2734.538616
832.759157	2785.534928
833.075849	2865.313708
833.392497	2948.283539
833.709101	3001.571056
834.025662	2987.765856
834.342179	2940.777261
834.658653	2883.963457
834.975083	2834.986127
835.291469	2795.902061
835.607811	2758.196751
835.924110	2731.650035
836.240366	2709.461396
836.556578	2687.383663
836.872746	2670.150478
837.188871	2655.725217
837.504952	2644.561581
837.820990	2637.128400
838.136984	2632.576238
838.452935	2629.415435
838.768842	2632.462812
839.084706	2643.152579
839.400526	2682.032478
839.716303	2722.732233
840.032037	2750.226687
840.347727	2740.129255
840.663373	2712.667570
840.978977	2689.206040
841.294537	2664.733758
841.610054	2653.307983
841.925527	2636.233595
842.240957	2627.784621
842.556344	2617.392283
842.871687	2611.431118
843.186987	2602.309150
843.502244	2594.661720
843.817458	2590.676688
844.132629	2585.630493
844.447756	2585.569999
844.762840	2578.582960
845.077881	2577.713361
845.392879	2572.478123
845.707833	2573.854357
846.022745	2569.592062
846.337613	2572.306723
846.652438	2573.325036
846.967221	2571.739593
847.281960	2570.754048
847.596656	2569.589541
847.911309	2571.958884
848.225919	2569.254305
848.540485	2569.617268
848.855009	2571.855540
849.169490	2564.992009
849.483928	2564.941597
849.798323	2564.833213
850.112675	2564.830692
850.426984	2565.715415
850.741251	2565.987637
851.055474	2567.532751
851.369654	2568.893862
851.683792	2565.649880
851.997887	2564.911351
852.311938	2566.280024
852.625947	2565.670044
852.939914	2566.496793
853.253837	2569.168605
853.567718	2565.639797
853.881555	2565.987637
854.195350	2566.239695
854.509103	2564.646690
854.822812	2566.045610
855.136479	2562.950342
855.450103	2565.879252
855.763685	2565.607030
856.077224	2565.178532
856.390720	2567.532751
856.704173	2567.615930
857.017584	2566.108625
857.330953	2567.235323
857.644278	2570.277659
857.957561	2569.904613
858.270802	2566.499314
858.584000	2567.968810
858.897155	2567.817576
859.210268	2567.381516
859.523339	2567.575600
859.836367	2564.598799
860.149352	2568.538461
860.462295	2565.796073
860.775195	2561.959755
861.088054	2562.040413
861.400869	2562.937739
861.713642	2560.238201
862.026373	2566.554767
862.339062	2570.441496
862.651708	2567.646177
862.964312	2569.128276
863.276873	2567.459654
863.589392	2567.931002
863.901869	2569.276990
864.214303	2571.124573
864.526696	2571.089285
864.839045	2571.926116
865.151353	2573.887125
865.463619	2573.408215
865.775842	2576.528690
866.088023	2575.379307
866.400162	2576.427867
866.712258	2578.184709
867.024313	2574.832341
867.336325	2577.597414
867.648296	2576.264029
867.960224	2576.574060
868.272110	2577.194122
868.583954	2575.754872
868.895755	2578.018351
869.207515	2575.674214
869.519233	2578.068762
869.830909	2580.352405
870.142542	2577.005079
870.454134	2580.962384
870.765684	2580.579257
871.077191	2582.653692
871.388657	2584.203846
871.700081	2586.220308
872.011463	2586.777355
872.322803	2587.493199
872.634101	2587.306677
872.945357	2586.484968
873.256571	2588.783735
873.567744	2589.965885
873.878874	2594.412183
874.189963	2593.149374
874.501010	2594.354210
874.812015	2594.855804
875.122979	2594.505444
875.433900	2595.382605
875.744780	2597.527616
876.055618	2594.996957
876.366415	2598.220775
876.677169	2597.973758
876.987882	2595.100300
877.298554	2598.261104
877.609183	2602.863677
877.919771	2604.812083
878.230317	2608.867692
878.540822	2620.563168
878.851285	2631.452061
879.161707	2645.942857
879.472087	2670.100067
879.782425	2707.986858
880.092722	2774.817435
880.402977	2884.656616
880.713191	3019.875485
881.023363	3150.756442
881.333494	3224.314438
881.643583	3249.114395
881.953631	3227.876013
882.263637	3186.745239
882.573602	3134.952425
882.883526	3080.989393
883.193408	3030.358565
883.503248	2979.203456
883.813048	2930.878955
884.122806	2887.714075
884.432522	2844.057683
884.742197	2802.460602
885.051831	2770.204779
885.361424	2736.822258
885.670975	2715.072200
885.980485	2696.147709
886.289954	2675.352949
886.599382	2660.756288
886.908768	2651.432674
887.218113	2641.761220
887.527417	2633.097997
887.836680	2622.337655
888.145901	2617.654423
888.455082	2612.595625
888.764221	2607.254522
889.073319	2603.178749
889.382376	2600.907710
889.691392	2601.449634
890.000366	2599.470981
890.309300	2599.528954
890.618193	2601.069027
890.927044	2597.464602
891.235855	2596.922677
891.544625	2601.981475
891.853353	2605.001127
892.162041	2607.194028
892.470687	2614.856582
892.779293	2619.895216
893.087858	2629.932153
893.396381	2647.470327
893.704864	2669.497649
894.013306	2705.045345
894.321707	2739.602455
894.630068	2763.532812
894.938387	2764.714963
895.246665	2758.186668
895.554903	2742.160840
895.863100	2720.788869
896.171256	2705.564584
896.479371	2692.266020
896.787446	2679.022909
897.095480	2663.823830
897.403473	2657.139260
897.711425	2647.906387
898.019336	2638.156795
898.327207	2629.359982
898.635038	2623.925618
898.942827	2616.225256
899.250576	2611.196705
899.558284	2605.089347
899.865952	2601.081629
900.173579	2595.102821
900.481165	2597.018459
900.788711	2588.294743
901.096216	2589.247521
901.403681	2587.273909
901.711105	2586.311049
902.018489	2587.591502
902.325832	2592.017635
902.633135	2594.200454
902.940397	2606.631940
903.247619	2636.147896
903.554800	2679.378310
903.861941	2738.188411
904.169041	2782.706841
904.476101	2796.370888
904.783121	2783.944444
905.090100	2760.462749
905.397039	2738.939543
905.703938	2715.112529
906.010796	2694.164015
906.317614	2676.875377
906.624391	2662.939108
906.931129	2646.225162
907.237826	2636.311733
907.544483	2622.370422
907.851099	2610.821139
908.157675	2600.665734
908.464211	2589.925556
908.770707	2579.041705
909.077163	2574.769327
909.383578	2568.039387
909.689954	2565.508727
909.996289	2565.791032
910.302584	2565.889334
910.608839	2562.390774
910.915054	2564.744993
911.221229	2561.533777
911.527363	2564.649211
911.833458	2563.988819
912.139513	2564.886145
912.445527	2564.828172
912.751502	2568.278841
913.057436	2570.491908
913.363331	2576.455593
913.669186	2581.446335
913.975000	2593.766915
914.280775	2607.771241
914.586510	2627.469549
914.892205	2650.749598
915.197859	2683.234793
915.503475	2722.515464
915.809050	2753.226173
916.114585	2772.803494
916.420081	2778.268105
916.725536	2776.496139
917.030952	2762.418717
917.336328	2747.648136
917.641665	2737.137331
917.946961	2718.442212
918.252218	2705.834286
918.557435	2693.796010
918.862612	2678.294462
919.167750	2667.619819
919.472848	2653.703714
919.777906	2640.768113
920.082925	2627.850156
920.387904	2615.345574
920.692843	2607.869543
920.997743	2603.690427
921.302603	2595.092739
921.607423	2589.870103
921.912204	2584.450863
922.216946	2579.916345
922.521647	2579.260995
922.826310	2574.983576
923.130932	2570.658266
923.435516	2567.686506
923.740059	2566.592575
924.044564	2560.825495
924.349028	2558.030176
924.653454	2556.028837
924.957840	2554.350133
925.262186	2551.466593
925.566493	2550.687735
925.870761	2546.858979
926.174989	2550.773435
926.479178	2548.227652
926.783328	2546.433001
927.087438	2548.439380
927.391509	2547.905018
927.695541	2542.841179
927.999533	2545.265974
928.303486	2541.948895
928.607400	2541.217927
928.911275	2541.661549
929.215110	2543.874616
929.518906	2541.336395
929.822663	2542.700027
930.126381	2539.587114
930.430060	2542.372352
930.733699	2540.234903
931.037299	2543.052908
931.340861	2543.093237
931.644383	2539.468647
931.947866	2540.766744
932.251309	2542.538710
932.554714	2540.207176
932.858080	2542.639533
933.161407	2541.099460
933.464694	2539.322454
933.767943	2541.245654
934.071153	2540.187012
934.374323	2539.720705
934.677455	2540.305479
934.980548	2536.680889
935.283602	2538.392361
935.586617	2537.127031
935.889593	2539.002340
936.192530	2538.042001
936.495428	2538.261291
936.798287	2540.618030
937.101108	2542.634492
937.403890	2542.924358
937.706632	2545.785213
938.009336	2547.829401
938.312002	2549.800492
938.614628	2549.011551
938.917216	2553.384752
939.219765	2552.126984
939.522275	2556.537994
939.824747	2559.734086
940.127179	2555.096224
940.429573	2550.937272
940.731929	2555.502037
941.034246	2551.030533
941.336524	2554.198899
941.638763	2556.361554
941.940964	2552.424412
942.243126	2552.469783
942.545250	2554.309804
942.847335	2548.068856
943.149381	2548.651109
943.451389	2546.838814
943.753359	2548.101623
944.055290	2547.229503
944.357182	2545.999462
944.659036	2546.133052
944.960851	2547.547096
945.262628	2541.638864
945.564367	2542.984852
945.866067	2542.821014
946.167729	2543.080634
946.469352	2541.515356
946.770937	2545.938968
947.072484	2543.292362
947.373992	2542.740356
947.675462	2541.812784
947.976893	2541.951415
948.278286	2543.027702
948.579641	2539.393030
948.880958	2540.343287
949.182236	2541.583411
949.483476	2536.154088
949.784678	2540.018133
950.085841	2541.568288
950.386967	2541.651467
950.688054	2542.440407
950.989103	2539.337577
951.290114	2541.404450
951.591087	2539.990407
951.892021	2542.304296
952.192917	2544.817311
952.493776	2547.095913
952.794596	2547.889895
953.095378	2544.782023
953.396122	2546.773279
953.696828	2545.757487
953.997496	2545.117260
954.298126	2541.091899
954.598718	2542.677342
954.899272	2545.021478
955.199788	2541.427135
955.500266	2539.077958
955.800706	2535.229037
956.101108	2533.615867
956.401472	2534.341794
956.701798	2530.896165
957.002087	2529.678726
957.302337	2531.165867
957.602550	2529.507327
957.902724	2528.602440
958.202861	2527.644621
958.502960	2526.512882
958.803022	2529.565300
959.103045	2527.077491
959.403031	2523.909126
959.702979	2525.350896
960.002889	2526.021369
960.302762	2525.028262
960.602596	2525.655886
960.902393	2524.776204
961.202153	2524.473735
961.501875	2525.456760
961.801559	2526.366688
962.101205	2524.130937
962.400814	2521.804444
962.700385	2523.054650
962.999918	2523.977181
963.299414	2520.594567
963.598873	2522.648837
963.898293	2524.221677
964.197677	2524.783766
964.497022	2520.629855
964.796331	2522.142201
965.095601	2521.489372
965.394835	2521.746471
965.694030	2520.690349
965.993189	2521.990967
966.292309	2519.664474
966.591393	2517.600122
966.890439	2519.195647
967.189447	2519.470390
967.488419	2518.656243
967.787353	2521.383508
968.086249	2522.237983
968.385108	2518.447036
968.683930	2519.346882
968.982714	2523.589013
969.281462	2519.356964
969.580172	2518.618435
969.878844	2520.632376
970.177480	2520.695390
970.476078	2520.584485
970.774639	2524.085566
971.073162	2520.226563
971.371649	2520.715555
971.670098	2519.551048
971.968510	2519.530884
972.266885	2518.908301
972.565223	2523.594054
972.863524	2520.092972
973.161788	2526.399456
973.460014	2523.750329
973.758204	2523.644465
974.056356	2522.061543
974.354471	2523.031965
974.652550	2521.590195
974.950591	2522.248066
975.248595	2519.523322
975.546563	2519.069618
975.844493	2519.293949
976.142386	2526.916174
976.440243	2520.513909
976.738062	2522.333765
977.035845	2520.622293
977.333590	2518.878054
977.631299	2518.389062
977.928971	2520.919722
978.226606	2521.169259
978.524204	2519.407375
978.821765	2518.653723
979.119290	2518.404186
979.416777	2519.591377
979.714228	2518.263033
980.011642	2518.424350
980.309020	2524.027593
980.606360	2521.219670
980.903664	2522.928621
981.200931	2522.106913
981.498162	2524.085566
981.795356	2527.458098
982.092513	2533.552853
982.389633	2534.026722
982.686717	2540.633154
982.983764	2542.755479
983.280775	2543.433515
983.577749	2544.610624
983.874686	2544.187167
984.171587	2542.896632
984.468451	2538.528472
984.765279	2538.939326
985.062070	2536.002854
985.358824	2536.448996
985.655543	2531.730476
985.952224	2529.381298
986.248869	2523.170597
986.545478	2519.215812
986.842050	2520.118178
987.138586	2513.884791
987.435086	2515.755059
987.731549	2511.820439
988.027975	2517.746315
988.324366	2514.121726
988.620719	2515.366891
988.917037	2514.729185
989.213318	2516.435615
989.509563	2518.134484
989.805772	2513.352950
990.101944	2513.262209
990.398080	2514.487209
990.694180	2512.377486
990.990244	2513.773886
991.286271	2514.724143
991.582262	2514.837569
991.878217	2511.384379
992.174136	2515.697086
992.470019	2512.881602
992.765865	2513.887312
993.061676	2514.766993
993.357450	2516.158352
993.653188	2515.601304
993.948890	2514.519977
994.244556	2516.085255
994.540186	2516.906963
994.835780	2516.629700
995.131337	2518.351254
995.426859	2519.258661
995.722345	2521.393590
996.017795	2524.070443
996.313208	2526.570855
996.608586	2527.979857
996.903928	2525.020700
997.199234	2530.192924
997.494504	2527.430372
997.789738	2524.761081
998.084936	2524.640093
998.380099	2523.475587
998.675225	2524.196472
998.970316	2522.603467
999.265371	2522.142201
999.560390	2519.198167
999.855373	2517.532066
1000.150320	2517.385873
1000.445232	2514.875378
1000.740108	2515.497961
1001.034948	2514.068793
1001.329752	2511.580984
1001.624521	2511.223062
1001.919254	2506.912876
1002.213951	2508.810870
1002.508613	2507.442197
1002.803239	2508.289111
1003.097829	2507.104439
1003.392384	2510.043432
1003.686903	2510.255161
1003.981386	2509.758607
1004.275834	2510.396313
1004.570246	2510.754235
1004.864623	2508.944461
1005.158964	2511.049142
1005.453270	2510.721467
1005.747540	2509.851868
1006.041775	2509.292300
1006.335974	2506.451610
1006.630138	2507.784995
1006.924266	2507.558143
1007.218359	2505.571929
1007.512416	2507.293483
1007.806438	2508.405057
1008.100425	2507.797598
1008.394376	2507.548061
1008.688292	2508.994872
1008.982172	2508.180726
1009.276017	2507.485047
1009.569827	2505.849192
1009.863602	2507.696775
1010.157341	2508.810870
1010.451045	2506.035715
1010.744714	2507.469923
1011.038347	2506.794408
1011.331945	2504.109994
1011.625508	2507.734584
1011.919036	2505.884480
1012.212528	2506.693585
1012.505986	2505.259377
1012.799408	2506.169305
1013.092795	2507.711898
1013.386147	2506.451610
1013.679464	2506.620489
1013.972745	2504.901455
1014.265992	2505.040087
1014.559204	2505.859274
1014.852380	2505.955056
1015.145521	2505.261898
1015.438628	2504.999758
1015.731699	2505.652587
1016.024736	2509.632578
1016.317737	2505.675272
1016.610703	2508.074862
1016.903635	2504.228461
1017.196531	2500.261073
1017.489393	2502.262411
1017.782219	2499.227637
1018.075011	2505.314830
1018.367768	2505.859274
1018.660490	2504.891373
1018.953177	2504.891373
1019.245829	2504.891373
