Dividing Wavelength (nm)	Counts (n)	Blue Motor Position (mm): 0.000000	Red Motor Position (mm): 25.900000	
326.493990	2126.346089
326.888308	2126.346089
327.282561	2126.346089
327.676750	2094.874166
328.070874	2092.164546
328.464933	2097.500607
328.858929	2103.333222
329.252859	2113.216404
329.646726	2122.789555
330.040528	2135.069806
330.434265	2152.691159
330.827938	2171.575322
331.221547	2187.316325
331.615091	2208.579912
332.008571	2227.678323
332.401986	2245.965108
332.795338	2266.442275
333.188625	2286.473300
333.581847	2306.000210
333.975006	2321.700883
334.368100	2341.736949
334.761129	2357.843436
335.154095	2375.147196
335.546996	2393.522202
335.939833	2409.038874
336.332606	2424.215267
336.725315	2437.473502
337.117960	2445.801488
337.510540	2455.117540
337.903056	2465.169601
338.295508	2473.681589
338.687896	2481.576036
339.080220	2491.698673
339.472480	2496.482728
339.864676	2499.787205
340.256807	2505.652587
340.648875	2508.417660
341.040879	2509.249450
341.432818	2513.494102
341.824694	2513.030316
342.216506	2513.741118
342.608253	2516.803619
342.999937	2511.021416
343.391557	2514.386386
343.783113	2511.306241
344.174605	2507.805160
344.566033	2507.714419
344.957397	2508.405057
345.348697	2507.079234
345.739934	2505.849192
346.131106	2505.876918
346.522215	2501.339880
346.913260	2500.626557
347.304241	2501.387771
347.695159	2495.161946
348.086012	2498.158912
348.476802	2492.021307
348.867528	2493.248828
349.258191	2488.951244
349.648789	2491.101297
350.039324	2488.356388
350.429796	2488.278250
350.820203	2485.898826
351.210548	2488.598364
351.600828	2484.031078
351.991045	2484.517550
352.381198	2483.587457
352.771288	2485.082159
353.161314	2481.893629
353.551276	2480.638382
353.941175	2483.257261
354.331010	2482.158290
354.720782	2485.180461
355.110490	2479.947744
355.500135	2484.436891
355.889717	2479.736015
356.279235	2481.097127
356.668689	2486.783548
357.058080	2485.556027
357.447408	2483.209370
357.836672	2481.107209
358.225873	2483.652992
358.615010	2480.351036
359.004084	2485.462766
359.393095	2484.981336
359.782043	2486.322283
360.170927	2487.781697
360.559748	2491.086173
360.948505	2488.726913
361.337199	2491.920484
361.725830	2490.640031
362.114398	2490.642552
362.502903	2491.040803
362.891344	2491.381081
363.279722	2490.798827
363.668037	2492.147336
364.056289	2493.460557
364.444478	2496.354179
364.832603	2495.834940
365.220665	2494.617501
365.608665	2495.222440
365.996601	2501.929695
366.384474	2498.738645
366.772284	2498.378202
367.160031	2499.207472
367.547715	2502.912720
367.935336	2504.125118
368.322893	2507.416991
368.710388	2509.304903
369.097820	2520.224042
369.485189	2521.348220
369.872495	2528.385670
370.259738	2532.945394
370.646918	2542.793288
371.034035	2548.562889
371.421090	2559.958417
371.808081	2568.462843
372.195010	2579.187898
372.581875	2592.178952
372.968678	2604.633122
373.355418	2614.838938
373.742096	2633.294602
374.128710	2649.169196
374.515262	2661.608243
374.901751	2679.900070
375.288177	2691.572862
375.674540	2714.651264
376.060841	2734.140365
376.447079	2754.819178
376.833254	2772.319543
377.219367	2783.483178
377.605417	2825.821309
377.991404	2831.689212
378.377329	2855.264168
378.763191	2868.978627
379.148991	2907.283835
379.534727	2928.570107
379.920402	2959.855508
380.306013	2975.112560
380.691563	3025.120806
381.077049	3047.148127
381.462474	3064.562793
381.847835	3098.948504
382.233134	3125.091928
382.618371	3124.121506
383.003545	3193.079449
383.388657	3199.680840
383.773706	3230.217629
384.158693	3244.718508
384.543618	3276.112294
384.928480	3311.286945
385.313280	3357.380735
385.698017	3352.528625
386.082692	3407.373858
386.467305	3407.361255
386.851856	3446.893983
387.236344	3467.043475
387.620770	3501.895492
388.005133	3528.154863
388.389435	3551.593708
388.773674	3563.747930
389.157851	3606.746451
389.541965	3618.399078
389.926018	3586.498657
390.310008	3659.686128
390.693936	3675.079292
391.077802	3719.708627
391.461606	3705.542984
391.845348	3769.956328
392.229027	3767.057664
392.612645	3774.269035
392.996200	3861.002087
393.379694	3899.879465
393.763125	3962.702324
394.146494	3930.817026
394.529801	3992.465297
394.913047	4044.031259
395.296230	4006.215044
395.679351	4061.463569
396.062410	4085.978701
396.445408	4065.113365
396.828343	4105.732462
397.211217	4123.852889
397.594028	4042.828944
397.976778	4106.972586
398.359466	4136.231443
398.742092	4165.306298
399.124656	4086.190429
399.507158	4167.962986
399.889598	4193.622459
400.271977	4256.183178
400.654294	4224.131522
401.036549	4233.223243
401.418742	4204.375240
401.800874	4305.616733
402.182944	4324.528621
402.564952	4394.308273
402.946898	4377.838823
403.328783	4375.116600
403.710606	4289.706851
404.092367	4479.322291
404.474067	4443.358700
404.855705	4454.729022
405.237282	4381.959966
405.618797	4489.510463
406.000250	4524.710320
406.381642	4606.394656
406.762972	4566.259510
407.144240	4581.554371
407.525447	4576.004060
407.906593	4639.588134
408.287677	4677.611037
408.668700	4607.594451
409.049661	4658.414323
409.430560	4697.400086
409.811399	4625.127584
410.192176	4789.106236
410.572891	4727.427719
410.953545	4834.101055
411.334138	4711.303588
411.714669	4780.627015
412.095139	4673.842774
412.475547	4814.876615
412.855894	4795.911794
413.236180	4805.232887
413.616405	4758.493829
413.996568	4847.916337
414.376670	4787.563643
414.756711	4742.311726
415.136691	4772.518319
415.516609	4851.087223
415.896466	4889.473089
416.276262	4921.078603
416.655997	4902.983381
417.035670	5086.995579
417.415283	5178.875649
417.794834	5124.587463
418.174324	5077.687088
418.553753	4984.874405
418.933121	5167.936345
419.312428	5234.671139
419.691674	5174.217622
420.070859	5299.482734
420.449983	5206.791038
420.829045	5325.174974
421.208047	5231.744750
421.586988	5305.348116
421.965867	5315.848840
422.344686	5449.794818
422.723444	5301.695800
423.102141	5120.909941
423.480777	5417.518831
423.859352	5184.579714
424.237866	5447.738027
424.616319	5439.019352
424.994712	5550.837185
425.373044	5426.398823
425.751314	5568.491306
426.129524	5368.717941
426.507673	5564.090379
426.885762	5647.476104
427.263789	5578.379529
427.641756	5462.465758
428.019662	5581.316001
428.397508	5589.603658
428.775292	5533.712386
429.153016	5635.440350
429.530679	5558.940840
429.908282	5648.645652
430.285824	5516.096073
430.663305	5791.630419
431.040726	5523.357856
431.418086	5524.073699
431.795385	5631.057066
432.172624	5644.988295
432.549802	5635.591584
432.926920	5646.475435
433.303977	5656.550181
433.680974	5694.411767
434.057910	5708.552204
434.434786	5716.257608
434.811601	5688.929512
435.188355	5917.528195
435.565050	5790.944822
435.941683	5766.974136
436.318257	5983.451364
436.694770	5967.302028
437.071222	5998.897460
437.447614	5925.425163
437.823946	5840.562379
438.200218	5994.052911
438.576429	5850.783318
438.952580	5944.205982
439.328670	5986.244163
439.704700	5893.660853
440.080670	5871.152101
440.456580	6134.128932
440.832429	6016.150809
441.208218	5856.522672
441.583947	6004.621690
441.959616	6000.712275
442.335224	5923.945584
442.710773	6046.475870
443.086261	6062.035391
443.461689	5853.697105
443.837057	5987.441438
444.212365	6126.330267
444.587612	6009.105796
444.962800	6145.411034
445.337927	6116.648731
445.712995	5729.435184
446.088002	6261.294558
446.462949	6090.802735
446.837837	6008.014386
447.212664	6158.381923
447.587431	6268.125322
447.962139	6740.579740
448.336786	7563.265801
448.711374	7304.871378
449.085901	6443.905315
449.460369	6348.723290
449.834776	6264.757831
450.209124	6584.193065
450.583412	6676.305028
450.957640	6787.210413
451.331808	6551.475977
451.705917	6129.700278
452.079965	6034.203181
452.453954	6176.824985
452.827883	6045.855808
453.201752	6092.274752
453.575562	5887.641715
453.949311	6012.984964
454.323001	5890.132045
454.696632	5916.414100
455.070202	5977.013811
455.443713	6061.627058
455.817164	6091.846254
456.190556	6107.771259
456.563888	6111.506754
456.937160	6100.060814
457.310373	5804.578623
457.683526	5773.131905
458.056619	5648.771681
458.429653	5588.121559
458.802628	5500.017313
459.175542	5521.064131
459.548398	5704.378128
459.921194	5749.680457
460.293930	5698.404361
460.666607	5949.335356
461.039224	6075.311270
461.411782	6089.524803
461.784280	6032.620258
462.156719	5902.009003
462.529099	5763.664618
462.901419	5465.117405
463.273680	5340.273230
463.645882	5287.827586
464.018024	5147.945649
464.390106	5171.603784
464.762130	5298.204801
465.134094	5455.665242
465.505999	5877.418255
465.877845	6364.504622
466.249631	6573.437763
466.621358	6294.954343
466.993026	5912.885293
467.364634	5709.222677
467.736184	5473.304239
468.107674	5258.256178
468.479105	5172.095297
468.850477	5024.460065
469.221790	4863.344788
469.593043	4671.901930
469.964238	4543.188669
470.335373	4483.826562
470.706449	4435.877627
471.077467	4369.651989
471.448425	4692.598387
471.819324	4925.739149
472.190164	4864.847052
472.560945	4449.012354
472.931667	4167.509282
473.302330	4077.872525
473.672934	3935.883386
474.043479	3954.770069
474.413965	3893.542735
474.784393	3807.182728
475.154761	3788.313689
475.525070	3747.487905
475.895321	3672.967048
476.265513	3652.270591
476.635645	3640.391112
477.005719	3586.382710
477.375734	3560.745922
477.745691	3549.330230
478.115588	3522.231507
478.485427	3508.612830
478.855207	3543.595917
479.224928	3605.997840
479.594591	3639.629898
479.964194	3551.621434
480.333739	3490.472238
480.703226	3420.097730
481.072653	3389.399624
481.442022	3375.622150
481.811333	3355.628934
482.180584	3292.284316
482.549777	3223.223028
482.918912	3177.449352
483.287988	3145.284269
483.657005	3111.695061
484.025964	3059.153635
484.394864	3032.523740
484.763706	3000.628360
485.132489	2963.384315
485.501213	2936.721653
485.869879	2922.636669
486.238487	2888.074518
486.607036	2877.840976
486.975527	2844.705471
487.343959	2835.384378
487.712333	2822.544559
488.080648	2801.429686
488.448905	2786.853190
488.817104	2774.540172
489.185244	2769.914913
489.553326	2758.249683
489.921350	2763.825199
490.289315	2773.267280
490.657222	2773.602517
491.025070	2759.855290
491.392861	2748.013620
491.760593	2729.010991
492.128267	2714.500029
492.495883	2700.893955
492.863440	2686.940041
493.230939	2679.310255
493.598380	2674.170798
493.965763	2661.159580
494.333088	2656.753612
494.700354	2651.364618
495.067563	2648.455873
495.434713	2639.719553
495.801805	2643.964205
496.168839	2639.202835
496.535815	2636.866260
496.902733	2633.012298
497.269593	2632.931639
497.636395	2631.129427
498.003139	2628.208078
498.369825	2624.807820
498.736453	2625.248921
499.103023	2622.199023
499.469535	2619.088631
499.835989	2618.987808
500.202385	2616.459669
500.568723	2612.361211
500.935003	2614.234000
501.301226	2611.098402
501.667390	2612.099071
502.033497	2617.452777
502.399546	2609.429780
502.765537	2606.810901
503.131470	2608.625716
503.497345	2610.294338
503.863163	2607.688062
504.228923	2608.315685
504.594625	2608.161930
504.960269	2605.054059
505.325856	2609.054214
505.691385	2605.550612
506.056856	2606.069851
506.422270	2602.634305
506.787625	2602.669593
507.152924	2603.357710
507.518164	2603.299737
507.883347	2601.845364
508.248472	2599.846547
508.613540	2600.209510
508.978550	2600.146495
509.343503	2596.499221
509.708398	2599.723038
510.073236	2601.852926
510.438016	2599.783532
510.802738	2598.679520
511.167403	2599.561722
511.532010	2600.436362
511.896561	2599.899479
512.261053	2601.313522
512.625488	2595.745568
512.989866	2594.139961
513.354186	2593.918150
513.718449	2591.702563
514.082655	2599.483584
514.446803	2594.407142
514.810894	2600.113728
515.174927	2596.950404
515.538904	2597.388984
515.902822	2596.998295
516.266684	2598.530806
516.630488	2596.022832
516.994235	2595.775815
517.357925	2598.805548
517.721558	2597.351176
518.085133	2595.536360
518.448651	2595.763212
518.812112	2598.326639
519.175516	2595.833788
519.538863	2598.833275
519.902152	2596.884869
520.265385	2596.196751
520.628560	2596.579879
520.991678	2595.808582
521.354739	2596.920157
521.717743	2597.630960
522.080690	2596.466453
522.443580	2597.313367
522.806413	2600.673296
523.169189	2598.515682
523.531908	2594.432347
523.894569	2597.187338
524.257174	2597.210023
524.619722	2598.084663
524.982213	2598.072061
525.344647	2599.221444
525.707025	2597.537698
526.069345	2596.489138
526.431608	2598.964345
526.793815	2600.769078
527.155964	2595.977461
527.518057	2599.591968
527.880093	2598.694643
528.242072	2596.950404
528.603995	2598.225816
528.965860	2594.739858
529.327669	2596.257245
529.689421	2595.662389
530.051117	2597.265476
530.412755	2597.716659
530.774337	2596.534509
531.135862	2596.131216
531.497331	2595.879159
531.858743	2592.017635
532.220098	2594.016452
532.581396	2592.531832
532.942638	2593.585434
533.303824	2596.169025
533.664953	2593.635845
534.026025	2593.255238
534.387040	2594.334045
534.747999	2594.581062
535.108902	2594.991916
535.469748	2595.198603
535.830537	2594.371854
536.191270	2595.548963
536.551947	2595.609457
536.912567	2594.397059
537.273131	2594.865887
537.633638	2591.644589
537.994089	2591.964703
538.354483	2590.147367
538.714821	2595.579210
539.075103	2595.276741
539.435328	2595.440578
539.795497	2590.941348
540.155609	2594.513006
540.515665	2596.123655
540.875665	2592.801534
541.235609	2593.693818
541.595496	2595.543922
541.955328	2596.131216
542.315102	2596.607605
542.674821	2594.497882
543.034483	2595.969899
543.394090	2592.713314
543.753640	2594.593664
544.113134	2596.968048
544.472571	2594.901175
544.831953	2594.959148
545.191278	2595.506113
545.550548	2596.912595
545.909761	2595.354879
546.268918	2592.126020
546.628019	2595.627101
546.987064	2596.239601
547.346053	2595.231370
547.704986	2595.997626
548.063863	2597.618357
548.422684	2596.660537
548.781449	2596.209354
549.140158	2597.900661
549.498811	2596.506782
549.857408	2592.163828
550.215949	2593.189703
550.574434	2593.333376
550.932864	2592.272213
551.291237	2588.065370
551.649555	2591.868921
552.007817	2594.344127
552.366022	2594.117275
552.724173	2593.656010
553.082267	2592.463777
553.440305	2594.480238
553.798288	2594.215578
554.156215	2594.623911
554.514086	2596.940322
554.871902	2595.168356
555.229661	2594.606267
555.587365	2594.583582
555.945014	2595.662389
556.302606	2595.617019
556.660143	2595.790938
557.017625	2597.651124
557.375050	2593.963520
557.732421	2596.035434
558.089735	2598.082143
558.446994	2593.529981
558.804197	2596.479056
559.161345	2595.314549
559.518437	2595.622060
559.875474	2594.949066
560.232455	2596.574838
560.589381	2593.540063
560.946251	2596.390836
561.303065	2597.121803
561.659825	2596.416042
562.016528	2594.694487
562.373177	2594.197934
562.729770	2594.137440
563.086307	2593.529981
563.442789	2593.817327
563.799216	2595.503593
564.155587	2595.324632
564.511904	2594.119796
564.868164	2596.458891
565.224370	2595.357399
565.580520	2594.195413
565.936615	2595.168356
566.292654	2593.396390
566.648638	2593.134250
567.004567	2594.782708
567.360441	2593.204827
567.716260	2593.499734
568.072023	2593.194744
568.427732	2587.558734
568.783385	2594.439909
569.138982	2590.056626
569.494525	2591.090062
569.850013	2588.473704
570.205445	2594.313880
570.560823	2593.356061
570.916145	2594.404621
571.271412	2592.612491
571.626625	2592.589806
571.981782	2593.088880
572.336884	2593.905547
572.691931	2593.504775
573.046923	2593.282964
573.401860	2592.867069
573.756743	2593.824888
574.111570	2592.090732
574.466342	2591.916812
574.821059	2590.822881
575.175722	2590.971595
575.530330	2592.461256
575.884882	2592.867069
576.239380	2590.139805
576.593823	2592.466297
576.948211	2591.206009
577.302544	2592.088211
577.656823	2588.614856
578.011047	2592.431009
578.365216	2592.093252
578.719330	2590.177614
579.073389	2590.142326
579.427394	2589.323138
579.781344	2590.013776
580.135239	2587.052098
580.489080	2589.975967
580.842866	2586.855493
581.196597	2593.305650
581.550273	2588.534197
581.903895	2590.127202
582.257463	2587.808271
582.610975	2588.821543
582.964434	2588.566965
583.317837	2590.008735
583.671186	2590.838005
584.024481	2588.587130
584.377721	2588.471183
584.730906	2587.500761
585.084037	2589.749116
585.437113	2585.779207
585.790135	2587.891450
586.143103	2587.362129
586.496016	2589.050916
586.848874	2583.006572
587.201679	2587.238621
587.554428	2581.511870
587.907124	2586.288363
588.259765	2580.342322
588.612352	2587.667119
588.964884	2583.896336
589.317362	2587.271388
589.669786	2584.529001
590.022155	2588.085535
590.374470	2584.478589
590.726731	2585.862386
591.078937	2586.643765
591.431090	2586.984043
591.783188	2583.616552
592.135232	2581.685790
592.487222	2583.011613
592.839157	2584.476069
593.191038	2585.809454
593.542866	2583.125039
593.894639	2582.540266
594.246358	2583.167889
594.598022	2583.435070
594.949633	2579.999524
595.301190	2583.881212
595.652692	2583.142683
596.004141	2585.627972
596.355535	2582.961202
596.706876	2581.164031
597.058162	2580.382652
597.409395	2584.718044
597.760573	2583.707293
598.111698	2581.116140
598.462768	2582.555389
598.813785	2583.051943
599.164748	2582.406675
599.515657	2582.762076
599.866511	2583.306521
600.217312	2583.697210
600.568060	2580.992631
600.918753	2585.990935
601.269392	2581.794175
601.619978	2580.642271
601.970510	2582.058835
602.320988	2581.169072
602.671412	2580.823753
603.021783	2580.014647
603.372100	2581.741243
603.722363	2579.818043
604.072572	2583.513208
604.422728	2582.328537
604.772830	2579.399627
605.122878	2576.032136
605.472872	2578.905594
605.822813	2578.154462
606.172701	2579.835687
606.522534	2579.749987
606.872314	2579.230748
607.222041	2582.315934
607.571714	2581.688311
607.921333	2581.101016
608.270899	2580.637230
608.620411	2582.091603
608.969870	2580.564133
609.319276	2583.361974
609.668627	2587.241142
610.017926	2585.849783
610.367171	2588.561924
610.716362	2589.492017
611.065500	2588.297263
611.414585	2586.230390
611.763616	2584.513877
612.112594	2586.794999
612.461518	2587.467993
612.810389	2586.142170
613.159207	2584.897005
613.507971	2583.238465
613.856682	2584.813826
614.205340	2583.921542
614.553945	2583.649319
614.902496	2582.633527
615.250994	2582.731829
615.599439	2581.453897
615.947830	2584.453383
616.296169	2581.353074
616.644454	2580.135635
616.992686	2581.673187
617.340864	2584.037488
617.688990	2581.557241
618.037063	2583.724937
618.385082	2582.701582
618.733048	2581.647981
619.080961	2581.779051
619.428821	2581.990780
619.776628	2581.650502
620.124382	2583.916501
620.472083	2582.905749
620.819731	2582.883064
621.167326	2580.793506
621.514868	2581.269895
621.862357	2583.296439
622.209793	2582.923393
622.557176	2582.681418
622.904506	2577.168916
623.251783	2576.027095
623.599007	2575.026426
623.946179	2575.810325
624.293297	2577.020202
624.640363	2576.632033
624.987376	2578.945923
625.334336	2576.574060
625.681243	2577.199163
626.028097	2576.357290
626.374899	2576.498443
626.721647	2577.123546
627.068343	2576.503484
627.414987	2578.114132
627.761577	2576.140521
628.108115	2577.499112
628.454600	2574.418967
628.801032	2574.262691
629.147412	2575.901066
629.493739	2573.816549
629.840014	2574.272773
630.186236	2576.831159
630.532405	2573.481312
630.878521	2572.828483
631.224585	2575.724626
631.570597	2573.763617
631.916556	2573.004923
632.262462	2576.299317
632.608316	2573.604820
632.954117	2571.414439
633.299866	2573.355283
633.645562	2573.173802
633.991206	2571.880746
634.336797	2570.302865
634.682336	2571.406877
635.027823	2569.387895
635.373257	2572.510890
635.718639	2568.561146
636.063968	2571.981569
636.409245	2568.687175
636.754470	2570.197000
637.099642	2570.592731
637.444762	2568.089798
637.789829	2571.429562
638.134845	2568.732545
638.479808	2568.031825
638.824719	2568.041907
639.169577	2568.830848
639.514383	2564.626525
639.859137	2567.353790
640.203839	2567.593244
640.548489	2567.164746
640.893086	2565.796073
641.237632	2563.015877
641.582125	2566.292627
641.926566	2558.206616
642.270955	2568.344376
642.615292	2566.368244
642.959576	2568.372103
643.303809	2567.754561
643.647990	2566.015363
643.992118	2567.860426
644.336195	2565.586865
644.680219	2567.220199
645.024192	2566.695919
645.368112	2567.920919
645.711981	2567.676423
646.055797	2568.903944
646.399562	2569.188770
646.743274	2566.887483
647.086935	2568.082236
647.430544	2565.919581
647.774101	2568.334294
648.117606	2570.381002
648.461059	2570.554922
648.804460	2571.396795
649.147810	2568.170457
649.491108	2567.089129
649.834354	2568.770354
650.177548	2567.459654
650.520690	2565.491083
650.863781	2566.824468
651.206820	2565.634756
651.549807	2565.828841
651.892742	2563.028480
652.235626	2566.743810
652.578458	2566.290106
652.921238	2562.731052
653.263967	2565.632236
653.606644	2563.436813
653.949269	2564.165260
654.291843	2565.193655
654.634365	2563.068809
654.976836	2562.602502
655.319255	2563.719118
655.661622	2565.614592
656.003938	2564.235836
656.346203	2563.434292
656.688416	2561.891699
657.030577	2563.056206
657.372687	2562.771381
657.714746	2560.845660
658.056753	2564.757595
658.398708	2560.810372
658.740612	2560.885989
659.082465	2559.061092
659.424266	2558.935063
659.766016	2559.701318
660.107715	2561.952193
660.449362	2560.961607
660.790958	2563.484704
661.132503	2564.717266
661.473996	2564.064437
661.815438	2563.335990
662.156829	2563.088973
662.498168	2561.924467
662.839456	2560.349106
663.180693	2561.521175
663.521879	2561.581668
663.863013	2560.999415
664.204097	2564.261042
664.545129	2564.187945
664.886110	2564.497976
665.227040	2562.355486
665.567918	2563.025959
665.908746	2562.983109
666.249522	2564.530743
666.590248	2561.672409
666.930922	2563.860270
667.271545	2562.317677
667.612118	2567.018553
667.952639	2564.687019
668.293109	2566.111145
668.633528	2564.412276
668.973896	2561.811041
669.314213	2560.717111
669.654480	2563.169632
669.994695	2561.921946
670.334859	2563.267934
670.674973	2562.151319
671.015035	2564.540826
671.355047	2564.253480
671.695008	2561.135526
672.034918	2562.826833
672.374777	2563.421690
672.714585	2560.986812
673.054342	2563.283058
673.394049	2565.138203
673.733705	2562.562173
674.073310	2562.431103
674.412864	2565.891855
674.752368	2562.080743
675.091820	2561.458160
675.431223	2560.487738
675.770574	2560.631411
676.109875	2556.187634
676.449125	2559.229970
676.788324	2557.407593
677.127473	2560.460012
677.466571	2555.537325
677.805619	2560.306257
678.144616	2561.047306
678.483562	2559.310629
678.822458	2559.134188
679.161303	2560.964127
679.500098	2560.981771
679.838842	2559.933211
680.177535	2558.599826
680.516179	2560.928839
680.854771	2557.571431
681.193314	2560.621329
681.531805	2561.440516
681.870247	2561.669889
682.208638	2562.536967
682.546978	2563.194838
682.885268	2564.218192
683.223508	2559.381205
683.561697	2563.323387
683.899836	2563.182235
684.237925	2562.269786
684.575963	2558.010011
684.913951	2562.884807
685.251889	2562.544529
685.589776	2559.829867
685.927614	2563.933367
686.265401	2560.152501
686.603137	2564.467729
686.940824	2565.294478
687.278460	2564.578634
687.616046	2561.889179
687.953582	2562.985630
688.291068	2562.012687
688.628504	2562.741134
688.965889	2562.627708
689.303224	2564.293809
689.640510	2560.684343
689.977745	2559.126627
690.314930	2562.607543
690.652065	2562.962945
690.989150	2560.989333
691.326185	2558.982954
691.663170	2560.865825
692.000105	2560.674261
692.336990	2555.809547
692.673825	2561.619477
693.010610	2561.122923
693.347345	2555.819630
693.684030	2550.720503
694.020665	2554.554300
694.357251	2548.646068
694.693786	2553.833415
695.030272	2556.285936
695.366707	2555.436502
695.703093	2553.152859
696.039429	2555.491955
696.375716	2555.406255
696.711952	2553.593960
697.048139	2555.698642
697.384276	2552.636141
697.720363	2555.943138
698.056400	2554.151008
698.392388	2551.491799
698.728326	2552.285781
699.064214	2553.127653
699.400053	2555.907850
699.735842	2548.799823
700.071581	2551.053219
700.407270	2551.464073
700.742910	2552.583209
701.078501	2552.734443
701.414042	2552.169834
701.749533	2552.477345
702.084974	2551.002807
702.420366	2551.779145
702.755709	2553.389793
703.091002	2549.765204
703.426246	2550.604556
703.761440	2550.385266
704.096584	2549.712272
704.431679	2549.291335
704.766725	2549.782848
705.101721	2547.809236
705.436668	2549.543393
705.771565	2548.625903
706.106413	2553.442726
706.441212	2550.612118
706.775961	2552.275698
707.110661	2550.826367
707.445311	2551.819474
707.779913	2550.594474
708.114465	2551.688404
708.448967	2552.888199
708.783421	2553.067160
709.117825	2552.845349
709.452180	2551.214536
709.786485	2550.715461
710.120742	2553.389793
710.454949	2552.913404
710.789107	2552.754608
711.123216	2551.847200
711.457275	2553.392314
711.791286	2548.220090
712.125247	2552.711758
712.459159	2553.024310
712.793023	2554.881975
713.126837	2556.038920
713.460602	2552.777293
713.794318	2555.355843
714.127985	2553.909032
714.461602	2550.763352
714.795171	2554.219063
715.128691	2554.234187
715.462162	2549.709751
715.795584	2551.010369
716.128957	2550.786037
716.462281	2553.921635
716.795556	2552.739485
717.128782	2549.888712
717.461960	2550.153373
717.795088	2551.176727
718.128167	2551.330482
718.461198	2548.913249
718.794180	2551.096068
719.127113	2548.507436
719.459997	2551.234700
719.792833	2551.484237
720.125619	2551.224618
720.458357	2546.422919
720.791046	2547.758825
721.123686	2547.491643
721.456278	2549.445091
721.788821	2551.627910
722.121315	2546.269164
722.453761	2546.052394
722.786158	2547.794113
723.118506	2548.603218
723.450805	2547.431150
723.783056	2547.887374
724.115259	2550.546583
724.447412	2547.068187
724.779518	2549.172868
725.111574	2545.752445
725.443582	2552.477345
725.775542	2546.937117
726.107453	2548.278063
726.439315	2548.998948
726.771129	2551.552293
727.102895	2547.138763
727.434612	2550.193702
727.766281	2548.462066
728.097901	2547.179092
728.429473	2544.751776
728.760996	2544.938299
729.092471	2543.027702
729.423897	2547.741181
729.755276	2549.800492
730.086606	2549.747560
730.417887	2547.466438
730.749120	2549.036757
731.080305	2548.814946
731.411442	2550.760832
731.742530	2550.349978
732.073570	2554.559341
732.404562	2548.797302
732.735506	2551.378373
733.066401	2549.364432
733.397249	2550.193702
733.728048	2549.830739
734.058798	2550.226469
734.389501	2547.345450
734.720156	2548.691438
735.050762	2548.726726
735.381320	2546.831252
735.711831	2546.198588
736.042293	2546.478372
736.372707	2547.332847
736.703073	2546.498536
737.033391	2545.906201
737.363661	2549.931562
737.693883	2547.670604
738.024056	2549.162786
738.354182	2547.557178
738.684260	2546.480892
739.014290	2545.896118
739.344272	2547.620193
739.674207	2549.036757
740.004093	2548.015923
740.333931	2547.539534
740.663722	2547.284956
740.993464	2547.723537
741.323159	2549.195553
741.652806	2548.797302
741.982405	2548.998948
742.311956	2547.534493
742.641460	2549.578681
742.970915	2547.549617
743.300323	2548.560368
743.629683	2543.869574
743.958996	2544.756817
744.288260	2543.380582
744.617477	2542.216076
744.946647	2543.773792
745.275768	2544.371169
745.604842	2541.139790
745.933869	2542.526107
746.262847	2541.578370
746.591778	2544.756818
746.920662	2545.893598
747.249498	2545.417209
747.578286	2541.260777
747.907027	2542.180788
748.235720	2544.870243
748.564365	2545.482744
748.892963	2545.671787
749.221514	2543.977959
749.550017	2543.002496
749.878473	2542.884029
750.206881	2546.067517
750.535242	2543.688093
750.863555	2543.526776
751.191821	2543.751107
751.520039	2544.061138
751.848210	2544.673638
752.176334	2541.966539
752.504411	2545.326468
752.832440	2542.952084
753.160421	2544.746735
753.488356	2544.845038
753.816243	2544.005686
754.144082	2543.292362
754.471875	2542.710109
754.799620	2545.336550
755.127318	2542.241282
755.454969	2544.897970
755.782572	2542.437887
756.110129	2545.689431
756.437638	2542.611807
756.765100	2543.373021
757.092515	2544.673638
757.419882	2541.928730
757.747203	2542.500901
758.074477	2542.503422
758.401703	2543.315047
758.728882	2542.445448
759.056014	2544.550130
759.383099	2543.685572
759.710138	2546.483413
760.037129	2547.897456
760.364073	2544.081303
760.690970	2546.581715
761.017820	2545.081972
761.344623	2540.703730
761.671379	2545.734801
761.998088	2540.635674
762.324751	2546.208670
762.651366	2548.071376
762.977935	2557.624363
763.304456	2555.260062
763.630931	2561.034703
763.957359	2559.174517
764.283740	2556.497665
764.610074	2550.796120
764.936362	2551.711089
765.262602	2545.119781
765.588796	2545.540717
765.914943	2544.567774
766.241044	2544.572815
766.567097	2542.841179
766.893104	2544.063659
767.219064	2541.568288
767.544978	2539.382947
767.870845	2544.504760
768.196665	2541.903524
768.522438	2541.840510
768.848165	2540.393699
769.173846	2538.276414
769.499479	2543.075593
769.825066	2540.996117
770.150607	2541.159954
770.476101	2541.182639
770.801548	2541.379244
771.126949	2538.601569
771.452303	2541.394368
771.777611	2537.636188
772.102872	2538.465458
772.428087	2541.986703
772.753256	2542.024512
773.078378	2538.427649
773.403453	2541.212886
773.728482	2540.970911
774.053465	2538.185673
774.378401	2538.619213
774.703291	2540.867567
775.028135	2538.470499
775.352932	2536.958153
775.677683	2540.643236
776.002388	2539.524100
776.327046	2541.540561
776.651658	2537.212731
776.976224	2539.801363
777.300743	2538.341949
777.625216	2536.902700
777.949643	2537.409336
778.274024	2539.801363
778.598359	2534.717360
778.922647	2534.523275
779.246889	2534.671989
779.571086	2534.911444
779.895236	2537.396733
780.219339	2538.631816
780.543397	2535.168543
780.867409	2535.947401
781.191374	2538.614172
781.515294	2539.146013
781.839167	2537.386651
782.162995	2537.885725
782.486776	2537.154757
782.810511	2536.464119
783.134201	2540.650798
783.457844	2536.804397
783.781441	2538.273894
784.104993	2536.779192
784.428498	2537.119469
784.751958	2535.244160
785.075372	2538.873791
785.398739	2537.235416
785.722061	2538.752803
786.045337	2536.706095
786.368568	2536.292720
786.691752	2534.664428
787.014891	2538.911600
787.337983	2539.816487
787.661030	2538.654501
787.984031	2543.743546
788.306987	2540.829759
788.629897	2541.921168
788.952760	2541.021322
789.275579	2539.670293
789.598351	2540.867567
789.921078	2539.924872
790.243759	2539.216589
790.566395	2538.672145
790.888984	2540.696168
791.211529	2534.898841
791.534027	2537.784902
791.856480	2536.668286
792.178888	2536.373379
792.501249	2536.789274
792.823566	2538.256250
793.145836	2538.291538
793.468062	2534.697195
793.790241	2536.431352
794.112375	2536.297761
794.434464	2537.248019
794.756507	2537.563091
795.078505	2536.398584
795.400457	2534.253573
795.722364	2533.099149
796.044226	2534.903882
796.366042	2536.597710
796.687812	2536.456558
797.009538	2539.584594
797.331218	2538.392361
797.652852	2537.805066
797.974442	2538.130221
798.295986	2537.547967
798.617484	2539.687937
798.938938	2538.619213
799.260346	2539.191384
799.581709	2537.976466
799.903026	2535.458409
800.224299	2535.904551
800.545526	2535.362627
800.866708	2537.197607
801.187845	2538.142824
801.508936	2536.693492
801.829983	2535.455889
802.150984	2536.149047
802.471940	2535.634850
802.792851	2534.346835
803.113717	2538.314223
803.434538	2536.375899
803.755314	2534.636701
804.076045	2536.126362
804.396731	2537.852957
804.717372	2536.141486
805.037967	2536.534696
805.358518	2536.504449
805.679024	2538.052083
805.999485	2538.578883
806.319901	2536.733821
806.640272	2534.412370
806.960598	2538.916641
807.280879	2534.606454
807.601115	2537.971424
807.921306	2536.632998
808.241453	2536.774150
808.561554	2537.600900
808.881611	2534.498069
809.201623	2536.811959
809.521590	2538.881353
809.841513	2537.394212
810.161390	2535.879346
810.481223	2534.329191
810.801011	2536.746424
811.120755	2538.256250
811.440453	2537.459747
811.760107	2535.753317
812.079716	2531.526309
812.399281	2531.629653
812.718801	2532.826927
813.038276	2533.056299
813.357707	2536.499407
813.677093	2534.238450
813.996434	2536.663245
814.315731	2535.559232
814.634983	2538.538554
814.954191	2536.476722
815.273354	2534.198121
815.592473	2535.990251
815.911547	2536.595189
816.230577	2538.289017
816.549562	2536.189377
816.868502	2535.627288
817.187399	2538.089892
817.506250	2535.821372
817.825058	2535.460930
818.143821	2538.717515
818.462539	2538.220962
818.781213	2538.054603
819.099843	2538.467978
819.418429	2539.801363
819.736970	2543.657846
820.055466	2545.104657
820.373919	2547.083310
820.692327	2547.481561
821.010691	2553.261244
821.329011	2565.581824
821.647286	2589.625607
821.965517	2610.743001
822.283704	2626.340331
822.601847	2633.319808
822.919945	2620.051491
823.237999	2603.627412
823.556010	2591.236256
823.873976	2579.825604
824.191897	2571.474933
824.509775	2563.184755
824.827609	2560.044117
825.145398	2558.105793
825.463144	2557.004301
825.780845	2556.497665
826.098502	2556.417006
826.416116	2565.717935
826.733685	2574.973494
827.051210	2575.734708
827.368692	2571.021229
827.686129	2564.175342
828.003522	2555.572613
828.320872	2550.791079
828.638177	2546.831252
828.955439	2545.296221
829.272656	2540.633154
829.589830	2537.522762
829.906960	2538.737680
830.224046	2542.604245
830.541088	2539.350180
830.858086	2538.929244
831.175041	2539.269522
831.491952	2539.135931
831.808819	2539.289686
832.125642	2537.484953
832.442421	2541.659028
832.759157	2543.521735
833.075849	2547.516849
833.392497	2552.807540
833.709101	2555.139074
834.025662	2557.412634
834.342179	2553.122612
834.658653	2550.733105
834.975083	2544.625748
835.291469	2547.859648
835.607811	2540.844882
835.924110	2540.471837
836.240366	2539.168698
836.556578	2537.558050
836.872746	2537.721887
837.188871	2533.678882
837.504952	2537.124511
837.820990	2536.930426
838.136984	2534.755168
838.452935	2537.033770
838.768842	2535.803728
839.084706	2531.506145
839.400526	2537.991589
839.716303	2535.707946
840.032037	2541.381765
840.347727	2544.066179
840.663373	2541.797660
840.978977	2539.481250
841.294537	2540.386137
841.610054	2539.264480
841.925527	2535.924716
842.240957	2535.473533
842.556344	2535.839016
842.871687	2535.730632
843.186987	2533.830117
843.502244	2531.173428
843.817458	2532.607637
844.132629	2532.524458
844.447756	2533.386495
844.762840	2529.398942
845.077881	2531.503624
845.392879	2529.177132
845.707833	2529.799714
846.022745	2524.476256
846.337613	2532.564787
846.652438	2529.777029
846.967221	2535.604603
847.281960	2533.341125
847.596656	2532.927750
847.911309	2530.603778
848.225919	2533.472195
848.540485	2534.568646
848.855009	2531.357431
849.169490	2531.029756
849.483928	2532.799201
849.798323	2533.147040
850.112675	2533.578059
850.426984	2531.518747
850.741251	2532.723583
851.055474	2531.017153
851.369654	2535.513862
851.683792	2529.058664
851.997887	2532.461443
852.311938	2533.215096
852.625947	2532.592513
852.939914	2530.109745
853.253837	2532.448840
853.567718	2530.233253
853.881555	2531.669982
854.195350	2532.121165
854.509103	2531.123017
854.822812	2531.062523
855.136479	2532.947915
855.450103	2530.893644
855.763685	2533.993954
856.077224	2530.107224
856.390720	2530.911288
856.704173	2534.576207
857.017584	2531.780888
857.330953	2532.136289
857.644278	2535.160981
857.957561	2537.091743
858.270802	2534.770292
858.584000	2530.170239
858.897155	2530.439941
859.210268	2535.186187
859.523339	2532.005219
859.836367	2530.056813
860.149352	2531.904396
860.462295	2532.080836
860.775195	2529.456916
861.088054	2527.916843
861.400869	2530.112266
861.713642	2525.570186
862.026373	2531.874149
862.339062	2529.406504
862.651708	2533.041176
862.964312	2533.817514
863.276873	2530.540764
863.589392	2531.498583
863.901869	2531.148223
864.214303	2530.739889
864.526696	2530.689478
864.839045	2529.835002
865.151353	2532.108563
865.463619	2534.757689
865.775842	2532.002698
866.088023	2531.876669
866.400162	2533.300795
866.712258	2532.670651
867.024313	2534.651825
867.336325	2531.889272
867.648296	2530.513037
867.960224	2531.480939
868.272110	2530.737369
868.583954	2532.534540
868.895755	2532.146371
869.207515	2532.191742
869.519233	2532.514375
869.830909	2532.542102
870.142542	2534.999664
870.454134	2533.507483
870.765684	2533.535209
871.077191	2533.958666
871.388657	2531.564118
871.700081	2531.039838
872.011463	2533.797349
872.322803	2529.524971
872.634101	2533.956145
872.945357	2531.944725
873.256571	2532.635363
873.567744	2532.834489
873.878874	2532.617719
874.189963	2536.406146
874.501010	2533.633512
874.812015	2531.622091
875.122979	2534.911444
875.433900	2533.678882
875.744780	2532.595034
876.055618	2534.014119
876.366415	2535.957483
876.677169	2535.067720
876.987882	2533.215096
877.298554	2530.145033
877.609183	2530.553367
877.919771	2530.016484
878.230317	2532.093439
878.540822	2536.970755
878.851285	2535.034952
879.161707	2536.590148
879.472087	2538.495704
879.782425	2543.078113
880.092722	2545.334030
880.402977	2552.671429
880.713191	2565.632236
881.023363	2578.126735
881.333494	2587.873806
881.643583	2587.828436
881.953631	2587.309197
882.263637	2581.695872
882.573602	2582.820050
882.883526	2571.709347
883.193408	2568.316650
883.503248	2560.964127
883.813048	2558.816596
884.122806	2553.611604
884.432522	2550.186140
884.742197	2546.445604
885.051831	2543.582229
885.361424	2542.344625
885.670975	2540.986034
885.980485	2540.368493
886.289954	2538.959491
886.599382	2535.914634
886.908768	2538.984696
887.218113	2537.610982
887.527417	2537.061496
887.836680	2535.826413
888.145901	2533.280631
888.455082	2535.241640
888.764221	2535.687782
889.073319	2533.530168
889.382376	2533.555374
889.691392	2531.942204
890.000366	2532.771474
890.309300	2530.843233
890.618193	2532.375744
890.927044	2532.902544
891.235855	2535.392874
891.544625	2535.206352
891.853353	2530.540764
892.162041	2535.839016
892.470687	2533.522606
892.779293	2539.085519
893.087858	2533.247863
893.396381	2533.099149
893.704864	2537.356404
894.013306	2538.510828
894.321707	2546.299411
894.630068	2550.387786
894.938387	2551.595143
895.246665	2551.227138
895.554903	2548.073897
895.863100	2544.701365
896.171256	2546.864020
896.479371	2540.867567
896.787446	2540.693647
897.095480	2539.834131
897.403473	2535.498738
897.711425	2535.932278
898.019336	2536.640560
898.327207	2535.702905
898.635038	2536.585107
898.942827	2535.087884
899.250576	2532.232071
899.558284	2534.455220
899.865952	2534.384643
900.173579	2532.922709
900.481165	2537.056455
900.788711	2534.349355
901.096216	2533.550333
901.403681	2532.932791
901.711105	2532.683254
902.018489	2534.225847
902.325832	2534.757689
902.633135	2533.389016
902.940397	2536.403626
903.247619	2534.296423
903.554800	2538.442772
903.861941	2545.941489
904.169041	2556.540515
904.476101	2559.023283
904.783121	2557.042109
905.090100	2553.987170
905.397039	2551.587581
905.703938	2548.051212
906.010796	2541.913607
906.317614	2539.831610
906.624391	2537.583256
906.931129	2535.085364
907.237826	2536.048224
907.544483	2535.896990
907.851099	2535.148378
908.157675	2532.474046
908.464211	2532.486649
908.770707	2528.914992
909.077163	2530.266021
909.383578	2527.679909
909.689954	2530.361803
909.996289	2527.813499
910.302584	2530.666793
910.608839	2530.664272
910.915054	2529.890455
911.221229	2530.273583
911.527363	2530.593696
911.833458	2529.729138
912.139513	2530.407173
912.445527	2534.513193
912.751502	2532.660569
913.057436	2534.616537
913.363331	2534.165353
913.669186	2532.794159
913.975000	2534.901362
914.280775	2533.686444
914.586510	2539.478729
914.892205	2538.503266
915.197859	2543.516694
915.503475	2547.569781
915.809050	2552.759649
916.114585	2555.675957
916.420081	2556.253169
916.725536	2554.829043
917.030952	2552.651264
917.336328	2551.448949
917.641665	2549.492982
917.946961	2543.625078
918.252218	2544.073741
918.557435	2540.373534
918.862612	2541.354039
919.167750	2535.612164
919.472848	2538.576363
919.777906	2534.954294
920.082925	2535.922195
920.387904	2534.825744
920.692843	2532.733666
920.997743	2533.961187
921.302603	2532.569828
921.607423	2533.842719
921.912204	2534.455220
922.216946	2533.300795
922.521647	2533.164684
922.826310	2531.601927
923.130932	2535.476053
923.435516	2530.671834
923.740059	2531.884231
924.044564	2532.625281
924.349028	2530.384488
924.653454	2527.621936
924.957840	2528.441123
925.262186	2527.246370
925.566493	2527.198479
925.870761	2525.630680
926.174989	2530.833151
926.479178	2525.907943
926.783328	2528.060516
927.087438	2529.056144
927.391509	2530.641587
927.695541	2530.684437
927.999533	2532.345497
928.303486	2527.115300
928.607400	2527.821061
928.911275	2529.595547
929.215110	2528.534384
929.518906	2529.378778
929.822663	2531.211237
930.126381	2527.994981
930.430060	2528.083201
930.733699	2527.037162
931.037299	2530.442461
931.340861	2528.473891
931.644383	2527.261493
931.947866	2530.288706
932.251309	2530.639066
932.554714	2529.078829
932.858080	2527.753006
933.161407	2529.736700
933.464694	2529.887934
933.767943	2527.712676
934.071153	2527.942049
934.374323	2527.253931
934.677455	2528.685619
934.980548	2528.887265
935.283602	2528.138654
935.586617	2528.342821
935.889593	2528.206709
936.192530	2525.970958
936.495428	2526.427182
936.798287	2528.415917
937.101108	2528.022707
937.403890	2528.990609
937.706632	2531.851464
938.009336	2527.692512
938.312002	2534.543440
938.614628	2528.882224
938.917216	2530.898686
939.219765	2530.606299
939.522275	2530.941535
939.824747	2532.095960
940.127179	2524.970289
940.429573	2524.811492
940.731929	2527.624456
941.034246	2525.449198
941.336524	2527.442975
941.638763	2528.872142
941.940964	2530.258459
942.243126	2531.601927
942.545250	2529.444313
942.847335	2528.330218
943.149381	2528.229395
943.451389	2527.561442
943.753359	2530.603778
944.055290	2530.485311
944.357182	2528.378109
944.659036	2530.666792
944.960851	2526.885927
945.262628	2529.832482
945.564367	2528.098325
945.866067	2530.986906
946.167729	2527.233767
946.469352	2527.354754
946.770937	2528.647810
947.072484	2528.461288
947.373992	2529.711494
947.675462	2527.836185
947.976893	2528.057995
948.278286	2527.097656
948.579641	2527.659744
948.880958	2529.358613
949.182236	2524.763601
949.483476	2528.171421
949.784678	2524.877027
950.085841	2526.865763
950.386967	2529.272913
950.688054	2526.376771
950.989103	2528.350382
951.290114	2524.168745
951.591087	2529.237625
951.892021	2527.848787
952.192917	2527.465660
952.493776	2529.966072
952.794596	2530.722245
953.095378	2529.875331
953.396122	2527.463139
953.696828	2529.935825
953.997496	2527.747964
954.298126	2530.961700
954.598718	2526.696884
954.899272	2527.601771
955.199788	2526.369209
955.500266	2525.713859
955.800706	2526.969106
956.101108	2521.320493
956.401472	2524.191430
956.701798	2522.976512
957.002087	2523.972140
957.302337	2525.766791
957.602550	2528.922553
957.902724	2529.003212
958.202861	2527.470701
958.502960	2528.972965
958.803022	2530.019004
959.103045	2524.889630
959.403031	2528.380629
959.702979	2525.965917
960.002889	2527.193437
960.302762	2528.012625
960.602596	2527.256452
960.902393	2526.157480
961.202153	2528.368026
961.501875	2526.560773
961.801559	2527.937008
962.101205	2527.805938
962.400814	2530.278624
962.700385	2527.989940
962.999918	2528.788963
963.299414	2525.471883
963.598873	2528.869621
963.898293	2526.492717
964.197677	2526.003725
964.497022	2525.693694
964.796331	2528.279806
965.095601	2526.313756
965.394835	2525.570186
965.694030	2527.160670
965.993189	2528.191586
966.292309	2527.130423
966.591393	2524.957686
966.890439	2523.460463
967.189447	2527.513551
967.488419	2526.154960
967.787353	2526.820392
968.086249	2526.041534
968.385108	2526.802748
968.683930	2526.008766
968.982714	2528.115969
969.281462	2527.067409
969.580172	2523.702438
969.878844	2526.860721
970.177480	2527.037162
970.476078	2527.127902
970.774639	2526.528005
971.073162	2523.309228
971.371649	2523.437778
971.670098	2522.429547
971.968510	2522.681605
972.266885	2522.356450
972.565223	2528.433561
972.863524	2526.260824
973.161788	2528.546987
973.460014	2525.454239
973.758204	2526.611184
974.056356	2525.912984
974.354471	2523.266379
974.652550	2525.804600
974.950591	2526.941380
975.248595	2524.730834
975.546563	2525.786956
975.844493	2527.606812
976.142386	2529.275434
976.440243	2524.761081
976.738062	2526.858201
977.035845	2525.635721
977.333590	2526.782583
977.631299	2525.413910
977.928971	2525.885258
978.226606	2526.727131
978.524204	2526.351565
978.821765	2526.190248
979.119290	2525.532377
979.416777	2527.684950
979.714228	2524.468694
980.011642	2526.253262
980.309020	2529.940866
980.606360	2525.852491
980.903664	2525.406348
981.200931	2528.118489
981.498162	2524.791328
981.795356	2527.314425
982.092513	2525.429034
982.389633	2528.390712
982.686717	2527.838705
982.983764	2523.649506
983.280775	2527.243849
983.577749	2528.441123
983.874686	2528.869621
984.171587	2527.052285
984.468451	2527.168232
984.765279	2525.224867
985.062070	2524.130937
985.358824	2525.887779
985.655543	2527.780732
985.952224	2525.892820
986.248869	2525.887779
986.545478	2520.576923
986.842050	2525.701256
987.138586	2522.197654
987.435086	2522.452232
987.731549	2521.955679
988.027975	2524.415762
988.324366	2524.274609
988.620719	2526.991791
988.917037	2525.784435
989.213318	2526.767460
989.509563	2526.001205
989.805772	2525.872655
990.101944	2523.921729
990.398080	2526.538087
990.694180	2524.418282
990.990244	2523.896523
991.286271	2527.140505
991.582262	2525.076153
991.878217	2524.866945
992.174136	2526.827954
992.470019	2524.299815
992.765865	2525.910464
993.061676	2524.851822
993.357450	2526.036493
993.653188	2525.668488
993.948890	2525.592871
994.244556	2526.938859
994.540186	2524.745957
994.835780	2526.165042
995.131337	2525.305525
995.426859	2524.410721
995.722345	2523.841070
996.017795	2525.217305
996.313208	2526.028931
996.608586	2523.478107
996.903928	2524.572038
997.199234	2523.336955
997.494504	2526.328880
997.789738	2526.885927
998.084936	2527.052285
998.380099	2525.721421
998.675225	2524.952645
998.970316	2527.468180
999.265371	2527.649662
999.560390	2523.964578
999.855373	2524.768642
1000.150320	2524.181348
1000.445232	2525.688653
1000.740108	2525.950793
1001.034948	2524.811492
1001.329752	2524.501461
1001.624521	2524.861904
1001.919254	2519.082221
1002.213951	2522.452232
1002.508613	2521.577592
1002.803239	2521.181862
1003.097829	2521.015503
1003.392384	2525.360978
1003.686903	2523.858714
1003.981386	2526.966586
1004.275834	2522.774866
1004.570246	2526.399456
1004.864623	2525.575227
1005.158964	2522.535411
1005.453270	2522.792510
1005.747540	2527.057326
1006.041775	2529.015815
1006.335974	2525.771832
1006.630138	2525.184538
1006.924266	2527.160670
1007.218359	2525.484486
1007.512416	2525.749147
1007.806438	2524.566996
1008.100425	2527.831143
1008.394376	2527.022038
1008.688292	2523.573889
1008.982172	2524.597243
1009.276017	2522.943745
1009.569827	2523.606657
1009.863602	2526.598581
1010.157341	2521.378467
1010.451045	2525.721421
1010.744714	2522.396780
1011.038347	2524.503982
1011.331945	2524.166225
1011.625508	2523.710000
1011.919036	2524.425844
1012.212528	2526.434744
1012.505986	2522.661440
1012.799408	2524.725793
1013.092795	2525.101359
1013.386147	2524.377953
1013.679464	2522.532891
1013.972745	2523.546163
1014.265992	2522.827798
1014.559204	2526.528005
1014.852380	2523.417613
1015.145521	2526.217974
1015.438628	2525.585309
1015.731699	2525.391225
1016.024736	2525.030783
1016.317737	2525.169414
1016.610703	2524.929959
1016.903635	2521.265041
1017.196531	2520.856707
1017.489393	2524.297295
1017.782219	2517.988291
1018.075011	2524.904754
1018.367768	2523.543642
1018.660490	2523.460463
1018.953177	2523.460463
1019.245829	2523.460463
