Dividing Wavelength (nm)	Counts (n)	Blue Motor Position (mm): 0.000000	Red Motor Position (mm): 45.000000	
326.493990	2074.651577
326.888308	2074.651577
327.282561	2074.651577
327.676750	2052.992260
328.070874	2056.747919
328.464933	2061.925184
328.858929	2071.185784
329.252859	2084.096179
329.646726	2101.324322
330.040528	2115.578185
330.434265	2135.659621
330.827938	2153.177631
331.221547	2173.488440
331.615091	2195.150278
332.008571	2214.848586
332.401986	2235.701319
332.795338	2255.835688
333.188625	2276.378390
333.581847	2293.162911
333.975006	2312.286528
334.368100	2330.054075
334.761129	2346.180726
335.154095	2361.798221
335.546996	2404.181722
335.939833	2479.675521
336.332606	2494.153715
336.725315	2503.011022
337.117960	2511.301200
337.510540	2520.682787
337.903056	2530.765095
338.295508	2536.731301
338.687896	2545.999462
339.080220	2552.232849
339.472480	2555.013045
339.864676	2560.339024
340.256807	2562.393294
340.648875	2567.099211
341.040879	2565.629715
341.432818	2566.421176
341.824694	2564.407235
342.216506	2566.857236
342.608253	2567.041238
342.999937	2567.220199
343.391557	2563.683830
343.783113	2566.932853
344.174605	2562.758778
344.566033	2563.285578
344.957397	2557.941955
345.348697	2557.944476
345.739934	2556.169990
346.131106	2556.185113
346.522215	2556.749723
346.913260	2552.999104
347.304241	2548.303269
347.695159	2549.666901
348.086012	2546.097764
348.476802	2547.438711
348.867528	2548.451983
349.258191	2544.086344
349.648789	2546.435522
350.039324	2544.416540
350.429796	2545.646581
350.820203	2544.469472
351.210548	2542.768082
351.600828	2542.072403
351.991045	2541.333874
352.381198	2538.505787
352.771288	2540.590304
353.161314	2538.619213
353.551276	2540.058462
353.941175	2538.931764
354.331010	2541.626261
354.720782	2542.604245
355.110490	2541.245654
355.500135	2539.541744
355.889717	2541.354039
356.279235	2541.981662
356.668689	2541.684234
357.058080	2542.629451
357.447408	2541.094419
357.836672	2540.423946
358.225873	2545.323947
358.615010	2543.930068
359.004084	2549.303938
359.393095	2549.276212
359.782043	2549.644216
360.170927	2546.039791
360.559748	2550.662529
360.948505	2549.510626
361.337199	2553.641851
361.725830	2552.489947
362.114398	2553.510781
362.502903	2554.821481
362.891344	2557.813406
363.279722	2554.715617
363.668037	2556.086811
364.056289	2558.438509
364.444478	2558.667882
364.832603	2560.704508
365.220665	2562.206772
365.608665	2563.814900
365.996601	2562.962945
366.384474	2562.685681
366.772284	2563.610733
367.160031	2563.212482
367.547715	2566.751372
367.935336	2567.545353
368.322893	2568.329253
368.710388	2568.031825
369.097820	2570.509552
369.485189	2571.117011
369.872495	2573.635067
370.259738	2574.585325
370.646918	2576.480799
371.034035	2581.514391
371.421090	2579.780234
371.808081	2582.447004
372.195010	2587.190730
372.581875	2592.912440
372.968678	2596.899992
373.355418	2605.656477
373.742096	2616.058897
374.128710	2622.176338
374.515262	2633.453399
374.901751	2647.845893
375.288177	2662.412307
375.674540	2675.554595
376.060841	2698.043182
376.447079	2716.060266
376.833254	2741.223186
377.219367	2760.626587
377.605417	2794.931639
377.991404	2818.584733
378.377329	2857.252903
378.763191	2889.082749
379.148991	2933.447423
379.534727	2981.161944
379.920402	3021.473531
380.306013	3069.213258
380.691563	3131.902527
381.077049	3180.771472
381.462474	3229.968092
381.847835	3305.449289
382.233134	3369.121583
382.618371	3426.532763
383.003545	3509.439579
383.388657	3583.899942
383.773706	3673.123324
384.158693	3740.800814
384.543618	3830.906398
384.928480	3901.837953
385.313280	4001.761184
385.698017	4099.050413
386.082692	4218.485429
386.467305	4277.746713
386.851856	4395.646699
387.236344	4544.501890
387.620770	4602.956589
388.005133	4715.795256
388.389435	4859.011917
388.773674	4933.552938
389.157851	5062.523297
389.541965	5192.542217
389.926018	5217.858891
390.310008	5387.163523
390.693936	5505.517212
391.077802	5612.876145
391.461606	5748.457978
391.845348	5851.544533
392.229027	5973.099355
392.612645	6183.869997
392.996200	6300.418953
393.379694	6470.187371
393.763125	6682.719897
394.146494	6772.275995
394.529801	6909.473517
394.913047	7140.983466
395.296230	7137.527755
395.679351	7196.448762
396.062410	7443.314065
396.445408	7348.268151
396.828343	7502.232551
397.211217	7633.473950
397.594028	7521.797269
397.976778	7718.094759
398.359466	7888.231180
398.742092	7870.173767
399.124656	8012.465376
399.507158	8203.391516
399.889598	8226.255669
400.271977	8434.951877
400.654294	8462.103531
401.036549	8660.901433
401.418742	8690.495527
401.800874	8980.820618
402.182944	9074.376872
402.564952	9426.680429
402.946898	9263.962065
403.328783	9313.771186
403.710606	9511.744859
404.092367	9766.824723
404.474067	10115.622157
404.855705	9923.234083
405.237282	9874.085353
405.618797	10302.709459
406.000250	10540.248628
406.381642	10903.819164
406.762972	10853.551299
407.144240	10664.694552
407.525447	10913.541029
407.906593	10867.454801
408.287677	11125.151024
408.668700	11271.669640
409.049661	11261.347877
409.430560	11423.932651
409.811399	11401.202088
410.192176	11562.639999
410.572891	11636.964250
410.953545	12111.089811
411.334138	11600.446132
411.714669	12177.451560
412.095139	11532.768642
412.475547	12007.093328
412.855894	11877.144984
413.236180	12194.697347
413.616405	11893.196018
413.996568	12165.357832
414.376670	12144.232877
414.756711	12029.768438
415.136691	12319.123107
415.516609	12487.795073
415.896466	12560.793501
416.276262	12858.002288
416.655997	13305.981904
417.035670	13352.594933
417.415283	13977.070386
417.794834	14061.751689
418.174324	13810.659377
418.553753	13726.056213
418.933121	14211.020254
419.312428	14048.221232
419.691674	13948.169451
420.070859	14412.537858
420.449983	14072.658225
420.829045	14622.146515
421.208047	14379.175502
421.586988	14836.403115
421.965867	15080.825980
422.344686	15090.729327
422.723444	15657.912066
423.102141	14357.985012
423.480777	15542.003337
423.859352	15046.001689
424.237866	16145.394164
424.616319	15866.366298
424.994712	16513.642891
425.373044	16307.071529
425.751314	17005.034403
426.129524	16132.897143
426.507673	17201.218467
426.885762	16933.276098
427.263789	17120.489429
427.641756	17315.080488
428.019662	17363.488168
428.397508	17418.766940
428.775292	17705.825364
429.153016	17689.529834
429.530679	17771.216691
429.908282	17793.911965
430.285824	17528.228034
430.663305	18234.453359
431.040726	17856.112242
431.418086	17691.395061
431.795385	18323.974169
432.172624	18764.329040
432.549802	18334.331219
432.926920	18553.598727
433.303977	18420.250125
433.680974	18673.656326
434.057910	18985.108893
434.434786	19025.165901
434.811601	18954.413307
435.188355	20000.689664
435.565050	19666.110804
435.941683	19622.129258
436.318257	20512.923827
436.694770	20326.711166
437.071222	20928.284657
437.447614	19990.932511
437.823946	20019.876296
438.200218	20202.305571
438.576429	19976.650922
438.952580	20295.539191
439.328670	20255.993860
439.704700	20675.385092
440.080670	20244.517673
440.456580	20859.293946
440.832429	21026.725789
441.208218	20039.614934
441.583947	20480.025257
441.959616	20614.382090
442.335224	20858.084069
442.710773	21001.232674
443.086261	21559.169938
443.461689	20885.550796
443.837057	21045.781351
444.212365	21704.259387
444.587612	21716.038043
444.962800	21318.472486
445.337927	21740.694326
445.712995	20451.719178
446.088002	22363.118030
446.462949	22565.754770
446.837837	22754.528338
447.212664	22756.451538
447.587431	25725.063530
447.962139	28707.319404
448.336786	31041.721475
448.711374	29391.293076
449.085901	25631.466947
449.460369	25645.362887
449.834776	25625.730114
450.209124	28204.033289
450.583412	27681.331171
450.957640	28187.130301
451.331808	26821.212022
451.705917	25436.369252
452.079965	25480.219728
452.453954	25864.325405
452.827883	25779.384483
453.201752	25578.038278
453.575562	25737.220272
453.949311	26880.417853
454.323001	26950.505015
454.696632	26725.107465
455.070202	28333.386777
455.443713	28523.435756
455.817164	29116.991292
456.190556	29686.956749
456.563888	29091.331819
456.937160	29537.380673
457.310373	27808.252301
457.683526	28258.263502
458.056619	28249.328057
458.429653	28246.487367
458.802628	28851.675365
459.175542	28985.565891
459.548398	30375.399403
459.921194	31995.911075
460.293930	32736.454054
460.666607	34846.285323
461.039224	36639.630434
461.411782	36999.094950
461.784280	35717.989044
462.156719	35161.680073
462.529099	34588.014409
462.901419	33272.409366
463.273680	32195.260983
463.645882	32336.919927
464.018024	32340.320185
464.390106	33272.210241
464.762130	36187.675868
465.134094	40526.100430
465.505999	46024.522218
465.877845	50582.476427
466.249631	51615.439097
466.621358	49767.110121
466.993026	47534.554482
467.364634	45394.095682
467.736184	43413.602777
468.107674	42115.954324
468.479105	41335.724861
468.850477	40609.047575
469.221790	39156.819702
469.593043	37377.244503
469.964238	36472.085165
470.335373	36418.580879
470.706449	38277.826473
471.077467	41044.585623
471.448425	45745.953097
471.819324	48531.513231
472.190164	46549.480253
472.560945	42896.546750
472.931667	39712.601872
473.302330	38602.378478
473.672934	37749.352233
474.043479	38301.106521
474.413965	37484.946234
474.784393	37115.792620
475.154761	38056.890344
475.525070	38108.053014
475.895321	37623.613253
476.265513	38249.815302
476.635645	39251.462324
477.005719	39109.115263
477.375734	39603.962486
477.745691	40358.272857
478.115588	41727.132648
478.485427	43856.122823
478.855207	47334.438318
479.224928	49992.863073
479.594591	51551.673542
479.964194	50464.142902
480.333739	50606.565580
480.703226	50663.611277
481.072653	51329.857731
481.442022	51807.222233
481.811333	52010.305116
482.180584	50735.359499
482.549777	50209.675538
482.918912	49691.775118
483.287988	49357.828923
483.657005	48535.417605
484.025964	47855.577680
484.394864	47858.753607
484.763706	47403.784431
485.132489	46526.099382
485.501213	46352.474481
485.869879	46529.905453
486.238487	46101.195647
486.607036	46299.532284
486.975527	45739.815493
487.343959	45962.465614
487.712333	46040.038889
488.080648	45913.246308
488.448905	46401.998777
488.817104	46181.160950
489.185244	47210.287302
489.553326	48989.610443
489.921350	51750.206783
490.289315	54545.178751
490.657222	55089.784683
491.025070	55311.350957
491.392861	54405.805971
491.760593	53152.665865
492.128267	51467.203968
492.495883	49938.176636
492.863440	48492.834978
493.230939	47109.774256
493.598380	46021.406785
493.965763	45685.673500
494.333088	44859.710690
494.700354	44360.525553
495.067563	44057.133792
495.434713	43906.788940
495.801805	43989.789017
496.168839	43599.029018
496.535815	43263.005867
496.902733	43278.835090
497.269593	42842.414840
497.636395	42775.085189
498.003139	43182.596943
498.369825	42615.255407
498.736453	42936.606279
499.103023	42455.889410
499.469535	42337.429857
499.835989	42419.913216
500.202385	42073.706934
500.568723	42097.145779
500.935003	42294.010398
501.301226	42081.558531
501.667390	42705.106412
502.033497	42954.376347
502.399546	42380.183882
502.765537	41654.250167
503.131470	42041.125957
503.497345	42407.524580
503.863163	41028.867306
504.228923	41701.367311
504.594625	42101.521501
504.960269	41343.546211
505.325856	42050.636094
505.691385	41420.058324
506.056856	41552.146637
506.422270	41991.016888
506.787625	41549.000957
507.152924	41766.564554
507.518164	41861.673483
507.883347	41062.305279
508.248472	41290.803139
508.613540	41795.180664
508.978550	42087.796959
509.343503	41832.152486
509.708398	42046.915722
510.073236	42579.294336
510.438016	42577.456835
510.802738	42012.746781
511.167403	42650.813185
511.532010	42881.876992
511.896561	43181.230790
512.261053	44033.183270
512.625488	43568.812342
512.989866	43454.408397
513.354186	43286.031338
513.718449	43275.366777
514.082655	43970.710771
514.446803	43631.758709
514.810894	44169.833827
515.174927	44082.523563
515.538904	43964.989061
515.902822	44639.137524
516.266684	44079.246813
516.630488	44498.970762
516.994235	44344.968553
517.357925	44955.593436
517.721558	45108.879801
518.085133	45408.994813
518.448651	45523.131577
518.812112	45298.250745
519.175516	45402.118679
519.538863	45717.064765
519.902152	45681.696030
520.265385	46148.582493
520.628560	46165.195616
520.991678	45977.039590
521.354739	46183.671445
521.717743	46514.202258
522.080690	46395.641882
522.443580	46941.419882
522.806413	46981.194586
523.169189	46921.698888
523.531908	47095.008717
523.894569	46941.356868
524.257174	47107.762836
524.619722	47388.487049
524.982213	47360.095271
525.344647	47290.502142
525.707025	47334.468565
526.069345	47738.930421
526.431608	47641.066501
526.793815	47978.486052
527.155964	47492.942278
527.518057	47654.717946
527.880093	47420.168181
528.242072	47953.497052
528.603995	47645.212850
528.965860	47617.904920
529.327669	47716.620794
529.689421	47625.219634
530.051117	47567.037157
530.412755	47720.966269
530.774337	47784.971279
531.135862	47582.021987
531.497331	47757.038245
531.858743	47678.378601
532.220098	47993.614554
532.581396	47699.506077
532.942638	47348.740072
533.303824	47673.211419
533.664953	47622.648646
534.026025	47333.387238
534.387040	47793.952094
534.747999	47739.953775
535.108902	47904.118950
535.469748	47391.181546
535.830537	47509.930966
536.191270	47711.355309
536.551947	47347.497427
536.912567	47653.061927
537.273131	47768.332951
537.633638	47256.688603
537.994089	47598.405737
538.354483	47177.708845
538.714821	47762.102084
539.075103	48100.151779
539.435328	47857.223616
539.795497	47711.987974
540.155609	47723.164212
540.515665	48186.123617
540.875665	47623.576218
541.235609	47931.842776
541.595496	47910.526257
541.955328	48588.352241
542.315102	47936.367211
542.674821	47710.268941
543.034483	47745.960310
543.394090	47728.190242
543.753640	47664.870830
544.113134	48669.890384
544.472571	47674.058332
544.831953	48920.987736
545.191278	48115.723903
545.550548	47843.541925
545.909761	48294.238723
546.268918	48476.902412
546.628019	48792.050144
546.987064	48341.045836
547.346053	47611.114486
547.704986	48479.470880
548.063863	48044.469714
548.422684	48197.413281
548.781449	48034.412612
549.140158	48461.065627
549.498811	48285.046179
549.857408	47692.758493
550.215949	48549.943690
550.574434	48472.662801
550.932864	48225.064010
551.291237	48956.346389
551.649555	48550.931756
552.007817	48758.012274
552.366022	48424.043393
552.724173	48591.220657
553.082267	48980.548969
553.440305	49250.651472
553.798288	48562.531451
554.156215	48874.803205
554.514086	49072.194625
554.871902	48792.002253
555.229661	48814.616870
555.587365	48627.320360
555.945014	48732.143593
556.302606	48666.580866
556.660143	48876.537362
557.017625	48953.213312
557.375050	48721.922653
557.732421	49071.030119
558.089735	49051.846008
558.446994	48937.560530
558.804197	49413.415206
559.161345	49332.635757
559.518437	48570.040250
559.875474	48861.633191
560.232455	49054.532943
560.589381	49215.938086
560.946251	48921.297767
561.303065	49574.051573
561.659825	49354.201813
562.016528	49026.579745
562.373177	48738.056866
562.729770	49211.867354
563.086307	48716.430316
563.442789	49170.575263
563.799216	49197.895797
564.155587	48994.129838
564.511904	49018.589516
564.868164	49066.719932
565.224370	49310.530297
565.580520	49040.626920
565.936615	49237.249564
566.292654	48928.932595
566.648638	49195.148368
567.004567	49162.030507
567.360441	49195.844047
567.716260	49037.937464
568.072023	49311.520884
568.427732	49293.738213
568.783385	48822.670113
569.138982	49214.594619
569.494525	49156.991874
569.850013	48914.847611
570.205445	48887.380884
570.560823	48819.136264
570.916145	48697.911638
571.271412	48737.404037
571.626625	48463.387078
571.981782	48500.968880
572.336884	48171.048046
572.691931	48476.587340
573.046923	48088.925129
573.401860	47909.691946
573.756743	47870.577633
574.111570	47986.786311
574.466342	47842.873972
574.821059	47925.286755
575.175722	47433.484389
575.530330	47468.152404
575.884882	47154.937953
576.239380	47093.390506
576.593823	47094.116432
576.948211	47018.070627
577.302544	46509.781167
577.656823	46510.733945
578.011047	46736.484376
578.365216	46466.611246
578.719330	46223.428505
579.073389	46070.694146
579.427394	46159.244534
579.781344	46115.517565
580.135239	45758.702176
580.489080	45827.458473
580.842866	45304.199307
581.196597	45742.666265
581.550273	45677.796697
581.903895	45556.292287
582.257463	45959.370346
582.610975	45318.659856
582.964434	45598.950531
583.317837	45235.279172
583.671186	45065.455302
584.024481	45273.450789
584.377721	44795.201564
584.730906	45058.296863
585.084037	45106.510458
585.437113	44794.387418
585.790135	44807.764120
586.143103	44398.901337
586.496016	44509.274880
586.848874	44531.778591
587.201679	44553.321962
587.554428	44020.908060
587.907124	44197.464391
588.259765	43948.030619
588.612352	44199.183425
588.964884	43569.155140
589.317362	43833.059544
589.669786	43787.215291
590.022155	43556.244745
590.374470	43954.722751
590.726731	43476.418074
591.078937	42959.845998
591.431090	43068.273656
591.783188	42715.528998
592.135232	42379.916701
592.487222	42649.184893
592.839157	42710.059346
593.191038	42367.069321
593.542866	42111.467697
593.894639	41511.630883
594.246358	41802.442446
594.598022	41767.106478
594.949633	41364.693852
595.301190	41305.858545
595.652692	41141.380818
596.004141	41451.472274
596.355535	40467.398714
596.706876	40407.509806
597.058162	40229.080686
597.409395	40693.186953
597.760573	40771.697883
598.111698	40352.193225
598.462768	40364.841480
598.813785	40406.688098
599.164748	39848.140855
599.515657	40212.843130
599.866511	39721.393644
600.217312	40340.001194
600.568060	39283.871902
600.918753	40039.397191
601.269392	39982.472481
601.619978	39638.738886
601.970510	39845.196821
602.320988	40000.073670
602.671412	40298.759515
603.021783	40066.274102
603.372100	39701.206344
603.722363	39788.693048
604.072572	39866.967044
604.422728	39881.430114
604.772830	39672.764154
605.122878	39784.886977
605.472872	39703.169873
605.822813	39979.387295
606.172701	39808.373713
606.522534	40050.192822
606.872314	40310.908696
607.222041	40071.705946
607.571714	40431.273805
607.921333	39887.227441
608.270899	40166.893012
608.620411	40513.321105
608.969870	40291.522938
609.319276	40304.549280
609.668627	40356.195901
610.017926	40827.344660
610.367171	40966.667029
610.716362	41069.617473
611.065500	40991.620741
611.414585	41185.609382
611.763616	41462.235137
612.112594	41396.793399
612.461518	41597.819491
612.810389	41910.978488
613.159207	41768.076900
613.507971	41831.812208
613.856682	42304.551451
614.205340	42181.506968
614.553945	42868.434756
614.902496	42322.470232
615.250994	42793.160247
615.599439	42858.904454
615.947830	43043.045202
616.296169	43120.449598
616.644454	43218.104310
616.992686	43374.932086
617.340864	43889.971651
617.688990	43588.631638
618.037063	44207.755907
618.385082	44154.975026
618.733048	44443.855827
619.080961	44450.863030
619.428821	44458.361747
619.776628	44543.373245
620.124382	44384.672680
620.472083	44487.119009
620.819731	44636.339683
621.167326	44282.924552
621.514868	44257.549904
621.862357	43809.461903
622.209793	43844.185371
622.557176	43493.116896
622.904506	43209.660377
623.251783	42878.625448
623.599007	42645.008297
623.946179	42414.521702
624.293297	42369.000082
624.640363	41781.413273
624.987376	41752.434200
625.334336	41516.717407
625.681243	41155.294403
626.028097	41110.962496
626.374899	40972.792031
626.721647	40942.782042
627.068343	40826.096975
627.414987	40569.814795
627.761577	40362.552796
628.108115	40670.136277
628.454600	40132.416561
628.801032	40313.847688
629.147412	40247.044838
629.493739	40241.955793
629.840014	39891.257844
630.186236	40237.786759
630.532405	39811.887397
630.878521	40029.546776
631.224585	39875.224454
631.570597	39576.775543
631.916556	39726.233152
632.262462	39666.974388
632.608316	39663.634624
632.954117	39561.952030
633.299866	39542.485615
633.645562	39461.733892
633.991206	38949.749266
634.336797	38519.227166
634.682336	38507.665280
635.027823	38249.359077
635.373257	38064.106756
635.718639	37822.721186
636.063968	37684.044085
636.409245	37090.125586
636.754470	37143.193812
637.099642	36903.907883
637.444762	36411.543428
637.789829	36543.306587
638.134845	36206.607921
638.479808	36150.230177
638.824719	36040.905194
639.169577	35655.786246
639.514383	35713.290688
639.859137	35401.931383
640.203839	35630.038553
640.548489	35257.497284
640.893086	35316.935008
641.237632	35071.057771
641.582125	35166.887585
641.926566	35086.476140
642.270955	35059.233744
642.615292	35063.758180
642.959576	35022.035070
643.303809	35008.391187
643.647990	35155.514742
643.992118	35102.370898
644.336195	35061.945885
644.680219	35149.301519
645.024192	35451.438034
645.368112	35937.785872
645.711981	35926.329850
646.055797	36772.767307
646.399562	36670.295773
646.743274	37612.406768
647.086935	37995.592434
647.430544	37877.740339
647.774101	37971.505801
648.117606	38198.755975
648.461059	38466.663055
648.804460	38060.643483
649.147810	37437.750952
649.491108	37174.514501
649.834354	36828.409043
650.177548	36002.829359
650.520690	35567.422381
650.863781	35564.420374
651.206820	35425.234116
651.549807	34965.024661
651.892742	34479.397708
652.235626	34283.715239
652.578458	34143.782891
652.921238	33532.011145
653.263967	33853.898901
653.606644	33513.633619
653.949269	33445.666262
654.291843	33027.913405
654.634365	33407.592948
654.976836	33007.622761
655.319255	33005.323994
655.661622	32985.020747
656.003938	32764.056892
656.346203	32621.457773
656.688416	32812.882988
657.030577	32613.885960
657.372687	32446.827163
657.714746	32689.263813
658.056753	32789.547486
658.398708	32248.649323
658.740612	32267.467950
659.082465	32532.441078
659.424266	32366.914792
659.766016	32460.387867
660.107715	32310.592501
660.449362	32425.813113
660.790958	32386.421537
661.132503	32379.154713
661.473996	32393.416138
661.815438	32490.349964
662.156829	32666.747499
662.498168	32421.381939
662.839456	32416.585281
663.180693	32559.338155
663.521879	32713.758779
663.863013	32655.125119
664.204097	32623.643113
664.545129	33044.687844
664.886110	32979.354490
665.227040	33047.697413
665.567918	33143.663338
665.908746	33171.674510
666.249522	33309.315654
666.590248	33288.067190
666.930922	33369.549880
667.271545	33333.752647
667.612118	33368.655076
667.952639	33148.538134
668.293109	33193.359033
668.633528	33067.602409
668.973896	32996.764115
669.314213	33004.136803
669.654480	32735.019846
669.994695	32744.333378
670.334859	32624.918525
670.674973	32508.724970
671.015035	32627.885244
671.355047	32569.606985
671.695008	32494.476149
672.034918	32378.784189
672.374777	32438.335339
672.714585	32265.695984
673.054342	32453.978039
673.394049	32214.041802
673.733705	32469.504793
674.073310	32112.633951
674.412864	32169.977076
674.752368	31792.805507
675.091820	32056.909036
675.431223	31625.398870
675.770574	31343.926045
676.109875	31185.525429
676.449125	30911.861352
676.788324	30819.509934
677.127473	30320.929736
677.466571	30223.748893
677.805619	29892.809746
678.144616	29876.975481
678.483562	29776.192734
678.822458	29460.765217
679.161303	29380.023576
679.500098	29288.884556
679.838842	29163.836214
680.177535	29294.923858
680.516179	29534.910508
680.854771	29754.016698
681.193314	30524.892300
681.531805	31552.438250
681.870247	32226.962279
682.208638	32862.626573
682.546978	33039.918913
682.885268	33104.639766
683.223508	32596.367950
683.561697	32268.919802
683.899836	32052.651782
684.237925	31572.686045
684.575963	31388.636038
684.913951	30951.293257
685.251889	31056.229915
685.589776	31025.882169
685.927614	31003.940547
686.265401	31101.648191
686.603137	31154.487045
686.940824	31588.636255
687.278460	31907.025450
687.616046	31985.596874
687.953582	32500.825482
688.291068	32341.000741
688.628504	32565.432910
688.965889	32483.378049
689.303224	32117.788531
689.640510	31772.114091
689.977745	31067.247357
690.314930	30326.394347
690.652065	29834.889408
690.989150	29161.033333
691.326185	28314.674013
691.663170	27661.582450
692.000105	26975.418398
692.336990	26362.348555
692.673825	25931.317298
693.010610	25440.865961
693.347345	24914.418265
693.684030	24307.579288
694.020665	24037.189440
694.357251	23399.057501
694.693786	23347.340304
695.030272	23109.037400
695.366707	22612.808900
695.703093	22337.592147
696.039429	22319.055824
696.375716	22057.135115
696.711952	22014.214731
697.048139	21851.070389
697.384276	21670.140857
697.720363	21776.584821
698.056400	21564.659754
698.392388	21355.656036
698.728326	21305.804066
699.064214	21104.412490
699.400053	21044.163140
699.735842	20708.356759
700.071581	20457.536670
700.407270	20180.706748
700.742910	19998.559777
701.078501	19751.596171
701.414042	19485.009873
701.749533	19210.859324
702.084974	18880.643582
702.420366	19054.775118
702.755709	18649.264703
703.091002	18372.354122
703.426246	18373.460656
703.761440	18271.866282
704.096584	18005.022886
704.431679	17957.774671
704.766725	17857.778343
705.101721	17786.113300
705.436668	17859.988889
705.771565	17560.201553
706.106413	17845.223350
706.441212	17827.223910
706.775961	17926.423735
707.110661	17966.732802
707.445311	18267.235982
707.779913	18103.688349
708.114465	18315.557963
708.448967	18542.122540
708.783421	19123.599471
709.117825	19332.441872
709.452180	19502.643829
709.786485	19827.798252
710.120742	20493.117134
710.454949	20484.854683
710.789107	20865.197137
711.123216	21442.666352
711.457275	21520.632837
711.791286	21962.938634
712.125247	21994.768480
712.459159	21707.034542
712.793023	22253.243561
713.126837	21280.537803
713.460602	21478.700519
713.794318	21147.290024
714.127985	20812.673356
714.461602	20018.676501
714.795171	19967.390323
715.128691	19093.861705
715.462162	18622.765878
715.795584	18242.340244
716.128957	18003.019027
716.462281	17647.030386
716.795556	17430.399403
717.128782	16987.655025
717.461960	16513.085843
717.795088	16435.106755
718.128167	16087.224290
718.461198	15694.253744
718.794180	15575.816876
719.127113	15264.664258
719.459997	15081.035188
719.792833	14781.212563
720.125619	14744.780144
720.458357	14468.913082
720.791046	14317.658302
721.123686	14168.026773
721.456278	13968.628974
721.788821	13924.024845
722.121315	13694.377602
722.453761	13739.679931
722.786158	13668.725691
723.118506	13667.548581
723.450805	13546.384449
723.783056	13660.906861
724.115259	13561.245770
724.447412	13495.073064
724.779518	13682.142722
725.111574	13685.505171
725.443582	13841.501157
725.775542	13813.268174
726.107453	14178.497250
726.439315	14070.702257
726.771129	14386.805289
727.102895	14668.126879
727.434612	14809.695082
727.766281	14895.838319
728.097901	15087.674387
728.429473	15105.111738
728.760996	15084.800930
729.092471	15134.602488
729.423897	15018.935734
729.755276	14900.375357
730.086606	14978.845958
730.417887	15376.915630
730.749120	15771.000271
731.080305	15886.132663
731.411442	16135.785725
731.742530	16172.699574
732.073570	16238.385808
732.404562	16453.343129
732.735506	16288.870443
733.066401	16040.911209
733.397249	15605.010198
733.728048	15089.343009
734.058798	14431.850519
734.389501	13875.849058
734.720156	13502.589425
735.050762	13069.692941
735.381320	12774.351902
735.711831	12559.056824
736.042293	12268.948502
736.372707	12269.729881
736.703073	12096.452821
737.033391	12229.330074
737.363661	12196.607945
737.693883	12272.247938
738.024056	12393.875856
738.354182	12527.272349
738.684260	12746.870052
739.014290	12912.759301
739.344272	13047.864745
739.674207	13260.281324
740.004093	13338.759486
740.333931	13312.071618
740.663722	13333.017612
740.993464	13315.643275
741.323159	13150.545487
741.652806	12912.043457
741.982405	12733.873957
742.311956	12439.624328
742.641460	12334.448214
742.970915	12087.557705
743.300323	11818.907054
743.629683	11644.336938
743.958996	11416.239850
744.288260	11199.432426
744.617477	10965.532970
744.946647	10900.703731
745.275768	10683.412356
745.604842	10534.645386
745.933869	10399.061032
746.262847	10352.339619
746.591778	10290.308221
746.920662	10207.993740
747.249498	10193.729795
747.578286	10273.735427
747.907027	10365.497030
748.235720	10530.307473
748.564365	10533.866528
748.892963	10459.131422
749.221514	10483.785185
749.550017	10363.541062
749.878473	10323.567233
750.206881	10150.479216
750.535242	10071.408718
750.863555	9998.082614
751.191821	9921.653681
751.520039	9921.326006
751.848210	9847.704995
752.176334	9860.338127
752.504411	9790.487899
752.832440	9655.538731
753.160421	9691.449391
753.488356	9596.456408
753.816243	9527.657261
754.144082	9408.686030
754.471875	9351.935241
754.799620	9308.437645
755.127318	9272.479094
755.454969	9246.655784
755.782572	9203.082571
756.110129	9199.531078
756.437638	9129.385943
756.765100	9118.161813
757.092515	9111.575546
757.419882	9119.003686
757.747203	9116.919169
758.074477	9163.035644
758.401703	9127.707238
758.728882	9239.978776
759.056014	9267.989947
759.383099	9341.646246
759.710138	9413.013861
760.037129	9462.157549
760.364073	9464.065626
760.690970	9450.835117
761.017820	9446.615672
761.344623	9570.862470
761.671379	9790.535790
761.998088	10228.112985
762.324751	11375.484642
762.651366	13471.535917
762.977935	16026.780855
763.304456	17569.124395
763.630931	17849.382302
763.957359	16947.030887
764.283740	15563.738271
764.610074	14221.767994
764.936362	12709.149618
765.262602	11604.554672
765.588796	10559.082379
765.914943	9833.128499
766.241044	9235.572807
766.567097	8774.665152
766.893104	8376.766879
767.219064	8114.899101
767.544978	7833.282603
767.870845	7604.845237
768.196665	7459.541540
768.522438	7318.263203
768.848165	7185.809406
769.173846	7065.477064
769.499479	6973.700338
769.825066	6858.096598
770.150607	6728.876701
770.476101	6671.697414
770.801548	6589.098108
771.126949	6486.329146
771.452303	6421.366317
771.777611	6297.348891
772.102872	6277.698473
772.428087	6194.305186
772.753256	6103.229180
773.078378	6040.489499
773.403453	5936.913953
773.728482	5855.874884
774.053465	5806.337986
774.378401	5744.974540
774.703291	5672.409651
775.028135	5602.929948
775.352932	5573.794600
775.677683	5515.193707
776.002388	5447.909427
776.327046	5441.771822
776.651658	5381.441813
776.976224	5326.490716
777.300743	5312.824148
777.625216	5267.277323
777.949643	5233.189040
778.274024	5231.379266
778.598359	5177.267521
778.922647	5178.356410
779.246889	5152.979241
779.571086	5152.046628
779.895236	5160.750180
780.219339	5155.802288
780.543397	5155.401516
780.867409	5181.197100
781.191374	5179.402449
781.515294	5150.206607
781.839167	5174.474721
782.162995	5158.161548
782.486776	5120.615034
782.810511	5086.138583
783.134201	5031.157238
783.457844	5017.500752
783.781441	4986.180063
784.104993	4948.777223
784.428498	4931.382721
784.751958	4909.824227
785.075372	4891.870157
785.398739	4862.167679
785.722061	4880.870360
786.045337	4873.752250
786.368568	4943.410914
786.691752	4958.317606
787.014891	5121.245178
787.337983	5315.826155
787.661030	5613.246670
787.984031	5886.898145
788.306987	6040.761722
788.629897	6082.951138
788.952760	6011.260889
789.275579	5881.693153
789.598351	5682.549932
789.921078	5500.236603
790.243759	5312.728366
790.566395	5176.047561
790.888984	5049.287748
791.211529	4956.540599
791.534027	4846.323332
791.856480	4755.534672
792.178888	4717.771389
792.501249	4675.821427
792.823566	4608.650572
793.145836	4596.297225
793.468062	4584.440431
793.790241	4558.937234
794.112375	4583.177622
794.434464	4642.731293
794.756507	4663.357174
795.078505	4745.336418
795.400457	4886.357656
795.722364	5036.702507
796.044226	5161.438298
796.366042	5254.964304
796.687812	5211.945618
797.009538	5224.503132
797.331218	5158.779089
797.652852	5104.473259
797.974442	5021.445455
798.295986	4977.075740
798.617484	4891.958377
798.938938	4820.351308
799.260346	4770.600160
799.581709	4681.180173
799.903026	4648.145492
800.224299	4598.396866
800.545526	4525.862223
800.866708	4483.871933
801.187845	4455.233138
801.508936	4403.952000
801.829983	4383.613465
802.150984	4320.374710
802.471940	4303.973316
802.792851	4290.165596
803.113717	4273.986013
803.434538	4258.981018
803.755314	4235.196854
804.076045	4229.432295
804.396731	4206.681568
804.717372	4218.477868
805.037967	4219.763362
805.358518	4235.254828
805.679024	4271.228502
805.999485	4278.389461
806.319901	4285.197539
806.640272	4297.152635
806.960598	4324.654650
807.280879	4314.116118
807.601115	4334.701670
807.921306	4309.579079
808.241453	4301.409890
808.561554	4303.638080
808.881611	4283.881798
809.201623	4280.163947
809.521590	4239.229778
809.841513	4234.110486
810.161390	4237.689705
810.481223	4179.177032
810.801011	4167.214374
811.120755	4149.787105
811.440453	4117.823669
811.760107	4095.763580
812.079716	4075.994695
812.399281	4042.939850
812.718801	4033.669168
813.038276	4013.844830
813.357707	3989.054956
813.677093	4000.813447
813.996434	3964.214671
814.315731	3974.246567
814.634983	3971.075681
814.954191	3970.495948
815.273354	4000.939476
815.592473	4028.018034
815.911547	4070.502358
816.230577	4100.053602
816.549562	4146.336436
816.868502	4173.193183
817.187399	4206.769788
817.506250	4247.346035
817.825058	4258.958333
818.143821	4342.379347
818.462539	4437.659675
818.781213	4569.546342
819.099843	4786.157161
819.418429	5159.426877
819.736970	5515.579355
820.055466	5910.034520
820.373919	6425.409322
820.692327	7269.976511
821.010691	8927.555787
821.329011	12925.142896
821.647286	19345.231280
821.965517	26358.045930
822.283704	29886.465453
822.601847	30395.175850
822.919945	26822.996590
823.237999	23204.854611
823.556010	19800.470157
823.873976	16836.160790
824.191897	14305.408298
824.509775	12429.418512
824.827609	10797.380242
825.145398	9856.834525
825.463144	9403.133199
825.780845	9584.541641
826.098502	10361.930414
826.416116	11791.531068
826.733685	13103.642592
827.051210	13322.330366
827.368692	12395.746124
827.686129	10913.331822
828.003522	9494.572168
828.320872	8246.493381
828.638177	7311.732388
828.955439	6605.635613
829.272656	5998.889898
829.589830	5518.916599
829.906960	5105.332776
830.224046	4803.523936
830.541088	4570.375612
830.858086	4421.462448
831.175041	4306.173780
831.491952	4271.180611
831.808819	4282.508083
832.125642	4414.611520
832.442421	4727.296649
832.759157	5364.853896
833.075849	6379.154215
833.392497	7422.524347
833.709101	8030.162346
834.025662	7831.762696
834.342179	7195.942126
834.658653	6462.406350
834.975083	5858.375296
835.291469	5362.986149
835.607811	4965.740705
835.924110	4679.014998
836.240366	4409.582969
836.556578	4161.961492
836.872746	3966.818427
837.188871	3817.431394
837.504952	3697.940924
837.820990	3608.107563
838.136984	3541.949980
838.452935	3519.902494
838.768842	3536.999567
839.084706	3705.164898
839.400526	4130.905464
839.716303	4627.517091
840.032037	4912.649793
840.347727	4802.586282
840.663373	4463.341833
840.978977	4152.363135
841.294537	3917.745314
841.610054	3742.292996
841.925527	3612.392544
842.240957	3499.813496
842.556344	3403.376223
842.871687	3314.611586
843.186987	3235.982189
843.502244	3175.032118
843.817458	3126.405148
844.132629	3088.994746
844.447756	3061.530539
844.762840	3036.118083
845.077881	3014.733508
845.392879	2998.236332
845.707833	2985.308293
846.022745	2969.605099
846.337613	2962.797021
846.652438	2949.422840
846.967221	2944.696758
847.281960	2937.034204
847.596656	2931.209151
847.911309	2924.050712
848.225919	2917.051070
848.540485	2908.975142
848.855009	2907.104874
849.169490	2902.625808
849.483928	2895.038872
849.798323	2894.348234
850.112675	2886.637789
850.426984	2887.698952
850.741251	2884.028992
851.055474	2880.684186
851.369654	2883.313148
851.683792	2880.333826
851.997887	2882.743498
852.311938	2879.388610
852.625947	2881.463045
852.939914	2877.097405
853.253837	2881.261398
853.567718	2877.604041
853.881555	2875.438866
854.195350	2879.257540
854.509103	2877.173023
854.822812	2876.056407
855.136479	2873.664380
855.450103	2872.351159
855.763685	2870.359903
856.077224	2869.719677
856.390720	2872.744369
856.704173	2880.810215
857.017584	2883.920607
857.330953	2888.429919
857.644278	2889.569220
857.957561	2891.641134
858.270802	2891.701628
858.584000	2887.804816
858.897155	2884.777603
859.210268	2877.457848
859.523339	2874.294524
859.836367	2869.439893
860.149352	2867.632639
860.462295	2864.350848
860.775195	2857.734333
861.088054	2855.049919
861.400869	2854.329034
861.713642	2851.334589
862.026373	2856.915146
862.339062	2862.783049
862.651708	2865.689274
862.964312	2876.958774
863.276873	2880.162427
863.589392	2894.373440
863.901869	2906.472209
864.214303	2919.259096
864.526696	2929.966506
864.839045	2936.827517
865.151353	2946.317489
865.463619	2941.820780
865.775842	2941.914041
866.088023	2941.515790
866.400162	2938.740635
866.712258	2938.163423
867.024313	2938.428083
867.336325	2935.975562
867.648296	2936.381375
867.960224	2933.492793
868.272110	2933.129830
868.583954	2936.187290
868.895755	2940.641150
869.207515	2937.223247
869.519233	2945.568878
869.830909	2948.586008
870.142542	2954.143880
870.454134	2957.014817
870.765684	2961.670323
871.077191	2971.510655
871.388657	2980.287304
871.700081	2987.455825
872.011463	2999.599964
872.322803	3006.355111
872.634101	3016.641585
872.945357	3030.361085
873.256571	3042.941285
873.567744	3052.403530
873.878874	3055.219015
874.189963	3060.446691
874.501010	3060.683626
874.812015	3056.219684
875.122979	3064.288051
875.433900	3063.229408
875.744780	3064.920715
876.055618	3068.494893
876.366415	3062.949624
876.677169	3067.642938
876.987882	3068.210068
877.298554	3081.125504
877.609183	3099.732403
877.919771	3118.936679
878.230317	3151.126967
878.540822	3205.972200
878.851285	3277.435597
879.161707	3387.857031
879.472087	3572.643046
879.782425	3892.098444
880.092722	4546.498187
880.402977	5691.407240
880.713191	7201.913372
881.023363	8712.366573
881.333494	9507.381740
881.643583	9667.166153
881.953631	9267.485832
882.263637	8659.789859
882.573602	8026.520113
882.883526	7442.182326
883.193408	6893.382154
883.503248	6381.415172
883.813048	5929.493374
884.122806	5509.459394
884.432522	5097.229121
884.742197	4732.098348
885.051831	4419.090585
885.361424	4150.737363
885.670975	3947.571301
885.980485	3776.315743
886.289954	3638.359527
886.599382	3526.740819
886.908768	3438.371913
887.218113	3350.131556
887.527417	3286.338275
887.836680	3225.209243
888.145901	3175.470699
888.455082	3135.282620
888.764221	3104.854216
889.073319	3072.142168
889.382376	3057.800086
889.691392	3047.122922
890.000366	3044.289793
890.309300	3038.757127
890.618193	3044.867005
890.927044	3041.126469
891.235855	3041.920451
891.544625	3050.019065
891.853353	3065.417269
892.162041	3092.868872
892.470687	3140.858136
892.779293	3201.699822
893.087858	3287.018830
893.396381	3427.979574
893.704864	3644.638284
894.013306	3937.952780
894.321707	4222.470462
894.630068	4389.829208
894.938387	4389.045308
895.246665	4287.634937
895.554903	4125.425729
895.863100	3954.583546
896.171256	3823.074966
896.479371	3706.609188
896.787446	3595.789503
897.095480	3499.596726
897.403473	3428.032506
897.711425	3357.713451
898.019336	3301.060964
898.327207	3237.575193
898.635038	3186.692307
898.942827	3137.606592
899.250576	3095.734768
899.558284	3052.902605
899.865952	3026.340765
900.173579	2994.745333
900.481165	2973.759010
900.788711	2952.568520
901.096216	2938.992692
901.403681	2926.755291
901.711105	2918.717172
902.018489	2918.563416
902.325832	2936.764502
902.633135	2963.790128
902.940397	3050.006462
903.247619	3266.886983
903.554800	3668.336748
903.861941	4173.241074
904.169041	4516.825955
904.476101	4602.233184
904.783121	4442.143782
905.090100	4223.214032
905.397039	4012.461033
905.703938	3836.802028
906.010796	3676.102646
906.317614	3550.285528
906.624391	3434.344031
906.931129	3340.530678
907.237826	3251.571957
907.544483	3164.624656
907.851099	3080.092068
908.157675	2998.957217
908.464211	2928.013059
908.770707	2878.612272
909.077163	2840.828824
909.383578	2810.342446
909.689954	2787.435443
909.996289	2776.856582
910.302584	2764.210847
910.608839	2764.397370
910.915054	2754.410844
911.221229	2753.218611
911.527363	2756.092069
911.833458	2757.858993
912.139513	2765.246804
912.445527	2773.012702
912.751502	2786.759928
913.057436	2806.690130
913.363331	2833.125941
913.669186	2873.510624
913.975000	2936.255346
914.280775	3026.000487
914.586510	3162.550221
914.892205	3352.611804
915.197859	3605.871811
915.503475	3907.363058
915.809050	4152.859689
916.114585	4286.961943
916.420081	4303.459119
916.725536	4255.868106
917.030952	4136.357472
917.336328	4029.863097
917.641665	3928.538425
917.946961	3811.719767
918.252218	3715.136300
918.557435	3603.542798
918.862612	3509.616020
919.167750	3425.264913
919.472848	3329.974502
919.777906	3246.533324
920.082925	3169.330573
920.387904	3096.823658
920.692843	3040.922303
920.997743	2993.104438
921.302603	2947.164403
921.607423	2917.408992
921.912204	2882.438508
922.216946	2862.571321
922.521647	2839.964266
922.826310	2819.598005
923.130932	2802.148051
923.435516	2778.898249
923.740059	2771.908689
924.044564	2754.383118
924.349028	2744.865419
924.653454	2729.847822
924.957840	2715.979608
925.262186	2707.107177
925.566493	2699.535364
925.870761	2684.459793
926.174989	2684.938703
926.479178	2676.126766
926.783328	2671.448575
927.087438	2660.985661
927.391509	2657.003149
927.695541	2653.998621
927.999533	2648.413023
928.303486	2641.816673
928.607400	2639.006230
928.911275	2635.926085
929.215110	2633.450878
929.518906	2629.518778
929.822663	2632.742596
930.126381	2630.219499
930.430060	2634.451547
930.733699	2637.662762
931.037299	2637.516569
931.340861	2637.100674
931.644383	2639.936323
931.947866	2634.713687
932.251309	2635.651342
932.554714	2634.892648
932.858080	2636.379789
933.161407	2633.924747
933.464694	2630.332925
933.767943	2629.468367
934.071153	2627.401494
934.374323	2625.516102
934.677455	2625.155660
934.980548	2620.283384
935.283602	2623.113992
935.586617	2622.080556
935.889593	2622.365381
936.192530	2620.341358
936.495428	2623.923097
936.798287	2628.397122
937.101108	2632.230919
937.403890	2645.486633
937.706632	2659.034734
938.009336	2671.173832
938.312002	2687.171934
938.614628	2697.360106
938.917216	2705.720860
939.219765	2707.202959
939.522275	2713.327961
939.824747	2713.963146
940.127179	2706.925696
940.429573	2705.118442
940.731929	2704.352187
941.034246	2700.871270
941.336524	2700.770447
941.638763	2699.598378
941.940964	2695.951104
942.243126	2686.587160
942.545250	2683.335616
942.847335	2677.271108
943.149381	2671.022598
943.451389	2664.907678
943.753359	2662.341731
944.055290	2656.957779
944.357182	2652.450987
944.659036	2647.336737
944.960851	2645.320275
945.262628	2647.571150
945.564367	2645.446304
945.866067	2646.331026
946.167729	2643.497898
946.469352	2641.322640
946.770937	2640.006899
947.072484	2639.495222
947.373992	2640.256436
947.675462	2640.415232
947.976893	2635.926085
948.278286	2631.411732
948.579641	2631.094139
948.880958	2631.348717
949.182236	2629.400311
949.483476	2628.389560
949.784678	2627.376288
950.085841	2627.734210
950.386967	2629.029786
950.688054	2630.695888
950.989103	2634.249901
951.290114	2638.265180
951.591087	2643.916314
951.892021	2650.053918
952.192917	2658.946514
952.493776	2661.772081
952.794596	2664.320384
953.095378	2666.276352
953.396122	2664.348110
953.696828	2662.752585
953.997496	2660.284940
954.298126	2653.456697
954.598718	2650.280770
954.899272	2646.038639
955.199788	2641.504122
955.500266	2633.317288
955.800706	2628.896196
956.101108	2620.762294
956.401472	2613.787858
956.701798	2607.004985
957.002087	2601.598348
957.302337	2599.992740
957.602550	2593.056112
957.902724	2587.604105
958.202861	2584.390369
958.502960	2579.714699
958.803022	2576.006930
959.103045	2574.950808
959.403031	2570.756568
959.702979	2570.484346
960.002889	2567.116855
960.302762	2563.033521
960.602596	2560.989333
960.902393	2560.671740
961.202153	2560.074363
961.501875	2556.444733
961.801559	2555.471790
962.101205	2556.106975
962.400814	2555.197047
962.700385	2550.977601
962.999918	2551.791748
963.299414	2552.953734
963.598873	2550.654967
963.898293	2548.764535
964.197677	2548.252858
964.497022	2550.758311
964.796331	2547.037940
965.095601	2549.036757
965.394835	2547.549617
965.694030	2546.092723
965.993189	2549.881150
966.292309	2545.855789
966.591393	2546.180943
966.890439	2544.482075
967.189447	2547.282436
967.488419	2545.870912
967.787353	2544.668597
968.086249	2546.914431
968.385108	2547.262271
968.683930	2550.435677
968.982714	2548.033568
969.281462	2547.317724
969.580172	2549.402241
969.878844	2550.208825
970.177480	2553.984650
970.476078	2552.374001
970.774639	2554.163611
971.073162	2554.239228
971.371649	2550.327292
971.670098	2551.330482
971.968510	2554.576985
972.266885	2554.067829
972.565223	2557.848694
972.863524	2557.533622
973.161788	2558.191493
973.460014	2558.899775
973.758204	2557.412634
974.056356	2559.724003
974.354471	2559.731565
974.652550	2558.778787
974.950591	2558.435988
975.248595	2559.303067
975.546563	2559.655948
975.844493	2557.473128
976.142386	2558.708211
976.440243	2556.064126
976.738062	2553.790565
977.035845	2553.972047
977.333590	2554.405586
977.631299	2550.710420
977.928971	2552.643703
978.226606	2550.385266
978.524204	2549.634134
978.821765	2548.630944
979.119290	2549.674463
979.416777	2549.218239
979.714228	2552.069011
980.011642	2547.952909
980.309020	2550.778476
980.606360	2550.133208
980.903664	2558.037737
981.200931	2562.433623
981.498162	2572.926785
981.795356	2589.600402
982.092513	2606.175715
982.389633	2626.541977
982.686717	2649.600215
982.983764	2663.526402
983.280775	2671.037721
983.577749	2675.862106
983.874686	2669.033863
984.171587	2658.679333
984.468451	2652.118271
984.765279	2645.297590
985.062070	2634.055817
985.358824	2626.279837
985.655543	2615.552262
985.952224	2603.854264
986.248869	2590.860690
986.545478	2573.672876
986.842050	2566.388409
987.138586	2555.975905
987.435086	2550.594474
987.731549	2543.730943
988.027975	2543.350336
988.324366	2540.489481
988.620719	2536.577545
988.917037	2536.529654
989.213318	2534.666948
989.509563	2533.031094
989.805772	2533.933460
990.101944	2531.150743
990.398080	2531.664941
990.694180	2533.056299
990.990244	2535.231557
991.286271	2535.607123
991.582262	2533.338604
991.878217	2533.010929
992.174136	2533.000847
992.470019	2532.247194
992.765865	2533.734335
993.061676	2536.333049
993.357450	2537.353883
993.653188	2535.362627
993.948890	2542.591642
994.244556	2543.294883
994.540186	2549.162786
994.835780	2552.787376
995.131337	2558.960268
995.426859	2566.849674
995.722345	2577.032805
996.017795	2586.230390
996.313208	2591.637028
996.608586	2595.763212
996.903928	2600.897627
997.199234	2599.264293
997.494504	2597.240270
997.789738	2594.172728
998.084936	2586.626121
998.380099	2580.901891
998.675225	2575.525500
998.970316	2570.597772
999.265371	2563.151988
999.560390	2559.635783
999.855373	2552.759649
1000.150320	2545.419729
1000.445232	2541.893442
1000.740108	2537.215251
1001.034948	2538.682227
1001.329752	2532.980682
1001.624521	2533.565456
1001.919254	2526.245701
1002.213951	2529.235105
1002.508613	2523.452901
1002.803239	2525.436595
1003.097829	2521.194464
1003.392384	2522.681605
1003.686903	2526.838036
1003.981386	2523.798220
1004.275834	2522.724455
1004.570246	2522.295957
1004.864623	2522.946265
1005.158964	2523.510875
1005.453270	2519.440143
1005.747540	2523.525998
1006.041775	2522.774866
1006.335974	2519.853518
1006.630138	2518.436953
1006.924266	2519.419978
1007.218359	2519.641789
1007.512416	2517.705986
1007.806438	2519.235976
1008.100425	2519.639268
1008.394376	2517.955523
1008.688292	2520.466018
1008.982172	2517.723630
1009.276017	2516.959895
1009.569827	2515.324041
1009.863602	2520.148425
1010.157341	2518.797396
1010.451045	2517.569875
1010.744714	2520.246727
1011.038347	2518.474762
1011.331945	2517.138856
1011.625508	2515.676922
1011.919036	2516.637261
1012.212528	2516.085255
1012.505986	2515.717251
1012.799408	2515.354288
1013.092795	2517.343023
1013.386147	2518.048784
1013.679464	2517.582478
1013.972745	2517.587519
1014.265992	2514.630882
1014.559204	2516.339833
1014.852380	2517.867303
1015.145521	2514.371263
1015.438628	2515.510563
1015.731699	2514.343536
1016.024736	2516.276819
1016.317737	2516.367560
1016.610703	2517.579957
1016.903635	2510.537465
1017.196531	2514.449401
1017.489393	2515.238341
1017.782219	2509.186436
1018.075011	2515.901253
1018.367768	2515.190450
1018.660490	2515.409740
1018.953177	2515.409740
1019.245829	2515.409740
