Dividing Wavelength (nm)	Counts (n)	Blue Motor Position (mm): 0.000000	Red Motor Position (mm): 22.300000	
326.493990	2127.026645
326.888308	2127.026645
327.282561	2127.026645
327.676750	2096.134454
328.070874	2094.193610
328.464933	2098.201328
328.858929	2104.051587
329.252859	2113.463421
329.646726	2124.634618
330.040528	2138.477626
330.434265	2153.137302
330.827938	2171.706392
331.221547	2187.906140
331.615091	2207.743080
332.008571	2225.233363
332.401986	2247.422002
332.795338	2266.051586
333.188625	2284.257713
333.581847	2301.069961
333.975006	2323.646769
334.368100	2339.460868
334.761129	2359.675895
335.154095	2376.283977
335.546996	2391.793086
335.939833	2408.746487
336.332606	2424.391708
336.725315	2434.504262
337.117960	2448.062446
337.510540	2451.666871
337.903056	2466.114817
338.295508	2476.721405
338.687896	2480.817343
339.080220	2489.881337
339.472480	2498.030363
339.864676	2502.267452
340.256807	2505.821466
340.648875	2509.521673
341.040879	2510.040912
341.432818	2511.359173
341.824694	2516.435615
342.216506	2513.428567
342.608253	2514.341016
342.999937	2513.491581
343.391557	2514.751870
343.783113	2511.923783
344.174605	2512.309431
344.566033	2509.435973
344.957397	2511.351612
345.348697	2509.267094
345.739934	2503.240395
346.131106	2504.447751
346.522215	2502.703512
346.913260	2500.240908
347.304241	2498.564725
347.695159	2495.403921
348.086012	2497.211175
348.476802	2494.816627
348.867528	2490.909733
349.258191	2492.041472
349.648789	2489.619197
350.039324	2488.593323
350.429796	2488.472335
350.820203	2486.987715
351.210548	2487.121306
351.600828	2484.356233
351.991045	2484.429329
352.381198	2483.254741
352.771288	2481.485296
353.161314	2481.923876
353.551276	2483.673156
353.941175	2481.419761
354.331010	2483.216932
354.720782	2479.050418
355.110490	2482.803557
355.500135	2483.806747
355.889717	2483.917652
356.279235	2482.380100
356.668689	2485.853455
357.058080	2482.790954
357.447408	2481.661736
357.836672	2481.167703
358.225873	2483.831953
358.615010	2479.690645
359.004084	2486.004690
359.393095	2488.616008
359.782043	2489.094917
360.170927	2488.346306
360.559748	2486.944865
360.948505	2489.997284
361.337199	2489.299084
361.725830	2489.946872
362.114398	2491.166832
362.502903	2491.005515
362.891344	2492.772439
363.279722	2493.455515
363.668037	2493.775629
364.056289	2493.768067
364.444478	2493.689929
364.832603	2493.425268
365.220665	2497.468274
365.608665	2496.628922
365.996601	2495.766884
366.384474	2499.482215
366.772284	2496.023983
367.160031	2499.116731
367.547715	2504.780468
367.935336	2504.273832
368.322893	2508.490757
368.710388	2509.751045
369.097820	2521.012983
369.485189	2519.094824
369.872495	2524.761081
370.259738	2530.162677
370.646918	2541.336395
371.034035	2549.853424
371.421090	2559.648386
371.808081	2568.911506
372.195010	2578.300655
372.581875	2592.405804
372.968678	2605.815273
373.355418	2615.121243
373.742096	2631.497431
374.128710	2647.467807
374.515262	2662.724859
374.901751	2677.021571
375.288177	2689.223684
375.674540	2712.879298
376.060841	2730.440158
376.447079	2749.679721
376.833254	2771.568411
377.219367	2779.934206
377.605417	2816.636327
377.991404	2830.081084
378.377329	2852.791482
378.763191	2868.592979
379.148991	2906.779719
379.534727	2929.890889
379.920402	2960.326855
380.306013	2971.356900
380.691563	3021.707945
381.077049	3044.030174
381.462474	3058.828481
381.847835	3097.794080
382.233134	3118.258644
382.618371	3123.168728
383.003545	3190.727751
383.388657	3192.141794
383.773706	3228.717886
384.158693	3245.121801
384.543618	3271.771861
384.928480	3311.551606
385.313280	3354.978625
385.698017	3353.229345
386.082692	3407.557860
386.467305	3410.748910
386.851856	3439.788477
387.236344	3464.464925
387.620770	3497.474401
388.005133	3520.651105
388.389435	3550.772000
388.773674	3561.146694
389.157851	3600.616408
389.541965	3618.182309
389.926018	3583.103440
390.310008	3653.072135
390.693936	3670.622912
391.077802	3713.883573
391.461606	3699.904454
391.845348	3766.790483
392.229027	3763.314608
392.612645	3778.601907
392.996200	3856.165100
393.379694	3892.700862
393.763125	3959.518836
394.146494	3924.132456
394.529801	3989.843897
394.913047	4033.124723
395.296230	4001.766226
395.679351	4059.744536
396.062410	4082.071806
396.445408	4057.919638
396.828343	4095.269547
397.211217	4120.056901
397.594028	4037.760064
397.976778	4107.537195
398.359466	4133.622646
398.742092	4161.908560
399.124656	4084.184050
399.507158	4163.743540
399.889598	4186.592570
400.271977	4249.806118
400.654294	4215.959811
401.036549	4226.790730
401.418742	4196.044733
401.800874	4299.489210
402.182944	4320.964525
402.564952	4384.515831
402.946898	4374.219275
403.328783	4368.018655
403.710606	4282.087147
404.092367	4477.225171
404.474067	4440.649079
404.855705	4445.823824
405.237282	4372.197772
405.618797	4480.481757
406.000250	4514.933002
406.381642	4599.647072
406.762972	4561.094848
407.144240	4565.813368
407.525447	4571.406528
407.906593	4628.968943
408.287677	4669.462011
408.668700	4598.787555
409.049661	4652.511132
409.430560	4691.539745
409.811399	4616.887818
410.192176	4777.993012
410.572891	4721.423705
410.953545	4822.188808
411.334138	4702.221950
411.714669	4770.322897
412.095139	4664.693080
412.475547	4807.284637
412.855894	4786.930978
413.236180	4796.592350
413.616405	4749.361779
413.996568	4835.104244
414.376670	4776.720121
414.756711	4734.225715
415.136691	4764.490282
415.516609	4841.418290
415.896466	4880.915730
416.276262	4909.730965
416.655997	4890.995517
417.035670	5073.192899
417.415283	5165.917363
417.794834	5108.864104
418.174324	5058.255961
418.553753	4968.155418
418.933121	5150.572090
419.312428	5208.731882
419.691674	5151.401360
420.070859	5268.893012
420.449983	5177.633004
420.829045	5288.840858
421.208047	5198.455490
421.586988	5262.175675
421.965867	5261.295993
422.344686	5387.218975
422.723444	5242.391667
423.102141	5057.439294
423.480777	5340.520247
423.859352	5105.695739
424.237866	5351.242781
424.616319	5324.809491
424.994712	5420.881280
425.373044	5300.806037
425.751314	5417.299540
426.129524	5215.426535
426.507673	5381.537595
426.885762	5453.361434
427.263789	5367.697107
427.641756	5241.809413
428.019662	5332.088917
428.397508	5325.343853
428.775292	5250.865846
429.153016	5325.386703
429.530679	5235.346654
429.908282	5286.383296
430.285824	5149.992358
430.663305	5362.696282
431.040726	5102.300522
431.418086	5083.295372
431.795385	5141.828209
432.172624	5121.671155
432.549802	5086.362914
432.926920	5064.668308
433.303977	5040.213671
433.680974	5036.803330
434.057910	5012.207541
434.434786	4980.687726
434.811601	4922.195218
435.188355	5059.990118
435.565050	4922.653963
435.941683	4869.177403
436.318257	4975.702025
436.694770	4922.215383
437.071222	4896.293770
437.447614	4804.832116
437.823946	4707.628587
438.200218	4760.238069
438.576429	4624.429384
438.952580	4635.829953
439.328670	4613.381695
439.704700	4509.057537
440.080670	4458.688848
440.456580	4553.117222
440.832429	4435.250004
441.208218	4304.888286
441.583947	4338.590920
441.959616	4285.968835
442.335224	4200.196123
442.710773	4215.397723
443.086261	4167.206813
443.461689	4030.853683
443.837057	4040.595713
444.212365	4053.062487
444.587612	3963.289619
444.962800	3966.329435
445.337927	3910.110487
445.712995	3720.079152
446.088002	3866.302860
446.462949	3766.422479
446.837837	3692.418340
447.212664	3704.791852
447.587431	3686.739481
447.962139	3790.559523
448.336786	3995.457222
448.711374	3875.974314
449.085901	3585.167792
449.460369	3504.191738
449.834776	3449.616207
450.209124	3487.845797
450.583412	3468.034062
450.957640	3464.868218
451.331808	3366.994216
451.705917	3243.584249
452.079965	3195.496682
452.453954	3189.107020
452.827883	3138.912251
453.201752	3121.003552
453.575562	3060.756722
453.949311	3050.931513
454.323001	3012.326357
454.696632	2995.650220
455.070202	2982.931389
455.443713	2969.242136
455.817164	2949.521142
456.190556	2926.349478
456.563888	2909.670821
456.937160	2886.312635
457.310373	2842.419308
457.683526	2820.757470
458.056619	2793.109262
458.429653	2774.487239
458.802628	2754.690628
459.175542	2747.441449
459.548398	2745.462796
459.921194	2740.368710
460.293930	2732.252452
460.666607	2737.739748
461.039224	2738.997516
461.411782	2727.193655
461.784280	2712.662529
462.156719	2692.623942
462.529099	2679.726150
462.901419	2655.957110
463.273680	2644.427991
463.645882	2637.962711
464.018024	2630.385857
464.390106	2623.350927
464.762130	2626.915022
465.134094	2631.595734
465.505999	2642.779533
465.877845	2658.056750
466.249631	2659.569096
466.621358	2644.632157
466.993026	2633.042545
467.364634	2625.609363
467.736184	2615.519494
468.107674	2608.620675
468.479105	2606.281580
468.850477	2604.108842
469.221790	2598.558532
469.593043	2592.637697
469.964238	2589.290371
470.335373	2588.698035
470.706449	2588.566965
471.077467	2587.546131
471.448425	2596.685743
471.819324	2604.368462
472.190164	2604.691096
472.560945	2590.704414
472.931667	2586.865576
473.302330	2583.062025
473.672934	2578.550192
474.043479	2583.719896
474.413965	2583.581264
474.784393	2577.307548
475.154761	2578.867785
475.525070	2577.791499
475.895321	2575.107084
476.265513	2576.692527
476.635645	2582.578074
477.005719	2581.632858
477.375734	2580.138156
477.745691	2581.758887
478.115588	2582.993969
478.485427	2589.383632
478.855207	2588.282140
479.224928	2591.339600
479.594591	2599.801176
479.964194	2597.376381
480.333739	2595.463263
480.703226	2593.882862
481.072653	2596.910075
481.442022	2594.386977
481.811333	2597.575507
482.180584	2596.264807
482.549777	2594.591144
482.918912	2592.824219
483.287988	2594.654158
483.657005	2591.347161
484.025964	2589.391194
484.394864	2590.172572
484.763706	2591.362285
485.132489	2587.062181
485.501213	2590.464959
485.869879	2589.250041
486.238487	2585.012952
486.607036	2590.069229
486.975527	2588.808940
487.343959	2589.315576
487.712333	2587.873806
488.080648	2585.688466
488.448905	2587.604105
488.817104	2587.563775
489.185244	2588.584609
489.553326	2590.066708
489.921350	2589.547469
490.289315	2599.627257
490.657222	2602.805704
491.025070	2601.172370
491.392861	2598.314036
491.760593	2596.640373
492.128267	2591.959662
492.495883	2592.519230
492.863440	2592.660382
493.230939	2589.509661
493.598380	2587.407500
493.965763	2582.512539
494.333088	2581.854669
494.700354	2582.988928
495.067563	2584.864237
495.434713	2578.643454
495.801805	2584.833991
496.168839	2584.866758
496.535815	2583.180492
496.902733	2585.474217
497.269593	2584.531521
497.636395	2582.666294
498.003139	2581.002714
498.369825	2582.908270
498.736453	2581.625296
499.103023	2581.106057
499.469535	2579.898701
499.835989	2583.021696
500.202385	2581.446335
500.568723	2577.378124
500.935003	2585.222159
501.301226	2580.727971
501.667390	2582.628486
502.033497	2582.089082
502.399546	2580.029771
502.765537	2580.730491
503.131470	2581.451376
503.497345	2582.709144
503.863163	2582.179823
504.228923	2582.242837
504.594625	2582.447004
504.960269	2581.353074
505.325856	2584.133270
505.691385	2579.548341
506.056856	2580.768300
506.422270	2580.687642
506.787625	2581.325347
507.152924	2576.753021
507.518164	2581.650502
507.883347	2579.371900
508.248472	2583.074628
508.613540	2582.114288
508.978550	2582.136973
509.343503	2581.138825
509.708398	2580.634709
510.073236	2584.072776
510.438016	2581.703434
510.802738	2583.724937
511.167403	2581.582446
511.532010	2582.061356
511.896561	2582.888105
512.261053	2582.608321
512.625488	2578.671180
512.989866	2578.444328
513.354186	2578.237641
513.718449	2578.948443
514.082655	2581.998342
514.446803	2585.353229
514.810894	2584.350040
515.174927	2585.564958
515.538904	2582.184864
515.902822	2583.966912
516.266684	2584.024885
516.630488	2582.613362
516.994235	2583.508167
517.357925	2583.863568
517.721558	2585.706110
518.085133	2581.685790
518.448651	2586.595874
518.812112	2581.504308
519.175516	2584.362643
519.538863	2581.771490
519.902152	2586.923549
520.265385	2585.938003
520.628560	2585.116295
520.991678	2585.333065
521.354739	2586.031265
521.717743	2584.680235
522.080690	2586.989084
522.443580	2585.045719
522.806413	2585.620411
523.169189	2586.028744
523.531908	2587.984712
523.894569	2588.531677
524.257174	2586.643765
524.619722	2588.022520
524.982213	2586.152252
525.344647	2584.564289
525.707025	2588.710638
526.069345	2587.858683
526.431608	2585.900195
526.793815	2587.626790
527.155964	2585.733837
527.518057	2587.523446
527.880093	2586.207705
528.242072	2585.418764
528.603995	2588.932449
528.965860	2586.890781
529.327669	2589.255082
529.689421	2585.317941
530.051117	2584.072776
530.412755	2588.085535
530.774337	2585.474217
531.135862	2587.798189
531.497331	2585.290215
531.858743	2579.883577
532.220098	2584.755853
532.581396	2582.142014
532.942638	2583.924062
533.303824	2584.501274
533.664953	2587.011769
534.026025	2585.464135
534.387040	2584.927252
534.747999	2584.271902
535.108902	2587.778024
535.469748	2583.601428
535.830537	2583.155286
536.191270	2586.779876
536.551947	2588.055288
536.912567	2587.062181
537.273131	2584.281984
537.633638	2582.109247
537.994089	2586.293405
538.354483	2586.263158
538.714821	2587.780545
539.075103	2584.720565
539.435328	2585.207036
539.795497	2584.498754
540.155609	2589.804568
540.515665	2586.497571
540.875665	2584.536562
541.235609	2584.723085
541.595496	2589.469332
541.955328	2584.365163
542.315102	2586.195102
542.674821	2589.199630
543.034483	2585.839701
543.394090	2587.266347
543.753640	2586.684094
544.113134	2585.385997
544.472571	2587.677201
544.831953	2587.160483
545.191278	2587.157962
545.550548	2584.763414
545.909761	2588.327510
546.268918	2589.121492
546.628019	2587.034454
546.987064	2586.787438
547.346053	2587.273909
547.704986	2583.263671
548.063863	2587.183168
548.422684	2587.609146
548.781449	2588.075452
549.140158	2587.049578
549.498811	2587.989753
549.857408	2587.720051
550.215949	2582.719227
550.574434	2581.945409
550.932864	2584.450863
551.291237	2585.635534
551.649555	2588.239290
552.007817	2588.304825
552.366022	2588.468662
552.724173	2586.981522
553.082267	2589.970926
553.440305	2588.249372
553.798288	2585.166707
554.156215	2586.830288
554.514086	2589.809609
554.871902	2585.433888
555.229661	2587.601584
555.587365	2587.412541
555.945014	2584.813826
556.302606	2583.341809
556.660143	2585.373394
557.017625	2586.608477
557.375050	2586.593353
557.732421	2588.045206
558.089735	2584.574371
558.446994	2582.648650
558.804197	2586.018662
559.161345	2586.850452
559.518437	2586.129567
559.875474	2583.543455
560.232455	2586.459763
560.589381	2583.750143
560.946251	2590.071749
561.303065	2587.984712
561.659825	2585.179310
562.016528	2585.804413
562.373177	2586.689135
562.729770	2584.453383
563.086307	2585.920359
563.442789	2586.447160
563.799216	2587.084866
564.155587	2585.597725
564.511904	2587.616707
564.868164	2584.438260
565.224370	2589.343303
565.580520	2584.523960
565.936615	2586.865576
566.292654	2586.275761
566.648638	2585.643096
567.004567	2584.778538
567.360441	2587.551172
567.716260	2582.547827
568.072023	2585.882551
568.427732	2579.729822
568.783385	2583.490523
569.138982	2583.341809
569.494525	2581.829463
569.850013	2579.933989
570.205445	2585.819536
570.560823	2584.191243
570.916145	2580.909452
571.271412	2583.571182
571.626625	2583.672005
571.981782	2585.385997
572.336884	2585.995977
572.691931	2581.564802
573.046923	2584.770976
573.401860	2586.986563
573.756743	2583.714854
574.111570	2583.074628
574.466342	2582.164700
574.821059	2582.724268
575.175722	2583.576223
575.530330	2583.631675
575.884882	2581.640420
576.239380	2580.972467
576.593823	2582.169741
576.948211	2581.332909
577.302544	2581.209401
577.656823	2579.389544
578.011047	2582.061356
578.365216	2581.315265
578.719330	2584.637386
579.073389	2579.523135
579.427394	2581.277457
579.781344	2580.415419
580.135239	2580.833835
580.489080	2580.238979
580.842866	2578.923238
581.196597	2581.249730
581.550273	2579.676890
581.903895	2579.838207
582.257463	2583.291397
582.610975	2581.138825
582.964434	2580.599421
583.317837	2578.898032
583.671186	2582.815008
584.024481	2580.357446
584.377721	2580.934658
584.730906	2577.708320
585.084037	2578.338464
585.437113	2582.383990
585.790135	2579.021540
586.143103	2576.679924
586.496016	2578.474575
586.848874	2573.975345
587.201679	2573.481312
587.554428	2572.659604
587.907124	2576.543813
588.259765	2573.216652
588.612352	2576.165727
588.964884	2578.340984
589.317362	2577.050449
589.669786	2577.352918
590.022155	2581.317786
590.374470	2577.859554
590.726731	2576.377455
591.078937	2578.003227
591.431090	2574.398802
591.783188	2576.695048
592.135232	2576.982393
592.487222	2576.483319
592.839157	2576.879050
593.191038	2573.884604
593.542866	2576.874009
593.894639	2575.848134
594.246358	2576.823597
594.598022	2575.575912
594.949633	2574.701271
595.301190	2574.746642
595.652692	2573.778740
596.004141	2573.380489
596.355535	2576.974832
596.706876	2574.887794
597.058162	2574.640777
597.409395	2574.857547
597.760573	2574.585325
598.111698	2572.841086
598.462768	2573.067937
598.813785	2574.585325
599.164748	2576.611869
599.515657	2576.201015
599.866511	2572.347052
600.217312	2573.829152
600.568060	2572.427711
600.918753	2572.720098
601.269392	2573.168761
601.619978	2571.827814
601.970510	2574.915520
602.320988	2573.713205
602.671412	2571.858061
603.021783	2571.910993
603.372100	2572.523493
603.722363	2572.974676
604.072572	2573.428380
604.422728	2575.046590
604.772830	2569.057700
605.122878	2568.614078
605.472872	2568.341856
605.822813	2566.572411
606.172701	2568.432597
606.522534	2570.902762
606.872314	2571.800087
607.222041	2573.209090
607.571714	2573.554409
607.921333	2575.434759
608.270899	2571.868143
608.620411	2571.517783
608.969870	2573.887125
609.319276	2573.574573
609.668627	2575.386868
610.017926	2579.296283
610.367171	2581.458938
610.716362	2578.434246
611.065500	2577.829307
611.414585	2577.650346
611.763616	2574.885273
612.112594	2577.368042
612.461518	2575.838052
612.810389	2574.194635
613.159207	2575.303689
613.507971	2572.687330
613.856682	2574.134142
614.205340	2572.566343
614.553945	2570.978379
614.902496	2570.169274
615.250994	2572.737742
615.599439	2573.735890
615.947830	2576.367373
616.296169	2572.480643
616.644454	2573.085582
616.992686	2570.738924
617.340864	2572.957032
617.688990	2574.194635
618.037063	2572.732701
618.385082	2574.524831
618.733048	2571.048955
619.080961	2573.783781
619.428821	2572.767989
619.776628	2572.185736
620.124382	2576.072465
620.472083	2572.021898
620.819731	2575.391909
621.167326	2570.796898
621.514868	2574.744121
621.862357	2572.808318
622.209793	2570.907803
622.557176	2571.157340
622.904506	2568.901424
623.251783	2566.829510
623.599007	2566.635425
623.946179	2564.515620
624.293297	2567.000909
624.640363	2566.852195
624.987376	2569.055179
625.334336	2566.799263
625.681243	2567.830179
626.028097	2568.266238
626.374899	2568.977041
626.721647	2566.242215
627.068343	2569.115673
627.414987	2567.280693
627.761577	2568.548543
628.108115	2567.908317
628.454600	2567.943605
628.801032	2567.079047
629.147412	2567.005950
629.493739	2564.916392
629.840014	2568.256156
630.186236	2567.613409
630.532405	2566.587534
630.878521	2562.736093
631.224585	2567.061403
631.570597	2562.897410
631.916556	2565.417987
632.262462	2566.935374
632.608316	2565.990158
632.954117	2562.000084
633.299866	2564.218192
633.645562	2565.405384
633.991206	2565.070147
634.336797	2563.976217
634.682336	2564.699622
635.027823	2564.407235
635.373257	2563.116700
635.718639	2561.271637
636.063968	2563.222564
636.409245	2562.950342
636.754470	2562.524364
637.099642	2563.741803
637.444762	2561.468242
637.789829	2561.705177
638.134845	2563.393963
638.479808	2560.402038
638.824719	2561.468242
639.169577	2559.635783
639.514383	2560.517985
639.859137	2558.647717
640.203839	2561.493448
640.548489	2558.945145
640.893086	2558.466235
641.237632	2554.670247
641.582125	2558.758622
641.926566	2556.480021
642.270955	2558.824157
642.615292	2560.475135
642.959576	2559.824826
643.303809	2557.563869
643.647990	2558.919939
643.992118	2559.837429
644.336195	2562.965465
644.680219	2559.701318
645.024192	2560.361709
645.368112	2559.915567
645.711981	2560.381874
646.055797	2559.880279
646.399562	2559.862635
646.743274	2560.212995
647.086935	2560.069322
647.430544	2563.167111
647.774101	2561.291802
648.117606	2560.064281
648.461059	2559.282902
648.804460	2562.531926
649.147810	2564.142575
649.491108	2560.371792
649.834354	2561.405228
650.177548	2557.652089
650.520690	2559.310629
650.863781	2558.718293
651.206820	2562.809189
651.549807	2557.112686
651.892742	2560.046637
652.235626	2558.632593
652.578458	2557.710062
652.921238	2556.268292
653.263967	2559.560166
653.606644	2557.813406
653.949269	2556.704352
654.291843	2556.396842
654.634365	2560.525547
654.976836	2554.929866
655.319255	2556.832902
655.661622	2555.693601
656.003938	2557.571431
656.346203	2557.523540
656.688416	2559.484548
657.030577	2558.118396
657.372687	2559.955896
657.714746	2555.842315
658.056753	2555.953220
658.398708	2550.838970
658.740612	2554.972716
659.082465	2551.539690
659.424266	2554.294681
659.766016	2552.192519
660.107715	2556.356512
660.449362	2556.069167
660.790958	2558.521688
661.132503	2557.470607
661.473996	2557.193344
661.815438	2556.109496
662.156829	2555.708724
662.498168	2554.766028
662.839456	2553.760318
663.180693	2556.180072
663.521879	2556.359033
663.863013	2556.817778
664.204097	2557.195865
664.545129	2555.413817
664.886110	2557.752912
665.227040	2556.210319
665.567918	2556.558159
665.908746	2556.583364
666.249522	2557.556307
666.590248	2556.558159
666.930922	2555.655792
667.271545	2558.327604
667.612118	2558.428427
667.952639	2556.439692
668.293109	2557.021945
668.633528	2558.078067
668.973896	2557.926832
669.314213	2555.005483
669.654480	2555.071018
669.994695	2556.321224
670.334859	2557.770556
670.674973	2555.045813
671.015035	2558.062943
671.355047	2554.516491
671.695008	2556.240566
672.034918	2556.225442
672.374777	2556.245607
672.714585	2557.168138
673.054342	2557.362223
673.394049	2557.790721
673.733705	2555.476831
674.073310	2557.589075
674.412864	2557.775597
674.752368	2556.575803
675.091820	2554.478683
675.431223	2552.757129
675.770574	2554.045143
676.109875	2549.868548
676.449125	2553.520863
676.788324	2552.931048
677.127473	2550.533980
677.466571	2552.232849
677.805619	2553.457849
678.144616	2554.554300
678.483562	2554.566903
678.822458	2554.980277
679.161303	2554.811399
679.500098	2555.282747
679.838842	2553.046995
680.177535	2550.697817
680.516179	2553.568754
680.854771	2552.560524
681.193314	2555.670916
681.531805	2554.443395
681.870247	2556.560679
682.208638	2556.606050
682.546978	2556.550597
682.885268	2556.356512
683.223508	2555.728889
683.561697	2556.527912
683.899836	2557.904147
684.237925	2553.697304
684.575963	2557.120247
684.913951	2556.417006
685.251889	2555.534804
685.589776	2553.452808
685.927614	2553.808209
686.265401	2550.687735
686.603137	2557.337017
686.940824	2555.144115
687.278460	2555.796944
687.616046	2557.054712
687.953582	2557.190823
688.291068	2554.496327
688.628504	2556.326266
688.965889	2555.544887
689.303224	2555.449105
689.640510	2554.939948
689.977745	2555.002963
690.314930	2555.605381
690.652065	2555.139074
690.989150	2550.987684
691.326185	2553.868703
691.663170	2553.470452
692.000105	2554.884496
692.336990	2552.220246
692.673825	2550.060111
693.010610	2551.728733
693.347345	2548.270502
693.684030	2547.781510
694.020665	2549.631613
694.357251	2546.322096
694.693786	2548.658671
695.030272	2549.130018
695.366707	2553.016748
695.703093	2549.392158
696.039429	2551.733774
696.375716	2549.041798
696.711952	2549.866027
697.048139	2549.840821
697.384276	2549.026675
697.720363	2550.758311
698.056400	2549.303938
698.392388	2549.369473
698.728326	2550.700338
699.064214	2546.730429
699.400053	2549.629093
699.735842	2549.674463
700.071581	2550.352498
700.407270	2549.795451
700.742910	2547.821839
701.078501	2547.809236
701.414042	2548.071376
701.749533	2549.515667
702.084974	2549.553475
702.420366	2550.135729
702.755709	2550.113043
703.091002	2546.904349
703.426246	2545.452497
703.761440	2546.178423
704.096584	2550.430636
704.431679	2548.658671
704.766725	2551.040616
705.101721	2547.587425
705.436668	2547.005172
705.771565	2548.414175
706.106413	2548.018444
706.441212	2546.591797
706.775961	2548.124308
707.110661	2546.007024
707.445311	2547.332847
707.779913	2547.264792
708.114465	2548.078938
708.448967	2546.541386
708.783421	2547.058104
709.117825	2547.708413
709.452180	2548.136911
709.786485	2547.468958
710.120742	2548.441901
710.454949	2548.825029
710.789107	2547.174051
711.123216	2542.044677
711.457275	2549.495502
711.791286	2548.086500
712.125247	2544.751776
712.459159	2551.469114
712.793023	2551.675801
713.126837	2550.435677
713.460602	2552.308466
713.794318	2548.625903
714.127985	2550.488609
714.461602	2547.380738
714.795171	2550.072714
715.128691	2550.705379
715.462162	2549.019113
715.795584	2546.553989
716.128957	2549.089689
716.462281	2548.330996
716.795556	2546.990049
717.128782	2548.688917
717.461960	2545.442414
717.795088	2546.828732
718.128167	2545.916283
718.461198	2546.377548
718.794180	2548.146993
719.127113	2545.455017
719.459997	2545.792775
719.792833	2548.154555
720.125619	2544.280428
720.458357	2545.628937
720.791046	2543.022661
721.123686	2545.223124
721.456278	2546.536345
721.788821	2546.652291
722.121315	2544.582898
722.453761	2543.534338
722.786158	2546.024668
723.118506	2542.168185
723.450805	2547.620193
723.783056	2545.089534
724.115259	2544.993752
724.447412	2542.347146
724.779518	2542.929399
725.111574	2546.609442
725.443582	2547.481561
725.775542	2546.077600
726.107453	2545.427291
726.439315	2545.180274
726.771129	2552.447098
727.102895	2544.580377
727.434612	2544.981149
727.766281	2545.276056
728.097901	2543.554502
728.429473	2542.919317
728.760996	2544.572815
729.092471	2542.682383
729.423897	2548.711603
729.755276	2545.860830
730.086606	2546.979966
730.417887	2546.760676
730.749120	2546.375028
731.080305	2545.286139
731.411442	2549.530790
731.742530	2545.308824
732.073570	2549.172868
732.404562	2547.226983
732.735506	2549.142621
733.066401	2548.089020
733.397249	2549.803013
733.728048	2550.962478
734.058798	2544.953422
734.389501	2545.570964
734.720156	2546.632127
735.050762	2540.986034
735.381320	2544.776982
735.711831	2543.403268
736.042293	2542.740356
736.372707	2547.592467
736.703073	2543.171375
737.033391	2542.629451
737.363661	2542.977290
737.693883	2545.455017
738.024056	2547.224462
738.354182	2542.884029
738.684260	2546.213711
739.014290	2545.462579
739.344272	2543.761190
739.674207	2546.790923
740.004093	2545.225645
740.333931	2543.766231
740.663722	2545.046684
740.993464	2542.082485
741.323159	2544.855120
741.652806	2546.556509
741.982405	2543.126004
742.311956	2544.870243
742.641460	2545.452497
742.970915	2542.458051
743.300323	2544.497198
743.629683	2544.212373
743.958996	2544.386293
744.288260	2543.872095
744.617477	2541.580891
744.946647	2539.198945
745.275768	2537.684079
745.604842	2541.278421
745.933869	2542.241282
746.262847	2537.376568
746.591778	2540.711292
746.920662	2545.049204
747.249498	2542.057280
747.578286	2543.115922
747.907027	2543.660367
748.235720	2544.504760
748.564365	2543.020140
748.892963	2542.780685
749.221514	2539.546785
749.550017	2544.356046
749.878473	2544.068700
750.206881	2544.282949
750.535242	2542.969728
750.863555	2540.832279
751.191821	2543.410829
751.520039	2544.144317
751.848210	2542.011909
752.176334	2540.776827
752.504411	2542.629451
752.832440	2538.649460
753.160421	2547.272353
753.488356	2540.660880
753.816243	2541.878319
754.144082	2539.738349
754.471875	2543.461241
754.799620	2539.889583
755.127318	2540.582742
755.454969	2541.132228
755.782572	2545.197918
756.110129	2540.229861
756.437638	2539.811446
756.765100	2540.504604
757.092515	2542.614327
757.419882	2541.439738
757.747203	2544.981149
758.074477	2542.218597
758.401703	2541.845551
758.728882	2540.086188
759.056014	2542.863864
759.383099	2540.678524
759.710138	2543.078113
760.037129	2543.977959
760.364073	2542.226158
760.690970	2543.476364
761.017820	2545.326468
761.344623	2544.066179
761.671379	2543.199101
761.998088	2541.233051
762.324751	2541.878319
762.651366	2542.637012
762.977935	2550.370142
763.304456	2549.553475
763.630931	2556.404403
763.957359	2553.530946
764.283740	2551.761501
764.610074	2547.431150
764.936362	2547.058104
765.262602	2542.352187
765.588796	2544.963505
765.914943	2544.824873
766.241044	2544.960984
766.567097	2538.974614
766.893104	2543.935109
767.219064	2538.664583
767.544978	2540.892773
767.870845	2537.701723
768.196665	2540.441590
768.522438	2540.907897
768.848165	2540.257588
769.173846	2541.442259
769.499479	2540.388658
769.825066	2538.767927
770.150607	2540.073586
770.476101	2536.237267
770.801548	2541.512835
771.126949	2538.609130
771.452303	2538.331867
771.777611	2541.003678
772.102872	2537.293389
772.428087	2539.176260
772.753256	2538.117618
773.078378	2539.541744
773.403453	2539.332536
773.728482	2537.656352
774.053465	2539.786240
774.378401	2538.583925
774.703291	2537.376568
775.028135	2538.631816
775.352932	2539.997968
775.677683	2537.253060
776.002388	2537.152237
776.327046	2539.045190
776.651658	2538.155427
776.976224	2540.204656
777.300743	2537.205169
777.625216	2540.038298
777.949643	2541.076775
778.274024	2538.127700
778.598359	2533.847761
778.922647	2533.759540
779.246889	2533.905734
779.571086	2532.330373
779.895236	2536.227185
780.219339	2538.397402
780.543397	2534.152750
780.867409	2536.075951
781.191374	2538.162988
781.515294	2539.135931
781.839167	2537.910931
782.162995	2538.251208
782.486776	2537.174922
782.810511	2537.553009
783.134201	2537.628626
783.457844	2537.893287
783.781441	2535.256763
784.104993	2536.464119
784.428498	2536.885056
784.751958	2536.484284
785.075372	2536.955632
785.398739	2537.167360
785.722061	2538.488143
786.045337	2537.421939
786.368568	2535.793646
786.691752	2538.039480
787.014891	2536.252391
787.337983	2536.774150
787.661030	2540.204656
787.984031	2538.089892
788.306987	2537.053934
788.629897	2538.984696
788.952760	2539.314892
789.275579	2537.633667
789.598351	2540.711292
789.921078	2541.487629
790.243759	2538.611651
790.566395	2538.808256
790.888984	2539.171219
791.211529	2537.001002
791.534027	2536.330529
791.856480	2537.472350
792.178888	2538.399923
792.501249	2534.687113
792.823566	2537.784902
793.145836	2538.813297
793.468062	2536.776671
793.790241	2536.456558
794.112375	2538.750283
794.434464	2538.309182
794.756507	2537.321116
795.078505	2537.336239
795.400457	2534.926568
795.722364	2533.542771
796.044226	2536.693492
796.366042	2533.205013
796.687812	2536.443955
797.009538	2536.592669
797.331218	2539.395550
797.652852	2537.885725
797.974442	2537.164840
798.295986	2538.450334
798.617484	2536.277597
798.938938	2535.276928
799.260346	2539.332536
799.581709	2537.142155
799.903026	2538.851106
800.224299	2534.384643
800.545526	2537.003523
800.866708	2536.348173
801.187845	2539.922351
801.508936	2538.563760
801.829983	2540.169367
802.150984	2535.168543
802.471940	2536.169212
802.792851	2536.580066
803.113717	2536.166691
803.434538	2534.593851
803.755314	2537.588297
804.076045	2532.161495
804.396731	2537.500077
804.717372	2533.769623
805.037967	2536.832124
805.358518	2534.225847
805.679024	2535.922195
805.999485	2535.566794
806.319901	2536.683410
806.640272	2536.484284
806.960598	2538.382278
807.280879	2536.741383
807.601115	2537.195087
807.921306	2534.785415
808.241453	2536.867412
808.561554	2536.620395
808.881611	2536.028060
809.201623	2535.730632
809.521590	2535.523944
809.841513	2535.186187
810.161390	2536.809438
810.481223	2535.844057
810.801011	2535.690302
811.120755	2536.937988
811.440453	2535.602082
811.760107	2535.022349
812.079716	2534.442617
812.399281	2533.515044
812.718801	2533.023532
813.038276	2528.657893
813.357707	2536.050745
813.677093	2535.032432
813.996434	2539.680376
814.315731	2536.625436
814.634983	2535.539068
814.954191	2536.413708
815.273354	2534.767771
815.592473	2535.826413
815.911547	2534.291382
816.230577	2534.971938
816.549562	2535.828934
816.868502	2535.327339
817.187399	2536.688451
817.506250	2536.726259
817.825058	2539.355221
818.143821	2534.608975
818.462539	2539.082999
818.781213	2539.105684
819.099843	2537.021167
819.418429	2535.660055
819.736970	2542.412681
820.055466	2543.047866
820.373919	2542.087527
820.692327	2543.108360
821.010691	2550.438198
821.329011	2560.633932
821.647286	2576.480799
821.965517	2595.286823
822.283704	2607.887187
822.601847	2612.638475
822.919945	2604.310488
823.237999	2589.360947
823.556010	2579.853331
823.873976	2571.595921
824.191897	2561.962276
824.509775	2557.518498
824.827609	2555.718807
825.145398	2551.552293
825.463144	2552.066491
825.780845	2553.301573
826.098502	2554.970195
826.416116	2556.505227
826.733685	2564.808007
827.051210	2566.706001
827.368692	2562.332800
827.686129	2556.480021
828.003522	2552.830225
828.320872	2545.228165
828.638177	2544.527445
828.955439	2542.417722
829.272656	2538.722556
829.589830	2534.256094
829.906960	2540.897814
830.224046	2537.691640
830.541088	2538.173071
830.858086	2538.556198
831.175041	2536.461599
831.491952	2534.997144
831.808819	2537.033770
832.125642	2536.350693
832.442421	2538.772968
832.759157	2540.219779
833.075849	2543.196580
833.392497	2548.537683
833.709101	2551.637993
834.025662	2549.971891
834.342179	2548.202446
834.658653	2548.530121
834.975083	2544.434184
835.291469	2545.490305
835.607811	2540.549975
835.924110	2539.287166
836.240366	2539.544264
836.556578	2537.537885
836.872746	2538.566281
837.188871	2535.294572
837.504952	2533.406660
837.820990	2533.545291
838.136984	2535.261804
838.452935	2532.322812
838.768842	2535.140817
839.084706	2535.206352
839.400526	2537.782381
839.716303	2536.522093
840.032037	2541.200283
840.347727	2540.902855
840.663373	2542.596683
840.978977	2538.498225
841.294537	2537.280786
841.610054	2535.965045
841.925527	2532.889941
842.240957	2532.605116
842.556344	2535.952442
842.871687	2531.763243
843.186987	2534.936650
843.502244	2532.874818
843.817458	2531.617050
844.132629	2532.756351
844.447756	2533.525127
844.762840	2529.101514
845.077881	2532.925229
845.392879	2528.778880
845.707833	2532.290044
846.022745	2530.568490
846.337613	2532.126207
846.652438	2533.961187
846.967221	2533.875487
847.281960	2532.101001
847.596656	2533.391536
847.911309	2530.628984
848.225919	2532.431196
848.540485	2533.197452
848.855009	2533.459592
849.169490	2534.740045
849.483928	2534.361958
849.798323	2533.031094
850.112675	2533.131917
850.426984	2533.903213
850.741251	2532.221988
851.055474	2529.134282
851.369654	2533.139478
851.683792	2532.116124
851.997887	2533.136958
852.311938	2533.817514
852.625947	2530.858356
852.939914	2531.231402
853.253837	2536.108718
853.567718	2533.278110
853.881555	2533.421783
854.195350	2531.138140
854.509103	2532.852133
854.822812	2531.117976
855.136479	2533.998995
855.450103	2532.113604
855.763685	2528.700742
856.077224	2533.673841
856.390720	2532.655528
856.704173	2533.210055
857.017584	2532.746268
857.330953	2533.694005
857.644278	2531.861546
857.957561	2534.278779
858.270802	2533.368851
858.584000	2531.516227
858.897155	2531.859025
859.210268	2534.049407
859.523339	2533.353728
859.836367	2532.610157
860.149352	2535.218954
860.462295	2538.498225
860.775195	2528.131092
861.088054	2528.063037
861.400869	2530.676875
861.713642	2526.167563
862.026373	2531.705270
862.339062	2531.901875
862.651708	2530.172759
862.964312	2533.751979
863.276873	2532.990764
863.589392	2531.538912
863.901869	2531.400280
864.214303	2534.107380
864.526696	2532.768954
864.839045	2529.696370
865.151353	2531.740558
865.463619	2532.688295
865.775842	2536.103677
866.088023	2532.302647
866.400162	2533.575538
866.712258	2534.364479
867.024313	2532.539581
867.336325	2534.891279
867.648296	2533.525127
867.960224	2532.113604
868.272110	2531.170908
868.583954	2533.222657
868.895755	2532.718542
869.207515	2531.980013
869.519233	2534.049407
869.830909	2532.710980
870.142542	2532.600075
870.454134	2530.427338
870.765684	2530.802904
871.077191	2534.982020
871.388657	2534.177956
871.700081	2530.860877
872.011463	2530.903727
872.322803	2532.610157
872.634101	2533.890610
872.945357	2529.814838
873.256571	2533.018491
873.567744	2531.526309
873.878874	2534.530837
874.189963	2532.947915
874.501010	2537.931095
874.812015	2535.476053
875.122979	2532.348017
875.433900	2534.616537
875.744780	2536.315405
876.055618	2533.242822
876.366415	2534.959335
876.677169	2534.457740
876.987882	2534.102339
877.298554	2530.490352
877.609183	2531.387678
877.919771	2531.886752
878.230317	2532.771474
878.540822	2537.613503
878.851285	2537.787422
879.161707	2534.934129
879.472087	2538.205838
879.782425	2538.977135
880.092722	2543.080634
880.402977	2549.694628
880.713191	2560.858263
881.023363	2567.384037
881.333494	2576.853844
881.643583	2578.068762
881.953631	2576.180850
882.263637	2576.042218
882.573602	2572.357135
882.883526	2564.936556
883.193408	2560.442368
883.503248	2553.846018
883.813048	2549.712272
884.122806	2551.269988
884.432522	2547.436191
884.742197	2542.271529
885.051831	2541.994265
885.361424	2539.738349
885.670975	2538.606610
885.980485	2537.827752
886.289954	2536.781712
886.599382	2536.859850
886.908768	2536.144006
887.218113	2538.674665
887.527417	2537.074099
887.836680	2536.058307
888.145901	2535.017308
888.455082	2537.631147
888.764221	2534.450178
889.073319	2534.379602
889.382376	2535.307175
889.691392	2531.589324
890.000366	2533.252904
890.309300	2532.942873
890.618193	2532.544622
890.927044	2531.589324
891.235855	2534.861032
891.544625	2532.710980
891.853353	2532.756351
892.162041	2535.176105
892.470687	2538.200797
892.779293	2534.961856
893.087858	2536.373379
893.396381	2532.446320
893.704864	2537.540406
894.013306	2538.233564
894.321707	2545.996941
894.630068	2546.145655
894.938387	2547.216901
895.246665	2548.951057
895.554903	2547.300080
895.863100	2542.175747
896.171256	2541.064172
896.479371	2541.616179
896.787446	2541.233051
897.095480	2535.922195
897.403473	2537.719367
897.711425	2538.155427
898.019336	2539.393030
898.327207	2537.878163
898.635038	2535.783564
898.942827	2534.437576
899.250576	2533.971269
899.558284	2535.163502
899.865952	2535.712987
900.173579	2535.269366
900.481165	2532.446320
900.788711	2536.421270
901.096216	2532.030425
901.403681	2533.961187
901.711105	2532.927750
902.018489	2535.352545
902.325832	2537.273225
902.633135	2534.838347
902.940397	2533.454551
903.247619	2536.564943
903.554800	2539.652649
903.861941	2541.422094
904.169041	2550.304607
904.476101	2553.977088
904.783121	2552.353836
905.090100	2552.807540
905.397039	2547.927703
905.703938	2543.458720
906.010796	2540.822197
906.317614	2538.790612
906.624391	2539.390509
906.931129	2536.801877
907.237826	2534.495549
907.544483	2534.321629
907.851099	2534.896321
908.157675	2532.935312
908.464211	2533.618388
908.770707	2525.683612
909.077163	2529.837523
909.383578	2526.555732
909.689954	2529.219981
909.996289	2529.129241
910.302584	2530.780218
910.608839	2530.671834
910.915054	2530.313912
911.221229	2528.746113
911.527363	2531.644776
911.833458	2529.945907
912.139513	2530.462626
912.445527	2530.122348
912.751502	2530.233253
913.057436	2530.041689
913.363331	2534.808100
913.669186	2534.704757
913.975000	2535.483615
914.280775	2534.840868
914.586510	2535.740714
914.892205	2539.549306
915.197859	2540.018133
915.503475	2544.298072
915.809050	2549.409803
916.114585	2550.687735
916.420081	2552.061449
916.725536	2550.176058
917.030952	2549.392158
917.336328	2546.866540
917.641665	2543.887218
917.946961	2542.326981
918.252218	2541.538041
918.557435	2538.271373
918.862612	2536.080992
919.167750	2537.525282
919.472848	2535.740714
919.777906	2532.779036
920.082925	2534.034283
920.387904	2531.823737
920.692843	2535.889428
920.997743	2534.024201
921.302603	2533.399098
921.607423	2532.829447
921.912204	2532.640404
922.216946	2531.745599
922.521647	2531.692667
922.826310	2532.022863
923.130932	2532.917668
923.435516	2530.936494
923.740059	2531.420445
924.044564	2530.137471
924.349028	2530.565969
924.653454	2528.121010
924.957840	2527.231246
925.262186	2528.688140
925.566493	2530.926412
925.870761	2522.810154
926.174989	2530.518078
926.479178	2532.035466
926.783328	2528.857018
927.087438	2531.238963
927.391509	2531.238963
927.695541	2531.491021
927.999533	2530.364323
928.303486	2525.804600
928.607400	2530.752492
928.911275	2532.786598
929.215110	2530.192924
929.518906	2530.893644
929.822663	2528.317615
930.126381	2529.651000
930.430060	2531.317101
930.733699	2530.182842
931.037299	2530.535722
931.340861	2530.233253
931.644383	2529.512368
931.947866	2528.428520
932.251309	2528.610002
932.554714	2526.948942
932.858080	2531.007070
933.161407	2530.815507
933.464694	2529.184693
933.767943	2528.748633
934.071153	2528.042872
934.374323	2527.763088
934.677455	2530.510517
934.980548	2529.610671
935.283602	2530.540764
935.586617	2529.784591
935.889593	2529.149405
936.192530	2529.030938
936.495428	2532.068233
936.798287	2526.149919
937.101108	2530.124868
937.403890	2530.346679
937.706632	2532.380785
938.009336	2528.330218
938.312002	2528.219312
938.614628	2530.689478
938.917216	2529.756864
939.219765	2531.775846
939.522275	2531.165867
939.824747	2532.027904
940.127179	2529.446833
940.429573	2526.727131
940.731929	2523.389887
941.034246	2524.256965
941.336524	2529.497245
941.638763	2528.889786
941.940964	2532.070754
942.243126	2530.215609
942.545250	2526.991791
942.847335	2533.051258
943.149381	2529.388860
943.451389	2528.128572
943.753359	2528.723428
944.055290	2528.519261
944.357182	2528.809127
944.659036	2528.456247
944.960851	2527.891637
945.262628	2529.658562
945.564367	2529.126720
945.866067	2530.288706
946.167729	2528.594878
946.469352	2528.000022
946.770937	2527.579086
947.072484	2530.359282
947.373992	2531.740558
947.675462	2527.868952
947.976893	2528.247039
948.278286	2528.032790
948.579641	2528.168901
948.880958	2530.883562
949.182236	2528.499096
949.483476	2530.248377
949.784678	2531.808614
950.085841	2531.160826
950.386967	2531.554036
950.688054	2528.942718
950.989103	2529.459436
951.290114	2527.634538
951.591087	2529.613191
951.892021	2528.241997
952.192917	2528.224353
952.493776	2527.788294
952.794596	2527.926925
953.095378	2529.371216
953.396122	2531.392719
953.696828	2527.962213
953.997496	2530.578572
954.298126	2529.109076
954.598718	2528.758716
954.899272	2530.293747
955.199788	2528.710825
955.500266	2529.429189
955.800706	2526.603623
956.101108	2523.946934
956.401472	2527.203520
956.701798	2521.746471
957.002087	2523.888961
957.302337	2526.790145
957.602550	2529.270393
957.902724	2530.313912
958.202861	2529.293078
958.502960	2526.921215
958.803022	2528.627646
959.103045	2526.510361
959.403031	2527.687471
959.702979	2527.889117
960.002889	2530.387008
960.302762	2525.139167
960.602596	2530.298788
960.902393	2528.158818
961.202153	2530.064375
961.501875	2526.780063
961.801559	2526.611184
962.101205	2527.261493
962.400814	2527.342152
962.700385	2525.527336
962.999918	2527.279137
963.299414	2527.601771
963.598873	2526.754857
963.898293	2527.261493
964.197677	2527.959693
964.497022	2526.951462
964.796331	2528.383150
965.095601	2527.594209
965.394835	2527.596730
965.694030	2528.521782
965.993189	2525.098838
966.292309	2527.692512
966.591393	2525.174455
966.890439	2530.167718
967.189447	2526.570855
967.488419	2526.344003
967.787353	2528.577234
968.086249	2529.565300
968.385108	2525.265196
968.683930	2528.577234
968.982714	2525.161853
969.281462	2527.599250
969.580172	2525.086235
969.878844	2525.912984
970.177480	2526.286030
970.476078	2528.483973
970.774639	2528.501617
971.073162	2525.345855
971.371649	2527.032121
971.670098	2522.389218
971.968510	2528.310053
972.266885	2521.653209
972.565223	2525.613036
972.863524	2527.231246
973.161788	2527.785773
973.460014	2526.422141
973.758204	2527.989940
974.056356	2527.488345
974.354471	2526.775022
974.652550	2528.909950
974.950591	2528.552028
975.248595	2526.344003
975.546563	2527.758047
975.844493	2526.888448
976.142386	2527.132944
976.440243	2525.945752
976.738062	2526.785104
977.035845	2527.453057
977.333590	2524.748478
977.631299	2525.182017
977.928971	2528.935156
978.226606	2527.264014
978.524204	2527.463139
978.821765	2528.390712
979.119290	2525.857532
979.416777	2527.115300
979.714228	2526.074301
980.011642	2525.363499
980.309020	2530.414735
980.606360	2526.217974
980.903664	2526.832995
981.200931	2524.592202
981.498162	2525.653365
981.795356	2526.971627
982.092513	2529.860208
982.389633	2527.019518
982.686717	2526.825433
982.983764	2525.807120
983.280775	2529.456916
983.577749	2526.432223
983.874686	2526.684281
984.171587	2526.661596
984.468451	2524.413241
984.765279	2526.500279
985.062070	2527.939528
985.358824	2528.108407
985.655543	2524.987933
985.952224	2527.775691
986.248869	2525.978519
986.545478	2524.413241
986.842050	2525.212264
987.138586	2520.629855
987.435086	2520.418127
987.731549	2523.485669
988.027975	2528.083201
988.324366	2526.618746
988.620719	2525.678571
988.917037	2523.732685
989.213318	2527.926925
989.509563	2525.734023
989.805772	2522.913498
990.101944	2525.194620
990.398080	2527.427851
990.694180	2526.739734
990.990244	2526.507841
991.286271	2527.339631
991.582262	2527.158149
991.878217	2526.480114
992.174136	2527.669827
992.470019	2527.551359
992.765865	2528.473891
993.061676	2528.108407
993.357450	2524.566996
993.653188	2527.029600
993.948890	2526.528005
994.244556	2527.541277
994.540186	2528.126051
994.835780	2525.446678
995.131337	2525.325690
995.426859	2528.123530
995.722345	2526.079343
996.017795	2526.016328
996.313208	2529.587986
996.608586	2528.138654
996.903928	2525.749147
997.199234	2526.601102
997.494504	2527.722759
997.789738	2525.489527
998.084936	2525.431554
998.380099	2526.875845
998.675225	2526.154960
998.970316	2526.338962
999.265371	2526.719569
999.560390	2526.122192
999.855373	2527.095135
1000.150320	2522.888292
1000.445232	2526.543129
1000.740108	2526.268386
1001.034948	2524.501461
1001.329752	2527.808458
1001.624521	2525.827285
1001.919254	2523.064733
1002.213951	2521.149094
1002.508613	2522.860566
1002.803239	2526.704446
1003.097829	2519.949299
1003.392384	2528.390712
1003.686903	2524.536749
1003.981386	2527.339631
1004.275834	2526.296112
1004.570246	2525.492048
1004.864623	2525.350896
1005.158964	2527.407687
1005.453270	2523.546163
1005.747540	2523.410052
1006.041775	2525.852491
1006.335974	2525.406348
1006.630138	2525.492048
1006.924266	2524.178828
1007.218359	2526.555732
1007.512416	2526.722090
1007.806438	2526.515402
1008.100425	2526.911133
1008.394376	2525.396266
1008.688292	2525.623118
1008.982172	2526.563293
1009.276017	2528.733510
1009.569827	2526.913653
1009.863602	2527.972296
1010.157341	2524.887110
1010.451045	2527.130423
1010.744714	2526.245701
1011.038347	2527.566483
1011.331945	2527.233767
1011.625508	2525.081194
1011.919036	2525.844929
1012.212528	2524.559435
1012.505986	2523.276461
1012.799408	2526.223015
1013.092795	2526.122192
1013.386147	2526.646472
1013.679464	2526.464991
1013.972745	2525.769312
1014.265992	2526.911133
1014.559204	2526.235618
1014.852380	2528.078160
1015.145521	2526.686802
1015.438628	2524.398118
1015.731699	2523.410052
1016.024736	2524.135978
1016.317737	2526.008766
1016.610703	2525.955834
1016.903635	2522.492562
1017.196531	2522.192613
1017.489393	2521.254958
1017.782219	2519.656912
1018.075011	2525.124044
1018.367768	2526.417100
1018.660490	2525.045906
1018.953177	2525.045906
1019.245829	2525.045906
