Dividing Wavelength (nm)	Counts (n)	Blue Motor Position (mm): 15.100000	Red Motor Position (mm): 0.000000	
326.493990	2173.579180
326.888308	2173.579180
327.282561	2173.579180
327.676750	2134.369086
328.070874	2128.395318
328.464933	2130.812552
328.858929	2133.622995
329.252859	2138.192801
329.646726	2145.162196
330.040528	2158.957314
330.434265	2171.845023
330.827938	2191.825637
331.221547	2208.713502
331.615091	2223.650441
332.008571	2242.292628
332.401986	2261.506986
332.795338	2278.246137
333.188625	2297.959569
333.581847	2316.798361
333.975006	2334.286124
334.368100	2353.213136
334.761129	2372.775333
335.154095	2390.636142
335.546996	2412.764286
335.939833	2438.050714
336.332606	2453.131326
336.725315	2465.025928
337.117960	2478.881540
337.510540	2491.736482
337.903056	2501.791063
338.295508	2506.207114
338.687896	2520.448374
339.080220	2526.795186
339.472480	2533.429345
339.864676	2539.047711
340.256807	2543.577188
340.648875	2550.234031
341.040879	2549.707231
341.432818	2555.038251
341.824694	2555.076059
342.216506	2556.938766
342.608253	2556.951369
342.999937	2557.606719
343.391557	2557.286605
343.783113	2558.476318
344.174605	2558.683005
344.566033	2555.499516
344.957397	2555.088662
345.348697	2552.477345
345.739934	2551.481717
346.131106	2549.341747
346.522215	2545.142466
346.913260	2547.690769
347.304241	2544.439225
347.695159	2540.449152
348.086012	2542.092568
348.476802	2537.537885
348.867528	2532.509334
349.258191	2532.728624
349.648789	2532.400949
350.039324	2528.655372
350.429796	2530.263500
350.820203	2527.984899
351.210548	2528.862059
351.600828	2526.903571
351.991045	2526.797707
352.381198	2527.289219
352.771288	2524.965247
353.161314	2523.241173
353.551276	2526.742254
353.941175	2519.866120
354.331010	2522.810154
354.720782	2524.201513
355.110490	2524.816533
355.500135	2522.724455
355.889717	2522.091790
356.279235	2522.603467
356.668689	2522.918539
357.058080	2521.202026
357.447408	2524.871986
357.836672	2524.274609
358.225873	2523.586492
358.615010	2524.093128
359.004084	2523.858714
359.393095	2525.542460
359.782043	2524.766122
360.170927	2526.230577
360.559748	2524.829136
360.948505	2528.718387
361.337199	2529.759385
361.725830	2526.568334
362.114398	2527.556401
362.502903	2529.774508
362.891344	2529.063706
363.279722	2529.918181
363.668037	2529.903058
364.056289	2530.916330
364.444478	2532.214427
364.832603	2531.647297
365.220665	2534.356917
365.608665	2531.619571
365.996601	2533.416742
366.384474	2535.009747
366.772284	2533.063861
367.160031	2533.767102
367.547715	2535.511341
367.935336	2535.675179
368.322893	2531.664941
368.710388	2533.741896
369.097820	2534.845909
369.485189	2530.079498
369.872495	2536.673327
370.259738	2535.105528
370.646918	2537.522762
371.034035	2536.340611
371.421090	2536.128883
371.808081	2539.836651
372.195010	2535.491177
372.581875	2539.176260
372.968678	2537.800025
373.355418	2539.299768
373.742096	2540.915458
374.128710	2541.054090
374.515262	2539.143493
374.901751	2538.546116
375.288177	2539.771116
375.674540	2541.389327
376.060841	2540.103833
376.447079	2540.000489
376.833254	2540.610468
377.219367	2542.616848
377.605417	2541.696837
377.991404	2539.624923
378.377329	2540.935623
378.763191	2544.096426
379.148991	2542.130376
379.534727	2541.704399
379.920402	2539.340098
380.306013	2545.061807
380.691563	2541.162475
381.077049	2541.777496
381.462474	2544.275387
381.847835	2544.474513
382.233134	2543.710778
382.618371	2542.211035
383.003545	2545.691952
383.388657	2542.889070
383.773706	2546.460727
384.158693	2543.995603
384.543618	2542.606765
384.928480	2544.625748
385.313280	2543.123484
385.698017	2549.893753
386.082692	2546.909390
386.467305	2546.405275
386.851856	2547.383259
387.236344	2545.535676
387.620770	2545.364277
388.005133	2545.129863
388.389435	2544.832435
388.773674	2542.826056
389.157851	2548.381407
389.541965	2546.445604
389.926018	2547.229503
390.310008	2549.866027
390.693936	2549.092210
391.077802	2549.268650
391.461606	2548.774617
391.845348	2550.586912
392.229027	2552.235369
392.612645	2550.720503
392.996200	2551.196892
393.379694	2549.598846
393.763125	2549.513146
394.146494	2552.041285
394.529801	2550.576830
394.913047	2552.240410
395.296230	2553.268806
395.679351	2549.697148
396.062410	2551.269988
396.445408	2550.203784
396.828343	2551.411141
397.211217	2554.173693
397.594028	2552.114382
397.976778	2550.561706
398.359466	2552.646223
398.742092	2550.448280
399.124656	2551.892571
399.507158	2551.285112
399.889598	2553.725030
400.271977	2554.829043
400.654294	2553.210833
401.036549	2554.347613
401.418742	2554.277037
401.800874	2554.009855
402.182944	2554.531615
402.564952	2553.992211
402.946898	2553.576316
403.328783	2552.880637
403.710606	2555.580175
404.092367	2554.022458
404.474067	2555.620504
404.855705	2556.197716
405.237282	2554.488765
405.618797	2555.955741
406.000250	2557.447922
406.381642	2555.328117
406.762972	2556.061605
407.144240	2554.662685
407.525447	2554.801317
407.906593	2552.462221
408.287677	2556.979095
408.668700	2556.316183
409.049661	2559.272820
409.430560	2558.015052
409.811399	2559.189641
410.192176	2559.164435
410.572891	2557.536142
410.953545	2557.919270
411.334138	2559.787018
411.714669	2556.840463
412.095139	2556.379198
412.475547	2559.895402
412.855894	2562.234498
413.236180	2561.059909
413.616405	2558.433468
413.996568	2560.964127
414.376670	2558.763663
414.756711	2559.456822
415.136691	2560.830537
415.516609	2563.242729
415.896466	2561.342214
416.276262	2560.971689
416.655997	2562.310115
417.035670	2559.930691
417.415283	2563.381360
417.794834	2562.536967
418.174324	2560.517985
418.553753	2562.980589
418.933121	2562.489076
419.312428	2564.913871
419.691674	2560.248283
420.070859	2562.287430
420.449983	2562.950342
420.829045	2561.604354
421.208047	2564.460167
421.586988	2560.787687
421.965867	2563.799776
422.344686	2562.852039
422.723444	2563.484704
423.102141	2564.742472
423.480777	2565.712894
423.859352	2565.964952
424.237866	2563.215002
424.616319	2564.026628
424.994712	2563.804817
425.373044	2564.566032
425.751314	2563.451937
426.129524	2559.328273
426.507673	2560.853222
426.885762	2559.134188
427.263789	2565.728018
427.641756	2562.584858
428.019662	2566.829510
428.397508	2565.322205
428.775292	2565.218861
429.153016	2568.155333
429.530679	2564.359344
429.908282	2567.263049
430.285824	2567.467216
430.663305	2566.950497
431.040726	2564.122410
431.418086	2565.785991
431.795385	2565.294478
432.172624	2563.391443
432.549802	2565.181052
432.926920	2565.102914
433.303977	2566.640466
433.680974	2565.785991
434.057910	2565.700291
434.434786	2567.595765
434.811601	2565.511248
435.188355	2566.267421
435.565050	2568.525858
435.941683	2565.118038
436.318257	2568.727504
436.694770	2568.853533
437.071222	2568.389747
437.447614	2569.289593
437.823946	2568.362020
438.200218	2567.860426
438.576429	2568.445199
438.952580	2566.027966
439.328670	2568.901424
439.704700	2568.339335
440.080670	2567.719273
440.456580	2567.232802
440.832429	2567.172308
441.208218	2568.382185
441.583947	2565.163408
441.959616	2568.377144
442.335224	2569.387895
442.710773	2567.542833
443.086261	2568.314129
443.461689	2568.001578
443.837057	2570.436455
444.212365	2569.602144
444.587612	2566.063254
444.962800	2567.620971
445.337927	2568.291444
445.712995	2564.084601
446.088002	2570.880077
446.462949	2569.415622
446.837837	2571.111970
447.212664	2570.368400
447.587431	2572.886456
447.962139	2573.393092
448.336786	2571.066599
448.711374	2572.974676
449.085901	2570.184398
449.460369	2570.965776
449.834776	2571.454768
450.209124	2571.316137
450.583412	2570.668348
450.957640	2571.003585
451.331808	2569.917216
451.705917	2572.273956
452.079965	2573.377968
452.453954	2571.273287
452.827883	2573.546847
453.201752	2571.399316
453.575562	2572.072310
453.949311	2571.515262
454.323001	2573.990469
454.696632	2570.781774
455.070202	2576.039698
455.443713	2575.144893
455.817164	2574.272773
456.190556	2576.475758
456.563888	2574.534913
456.937160	2570.678431
457.310373	2574.151786
457.683526	2574.315623
458.056619	2574.640777
458.429653	2574.817218
458.802628	2575.827969
459.175542	2572.543657
459.548398	2576.495922
459.921194	2577.312589
460.293930	2575.071796
460.666607	2576.634554
461.039224	2574.519790
461.411782	2578.068762
461.784280	2576.561457
462.156719	2578.464493
462.529099	2578.363670
462.901419	2580.072621
463.273680	2577.166396
463.645882	2573.342680
464.018024	2576.798391
464.390106	2574.771847
464.762130	2578.530028
465.134094	2576.574060
465.505999	2578.550192
465.877845	2582.152097
466.249631	2581.867272
466.621358	2582.457087
466.993026	2581.353074
467.364634	2587.362129
467.736184	2585.058322
468.107674	2579.893660
468.479105	2584.667632
468.850477	2582.106726
469.221790	2581.247210
469.593043	2581.824422
469.964238	2580.186047
470.335373	2581.864751
470.706449	2583.185533
471.077467	2582.348702
471.448425	2582.933476
471.819324	2583.798033
472.190164	2585.504464
472.560945	2586.046388
472.931667	2582.346181
473.302330	2583.175451
473.672934	2583.452714
474.043479	2581.814339
474.413965	2581.101016
474.784393	2580.828794
475.154761	2583.215780
475.525070	2583.384659
475.895321	2582.633527
476.265513	2585.690987
476.635645	2586.099320
477.005719	2585.600246
477.375734	2583.251068
477.745691	2585.270050
478.115588	2587.190730
478.485427	2585.600246
478.855207	2584.513877
479.224928	2584.695359
479.594591	2588.521595
479.964194	2591.846236
480.333739	2591.374888
480.703226	2589.043354
481.072653	2589.741554
481.442022	2590.961513
481.811333	2587.248703
482.180584	2586.502612
482.549777	2589.184506
482.918912	2585.796851
483.287988	2590.306163
483.657005	2589.968406
484.025964	2588.440936
484.394864	2590.548138
484.763706	2591.579054
485.132489	2589.320618
485.501213	2589.923035
485.869879	2594.089549
486.238487	2591.402614
486.607036	2589.121492
486.975527	2587.654516
487.343959	2591.344641
487.712333	2590.006214
488.080648	2589.975968
488.448905	2592.620053
488.817104	2593.202306
489.185244	2594.129878
489.553326	2593.472008
489.921350	2590.643920
490.289315	2597.537698
490.657222	2596.821854
491.025070	2598.286310
491.392861	2597.189859
491.760593	2598.692122
492.128267	2596.151381
492.495883	2596.436206
492.863440	2594.371854
493.230939	2594.427306
493.598380	2596.436206
493.965763	2595.952255
494.333088	2595.957297
494.700354	2592.569641
495.067563	2593.308170
495.434713	2595.133068
495.801805	2596.040476
496.168839	2594.835640
496.535815	2594.656679
496.902733	2597.126844
497.269593	2593.905547
497.636395	2597.409149
498.003139	2597.608274
498.369825	2596.113572
498.736453	2596.947883
499.103023	2597.212544
499.469535	2598.624067
499.835989	2597.893100
500.202385	2594.543253
500.568723	2593.217429
500.935003	2594.258428
501.301226	2593.950917
501.667390	2599.143306
502.033497	2602.231012
502.399546	2599.649942
502.765537	2597.817482
503.131470	2601.111876
503.497345	2602.115066
503.863163	2597.986361
504.228923	2600.106166
504.594625	2599.634818
504.960269	2602.785539
505.325856	2602.528441
505.691385	2600.585076
506.056856	2606.894080
506.422270	2602.919130
506.787625	2606.465582
507.152924	2605.845520
507.518164	2606.609255
507.883347	2605.976590
508.248472	2605.018771
508.613540	2607.932557
508.978550	2610.334667
509.343503	2607.040273
509.708398	2610.241406
510.073236	2609.454986
510.438016	2611.894904
510.802738	2610.848865
511.167403	2612.356170
511.532010	2613.681993
511.896561	2615.504371
512.261053	2617.414968
512.625488	2619.630555
512.989866	2615.068311
513.354186	2620.348919
513.718449	2618.377828
514.082655	2622.771194
514.446803	2620.711882
514.810894	2621.604167
515.174927	2625.382512
515.538904	2625.548870
515.902822	2625.700104
516.266684	2627.051133
516.630488	2630.889972
516.994235	2628.581124
517.357925	2628.775208
517.721558	2630.484159
518.085133	2631.056330
518.448651	2631.613378
518.812112	2632.135137
519.175516	2632.558594
519.538863	2633.486166
519.902152	2638.648308
520.265385	2641.446148
520.628560	2643.127373
520.991678	2642.908083
521.354739	2642.693834
521.717743	2645.574853
522.080690	2646.126860
522.443580	2650.149700
522.806413	2651.994763
523.169189	2651.258754
523.531908	2656.564569
523.894569	2655.243786
524.257174	2658.432316
524.619722	2658.172697
524.982213	2662.291319
525.344647	2662.777791
525.707025	2663.884324
526.069345	2666.573780
526.431608	2667.340035
526.793815	2670.715087
527.155964	2673.631395
527.518057	2671.803977
527.880093	2673.621313
528.242072	2681.717406
528.603995	2682.773527
528.965860	2682.065245
529.327669	2686.473734
529.689421	2691.056143
530.051117	2692.129909
530.412755	2691.230063
530.774337	2697.927236
531.135862	2697.738193
531.497331	2704.818493
531.858743	2704.516024
532.220098	2709.574822
532.581396	2715.084803
532.942638	2717.383569
533.303824	2722.676781
533.664953	2728.544684
534.026025	2729.373954
534.387040	2733.197669
534.747999	2739.085737
535.108902	2743.390882
535.469748	2743.070769
535.830537	2751.721389
536.191270	2760.813110
536.551947	2759.446957
536.912567	2761.130702
537.273131	2774.225099
537.633638	2776.208793
537.994089	2786.858231
538.354483	2788.047943
538.714821	2799.922381
539.075103	2810.339926
539.435328	2810.828917
539.795497	2816.870740
540.155609	2829.161073
540.515665	2837.547033
540.875665	2841.640450
541.235609	2852.345340
541.595496	2866.586600
541.955328	2872.567929
542.315102	2888.944117
542.674821	2889.861607
543.034483	2894.643141
543.394090	2911.586459
543.753640	2920.640372
544.113134	2940.474792
544.472571	2950.544496
544.831953	2968.077629
545.191278	2970.094091
545.550548	2981.867706
545.909761	2993.878255
546.268918	3018.012779
546.628019	3029.274717
546.987064	3046.737273
547.346053	3057.157338
547.704986	3075.043352
548.063863	3095.830550
548.422684	3104.191304
548.781449	3117.920886
549.140158	3148.487923
549.498811	3168.634894
549.857408	3171.778053
550.215949	3206.309957
550.574434	3217.108109
550.932864	3248.595156
551.291237	3267.159205
551.649555	3299.573824
552.007817	3324.018379
552.366022	3342.184177
552.724173	3367.037065
553.082267	3393.263668
553.440305	3439.894341
553.798288	3444.499435
554.156215	3488.667505
554.514086	3524.189995
554.871902	3518.924510
555.229661	3567.090215
555.587365	3598.037858
555.945014	3621.340592
556.302606	3678.766896
556.660143	3703.037531
557.017625	3760.788989
557.375050	3772.005557
557.732421	3815.233451
558.089735	3852.878267
558.446994	3888.557034
558.804197	3939.591155
559.161345	3983.481961
559.518437	3986.320130
559.875474	4058.302766
560.232455	4093.716872
560.589381	4140.292092
560.946251	4172.805014
561.303065	4250.390892
561.659825	4307.061023
562.016528	4326.474507
562.373177	4353.729505
562.729770	4411.702774
563.086307	4482.253722
563.442789	4542.014080
563.799216	4581.748455
564.155587	4619.662973
564.511904	4690.337429
564.868164	4716.175863
565.224370	4792.814005
565.580520	4816.792253
565.936615	4903.961365
566.292654	4912.685082
566.648638	5026.325292
567.004567	5045.854722
567.360441	5107.520637
567.716260	5127.894460
568.072023	5239.926542
568.427732	5280.159991
568.783385	5306.114372
569.138982	5396.761880
569.494525	5480.558459
569.850013	5530.186098
570.205445	5589.399492
570.560823	5614.133913
570.916145	5680.399880
571.271412	5737.506071
571.626625	5806.121216
571.981782	5869.453232
572.336884	5897.839969
572.691931	5996.664228
573.046923	5999.152038
573.401860	6084.241674
573.756743	6167.314848
574.111570	6211.404779
574.466342	6263.837821
574.821059	6357.479774
575.175722	6361.285845
575.530330	6462.577749
575.884882	6519.147057
576.239380	6596.531289
576.593823	6642.632641
576.948211	6694.808583
577.302544	6734.943730
577.656823	6787.971627
578.011047	6893.258646
578.365216	6939.969977
578.719330	6996.614903
579.073389	7033.501025
579.427394	7178.371184
579.781344	7166.761407
580.135239	7248.649910
580.489080	7301.403064
580.842866	7305.040257
581.196597	7475.421174
581.550273	7491.479770
581.903895	7606.763397
582.257463	7743.141732
582.610975	7719.239101
582.964434	7862.629681
583.317837	7879.497381
583.671186	7984.358423
584.024481	8069.390085
584.377721	8055.814258
584.730906	8161.983478
585.084037	8260.210361
585.437113	8306.145355
585.790135	8429.867873
586.143103	8368.327988
586.496016	8423.001822
586.848874	8626.218295
587.201679	8662.532247
587.554428	8626.636711
587.907124	8824.900250
588.259765	8823.907143
588.612352	8958.780693
588.964884	8892.252586
589.317362	9021.462400
589.669786	9120.344633
590.022155	9208.731183
590.374470	9368.984423
590.726731	9382.789623
591.078937	9359.186941
591.431090	9467.836409
591.783188	9435.751985
592.135232	9491.749122
592.487222	9651.924224
592.839157	9714.119459
593.191038	9772.617009
593.542866	9772.944684
593.894639	9774.136917
594.246358	9925.600904
594.598022	9952.767683
594.949633	9941.535992
595.301190	9978.603596
595.652692	10136.979006
596.004141	10313.245471
596.355535	10104.350137
596.706876	10176.020222
597.058162	10212.034225
597.409395	10360.493685
597.760573	10508.819555
598.111698	10475.593310
598.462768	10518.339774
598.813785	10560.171268
599.164748	10562.180168
599.515657	10631.012083
599.866511	10615.066913
600.217312	10853.231185
600.568060	10701.643689
600.918753	10938.567838
601.269392	10972.245266
601.619978	10911.267469
601.970510	11122.242278
602.320988	11134.396500
602.671412	11321.728298
603.021783	11343.221257
603.372100	11276.539394
603.722363	11435.302973
604.072572	11472.481483
604.422728	11579.553070
604.772830	11570.400855
605.122878	11561.556151
605.472872	11652.851447
605.822813	11729.915566
606.172701	11772.120106
606.522534	11949.835902
606.872314	12036.979808
607.222041	11977.148874
607.571714	12178.663957
607.921333	12161.884477
608.270899	12272.008483
608.620411	12486.302892
608.969870	12354.721214
609.319276	12447.181017
609.668627	12550.365875
610.017926	12706.049308
610.367171	12837.499915
610.716362	12961.038432
611.065500	12873.163558
611.414585	13028.869677
611.763616	13097.280655
612.112594	13148.367708
612.461518	13154.926250
612.810389	13360.093649
613.159207	13287.992547
613.507971	13317.637052
613.856682	13604.864354
614.205340	13600.967542
614.553945	13785.249441
614.902496	13622.916726
615.250994	13900.250763
615.599439	13898.688006
615.947830	13934.704529
616.296169	13992.571934
616.644454	14062.351586
616.992686	14055.379670
617.340864	14265.139561
617.688990	14172.684800
618.037063	14349.490668
618.385082	14292.437409
618.733048	14538.884297
619.080961	14484.255834
619.428821	14580.962808
619.776628	14578.913579
620.124382	14547.517273
620.472083	14642.664011
620.819731	14727.715838
621.167326	14536.129307
621.514868	14616.818015
621.862357	14500.929450
622.209793	14563.081836
622.557176	14506.741900
622.904506	14408.862857
623.251783	14395.274427
623.599007	14304.775633
623.946179	14303.217917
624.293297	14315.160410
624.640363	14170.819573
624.987376	14216.671387
625.334336	14094.125979
625.681243	14023.602757
626.028097	14064.234457
626.374899	14089.677160
626.721647	13986.288136
627.068343	13886.069998
627.414987	13882.780645
627.761577	13920.082663
628.108115	13991.871214
628.454600	13778.287608
628.801032	13883.730902
629.147412	13863.702398
629.493739	13922.038630
629.840014	13812.023009
630.186236	13913.279626
630.532405	13758.922015
630.878521	13942.876240
631.224585	13872.758831
631.570597	13776.316517
631.916556	13811.092917
632.262462	13821.611284
632.608316	13794.895689
632.954117	13763.766564
633.299866	13799.720073
633.645562	13758.869083
633.991206	13564.275504
634.336797	13477.766783
634.682336	13497.462571
635.027823	13434.107870
635.373257	13382.922515
635.718639	13300.623157
636.063968	13281.035754
636.409245	13112.373870
636.754470	13156.456240
637.099642	13035.927293
637.444762	12853.306453
637.789829	12942.524794
638.134845	12803.784678
638.479808	12841.794978
638.824719	12826.605982
639.169577	12701.829863
639.514383	12772.113629
639.859137	12609.412910
640.203839	12715.178838
640.548489	12577.784710
640.893086	12595.753903
641.237632	12482.196872
641.582125	12654.725321
641.926566	12517.537881
642.270955	12541.143084
642.615292	12527.287472
642.959576	12549.876883
643.303809	12605.080038
643.647990	12562.825086
643.992118	12630.797484
644.336195	12421.720670
644.680219	12627.331691
645.024192	12581.437026
645.368112	12822.129437
645.711981	12893.867577
646.055797	13072.551275
646.399562	13040.247561
646.743274	13304.046101
647.086935	13571.570053
647.430544	13552.708576
647.774101	13576.018872
648.117606	13750.793155
648.461059	13724.105286
648.804460	13753.603598
649.147810	13512.613759
649.491108	13419.251590
649.834354	13463.959063
650.177548	13203.298641
650.520690	13024.723328
650.863781	12960.367958
651.206820	13014.971216
651.549807	12854.997760
651.892742	12685.214219
652.235626	12636.690593
652.578458	12639.122950
652.921238	12353.211389
653.263967	12536.321220
653.606644	12391.539282
653.949269	12362.444262
654.291843	12209.125130
654.634365	12344.217970
654.976836	12219.724156
655.319255	12244.859349
655.661622	12208.989018
656.003938	12140.089048
656.346203	12072.651013
656.688416	12150.047848
657.030577	12119.473250
657.372687	12066.001731
657.714746	12041.496682
658.056753	12223.782284
658.398708	12062.840927
658.740612	12070.316958
659.082465	12163.210300
659.424266	12135.133594
659.766016	12155.449444
660.107715	12078.985223
660.449362	12146.682877
660.790958	12125.230247
661.132503	12076.010942
661.473996	12132.960857
661.815438	12156.813076
662.156829	12175.097341
662.498168	12161.975218
662.839456	12160.445228
663.180693	12187.009588
663.521879	12271.968153
663.863013	12260.799477
664.204097	12249.509813
664.545129	12360.357224
664.886110	12333.581136
665.227040	12419.386615
665.567918	12425.620002
665.908746	12474.279740
666.249522	12451.125720
666.590248	12499.316630
666.930922	12610.222015
667.271545	12602.191457
667.612118	12691.641691
667.952639	12604.563320
668.293109	12593.581166
668.633528	12570.419585
668.973896	12545.768342
669.314213	12648.310453
669.654480	12396.340981
669.994695	12449.792335
670.334859	12468.631127
670.674973	12424.568922
671.015035	12464.877988
671.355047	12415.419227
671.695008	12378.341541
672.034918	12391.108263
672.374777	12431.094695
672.714585	12345.649658
673.054342	12382.671892
673.394049	12335.310252
673.733705	12422.214703
674.073310	12347.918177
674.412864	12372.345088
674.752368	12262.301741
675.091820	12257.489960
675.431223	12253.948549
675.770574	12130.825928
676.109875	12050.497662
676.449125	12028.127542
676.788324	11949.180552
677.127473	11796.373097
677.466571	11788.463526
677.805619	11690.100533
678.144616	11602.621390
678.483562	11583.717063
678.822458	11450.751589
679.161303	11432.414392
679.500098	11428.343660
679.838842	11378.259797
680.177535	11399.490616
680.516179	11456.029677
680.854771	11410.533264
681.193314	11622.405398
681.531805	11768.452666
681.870247	12160.304075
682.208638	12557.239488
682.546978	12890.789953
682.885268	12954.994088
683.223508	12646.346923
683.561697	12485.619815
683.899836	12381.575441
684.237925	12201.444932
684.575963	12114.583330
684.913951	12046.908361
685.251889	11982.137095
685.589776	12080.086715
685.927614	12022.320133
686.265401	11973.783903
686.603137	12024.187880
686.940824	12177.486848
687.278460	12283.638425
687.616046	12339.827125
687.953582	12520.920495
688.291068	12438.220366
688.628504	12667.698730
688.965889	12666.118329
689.303224	12648.754074
689.640510	12540.603680
689.977745	12252.171542
690.314930	12017.331911
690.652065	11933.681525
690.989150	11647.049079
691.326185	11431.801892
691.663170	11222.359593
692.000105	10973.631583
692.336990	10878.452078
692.673825	10629.673656
693.010610	10514.405153
693.347345	10308.622733
693.684030	10104.715621
694.020665	10058.546214
694.357251	9855.828815
694.693786	9814.531682
695.030272	9647.742587
695.366707	9526.782621
695.703093	9451.674470
696.039429	9445.826731
696.375716	9383.354232
696.711952	9253.622658
697.048139	9287.466445
697.384276	9243.492460
697.720363	9257.209439
698.056400	9194.447074
698.392388	9152.902925
698.728326	9115.721895
699.064214	9042.962922
699.400053	9093.379501
699.735842	8912.938961
700.071581	8870.744503
700.407270	8796.150550
700.742910	8723.809992
701.078501	8631.879511
701.414042	8510.715378
701.749533	8443.173999
702.084974	8303.672669
702.420366	8415.999659
702.755709	8298.031618
703.091002	8176.338164
703.426246	8194.887089
703.761440	8149.799009
704.096584	8103.004499
704.431679	8033.227368
704.766725	8023.631532
705.101721	7971.528686
705.436668	8013.700458
705.771565	7913.305880
706.106413	7992.353692
706.441212	8044.912762
706.775961	7986.037127
707.110661	8011.948657
707.445311	8171.274325
707.779913	8067.618119
708.114465	8198.216772
708.448967	8237.804953
708.783421	8367.090384
709.117825	8544.780975
709.452180	8593.289478
709.786485	8674.371396
710.120742	8946.472716
710.454949	8947.483468
710.789107	9054.918018
711.123216	9254.451928
711.457275	9414.969828
711.791286	9589.252599
712.125247	9580.100384
712.459159	9566.963137
712.793023	9827.081635
713.126837	9404.958097
713.460602	9546.246516
713.794318	9370.206903
714.127985	9400.741172
714.461602	9101.299154
714.795171	9044.868478
715.128691	8807.535996
715.462162	8547.087303
715.795584	8496.262390
716.128957	8361.713994
716.462281	8191.723765
716.795556	8234.107266
717.128782	8040.617699
717.461960	7761.942715
717.795088	7832.901996
718.128167	7743.444201
718.461198	7576.375321
718.794180	7517.267792
719.127113	7514.714448
719.459997	7377.491720
719.792833	7139.864330
720.125619	7198.195521
720.458357	7055.702267
720.791046	7046.355967
721.123686	7047.805299
721.456278	6894.329891
721.788821	6912.919146
722.121315	6803.090048
722.453761	6863.961980
722.786158	6814.538508
723.118506	6827.973183
723.450805	6796.425642
723.783056	6864.778647
724.115259	6761.341732
724.447412	6760.262925
724.779518	6809.593136
725.111574	6807.801006
725.443582	6891.895014
725.775542	6871.957250
726.107453	7050.146915
726.439315	6973.995245
726.771129	7018.561566
727.102895	7186.091711
727.434612	7302.076058
727.766281	7327.702764
728.097901	7416.827843
728.429473	7403.990545
728.760996	7374.179682
729.092471	7354.355344
729.423897	7305.592263
729.755276	7326.384502
730.086606	7257.202227
730.417887	7352.109510
730.749120	7522.692074
731.080305	7708.473717
731.411442	7850.137701
731.742530	7845.595622
732.073570	7952.647044
732.404562	8032.312398
732.735506	7883.857979
733.066401	8027.795525
733.397249	7961.632901
733.728048	7725.482570
734.058798	7396.776654
734.389501	7181.300094
734.720156	7001.963567
735.050762	6766.178719
735.381320	6664.826321
735.711831	6619.783611
736.042293	6514.383167
736.372707	6533.892432
736.703073	6401.267236
737.033391	6441.813237
737.363661	6444.928670
737.693883	6463.361649
738.024056	6546.588578
738.354182	6602.255519
738.684260	6637.755325
739.014290	6739.011941
739.344272	6852.758016
739.674207	6877.961264
740.004093	6942.016686
740.333931	6960.578214
740.663722	6970.214380
740.993464	7048.009466
741.323159	7049.355454
741.652806	6795.301465
741.982405	6791.041690
742.311956	6853.831782
742.641460	6713.564196
742.970915	6512.192785
743.300323	6508.805130
743.629683	6449.914371
743.958996	6322.138765
744.288260	6228.857254
744.617477	6176.358678
744.946647	6190.670514
745.275768	6027.637078
745.604842	5978.503472
745.933869	5958.618640
746.262847	5910.281537
746.591778	5907.201392
746.920662	5866.778900
747.249498	5849.051682
747.578286	5899.027161
747.907027	5980.088915
748.235720	6032.353077
748.564365	6009.022617
748.892963	6017.695922
749.221514	6185.425193
749.550017	6034.354415
749.878473	5902.888685
750.206881	5948.705211
750.535242	5893.144134
750.863555	5824.571839
751.191821	5847.856929
751.520039	5853.598803
751.848210	5759.374596
752.176334	5773.648623
752.504411	5825.660728
752.832440	5754.658597
753.160421	5679.926012
753.488356	5730.307303
753.816243	5766.696872
754.144082	5618.557525
754.471875	5585.396815
754.799620	5629.514473
755.127318	5641.721627
755.454969	5589.081899
755.782572	5558.943361
756.110129	5599.522128
756.437638	5597.341829
756.765100	5532.474782
757.092515	5522.573956
757.419882	5568.340071
757.747203	5555.686775
758.074477	5622.537516
758.401703	5614.801866
758.728882	5559.114760
759.056014	5605.672336
759.383099	5745.077884
759.710138	5752.596765
760.037129	5731.204629
760.364073	5739.139405
760.690970	5824.629812
761.017820	5813.483821
761.344623	5759.304020
761.671379	5851.980593
761.998088	5965.260361
762.324751	6190.965421
762.651366	6760.005826
762.977935	8014.360850
763.304456	9618.007341
763.630931	10548.914372
763.957359	10207.839985
764.283740	9289.253534
764.610074	8482.915935
764.936362	7503.104671
765.262602	6909.539052
765.588796	6366.430342
765.914943	6024.839237
766.241044	5869.861565
766.567097	5682.118914
766.893104	5422.222227
767.219064	5239.636676
767.544978	5179.770453
767.870845	5109.365699
768.196665	4997.555427
768.522438	4926.820477
768.848165	4894.373090
769.173846	4831.787165
769.499479	4793.343326
769.825066	4733.792176
770.150607	4674.054502
770.476101	4647.031397
770.801548	4649.030215
771.126949	4580.954473
771.452303	4526.371380
771.777611	4479.314729
772.102872	4498.665198
772.428087	4457.451245
772.753256	4425.439918
773.078378	4380.084657
773.403453	4311.819872
773.728482	4296.439312
774.053465	4251.898197
774.378401	4236.484869
774.703291	4242.476281
775.028135	4174.965148
775.352932	4122.282570
775.677683	4107.668265
776.002388	4130.129126
776.327046	4144.675375
776.651658	4068.062440
776.976224	4003.911237
777.300743	4012.642515
777.625216	4030.132798
777.949643	4028.935524
778.274024	3984.462465
778.598359	3934.333231
778.922647	3953.978608
779.246889	3950.598514
779.571086	3947.331846
779.895236	3934.368519
780.219339	3918.693051
780.543397	3909.886156
780.867409	3957.852734
781.191374	3981.543637
781.515294	3918.151127
781.839167	3912.053852
782.162995	3929.292077
782.486776	3917.652053
782.810511	3921.652209
783.134201	3925.980039
783.457844	3884.859347
783.781441	3826.238290
784.104993	3830.054443
784.428498	3850.700489
784.751958	3848.295858
785.075372	3824.693176
785.398739	3789.389976
785.722061	3799.212664
786.045337	3837.936287
786.368568	3877.360631
786.691752	3794.574803
787.014891	3830.293898
787.337983	3952.128504
787.661030	4104.356227
787.984031	4268.206330
788.306987	4442.438689
788.629897	4521.368035
788.952760	4477.013443
789.275579	4409.502310
789.598351	4351.060214
789.921078	4219.425605
790.243759	4020.476468
790.566395	3993.032427
790.888984	3993.113085
791.211529	3888.541910
791.534027	3830.480421
791.856480	3823.904236
792.178888	3763.475924
792.501249	3707.819065
792.823566	3714.798543
793.145836	3750.436980
793.468062	3701.419321
793.790241	3652.250427
794.112375	3680.581711
794.434464	3740.256370
794.756507	3763.087756
795.078505	3754.094337
795.400457	3779.053090
795.722364	3909.659304
796.044226	4014.172505
796.366042	4085.061211
796.687812	4079.122731
797.009538	4082.578442
797.331218	4035.035320
797.652852	4010.288296
797.974442	3984.941375
798.295986	3993.256758
798.617484	3915.040735
798.938938	3825.950944
799.260346	3864.205740
799.581709	3865.118189
799.903026	3793.609422
800.224299	3756.418309
800.545526	3752.587032
800.866708	3713.855847
801.187845	3648.530055
801.508936	3683.500539
801.829983	3688.922300
802.150984	3609.367851
802.471940	3593.808330
802.792851	3611.180146
803.113717	3606.935495
803.434538	3610.146710
803.755314	3558.404307
804.076045	3526.541694
804.396731	3542.103736
804.717372	3571.649938
805.037967	3561.318093
805.358518	3549.857030
805.679024	3575.821493
805.999485	3585.321547
806.319901	3587.978236
806.640272	3607.580762
806.960598	3620.160962
807.280879	3594.330089
807.601115	3603.474742
807.921306	3620.483596
808.241453	3662.970440
808.561554	3642.115187
808.881611	3575.009867
809.201623	3605.324846
809.521590	3619.664408
809.841513	3594.864452
810.161390	3623.926704
810.481223	3605.539095
810.801011	3550.903070
811.120755	3536.019063
811.440453	3571.438210
811.760107	3577.502718
812.079716	3538.075854
812.399281	3503.667458
812.718801	3526.667723
813.038276	3499.667302
813.357707	3497.754185
813.677093	3510.997296
813.996434	3469.513641
814.315731	3474.554795
814.634983	3473.644866
814.954191	3485.690703
815.273354	3516.512318
815.592473	3517.016433
815.911547	3520.320910
816.230577	3553.726116
816.549562	3603.973817
816.868502	3647.645332
817.187399	3675.031401
817.506250	3669.198786
817.825058	3637.961276
818.143821	3724.948906
818.462539	3830.145184
818.781213	3874.018346
819.099843	3928.011624
819.418429	4152.380779
819.736970	4390.023292
820.055466	4624.482316
820.373919	4983.851050
820.692327	5388.794336
821.010691	5786.082629
821.329011	7069.724236
821.647286	9659.770780
821.965517	14033.916958
822.283704	18035.952885
822.601847	20332.604275
822.919945	18604.960522
823.237999	16127.765249
823.556010	13684.965768
823.873976	11664.448621
824.191897	9605.590979
824.509775	8255.733816
824.827609	7136.262426
825.145398	6583.091573
825.463144	6470.837680
825.780845	6585.763385
826.098502	6747.166007
826.416116	7544.817698
826.733685	8831.549532
827.051210	9950.955388
827.368692	10074.919881
827.686129	8887.450887
828.003522	7387.984881
828.320872	6374.670108
828.638177	5692.607034
828.955439	5147.171832
829.272656	4654.900638
829.589830	4365.452708
829.906960	4193.894681
830.224046	4017.653422
830.541088	3891.513670
830.858086	3847.552288
831.175041	3773.908592
831.491952	3749.746342
831.808819	3761.401490
832.125642	3826.674350
832.442421	3965.376657
832.759157	4222.399885
833.075849	4740.196962
833.392497	5570.275874
833.709101	6338.623338
834.025662	6698.402926
834.342179	6381.185800
834.658653	5727.058280
834.975083	5098.509574
835.291469	4539.974934
835.607811	4124.034371
835.924110	3987.603104
836.240366	3796.129998
836.556578	3588.968822
836.872746	3481.723315
837.188871	3448.991103
837.504952	3381.399313
837.820990	3304.385605
838.136984	3251.942482
838.452935	3273.992489
838.768842	3271.232457
839.084706	3292.246507
839.400526	3437.572890
839.716303	3758.044081
840.032037	4254.098661
840.347727	4538.795304
840.663373	4295.045433
840.978977	3923.479627
841.294537	3616.150724
841.610054	3389.129922
841.925527	3280.987090
842.240957	3214.446380
842.556344	3159.394459
842.871687	3105.267590
843.186987	3056.943089
843.502244	3020.319107
843.817458	2985.472131
844.132629	2949.674897
844.447756	2961.355251
844.762840	2950.844445
845.077881	2919.458221
845.392879	2896.384860
845.707833	2898.988616
846.022745	2896.021897
846.337613	2899.883421
846.652438	2884.863303
846.967221	2884.608725
847.281960	2870.158257
847.596656	2864.774305
847.911309	2862.609129
848.225919	2858.004035
848.540485	2853.156966
848.855009	2854.076976
849.169490	2845.650688
849.483928	2835.462516
849.798323	2834.292968
850.112675	2829.481187
850.426984	2840.659945
850.741251	2840.228927
851.055474	2828.815754
851.369654	2824.137564
851.683792	2828.576300
851.997887	2834.373627
852.311938	2838.230109
852.625947	2831.038903
852.939914	2831.762309
853.253837	2835.795232
853.567718	2820.273519
853.881555	2818.483910
854.195350	2834.492094
854.509103	2831.046465
854.822812	2823.383911
855.136479	2820.238231
855.450103	2822.262254
855.763685	2814.261943
856.077224	2809.442600
856.390720	2822.743685
856.704173	2836.095181
857.017584	2828.518326
857.330953	2821.125474
857.644278	2834.784481
857.957561	2842.071468
858.270802	2844.720595
858.584000	2843.646829
858.897155	2832.889007
859.210268	2830.565035
859.523339	2826.854746
859.836367	2828.359530
860.149352	2823.444405
860.462295	2818.849393
860.775195	2826.948007
861.088054	2827.681495
861.400869	2812.248002
861.713642	2806.238947
862.026373	2820.891061
862.339062	2824.712255
862.651708	2826.653099
862.964312	2834.824810
863.276873	2826.955569
863.589392	2832.226095
863.901869	2847.485668
864.214303	2865.769933
864.526696	2884.245762
864.839045	2879.610421
865.151353	2875.214534
865.463619	2876.159751
865.775842	2877.588918
866.088023	2892.493089
866.400162	2904.244019
866.712258	2876.580687
867.024313	2863.851774
867.336325	2872.404091
867.648296	2891.056360
867.960224	2884.817932
868.272110	2874.952394
868.583954	2876.593290
868.895755	2891.847822
869.207515	2879.010523
869.519233	2880.991697
869.830909	2891.454612
870.142542	2900.074985
870.454134	2902.431724
870.765684	2903.500449
871.077191	2903.313926
871.388657	2910.253074
871.700081	2925.585744
872.011463	2932.971034
872.322803	2937.127465
872.634101	2934.662341
872.945357	2949.203549
873.256571	2974.588280
873.567744	2970.615850
873.878874	2960.137812
874.189963	2982.729743
874.501010	2989.366422
874.812015	2977.733960
875.122979	2975.730101
875.433900	2970.020994
875.744780	2975.714978
876.055618	2987.191164
876.366415	2979.359732
876.677169	2993.462360
876.987882	2991.418172
877.298554	2982.528097
877.609183	2998.763133
877.919771	3024.306659
878.230317	3050.747511
878.540822	3098.913216
878.851285	3136.752117
879.161707	3174.838034
879.472087	3266.478649
879.782425	3474.065803
880.092722	3886.038977
880.402977	4393.315165
880.713191	4987.717615
881.023363	6080.448205
881.333494	7325.156981
881.643583	7903.367245
881.953631	7623.653782
882.263637	7038.022940
882.573602	6485.104145
882.883526	5915.846971
883.193408	5351.756979
883.503248	4894.221856
883.813048	4601.350982
884.122806	4323.084331
884.432522	4016.657794
884.742197	3788.911066
885.051831	3599.446861
885.361424	3464.641366
885.670975	3392.552866
885.980485	3315.292142
886.289954	3241.983682
886.599382	3202.468598
886.908768	3163.253462
887.218113	3121.913480
887.527417	3064.325859
887.836680	3015.643437
888.145901	3008.910976
888.455082	3003.910151
888.764221	2954.743778
889.073319	2921.706576
889.382376	2921.439395
889.691392	2925.875610
890.000366	2923.531473
890.309300	2910.716860
890.618193	2922.886206
890.927044	2941.689710
891.235855	2943.761624
891.544625	2926.629263
891.853353	2935.317691
892.162041	2954.141360
892.470687	2990.147801
892.779293	3043.621840
893.087858	3087.096751
893.396381	3155.114519
893.704864	3262.970006
894.013306	3487.107268
894.321707	3775.925054
894.630068	3984.870798
894.938387	3988.762569
895.246665	3940.526289
895.554903	3829.308353
895.863100	3637.966317
896.171256	3473.579331
896.479371	3343.159640
896.787446	3229.040520
897.095480	3127.294912
897.403473	3064.179666
897.711425	3024.651978
898.019336	3015.950947
898.327207	2992.002946
898.635038	2958.476752
898.942827	2943.726336
899.250576	2933.911209
899.558284	2901.567166
899.865952	2882.264588
900.173579	2864.655838
900.481165	2857.691484
900.788711	2849.119002
901.096216	2821.208653
901.403681	2809.714822
901.711105	2814.067859
902.018489	2811.620379
902.325832	2810.884370
902.633135	2819.499702
902.940397	2850.938858
903.247619	2925.870569
903.554800	3101.083433
903.861941	3423.495468
904.169041	3832.282633
904.476101	4137.305208
904.783121	4113.556333
905.090100	3878.429356
905.397039	3616.619551
905.703938	3369.260214
906.010796	3190.115251
906.317614	3082.922676
906.624391	2994.526043
906.931129	2924.973243
907.237826	2867.078112
907.544483	2819.416523
907.851099	2788.869651
908.157675	2771.681837
908.464211	2753.326996
908.770707	2741.681931
909.077163	2726.336658
909.383578	2713.433825
909.689954	2699.096784
909.996289	2700.543595
910.302584	2699.714325
910.608839	2702.096270
910.915054	2696.838347
911.221229	2687.088755
911.527363	2690.909950
911.833458	2696.689633
912.139513	2701.327494
912.445527	2702.557536
912.751502	2712.140769
913.057436	2720.468755
913.363331	2734.921743
913.669186	2752.558220
913.975000	2783.238682
914.280775	2837.242043
914.586510	2906.298289
914.892205	2983.014568
915.197859	3100.067640
915.503475	3280.437604
915.809050	3486.199860
916.114585	3622.172382
916.420081	3652.565499
916.725536	3602.915174
917.030952	3488.612052
917.336328	3364.365254
917.641665	3239.047210
917.946961	3141.982314
918.252218	3076.656522
918.557435	3004.928464
918.862612	2945.301696
919.167750	2898.030797
919.472848	2860.506968
919.777906	2834.666013
920.082925	2811.839669
920.387904	2780.834052
920.692843	2764.833430
920.997743	2755.948396
921.302603	2743.199318
921.607423	2732.824623
921.912204	2721.164435
922.216946	2710.946016
922.521647	2704.243802
922.826310	2694.957996
923.130932	2688.870803
923.435516	2681.372087
923.740059	2673.283555
924.044564	2665.512617
924.349028	2659.468273
924.653454	2655.795793
924.957840	2648.476037
925.262186	2644.339771
925.566493	2639.447331
925.870761	2635.321146
926.174989	2632.518265
926.479178	2627.572893
926.783328	2623.086266
927.087438	2620.308590
927.391509	2619.502006
927.695541	2617.553600
927.999533	2614.753239
928.303486	2610.866509
928.607400	2610.062445
928.911275	2609.815428
929.215110	2609.429780
929.518906	2608.335850
929.822663	2609.023967
930.126381	2608.287959
930.430060	2605.714450
930.733699	2608.436673
931.037299	2610.702672
931.340861	2611.126128
931.644383	2611.794081
931.947866	2610.526231
932.251309	2608.938268
932.554714	2608.240068
932.858080	2607.829214
933.161407	2604.015581
933.464694	2604.895262
933.767943	2600.801845
934.071153	2600.968203
934.374323	2600.769078
934.677455	2603.065323
934.980548	2600.701022
935.283602	2599.022318
935.586617	2599.690271
935.889593	2601.280755
936.192530	2603.062803
936.495428	2604.401229
936.798287	2603.818976
937.101108	2605.434666
937.403890	2607.947681
937.706632	2615.728702
938.009336	2619.839763
938.312002	2627.570372
938.614628	2637.093112
938.917216	2643.334060
939.219765	2642.880357
939.522275	2641.241982
939.824747	2637.796353
940.127179	2638.149234
940.429573	2634.103708
940.731929	2631.898203
941.034246	2629.791001
941.336524	2628.185393
941.638763	2623.628190
941.940964	2620.832870
942.243126	2620.560648
942.545250	2619.968312
942.847335	2616.442025
943.149381	2612.691407
943.451389	2609.984307
943.753359	2606.495829
944.055290	2605.638832
944.357182	2601.812597
944.659036	2603.027515
944.960851	2603.662700
945.262628	2603.902155
945.564367	2601.883173
945.866067	2604.910386
946.167729	2603.761003
946.469352	2603.929881
946.770937	2602.412494
947.072484	2600.922833
947.373992	2600.499376
947.675462	2599.929726
947.976893	2595.019642
948.278286	2592.713314
948.579641	2594.449992
948.880958	2593.121647
949.182236	2594.777667
949.483476	2593.703901
949.784678	2592.302460
950.085841	2596.000146
950.386967	2593.986205
950.688054	2591.732810
950.989103	2596.456371
951.290114	2595.886720
951.591087	2599.712956
951.892021	2601.026177
952.192917	2601.754623
952.493776	2605.331322
952.794596	2608.499687
953.095378	2605.994234
953.396122	2603.950046
953.696828	2604.088678
953.997496	2599.614654
954.298126	2600.199428
954.598718	2597.630960
954.899272	2593.671133
955.199788	2592.342789
955.500266	2589.718869
955.800706	2590.021338
956.101108	2586.127047
956.401472	2584.904567
956.701798	2581.799216
957.002087	2580.450707
957.302337	2581.716037
957.602550	2578.784606
957.902724	2577.012640
958.202861	2578.731674
958.502960	2573.879563
958.803022	2575.732187
959.103045	2574.030798
959.403031	2571.913513
959.702979	2574.734039
960.002889	2571.583318
960.302762	2571.719429
960.602596	2571.091805
960.902393	2569.884449
961.202153	2572.813359
961.501875	2571.311095
961.801559	2570.416291
962.101205	2571.061558
962.400814	2570.484346
962.700385	2571.064079
962.999918	2566.058213
963.299414	2565.665003
963.598873	2565.750703
963.898293	2564.145095
964.197677	2564.908830
964.497022	2569.536609
964.796331	2566.204407
965.095601	2568.094839
965.394835	2567.973852
965.694030	2566.590055
965.993189	2564.848336
966.292309	2568.573749
966.591393	2568.586352
966.890439	2566.821948
967.189447	2567.820096
967.488419	2564.399673
967.787353	2565.760785
968.086249	2568.989644
968.385108	2568.480488
968.683930	2568.258677
968.982714	2566.375806
969.281462	2567.507545
969.580172	2569.352607
969.878844	2566.975703
970.177480	2567.610888
970.476078	2569.115673
970.774639	2565.493604
971.073162	2567.000909
971.371649	2569.569377
971.670098	2568.241033
971.968510	2568.059551
972.266885	2567.840261
972.565223	2571.416960
972.863524	2570.731363
973.161788	2566.355641
973.460014	2568.087277
973.758204	2568.283883
974.056356	2567.235322
974.354471	2566.907647
974.652550	2570.272618
974.950591	2569.342525
975.248595	2569.765982
975.546563	2568.999726
975.844493	2564.722307
976.142386	2566.290106
976.440243	2566.753892
976.738062	2569.019891
977.035845	2568.578790
977.333590	2567.767164
977.631299	2567.847823
977.928971	2565.639797
978.226606	2564.162739
978.524204	2562.983109
978.821765	2561.284240
979.119290	2566.849674
979.416777	2564.606361
979.714228	2563.479663
980.011642	2563.202399
980.309020	2565.304561
980.606360	2565.228943
980.903664	2565.387740
981.200931	2566.196845
981.498162	2567.787329
981.795356	2567.137020
982.092513	2570.905283
982.389633	2568.868656
982.686717	2574.943247
982.983764	2576.868967
983.280775	2582.908270
983.577749	2584.332396
983.874686	2580.964905
984.171587	2578.144379
984.468451	2575.223031
984.765279	2574.814697
985.062070	2573.473750
985.358824	2571.916034
985.655543	2571.608523
985.952224	2568.840930
986.248869	2568.006619
986.545478	2565.148285
986.842050	2564.003943
987.138586	2565.584345
987.435086	2565.279355
987.731549	2567.207596
988.027975	2564.029149
988.324366	2564.208110
988.620719	2561.894220
988.917037	2561.906823
989.213318	2564.941597
989.509563	2561.480845
989.805772	2563.910682
990.101944	2561.190979
990.398080	2563.373799
990.694180	2563.073850
990.990244	2562.095866
991.286271	2560.553273
991.582262	2559.174518
991.878217	2562.347924
992.174136	2562.625187
992.470019	2564.545867
992.765865	2561.317008
993.061676	2560.485218
993.357450	2559.038406
993.653188	2557.284085
993.948890	2561.833726
994.244556	2561.911864
994.540186	2562.234498
994.835780	2562.622667
995.131337	2563.981258
995.426859	2565.125600
995.722345	2563.767009
996.017795	2566.496793
996.313208	2569.085426
996.608586	2566.290106
996.903928	2565.662483
997.199234	2567.757082
997.494504	2568.041907
997.789738	2567.285734
998.084936	2566.862277
998.380099	2565.362534
998.675225	2563.920764
998.970316	2562.511761
999.265371	2564.099725
999.560390	2561.972358
999.855373	2562.683161
1000.150320	2564.485373
1000.445232	2560.117213
1000.740108	2559.968499
1001.034948	2561.874055
1001.329752	2563.338511
1001.624521	2562.481514
1001.919254	2563.565363
1002.213951	2564.394632
1002.508613	2561.168294
1002.803239	2560.878427
1003.097829	2560.959086
1003.392384	2560.641493
1003.686903	2562.723490
1003.981386	2560.505382
1004.275834	2559.434137
1004.570246	2559.804662
1004.864623	2559.255176
1005.158964	2559.214847
1005.453270	2560.376833
1005.747540	2562.431103
1006.041775	2558.574620
1006.335974	2559.378684
1006.630138	2558.241904
1006.924266	2560.719631
1007.218359	2558.962789
1007.512416	2558.441030
1007.806438	2557.946997
1008.100425	2559.764332
1008.394376	2555.161759
1008.688292	2559.582851
1008.982172	2560.631411
1009.276017	2560.951524
1009.569827	2559.159394
1009.863602	2560.394477
1010.157341	2562.090825
1010.451045	2562.342883
1010.744714	2560.717111
1011.038347	2562.151319
1011.331945	2558.849363
1011.625508	2559.633263
1011.919036	2563.555280
1012.212528	2561.138047
1012.505986	2556.757284
1012.799408	2560.059240
1013.092795	2558.163766
1013.386147	2560.954045
1013.679464	2558.998077
1013.972745	2561.856411
1014.265992	2561.863973
1014.559204	2559.242573
1014.852380	2559.971020
1015.145521	2558.861966
1015.438628	2558.536812
1015.731699	2561.412790
1016.024736	2560.144940
1016.317737	2561.516133
1016.610703	2557.145453
1016.903635	2562.078222
1017.196531	2560.523026
1017.489393	2560.906154
1017.782219	2559.177038
1018.075011	2558.057902
1018.367768	2557.042109
1018.660490	2560.911195
1018.953177	2560.911195
1019.245829	2560.911195
