Dividing Wavelength (nm)	Counts (n)	Blue Motor Position (mm): 0.000000	Red Motor Position (mm): 32.000000	
326.493990	2076.962946
326.888308	2076.962946
327.282561	2076.962946
327.676750	2057.680533
328.070874	2056.969730
328.464933	2064.972562
328.858929	2072.811556
329.252859	2085.583319
329.646726	2102.335074
330.040528	2114.436363
330.434265	2136.418315
330.827938	2153.543114
331.221547	2175.207473
331.615091	2194.930988
332.008571	2214.367156
332.401986	2236.732235
332.795338	2255.868455
333.188625	2276.459048
333.581847	2294.894548
333.975006	2315.971612
334.368100	2327.435196
334.761129	2347.667867
335.154095	2362.720752
335.546996	2387.371994
335.939833	2421.127561
336.332606	2438.663214
336.725315	2445.657815
337.117960	2452.889350
337.510540	2461.194651
337.903056	2474.324337
338.295508	2479.025213
338.687896	2487.466625
339.080220	2494.131030
339.472480	2496.923829
339.864676	2501.823831
340.256807	2505.125787
340.648875	2507.558143
341.040879	2507.931189
341.432818	2508.160561
341.824694	2509.627537
342.216506	2510.638288
342.608253	2508.107629
342.999937	2511.094513
343.391557	2505.708040
343.783113	2508.147958
344.174605	2503.706702
344.566033	2502.746362
344.957397	2501.639829
345.348697	2500.044303
345.739934	2498.862153
346.131106	2496.739827
346.522215	2495.711432
346.913260	2490.811430
347.304241	2493.095073
347.695159	2495.063643
348.086012	2489.581389
348.476802	2491.837305
348.867528	2486.004690
349.258191	2486.844042
349.648789	2488.517705
350.039324	2485.303970
350.429796	2485.382108
350.820203	2483.796665
351.210548	2484.494864
351.600828	2482.712817
351.991045	2482.959833
352.381198	2479.899853
352.771288	2480.396406
353.161314	2480.310707
353.551276	2482.193578
353.941175	2482.196098
354.331010	2480.225007
354.720782	2484.910760
355.110490	2484.499906
355.500135	2483.242138
355.889717	2486.009731
356.279235	2482.801037
356.668689	2485.682056
357.058080	2486.536532
357.447408	2483.463948
357.836672	2482.450677
358.225873	2484.056284
358.615010	2482.405306
359.004084	2488.399238
359.393095	2489.898981
359.782043	2490.297232
360.170927	2492.817809
360.559748	2492.845536
360.948505	2492.404435
361.337199	2495.081288
361.725830	2494.335197
362.114398	2496.449961
362.502903	2496.787718
362.891344	2498.345435
363.279722	2498.088336
363.668037	2498.345435
364.056289	2499.194869
364.444478	2501.909530
364.832603	2501.274345
365.220665	2501.566732
365.608665	2503.893224
365.996601	2501.473471
366.384474	2507.112001
366.772284	2506.335663
367.160031	2504.530930
367.547715	2508.004285
367.935336	2507.621158
368.322893	2508.762979
368.710388	2507.235509
369.097820	2514.126767
369.485189	2511.170130
369.872495	2514.799761
370.259738	2516.163393
370.646918	2516.622138
371.034035	2518.462159
371.421090	2522.283354
371.808081	2523.253776
372.195010	2531.571680
372.581875	2530.616381
372.968678	2540.383617
373.355418	2545.782692
373.742096	2554.516491
374.128710	2565.541495
374.515262	2575.976683
374.901751	2589.202150
375.288177	2602.306630
375.674540	2619.189454
376.060841	2636.679737
376.447079	2658.800320
376.833254	2685.848631
377.219367	2705.418391
377.605417	2737.147413
377.991404	2762.554828
378.377329	2800.489511
378.763191	2830.154181
379.148991	2875.113711
379.534727	2918.911256
379.920402	2964.420272
380.306013	3010.801408
380.691563	3070.009760
381.077049	3121.099334
381.462474	3173.003054
381.847835	3242.732294
382.233134	3310.838282
382.618371	3364.836602
383.003545	3447.516566
383.388657	3522.357536
383.773706	3608.609158
384.158693	3679.477698
384.543618	3767.586985
384.928480	3843.221937
385.313280	3939.938994
385.698017	4039.665620
386.082692	4152.305162
386.467305	4212.040314
386.851856	4332.286957
387.236344	4475.281806
387.620770	4536.423441
388.005133	4649.864526
388.389435	4785.501811
388.773674	4867.546590
389.157851	4995.954861
389.541965	5121.454386
389.926018	5147.025639
390.310008	5311.342048
390.693936	5428.500984
391.077802	5544.727307
391.461606	5668.467469
391.845348	5776.771618
392.229027	5897.356018
392.612645	6111.055571
392.996200	6222.384412
393.379694	6390.385906
393.763125	6604.098061
394.146494	6698.657504
394.529801	6822.737945
394.913047	7054.948614
395.296230	7056.584469
395.679351	7109.206553
396.062410	7357.120417
396.445408	7262.286231
396.828343	7409.460197
397.211217	7542.564302
397.594028	7430.756551
397.976778	7633.264742
398.359466	7799.932850
398.742092	7781.613297
399.124656	7917.021210
399.507158	8110.304090
399.889598	8130.841750
400.271977	8337.466044
400.654294	8367.604582
401.036549	8566.236126
401.418742	8595.560518
401.800874	8887.871823
402.182944	8972.359041
402.564952	9330.394390
402.946898	9163.141509
403.328783	9219.342812
403.710606	9410.952029
404.092367	9661.784721
404.474067	10015.794708
404.855705	9822.821860
405.237282	9783.682341
405.618797	10195.234580
406.000250	10434.790210
406.381642	10789.684921
406.762972	10742.287992
407.144240	10566.462628
407.525447	10810.925822
407.906593	10757.814746
408.287677	11021.719150
408.668700	11162.997486
409.049661	11155.392906
409.430560	11319.048924
409.811399	11292.439194
410.192176	11449.272010
410.572891	11523.893690
410.953545	11993.484733
411.334138	11487.143679
411.714669	12062.440156
412.095139	11427.590008
412.475547	11893.551419
412.855894	11760.376738
413.236180	12078.687794
413.616405	11775.820312
413.996568	12056.534444
414.376670	12034.174406
414.756711	11922.364134
415.136691	12187.163343
415.516609	12355.396729
415.896466	12447.574227
416.276262	12731.358421
416.655997	13188.354141
417.035670	13232.068506
417.415283	13842.834542
417.794834	13930.197738
418.174324	13681.641127
418.553753	13598.593158
418.933121	14078.412702
419.312428	13912.190736
419.691674	13822.765708
420.070859	14292.936483
420.449983	13948.786993
420.829045	14500.798380
421.208047	14253.376029
421.586988	14698.615778
421.965867	14941.460761
422.344686	14957.778976
422.723444	15520.497774
423.102141	14220.094331
423.480777	15408.173305
423.859352	14913.537810
424.237866	16011.982548
424.616319	15732.894189
424.994712	16375.827827
425.373044	16171.885427
425.751314	16854.389602
426.129524	15987.855586
426.507673	17052.345632
426.885762	16790.926517
427.263789	16970.137015
427.641756	17153.027556
428.019662	17209.463274
428.397508	17264.915966
428.775292	17545.950211
429.153016	17530.736008
429.530679	17600.167820
429.908282	17629.038508
430.285824	17370.581071
430.663305	18074.414368
431.040726	17693.943364
431.418086	17526.088064
431.795385	18168.915838
432.172624	18606.677035
432.549802	18167.693358
432.926920	18389.630157
433.303977	18262.005785
433.680974	18518.797121
434.057910	18816.207554
434.434786	18864.612713
434.811601	18791.095046
435.188355	19825.940587
435.565050	19501.413788
435.941683	19461.339135
436.318257	20348.395689
436.694770	20151.213477
437.071222	20749.237996
437.447614	19827.301698
437.823946	19847.219297
438.200218	20028.771412
438.576429	19797.919333
438.952580	20120.459918
439.328670	20074.217414
439.704700	20497.016466
440.080670	20064.175435
440.456580	20683.206443
440.832429	20852.644664
441.208218	19862.199086
441.583947	20310.579474
441.959616	20426.773029
442.335224	20680.592604
442.710773	20815.803912
443.086261	21361.234073
443.461689	20698.957528
443.837057	20867.586644
444.212365	21519.186026
444.587612	21513.250067
444.962800	21130.218157
445.337927	21552.727343
445.712995	20261.783625
446.088002	22159.417606
446.462949	22363.722968
446.837837	22546.749620
447.212664	22567.476324
447.587431	25518.613156
447.962139	28476.575710
448.336786	30784.980550
448.711374	29134.917635
449.085901	25409.668780
449.460369	25415.750932
449.834776	25403.321968
450.209124	27959.449108
450.583412	27454.373383
450.957640	27939.002188
451.331808	26588.101506
451.705917	25211.541352
452.079965	25271.838593
452.453954	25640.319213
452.827883	25552.580451
453.201752	25349.439595
453.575562	25512.258782
453.949311	26649.439746
454.323001	26708.262449
454.696632	26495.145150
455.070202	28106.058464
455.443713	28273.218085
455.817164	28867.466780
456.190556	29424.400854
456.563888	28839.856380
456.937160	29267.656257
457.310373	27569.702380
457.683526	28008.915430
458.056619	28002.876128
458.429653	27977.264545
458.802628	28599.842004
459.175542	28738.927439
459.548398	30115.220412
459.921194	31716.663919
460.293930	32456.148256
460.666607	34550.530910
461.039224	36334.902766
461.411782	36685.441919
461.784280	35415.396305
462.156719	34850.535016
462.529099	34292.519615
462.901419	32947.738894
463.273680	31893.663872
463.645882	32028.718904
464.018024	32034.919523
464.390106	32969.257059
464.762130	35866.612341
465.134094	40191.735819
465.505999	45668.364699
465.877845	50200.835875
466.249631	51203.523895
466.621358	49350.456235
466.993026	47109.383567
467.364634	44981.557899
467.736184	43017.811706
468.107674	41741.981367
468.479105	40951.944339
468.850477	40219.658770
469.221790	38774.934654
469.593043	36999.500763
469.964238	36118.138192
470.335373	36033.547630
470.706449	37901.363186
471.077467	40655.854689
471.448425	45305.381457
471.819324	48058.776509
472.190164	46065.784062
472.560945	42446.064201
472.931667	39286.183271
473.302330	38196.003505
473.672934	37356.485031
474.043479	37874.445945
474.413965	37093.377130
474.784393	36714.751188
475.154761	37648.158631
475.525070	37680.243055
475.895321	37207.201343
476.265513	37824.195723
476.635645	38818.641458
477.005719	38651.539810
477.375734	39157.868262
477.745691	39866.268844
478.115588	41250.211768
478.485427	43360.973131
478.855207	46833.473655
479.224928	49468.431838
479.594591	51002.646518
479.964194	49898.477549
480.333739	50037.898221
480.703226	50105.928592
481.072653	50771.484408
481.442022	51233.110427
481.811333	51417.808222
482.180584	50124.159925
482.549777	49594.871538
482.918912	49054.767357
483.287988	48735.158203
483.657005	47899.476047
484.025964	47199.053091
484.394864	47185.557922
484.763706	46751.902745
485.132489	45865.110851
485.501213	45678.212593
485.869879	45815.009343
486.238487	45384.300721
486.607036	45562.419809
486.975527	45004.152350
487.343959	45197.649479
487.712333	45259.005362
488.080648	45115.183764
488.448905	45560.035344
488.817104	45335.109141
489.185244	46334.056626
489.553326	48061.292045
489.921350	50782.607714
490.289315	53616.709118
490.657222	54115.007011
491.025070	54314.324152
491.392861	53354.611968
491.760593	52051.566960
492.128267	50303.199024
492.495883	48710.154080
492.863440	47259.930065
493.230939	45855.315889
493.598380	44747.716416
493.965763	44364.941604
494.333088	43501.860778
494.700354	42972.098523
495.067563	42617.654996
495.434713	42409.818305
495.801805	42457.048876
496.168839	41996.617610
496.535815	41605.315686
496.902733	41570.481313
497.269593	41093.225196
497.636395	40949.829575
498.003139	41273.688422
498.369825	40675.280775
498.736453	40887.301623
499.103023	40359.492816
499.469535	40171.777891
499.835989	40155.910859
500.202385	39731.228935
500.568723	39663.806023
500.935003	39750.007233
501.301226	39448.483219
501.667390	39947.116349
502.033497	40090.421229
502.399546	39426.402965
502.765537	38660.702108
503.131470	38897.585927
503.497345	39148.902569
503.863163	37738.854030
504.228923	38231.331911
504.594625	38495.475770
504.960269	37680.316152
505.325856	38196.900830
505.691385	37479.582447
506.056856	37473.185222
506.422270	37747.113961
506.787625	37199.387554
507.152924	37242.368432
507.518164	37186.653599
507.883347	36323.761816
508.248472	36393.561632
508.613540	36698.506070
508.978550	36795.084495
509.343503	36419.929388
509.708398	36435.032684
510.073236	36743.573985
510.438016	36577.614159
510.802738	35923.905055
511.167403	36310.974929
511.532010	36316.114386
511.896561	36401.524135
512.261053	36938.964067
512.625488	36364.290172
512.989866	36069.934679
513.354186	35742.058033
513.718449	35550.106018
514.082655	35929.750273
514.446803	35436.009583
514.810894	35673.147980
515.174927	35406.102937
515.538904	35124.819156
515.902822	35453.600689
516.266684	34783.333915
516.630488	34924.314823
516.994235	34584.276393
517.357925	34838.267368
517.721558	34744.925364
518.085133	34755.746200
518.448651	34617.908451
518.812112	34202.388825
519.175516	34058.778955
519.538863	34065.546704
519.902152	33819.987059
520.265385	33921.604117
520.628560	33709.941191
520.991678	33282.779020
521.354739	33215.512383
521.717743	33203.476629
522.080690	32870.420197
522.443580	33019.466952
522.806413	32789.734009
523.169189	32507.298324
523.531908	32364.681561
523.894569	32004.526407
524.257174	31842.901973
524.619722	31788.389456
524.982213	31525.513447
525.344647	31191.282427
525.707025	30963.886059
526.069345	30955.880707
526.431608	30630.696037
526.793815	30585.917988
527.155964	29998.169861
527.518057	29835.169192
527.880093	29418.263249
528.242072	29478.263062
528.603995	29012.326856
528.965860	28734.705473
529.327669	28513.706329
529.689421	28191.407720
530.051117	27895.862514
530.412755	27702.254480
530.774337	27470.885683
531.135862	27071.522954
531.497331	26897.610708
531.858743	26582.238644
532.220098	26510.039239
532.581396	26052.403293
532.942638	25597.141730
533.303824	25502.642781
533.664953	25211.629572
534.026025	24793.617095
534.387040	24773.112202
534.747999	24477.884589
535.108902	24299.815911
535.469748	23767.243213
535.830537	23569.211567
536.191270	23398.326534
536.551947	22955.972845
536.912567	22845.453109
537.273131	22649.911792
537.633638	22141.576962
537.994089	22034.782638
538.354483	21591.551789
538.714821	21597.517995
539.075103	21487.686376
539.435328	21129.406531
539.795497	20818.763069
540.155609	20565.422403
540.515665	20508.071717
540.875665	20025.837460
541.235609	19915.292518
541.595496	19652.671088
541.955328	19674.514408
542.315102	19173.211987
542.674821	18837.526593
543.034483	18618.251525
543.394090	18363.222072
543.753640	18105.878730
544.113134	18235.794306
544.472571	17624.929968
544.831953	17837.598605
545.191278	17316.756672
545.550548	16984.436248
545.909761	16915.397646
546.268918	16749.092502
546.628019	16625.793440
546.987064	16266.507885
547.346053	15812.025181
547.704986	15861.937645
548.063863	15519.877712
548.422684	15352.917217
548.781449	15094.870634
549.140158	15015.714437
549.498811	14764.019707
549.857408	14395.594540
550.215949	14427.159725
550.574434	14209.500346
550.932864	13953.460142
551.291237	13941.953709
551.649555	13655.795131
552.007817	13523.963917
552.366022	13247.501999
552.724173	13101.802570
553.082267	13007.598528
553.440305	12888.667627
553.798288	12532.205118
554.156215	12430.890528
554.514086	12301.161475
554.871902	12061.280690
555.229661	11898.199363
555.587365	11694.146058
555.945014	11548.945704
556.302606	11375.686288
556.660143	11258.539955
557.017625	11117.743048
557.375050	10915.625547
557.732421	10825.436784
558.089735	10661.793368
558.446994	10497.666002
558.804197	10432.567062
559.161345	10273.175859
559.518437	9993.326286
559.875474	9901.229446
560.232455	9792.464031
560.589381	9679.892545
560.946251	9491.711313
561.303065	9459.478176
561.659825	9293.026837
562.016528	9117.894632
562.373177	8943.929454
562.729770	8884.156493
563.086307	8697.827885
563.442789	8639.786560
563.799216	8523.192234
564.155587	8377.749904
564.511904	8261.115248
564.868164	8154.169690
565.224370	8075.958708
565.580520	7930.347500
565.936615	7850.374636
566.292654	7705.960701
566.648638	7638.515104
567.004567	7529.497632
567.360441	7434.746624
567.716260	7320.072977
568.072023	7252.070332
568.427732	7151.769015
568.783385	7017.155084
569.138982	6961.684747
569.494525	6877.563013
569.850013	6761.064468
570.205445	6682.740061
570.560823	6594.794612
570.916145	6508.117013
571.271412	6428.081133
571.626625	6328.359549
571.981782	6261.244147
572.336884	6160.602552
572.691931	6110.317042
573.046923	6008.699983
573.401860	5927.673518
573.756743	5856.580645
574.111570	5795.287776
574.466342	5716.875149
574.821059	5655.017671
575.175722	5564.995266
575.530330	5504.579557
575.884882	5421.481177
576.239380	5360.069841
576.593823	5305.365760
576.948211	5243.364609
577.302544	5155.126773
577.656823	5103.704483
578.011047	5064.522115
578.365216	4999.372763
578.719330	4938.170635
579.073389	4876.590420
579.427394	4840.631870
579.781344	4787.283859
580.135239	4727.634406
580.489080	4688.673849
580.842866	4621.071976
581.196597	4597.877627
581.550273	4558.564188
581.903895	4512.563660
582.257463	4494.256709
582.610975	4427.905043
582.964434	4403.984768
583.317837	4352.595245
583.671186	4306.133451
584.024481	4283.158392
584.377721	4229.555803
584.730906	4200.569169
585.084037	4169.941638
585.437113	4127.268271
585.790135	4095.622428
586.143103	4046.536713
586.496016	4024.274978
586.848874	3994.184330
587.201679	3969.933860
587.554428	3928.399793
587.907124	3903.975403
588.259765	3872.132954
588.612352	3859.169627
588.964884	3814.956187
589.317362	3802.444044
589.669786	3773.931278
590.022155	3746.792226
590.374470	3733.965010
590.726731	3701.454609
591.078937	3666.572345
591.431090	3648.940909
591.783188	3616.407823
592.135232	3592.472424
592.487222	3580.310641
592.839157	3566.951583
593.191038	3536.538302
593.542866	3520.671270
593.894639	3493.769153
594.246358	3480.833552
594.598022	3464.497693
594.949633	3445.132100
595.301190	3427.009152
595.652692	3415.777461
596.004141	3403.013260
596.355535	3372.294989
596.706876	3355.661702
597.058162	3343.489836
597.409395	3338.289886
597.760573	3329.961899
598.111698	3309.976245
598.462768	3301.733958
598.813785	3292.448153
599.164748	3272.782612
599.515657	3267.935542
599.866511	3251.851741
600.217312	3250.167996
600.568060	3226.880386
600.918753	3232.728124
601.269392	3220.921742
601.619978	3211.512428
601.970510	3208.139896
602.320988	3202.599668
602.671412	3201.803166
603.021783	3191.015097
603.372100	3176.388189
603.722363	3169.469205
604.072572	3164.526354
604.422728	3159.623832
604.772830	3147.653612
605.122878	3142.526758
605.472872	3136.777322
605.822813	3135.391005
606.172701	3127.050416
606.522534	3127.488996
606.872314	3129.548308
607.222041	3118.414919
607.571714	3117.540279
607.921333	3105.098712
608.270899	3103.546036
608.620411	3102.565532
608.969870	3093.879624
609.319276	3088.349478
609.668627	3090.043306
610.017926	3089.035075
610.367171	3084.550968
610.716362	3080.981832
611.065500	3078.025195
611.414585	3073.576377
611.763616	3076.981676
612.112594	3072.076633
612.461518	3065.901220
612.810389	3069.130079
613.159207	3062.863925
613.507971	3057.961402
613.856682	3057.434602
614.205340	3053.449570
614.553945	3060.847463
614.902496	3048.990669
615.250994	3051.075186
615.599439	3043.435318
615.947830	3043.679814
616.296169	3041.517159
616.644454	3041.769216
616.992686	3036.844009
617.340864	3040.214020
617.688990	3033.040458
618.037063	3035.044317
618.385082	3031.480221
618.733048	3033.534492
619.080961	3029.017618
619.428821	3026.247504
619.776628	3024.243645
620.124382	3019.482275
620.472083	3014.834331
620.819731	3017.148221
621.167326	3009.488188
621.514868	3005.001561
621.862357	2998.062412
622.209793	2995.047803
622.557176	2991.435816
622.904506	2980.113384
623.251783	2971.916468
623.599007	2968.077629
623.946179	2964.682412
624.293297	2959.966413
624.640363	2955.063891
624.987376	2954.400979
625.334336	2949.047274
625.681243	2943.227262
626.028097	2937.790377
626.374899	2937.208124
626.721647	2931.161260
627.068343	2930.745365
627.414987	2924.161618
627.761577	2920.302614
628.108115	2922.150197
628.454600	2916.874630
628.801032	2914.424629
629.147412	2914.359094
629.493739	2913.005544
629.840014	2905.733680
630.186236	2907.535892
630.532405	2902.033473
630.878521	2900.894172
631.224585	2898.877711
631.570597	2891.041237
631.916556	2895.041393
632.262462	2892.142729
632.608316	2887.882954
632.954117	2889.387738
633.299866	2886.675598
633.645562	2885.783313
633.991206	2878.662684
634.336797	2872.572970
634.682336	2871.650439
635.027823	2866.284130
635.373257	2865.734645
635.718639	2860.779190
636.063968	2857.797348
636.409245	2849.613035
636.754470	2851.258971
637.099642	2850.013806
637.444762	2841.461489
637.789829	2841.640450
638.134845	2839.891169
638.479808	2839.954184
638.824719	2835.868329
639.169577	2832.147957
639.514383	2829.856753
639.859137	2829.216526
640.203839	2831.023780
640.548489	2822.741164
640.893086	2822.151349
641.237632	2816.550627
641.582125	2819.030875
641.926566	2815.905359
642.270955	2819.187151
642.615292	2818.652788
642.959576	2816.081800
643.303809	2816.827891
643.647990	2815.285297
643.992118	2816.623724
644.336195	2810.914617
644.680219	2814.183805
645.024192	2813.583908
645.368112	2817.420226
645.711981	2818.206646
646.055797	2822.748726
646.399562	2820.641523
646.743274	2826.388439
647.086935	2832.029490
647.430544	2825.372646
647.774101	2826.821978
648.117606	2827.883141
648.461059	2827.762153
648.804460	2829.776094
649.147810	2819.466935
649.491108	2818.892243
649.834354	2814.970225
650.177548	2806.909420
650.520690	2803.733493
650.863781	2804.746765
651.206820	2805.770120
651.549807	2798.417597
651.892742	2794.805610
652.235626	2793.129426
652.578458	2789.068777
652.921238	2786.616256
653.263967	2791.049950
653.606644	2786.099537
653.949269	2784.219187
654.291843	2781.028137
654.634365	2783.301697
654.976836	2780.884464
655.319255	2778.825152
655.661622	2778.666356
656.003938	2776.450769
656.346203	2774.953546
656.688416	2778.384051
657.030577	2774.018412
657.372687	2774.126797
657.714746	2772.226282
658.056753	2775.422373
658.398708	2768.153030
658.740612	2769.937598
659.082465	2767.525406
659.424266	2770.028339
659.766016	2769.365427
660.107715	2771.709564
660.449362	2771.114707
660.790958	2767.202772
661.132503	2767.774943
661.473996	2768.054727
661.815438	2765.370313
662.156829	2769.599841
662.498168	2767.837957
662.839456	2770.406425
663.180693	2766.527257
663.521879	2765.655138
663.863013	2770.103956
664.204097	2767.331322
664.545129	2769.385592
664.886110	2769.020108
665.227040	2770.756786
665.567918	2770.877773
665.908746	2769.665376
666.249522	2770.134203
666.590248	2768.941970
666.930922	2771.354162
667.271545	2771.104625
667.612118	2772.533792
667.952639	2770.277876
668.293109	2770.265273
668.633528	2765.871907
668.973896	2764.442740
669.314213	2769.027670
669.654480	2763.782349
669.994695	2764.795621
670.334859	2764.891403
670.674973	2763.447112
671.015035	2766.060951
671.355047	2763.227822
671.695008	2763.532812
672.034918	2761.302102
672.374777	2759.305805
672.714585	2761.339910
673.054342	2763.142123
673.394049	2759.779673
673.733705	2763.053902
674.073310	2760.112389
674.412864	2760.369488
674.752368	2757.175917
675.091820	2758.506782
675.431223	2754.236924
675.770574	2755.345978
676.109875	2747.431367
676.449125	2750.214084
676.788324	2748.863054
677.127473	2745.248547
677.466571	2741.802918
677.805619	2742.107908
678.144616	2744.356263
678.483562	2741.097157
678.822458	2740.547671
679.161303	2739.433576
679.500098	2740.204873
679.838842	2736.494583
680.177535	2738.662280
680.516179	2739.005078
680.854771	2740.875346
681.193314	2743.632857
681.531805	2753.100144
681.870247	2758.695825
682.208638	2760.727410
682.546978	2763.870569
682.885268	2764.697319
683.223508	2762.143974
683.561697	2760.031731
683.899836	2758.216915
684.237925	2754.557038
684.575963	2753.261461
684.913951	2749.946902
685.251889	2752.359095
685.589776	2750.398086
685.927614	2752.500247
686.265401	2752.049064
686.603137	2751.610483
686.940824	2754.597367
687.278460	2758.196751
687.616046	2756.785228
687.953582	2763.363933
688.291068	2759.038623
688.628504	2765.647576
688.965889	2762.950559
689.303224	2760.777822
689.640510	2757.985022
689.977745	2752.654002
690.314930	2748.661408
690.652065	2746.844072
690.989150	2739.637743
691.326185	2732.554922
691.663170	2731.599623
692.000105	2723.775752
692.336990	2720.637634
692.673825	2717.111347
693.010610	2715.467931
693.347345	2705.589790
693.684030	2703.291024
694.020665	2699.893286
694.357251	2695.015970
694.693786	2697.221474
695.030272	2693.244004
695.366707	2693.322142
695.703093	2690.983047
696.039429	2690.569672
696.375716	2686.491378
696.711952	2688.785103
697.048139	2688.381811
697.384276	2686.635051
697.720363	2687.537418
698.056400	2686.758560
698.392388	2684.046419
698.728326	2683.108764
699.064214	2683.905267
699.400053	2681.397292
699.735842	2678.975018
700.071581	2678.743125
700.407270	2676.499812
700.742910	2675.768844
701.078501	2673.265911
701.414042	2670.039573
701.749533	2667.226609
702.084974	2666.966990
702.420366	2668.000426
702.755709	2664.451454
703.091002	2662.790394
703.426246	2661.797286
703.761440	2661.719148
704.096584	2661.320897
704.431679	2659.647234
704.766725	2658.843170
705.101721	2657.270330
705.436668	2659.934580
705.771565	2658.752429
706.106413	2656.927532
706.441212	2656.919970
706.775961	2662.598830
707.110661	2661.270486
707.445311	2664.138902
707.779913	2662.165291
708.114465	2666.145282
708.448967	2664.438851
708.783421	2670.205931
709.117825	2673.104594
709.452180	2675.110974
709.786485	2677.071982
710.120742	2682.173630
710.454949	2681.921572
710.789107	2682.380317
711.123216	2687.222346
711.457275	2691.464477
711.791286	2693.803572
712.125247	2695.305836
712.459159	2692.654189
712.793023	2700.223482
713.126837	2692.031607
713.460602	2695.358768
713.794318	2691.507327
714.127985	2691.235104
714.461602	2681.603980
714.795171	2684.122036
715.128691	2674.362362
715.462162	2670.410098
715.795584	2667.564366
716.128957	2666.714932
716.462281	2665.038748
716.795556	2661.013387
717.128782	2658.976761
717.461960	2654.893426
717.795088	2654.958961
718.128167	2651.248672
718.461198	2647.989566
718.794180	2650.598363
719.127113	2647.114926
719.459997	2646.351191
719.792833	2640.909265
720.125619	2642.610655
720.458357	2640.145531
720.791046	2638.915489
721.123686	2636.266363
721.456278	2635.726959
721.788821	2634.317957
722.121315	2635.051445
722.453761	2637.456075
722.786158	2636.410036
723.118506	2631.953656
723.450805	2632.808131
723.783056	2631.802421
724.115259	2634.343162
724.447412	2632.868625
724.779518	2634.081022
725.111574	2635.389202
725.443582	2638.474388
725.775542	2638.260139
726.107453	2639.175108
726.439315	2638.731487
726.771129	2645.370687
727.102895	2647.215749
727.434612	2648.125677
727.766281	2647.795482
728.097901	2648.019813
728.429473	2647.258599
728.760996	2649.990904
729.092471	2649.373363
729.423897	2650.658857
729.755276	2651.959475
730.086606	2653.749084
730.417887	2654.986687
730.749120	2658.946514
731.080305	2663.942297
731.411442	2663.256700
731.742530	2665.500014
732.073570	2667.002278
732.404562	2667.892041
732.735506	2666.714932
733.066401	2663.685198
733.397249	2660.675630
733.728048	2653.870072
734.058798	2649.799340
734.389501	2647.140132
734.720156	2641.698206
735.050762	2637.325005
735.381320	2635.421969
735.711831	2634.401136
736.042293	2629.498614
736.372707	2627.809827
736.703073	2629.654889
737.033391	2630.990795
737.363661	2629.017183
737.693883	2630.385857
738.024056	2633.841568
738.354182	2634.330560
738.684260	2635.064047
739.014290	2638.615540
739.344272	2640.329533
739.674207	2641.486478
740.004093	2643.349184
740.333931	2643.717188
740.663722	2644.995121
740.993464	2643.142497
741.323159	2641.708288
741.652806	2639.003709
741.982405	2639.207876
742.311956	2636.863739
742.641460	2634.489356
742.970915	2632.210754
743.300323	2631.963738
743.629683	2629.455764
743.958996	2629.170939
744.288260	2621.581482
744.617477	2620.449742
744.946647	2618.319855
745.275768	2616.482354
745.604842	2616.570575
745.933869	2614.801130
746.262847	2613.147631
746.591778	2617.039402
746.920662	2616.081583
747.249498	2614.564195
747.578286	2614.932200
747.907027	2618.864300
748.235720	2620.386728
748.564365	2619.970833
748.892963	2619.340689
749.221514	2621.488220
749.550017	2619.514608
749.878473	2620.122067
750.206881	2616.021089
750.535242	2619.257510
750.863555	2616.371449
751.191821	2613.324072
751.520039	2614.501181
751.848210	2613.664349
752.176334	2613.820625
752.504411	2617.253651
752.832440	2609.797784
753.160421	2612.330964
753.488356	2613.634102
753.816243	2611.781478
754.144082	2609.795264
754.471875	2611.635285
754.799620	2608.287959
755.127318	2609.346601
755.454969	2608.161930
755.782572	2609.086982
756.110129	2611.163937
756.437638	2610.644698
756.765100	2607.766199
757.092515	2609.296190
757.419882	2609.717126
757.747203	2609.896087
758.074477	2611.741149
758.401703	2610.022116
758.728882	2611.179061
759.056014	2612.109153
759.383099	2613.588732
759.710138	2616.615945
760.037129	2614.927158
760.364073	2618.937396
760.690970	2616.368928
761.017820	2614.612086
761.344623	2620.613580
761.671379	2624.336472
761.998088	2625.816051
762.324751	2639.472537
762.651366	2667.647545
762.977935	2701.042669
763.304456	2719.125288
763.630931	2728.562328
763.957359	2717.423898
764.283740	2704.510983
764.610074	2685.185720
764.936362	2667.392967
765.262602	2653.587767
765.588796	2635.749644
765.914943	2625.939559
766.241044	2619.701131
766.567097	2609.918772
766.893104	2606.072372
767.219064	2605.207814
767.544978	2599.748244
767.870845	2594.107193
768.196665	2593.635845
768.522438	2590.142326
768.848165	2589.537387
769.173846	2587.954465
769.499479	2587.185689
769.825066	2584.259299
770.150607	2585.449011
770.476101	2581.043043
770.801548	2585.388518
771.126949	2579.434915
771.452303	2580.581777
771.777611	2577.000038
772.102872	2579.056828
772.428087	2578.683783
772.753256	2576.884091
773.078378	2575.570870
773.403453	2572.783112
773.728482	2569.889490
774.053465	2572.001733
774.378401	2570.771692
774.703291	2570.098698
775.028135	2566.806824
775.352932	2569.564336
775.677683	2566.675754
776.002388	2567.220199
776.327046	2564.475291
776.651658	2564.976886
776.976224	2563.270455
777.300743	2566.743810
777.625216	2564.417317
777.949643	2563.245249
778.274024	2566.516958
778.598359	2563.131823
778.922647	2559.066133
779.246889	2561.702656
779.571086	2556.512788
779.895236	2561.531257
780.219339	2563.928326
780.543397	2560.056719
780.867409	2564.649211
781.191374	2562.337842
781.515294	2564.223233
781.839167	2562.501679
782.162995	2560.671740
782.486776	2562.259704
782.810511	2560.795248
783.134201	2562.242060
783.457844	2559.900444
783.781441	2560.376833
784.104993	2559.855073
784.428498	2560.482697
784.751958	2559.338355
785.075372	2560.276010
785.398739	2560.235680
785.722061	2561.410269
786.045337	2561.057388
786.368568	2560.396997
786.691752	2562.438665
787.014891	2566.441341
787.337983	2571.636250
787.661030	2574.930644
787.984031	2580.634709
788.306987	2582.736871
788.629897	2581.552199
788.952760	2584.539083
789.275579	2584.879361
789.598351	2581.642940
789.921078	2574.716395
790.243759	2569.544171
790.566395	2570.277659
790.888984	2569.496280
791.211529	2563.998902
791.534027	2563.676268
791.856480	2563.068809
792.178888	2563.595609
792.501249	2560.749878
792.823566	2559.524878
793.145836	2559.419013
793.468062	2560.497820
793.790241	2559.681153
794.112375	2559.802141
794.434464	2559.441699
794.756507	2563.169632
795.078505	2560.843139
795.400457	2562.484035
795.722364	2564.699622
796.044226	2567.063923
796.366042	2571.754717
796.687812	2570.489387
797.009538	2572.941909
797.331218	2573.922413
797.652852	2572.659604
797.974442	2569.801270
798.295986	2570.131465
798.617484	2564.477811
798.938938	2566.234653
799.260346	2563.961093
799.581709	2561.382543
799.903026	2564.651731
800.224299	2560.616287
800.545526	2559.892882
800.866708	2559.378684
801.187845	2561.107800
801.508936	2558.766184
801.829983	2555.930535
802.150984	2557.536142
802.471940	2555.111348
802.792851	2554.667726
803.113717	2555.985988
803.434538	2555.118909
803.755314	2555.570092
804.076045	2553.783003
804.396731	2556.379198
804.717372	2554.259392
805.037967	2554.856769
805.358518	2553.465411
805.679024	2556.873231
805.999485	2557.420196
806.319901	2555.607901
806.640272	2557.936914
806.960598	2557.266441
807.280879	2558.166287
807.601115	2557.344579
807.921306	2558.163766
808.241453	2558.398180
808.561554	2557.773077
808.881611	2558.239383
809.201623	2557.299208
809.521590	2557.503375
809.841513	2555.585216
810.161390	2556.396842
810.481223	2554.839125
810.801011	2555.184444
811.120755	2557.463046
811.440453	2553.510781
811.760107	2552.784855
812.079716	2553.465411
812.399281	2549.805533
812.718801	2551.844680
813.038276	2547.221942
813.357707	2555.738971
813.677093	2552.537838
813.996434	2551.133877
814.315731	2552.585729
814.634983	2549.752601
814.954191	2552.079093
815.273354	2553.208312
815.592473	2554.564382
815.911547	2555.204609
816.230577	2559.292985
816.549562	2559.098900
816.868502	2559.542522
817.187399	2561.259035
817.506250	2563.348593
817.825058	2560.772563
818.143821	2565.400342
818.462539	2569.191290
818.781213	2574.638257
819.099843	2582.618403
819.418429	2591.203488
819.736970	2605.805191
820.055466	2619.007972
820.373919	2633.211423
820.692327	2658.928870
821.010691	2703.898483
821.329011	2799.002371
821.647286	2953.901905
821.965517	3113.363683
822.283704	3204.684185
822.601847	3231.084708
822.919945	3165.285047
823.237999	3088.004159
823.556010	3006.521469
823.873976	2931.060437
824.191897	2864.217257
824.509775	2816.321255
824.827609	2772.231323
825.145398	2744.215111
825.463144	2731.287072
825.780845	2734.672206
826.098502	2751.681059
826.416116	2786.263375
826.733685	2823.714107
827.051210	2832.294151
827.368692	2813.699855
827.686129	2776.233999
828.003522	2737.948956
828.320872	2698.083512
828.638177	2670.697443
828.955439	2649.890081
829.272656	2629.818727
829.589830	2610.768207
829.906960	2602.004161
830.224046	2593.030907
830.541088	2583.561099
830.858086	2578.421643
831.175041	2579.896180
831.491952	2577.292424
831.808819	2576.984914
832.125642	2581.098496
832.442421	2590.991760
832.759157	2612.242744
833.075849	2643.707106
833.392497	2673.175171
833.709101	2692.933973
834.025662	2691.073787
834.342179	2673.689368
834.658653	2653.842346
834.975083	2634.315436
835.291469	2622.047788
835.607811	2602.732607
835.924110	2590.921184
836.240366	2585.161666
836.556578	2573.206569
836.872746	2567.222720
837.188871	2559.643345
837.504952	2554.705535
837.820990	2551.645554
838.136984	2548.396531
838.452935	2549.813095
838.768842	2548.429298
839.084706	2552.923487
839.400526	2572.422670
839.716303	2586.878178
840.032037	2599.856629
840.347727	2595.702718
840.663373	2585.212077
840.978977	2573.377968
841.294537	2564.702143
841.610054	2556.961451
841.925527	2551.806871
842.240957	2548.918290
842.556344	2543.420912
842.871687	2540.776827
843.186987	2538.810777
843.502244	2535.876825
843.817458	2537.782381
844.132629	2532.030425
844.447756	2533.028573
844.762840	2528.153777
845.077881	2527.558921
845.392879	2527.364837
845.707833	2525.809641
846.022745	2521.317973
846.337613	2528.118489
846.652438	2527.755526
846.967221	2525.144208
847.281960	2526.656555
847.596656	2524.924918
847.911309	2524.395597
848.225919	2525.434075
848.540485	2524.806451
848.855009	2522.427027
849.169490	2522.870648
849.483928	2525.789476
849.798323	2523.929290
850.112675	2525.108920
850.426984	2522.767304
850.741251	2522.185051
851.055474	2522.532891
851.369654	2522.941224
851.683792	2521.423837
851.997887	2523.863755
852.311938	2521.562469
852.625947	2524.524147
852.939914	2522.941224
853.253837	2528.408356
853.567718	2521.519619
853.881555	2526.056657
854.195350	2524.594723
854.509103	2526.477594
854.822812	2522.817716
855.136479	2523.629342
855.450103	2522.464835
855.763685	2524.042716
856.077224	2522.369053
856.390720	2524.317459
856.704173	2523.152953
857.017584	2522.180010
857.330953	2526.059178
857.644278	2525.406348
857.957561	2527.528674
858.270802	2522.172448
858.584000	2523.853673
858.897155	2525.466842
859.210268	2525.292923
859.523339	2522.608508
859.836367	2519.422499
860.149352	2523.591533
860.462295	2522.608508
860.775195	2518.414268
861.088054	2522.530370
861.400869	2523.155473
861.713642	2519.616583
862.026373	2524.506503
862.339062	2522.346368
862.651708	2523.818385
862.964312	2527.216123
863.276873	2525.479445
863.589392	2526.855680
863.901869	2526.190248
864.214303	2524.995494
864.526696	2526.374250
864.839045	2527.382481
865.151353	2526.071781
865.463619	2528.673016
865.775842	2528.582275
866.088023	2526.096987
866.400162	2527.185876
866.712258	2528.940197
867.024313	2529.809796
867.336325	2529.393901
867.648296	2529.323325
867.960224	2528.751154
868.272110	2527.027079
868.583954	2528.226874
868.895755	2530.311391
869.207515	2529.320804
869.519233	2530.510517
869.830909	2529.880372
870.142542	2532.537061
870.454134	2533.147040
870.765684	2530.676875
871.077191	2530.371885
871.388657	2530.122348
871.700081	2531.609488
872.011463	2534.498069
872.322803	2533.230219
872.634101	2537.580735
872.945357	2535.498738
873.256571	2538.286497
873.567744	2535.649973
873.878874	2535.632329
874.189963	2536.138965
874.501010	2539.027546
874.812015	2536.103677
875.122979	2538.702392
875.433900	2537.038811
875.744780	2537.633667
876.055618	2541.396888
876.366415	2540.181970
876.677169	2541.631302
876.987882	2542.092568
877.298554	2537.172402
877.609183	2541.134748
877.919771	2537.931095
878.230317	2544.713968
878.540822	2552.714279
878.851285	2559.724003
879.161707	2565.959911
879.472087	2577.483988
879.782425	2598.908892
880.092722	2632.651855
880.402977	2685.357119
880.713191	2742.697723
881.023363	2802.180818
881.333494	2834.237515
881.643583	2848.642613
881.953631	2844.544154
882.263637	2825.901967
882.573602	2802.637042
882.883526	2779.614093
883.193408	2755.018303
883.503248	2728.559807
883.813048	2709.695810
884.122806	2685.321831
884.432522	2661.691422
884.742197	2642.656025
885.051831	2630.600106
885.361424	2611.998248
885.670975	2604.164295
885.980485	2590.248190
886.289954	2581.537076
886.599382	2574.618092
886.908768	2567.310940
887.218113	2558.977912
887.527417	2559.454302
887.836680	2552.547921
888.145901	2550.707900
888.455082	2545.888557
888.764221	2545.845707
889.073319	2543.471323
889.382376	2547.219421
889.691392	2542.556354
890.000366	2542.309337
890.309300	2539.791281
890.618193	2543.481406
890.927044	2541.681714
891.235855	2543.370500
891.544625	2542.508463
891.853353	2543.957795
892.162041	2544.232538
892.470687	2551.829556
892.779293	2553.301573
893.087858	2554.466080
893.396381	2564.969324
893.704864	2577.935172
894.013306	2595.473346
894.321707	2618.057715
894.630068	2629.322173
894.938387	2630.219499
895.246665	2626.668006
895.554903	2618.231635
895.863100	2607.942640
896.171256	2601.326125
896.479371	2594.502924
896.787446	2584.647468
897.095480	2578.557754
897.403473	2572.846127
897.711425	2566.464026
898.019336	2565.165929
898.327207	2558.400700
898.635038	2553.140256
898.942827	2550.939793
899.250576	2548.993907
899.558284	2544.056097
899.865952	2544.013247
900.173579	2541.308668
900.481165	2538.682227
900.788711	2538.374717
901.096216	2538.679707
901.403681	2535.244160
901.711105	2536.509490
902.018489	2533.865405
902.325832	2539.193904
902.633135	2539.859337
902.940397	2548.454504
903.247619	2560.160063
903.554800	2587.261306
903.861941	2621.387397
904.169041	2643.737353
904.476101	2650.689104
904.783121	2646.371356
905.090100	2631.394087
905.397039	2620.870679
905.703938	2608.585387
906.010796	2597.061309
906.317614	2586.616038
906.624391	2580.022209
906.931129	2570.416291
907.237826	2560.129816
907.544483	2556.290978
907.851099	2549.193033
908.157675	2544.966025
908.464211	2537.389171
908.770707	2530.916330
909.077163	2529.230064
909.383578	2525.232429
909.689954	2525.597912
909.996289	2521.499454
910.302584	2526.066740
910.608839	2523.528519
910.915054	2522.578261
911.221229	2521.257479
911.527363	2523.646986
911.833458	2523.316790
912.139513	2525.446678
912.445527	2524.728313
912.751502	2525.665968
913.057436	2526.888448
913.363331	2532.554705
913.669186	2533.837678
913.975000	2541.008720
914.280775	2546.501057
914.586510	2559.217367
914.892205	2573.075499
915.197859	2592.108376
915.503475	2611.637806
915.809050	2631.358799
916.114585	2643.739873
916.420081	2645.713485
916.725536	2645.721047
917.030952	2639.026394
917.336328	2630.521968
917.641665	2624.218005
917.946961	2615.244751
918.252218	2605.971549
918.557435	2598.984509
918.862612	2587.982191
919.167750	2583.054463
919.472848	2575.152455
919.777906	2566.204407
920.082925	2560.197872
920.387904	2555.587737
920.692843	2551.922818
920.997743	2546.354863
921.302603	2541.994265
921.607423	2539.889583
921.912204	2536.461599
922.216946	2533.424304
922.521647	2532.874818
922.826310	2532.191742
923.130932	2530.429858
923.435516	2525.905423
923.740059	2524.705628
924.044564	2523.578930
924.349028	2524.889630
924.653454	2519.500637
924.957840	2514.204905
925.262186	2514.953516
925.566493	2515.767662
925.870761	2513.786489
926.174989	2515.089627
926.479178	2516.231448
926.783328	2515.102230
927.087438	2512.768176
927.391509	2513.791530
927.695541	2512.364883
927.999533	2514.409071
928.303486	2510.978566
928.607400	2514.308248
928.911275	2510.519821
929.215110	2513.758763
929.518906	2514.315810
929.822663	2513.312620
930.126381	2511.475120
930.430060	2510.671056
930.733699	2513.675583
931.037299	2511.167609
931.340861	2508.601662
931.644383	2509.488905
931.947866	2510.610562
932.251309	2512.851355
932.554714	2511.996879
932.858080	2513.080727
933.161407	2511.805315
933.464694	2511.210459
933.767943	2510.240037
934.071153	2513.131139
934.374323	2509.899759
934.677455	2512.251457
934.980548	2511.558299
935.283602	2511.318844
935.586617	2507.870695
935.889593	2510.214831
936.192530	2510.749194
936.495428	2511.517970
936.798287	2511.442352
937.101108	2510.913031
937.403890	2514.850172
937.706632	2517.350585
938.009336	2517.166583
938.312002	2520.675226
938.614628	2517.227076
938.917216	2522.442150
939.219765	2519.162879
939.522275	2520.571882
939.824747	2523.659589
940.127179	2517.385873
940.429573	2516.889319
940.731929	2519.140194
941.034246	2516.170955
941.336524	2519.210770
941.638763	2517.874865
941.940964	2518.058867
942.243126	2517.335461
942.545250	2519.959382
942.847335	2517.411078
943.149381	2516.420492
943.451389	2514.434277
943.753359	2516.032323
944.055290	2514.724143
944.357182	2513.373114
944.659036	2513.930162
944.960851	2514.978722
945.262628	2512.165758
945.564367	2515.810512
945.866067	2512.415295
946.167729	2513.713392
946.469352	2511.601149
946.770937	2512.533762
947.072484	2515.079545
947.373992	2514.288084
947.675462	2513.983094
947.976893	2514.373783
948.278286	2514.179699
948.579641	2511.454955
948.880958	2512.097702
949.182236	2513.284894
949.483476	2510.940758
949.784678	2512.770696
950.085841	2512.511077
950.386967	2515.639113
950.688054	2511.964112
950.989103	2513.990656
951.290114	2511.709533
951.591087	2513.209277
951.892021	2513.108454
952.192917	2513.660460
952.493776	2516.168434
952.794596	2514.114164
953.095378	2515.182888
953.396122	2515.014010
953.696828	2515.626510
953.997496	2514.769514
954.298126	2515.084586
954.598718	2515.117353
954.899272	2513.002589
955.199788	2514.812364
955.500266	2512.069976
955.800706	2511.480161
956.101108	2506.930520
956.401472	2507.568226
956.701798	2505.214007
957.002087	2507.192660
957.302337	2505.639984
957.602550	2506.958246
957.902724	2507.527896
958.202861	2506.320540
958.502960	2506.280211
958.803022	2506.728873
959.103045	2506.320540
959.403031	2506.247443
959.702979	2504.299037
960.002889	2504.283914
960.302762	2502.806856
960.602596	2502.690909
960.902393	2504.909017
961.202153	2504.682165
961.501875	2504.346928
961.801559	2502.403563
962.101205	2503.741990
962.400814	2503.003461
962.700385	2502.431290
962.999918	2501.360045
963.299414	2502.731238
963.598873	2505.977742
963.898293	2501.559170
964.197677	2502.988337
964.497022	2502.753924
964.796331	2502.030518
965.095601	2501.775940
965.394835	2501.745693
965.694030	2501.818790
965.993189	2504.104953
966.292309	2504.571260
966.591393	2502.806856
966.890439	2500.142606
967.189447	2504.006650
967.488419	2502.348111
967.787353	2501.657473
968.086249	2503.525220
968.385108	2499.388953
968.683930	2500.959273
968.982714	2500.525734
969.281462	2501.584376
969.580172	2500.656804
969.878844	2500.523213
970.177480	2504.271311
970.476078	2501.221413
970.774639	2503.104284
971.073162	2502.834582
971.371649	2500.571104
971.670098	2500.172853
971.968510	2498.274858
972.266885	2499.076402
972.565223	2504.198214
972.863524	2503.772237
973.161788	2502.968173
973.460014	2501.400374
973.758204	2502.837103
974.056356	2503.598317
974.354471	2503.807525
974.652550	2503.585714
974.950591	2503.255518
975.248595	2501.932216
975.546563	2505.372803
975.844493	2504.190653
976.142386	2502.504387
976.440243	2504.825838
976.738062	2502.423728
977.035845	2503.552947
977.333590	2501.017246
977.631299	2504.057062
977.928971	2500.276197
978.226606	2502.673265
978.524204	2501.745693
978.821765	2501.786022
979.119290	2500.828203
979.416777	2499.799808
979.714228	2501.712925
980.011642	2504.707371
980.309020	2502.043121
980.606360	2502.958090
980.903664	2504.236023
981.200931	2503.313492
981.498162	2506.260046
981.795356	2507.172495
982.092513	2512.417816
982.389633	2512.190964
982.686717	2512.417816
982.983764	2516.002076
983.280775	2517.670698
983.577749	2515.893691
983.874686	2516.223887
984.171587	2513.524349
984.468451	2515.626510
984.765279	2513.723474
985.062070	2512.871519
985.358824	2510.945799
985.655543	2512.813546
985.952224	2505.831548
986.248869	2508.158041
986.545478	2501.024808
986.842050	2499.424242
987.138586	2499.116731
987.435086	2501.095384
987.731549	2495.507265
988.027975	2499.635970
988.324366	2498.589931
988.620719	2501.037411
988.917037	2501.725528
989.213318	2499.134375
989.509563	2496.757471
989.805772	2499.782163
990.101944	2501.075219
990.398080	2498.058089
990.694180	2499.819972
990.990244	2497.639673
991.286271	2497.538850
991.582262	2498.504231
991.878217	2500.424911
992.174136	2494.849394
992.470019	2497.753099
992.765865	2499.676299
993.061676	2500.208141
993.357450	2498.395846
993.653188	2498.625219
993.948890	2500.669407
994.244556	2503.235354
994.540186	2505.125787
994.835780	2502.015395
995.131337	2501.733090
995.426859	2503.242916
995.722345	2507.066631
996.017795	2505.821466
996.313208	2506.544871
996.608586	2508.488236
996.903928	2509.562002
997.199234	2507.285921
997.494504	2509.781292
997.789738	2503.764675
998.084936	2505.650067
998.380099	2504.563698
998.675225	2507.043946
998.970316	2503.608399
999.265371	2503.575632
999.560390	2501.007164
999.855373	2504.115035
1000.150320	2500.404746
1000.445232	2501.004643
1000.740108	2500.371978
1001.034948	2501.937257
1001.329752	2501.420538
1001.624521	2498.753768
1001.919254	2494.632625
1002.213951	2495.729076
1002.508613	2494.100783
1002.803239	2495.895434
1003.097829	2493.919302
1003.392384	2497.367451
1003.686903	2495.552635
1003.981386	2499.330980
1004.275834	2496.475167
1004.570246	2498.010198
1004.864623	2496.253356
1005.158964	2499.099087
1005.453270	2496.828047
1005.747540	2495.643376
1006.041775	2498.766371
1006.335974	2496.785197
1006.630138	2497.841319
1006.924266	2498.080774
1007.218359	2494.708242
1007.512416	2497.629591
1007.806438	2497.687564
1008.100425	2495.860146
1008.394376	2498.698315
1008.688292	2499.358707
1008.982172	2494.735968
1009.276017	2495.711432
1009.569827	2496.354179
1009.863602	2499.308295
1010.157341	2494.156236
1010.451045	2495.146823
1010.744714	2496.797800
1011.038347	2499.300733
1011.331945	2496.260918
1011.625508	2495.787049
1011.919036	2497.884169
1012.212528	2499.081443
1012.505986	2497.952225
1012.799408	2497.979951
1013.092795	2496.550784
1013.386147	2496.011380
1013.679464	2495.729076
1013.972745	2495.799652
1014.265992	2496.691936
1014.559204	2496.165136
1014.852380	2497.780825
1015.145521	2497.082626
1015.438628	2496.974241
1015.731699	2497.838799
1016.024736	2496.424755
1016.317737	2495.088849
1016.610703	2497.869046
1016.903635	2494.360402
1017.196531	2492.190186
1017.489393	2494.032728
1017.782219	2492.326297
1018.075011	2494.859477
1018.367768	2494.241935
1018.660490	2493.059785
1018.953177	2493.059785
1019.245829	2493.059785
