Dividing Wavelength (nm)	Counts (n)	Blue Motor Position (mm): 0.000000	Red Motor Position (mm): 20.300000	
326.493990	2128.198713
326.888308	2128.198713
327.282561	2128.198713
327.676750	2094.082705
328.070874	2093.016501
328.464933	2098.322315
328.858929	2102.503952
329.252859	2111.797319
329.646726	2124.339710
330.040528	2136.819087
330.434265	2152.242497
330.827938	2172.346618
331.221547	2189.882272
331.615091	2208.748790
332.008571	2227.285113
332.401986	2250.008114
332.795338	2268.403284
333.188625	2287.594957
333.581847	2303.827472
333.975006	2322.772128
334.368100	2342.288956
334.761129	2357.548528
335.154095	2375.384131
335.546996	2394.149826
335.939833	2410.044584
336.332606	2423.728796
336.725315	2438.695982
337.117960	2444.624379
337.510540	2452.619649
337.903056	2465.459467
338.295508	2472.751497
338.687896	2480.842548
339.080220	2491.454177
339.472480	2497.760661
339.864676	2502.514469
340.256807	2506.093688
340.648875	2507.762310
341.040879	2509.067969
341.432818	2510.361025
341.824694	2513.229441
342.216506	2512.788340
342.608253	2512.984945
342.999937	2512.256499
343.391557	2514.303207
343.783113	2512.276663
344.174605	2511.994359
344.566033	2510.542506
344.957397	2510.272805
345.348697	2506.837258
345.739934	2504.377175
346.131106	2504.087309
346.522215	2502.847185
346.913260	2498.605054
347.304241	2500.187976
347.695159	2498.403408
348.086012	2492.976606
348.476802	2493.581544
348.867528	2489.543580
349.258191	2491.313025
349.648789	2489.024341
350.039324	2489.969558
350.429796	2487.907726
350.820203	2485.445122
351.210548	2485.694659
351.600828	2481.886067
351.991045	2485.891264
352.381198	2483.471510
352.771288	2484.935965
353.161314	2481.200470
353.551276	2483.920173
353.941175	2480.938330
354.331010	2481.578557
354.720782	2482.092755
355.110490	2483.627786
355.500135	2478.785758
355.889717	2482.392703
356.279235	2481.162662
356.668689	2483.390852
357.058080	2480.038484
357.447408	2481.681901
357.836672	2480.439256
358.225873	2483.489154
358.615010	2480.179637
359.004084	2485.614001
359.393095	2483.988228
359.782043	2486.322283
360.170927	2489.243631
360.559748	2484.807416
360.948505	2490.214053
361.337199	2489.089876
361.725830	2490.090545
362.114398	2491.267655
362.502903	2489.629280
362.891344	2492.532984
363.279722	2491.784373
363.668037	2492.671616
364.056289	2494.478870
364.444478	2494.950217
364.832603	2495.567759
365.220665	2495.121617
365.608665	2493.984837
365.996601	2498.068171
366.384474	2495.822337
366.772284	2498.751247
367.160031	2500.462719
367.547715	2498.952894
367.935336	2504.364572
368.322893	2508.904131
368.710388	2509.279697
369.097820	2518.119361
369.485189	2522.875689
369.872495	2527.329549
370.259738	2533.567977
370.646918	2540.434028
371.034035	2546.059956
371.421090	2556.069167
371.808081	2567.754561
372.195010	2580.009606
372.581875	2591.873962
372.968678	2603.398040
373.355418	2614.274329
373.742096	2631.898203
374.128710	2648.604587
374.515262	2663.060095
374.901751	2680.184895
375.288177	2690.441122
375.674540	2711.520707
376.060841	2733.076681
376.447079	2751.393714
376.833254	2774.754421
377.219367	2784.347736
377.605417	2821.778304
377.991404	2830.459171
378.377329	2851.984897
378.763191	2870.329656
379.148991	2908.150913
379.534727	2934.372475
379.920402	2962.371043
380.306013	2971.964359
380.691563	3022.340609
381.077049	3043.780637
381.462474	3064.202351
381.847835	3102.683999
382.233134	3124.948255
382.618371	3122.231073
383.003545	3191.587267
383.388657	3197.903833
383.773706	3230.910788
384.158693	3244.728591
384.543618	3274.370575
384.928480	3310.818118
385.313280	3355.495344
385.698017	3352.803368
386.082692	3405.304464
386.467305	3414.328130
386.851856	3442.109928
387.236344	3464.840491
387.620770	3495.851149
388.005133	3524.920963
388.389435	3552.571692
388.773674	3563.609298
389.157851	3606.481791
389.541965	3620.395375
389.926018	3587.224583
390.310008	3655.731343
390.693936	3674.653314
391.077802	3717.568657
391.461606	3703.460988
391.845348	3767.309722
392.229027	3764.020369
392.612645	3780.278090
392.996200	3858.683156
393.379694	3897.376532
393.763125	3956.985656
394.146494	3929.072787
394.529801	3991.515039
394.913047	4039.151422
395.296230	4005.113552
395.679351	4056.354360
396.062410	4081.592897
396.445408	4061.980288
396.828343	4097.464970
397.211217	4118.163947
397.594028	4038.725445
397.976778	4101.568469
398.359466	4131.767501
398.742092	4161.696831
399.124656	4084.494081
399.507158	4163.705731
399.889598	4185.135676
400.271977	4249.168412
400.654294	4218.631623
401.036549	4229.371801
401.418742	4197.262172
401.800874	4304.195127
402.182944	4321.191377
402.564952	4388.949526
402.946898	4370.856825
403.328783	4368.835322
403.710606	4284.506901
404.092367	4471.891630
404.474067	4435.388635
404.855705	4451.729536
405.237282	4376.271024
405.618797	4482.833455
406.000250	4519.938868
406.381642	4599.745374
406.762972	4558.849014
407.144240	4571.214964
407.525447	4571.121703
407.906593	4627.675887
408.287677	4664.264582
408.668700	4597.219756
409.049661	4646.817148
409.430560	4688.252912
409.811399	4614.417653
410.192176	4773.549235
410.572891	4715.243250
410.953545	4813.855781
411.334138	4692.484961
411.714669	4756.041308
412.095139	4648.831089
412.475547	4780.203558
412.855894	4762.650261
413.236180	4761.750415
413.616405	4714.512283
413.996568	4794.996824
414.376670	4727.510898
414.756711	4678.382333
415.136691	4693.399930
415.516609	4766.589922
415.896466	4791.687307
416.276262	4809.482580
416.655997	4780.107777
417.035670	4941.202889
417.415283	5010.891800
417.794834	4941.447385
418.174324	4881.029156
418.553753	4781.723466
418.933121	4928.942803
419.312428	4973.783866
419.691674	4901.486158
420.070859	4990.782637
420.449983	4888.182553
420.829045	4963.462104
421.208047	4862.081979
421.586988	4893.737905
421.965867	4874.286613
422.344686	4952.275783
422.723444	4805.762208
423.102141	4627.532214
423.480777	4837.725644
423.859352	4613.880770
424.237866	4789.786792
424.616319	4743.836675
424.994712	4788.554230
425.373044	4657.224610
425.751314	4718.399012
426.129524	4538.623904
426.507673	4627.136484
426.885762	4651.334022
427.263789	4549.785019
427.641756	4436.827885
428.019662	4462.162203
428.397508	4422.079989
428.775292	4333.393490
429.153016	4347.420501
429.530679	4258.968415
429.908282	4254.910287
430.285824	4141.572545
430.663305	4233.397163
431.040726	4046.214079
431.418086	3998.250021
431.795385	4003.956607
432.172624	3959.554124
432.549802	3908.073861
432.926920	3865.886965
433.303977	3821.741581
433.680974	3787.635654
434.057910	3745.254674
434.434786	3697.272972
434.811601	3642.044611
435.188355	3679.470137
435.565050	3588.056373
435.941683	3535.729197
436.318257	3550.330899
436.694770	3499.692508
437.071222	3462.818988
437.447614	3400.157446
437.823946	3339.537571
438.200218	3330.733196
438.576429	3262.637290
438.952580	3244.645412
439.328670	3214.398489
439.704700	3160.579130
440.080670	3122.140332
440.456580	3132.610809
440.832429	3079.096440
441.208218	3022.693490
441.583947	3011.512211
441.959616	2985.381390
442.335224	2945.896553
442.710773	2935.446241
443.086261	2910.603434
443.461689	2863.584592
443.837057	2853.847604
444.212365	2846.147241
444.587612	2815.691110
444.962800	2801.845581
445.337927	2781.098713
445.712995	2739.017681
446.088002	2753.349681
446.462949	2729.686505
446.837837	2709.557178
447.212664	2702.847402
447.587431	2695.832637
447.962139	2706.282948
448.336786	2726.129971
448.711374	2703.832948
449.085901	2660.824344
449.460369	2646.328506
449.834776	2633.947432
450.209124	2636.568832
450.583412	2631.200003
450.957640	2627.948459
451.331808	2615.252313
451.705917	2601.573142
452.079965	2598.480394
452.453954	2594.636514
452.827883	2587.263827
453.201752	2583.563620
453.575562	2581.285018
453.949311	2578.401478
454.323001	2574.537434
454.696632	2575.679255
455.070202	2572.435273
455.443713	2571.326219
455.817164	2571.772361
456.190556	2567.068964
456.563888	2566.670713
456.937160	2559.963458
457.310373	2564.150136
457.683526	2563.623336
458.056619	2561.077553
458.429653	2561.609395
458.802628	2559.151832
459.175542	2558.299877
459.548398	2561.311967
459.921194	2562.136195
460.293930	2558.302398
460.666607	2563.182235
461.039224	2562.910013
461.411782	2562.478994
461.784280	2565.617112
462.156719	2563.406566
462.529099	2564.119889
462.901419	2562.877245
463.273680	2560.762481
463.645882	2557.730227
464.018024	2559.933211
464.390106	2558.398180
464.762130	2561.589230
465.134094	2562.915054
465.505999	2570.212124
465.877845	2576.919379
466.249631	2578.882908
466.621358	2575.938875
466.993026	2575.868298
467.364634	2577.698237
467.736184	2572.858730
468.107674	2569.486198
468.479105	2568.813204
468.850477	2566.274983
469.221790	2566.912689
469.593043	2563.570404
469.964238	2566.819427
470.335373	2563.272976
470.706449	2566.852195
471.077467	2565.743141
471.448425	2569.992834
471.819324	2577.282342
472.190164	2579.699575
472.560945	2570.605334
472.931667	2567.643656
473.302330	2567.411763
473.672934	2565.284396
474.043479	2568.760272
474.413965	2567.321022
474.784393	2562.171483
475.154761	2565.617112
475.525070	2561.037224
475.895321	2562.841957
476.265513	2564.223233
476.635645	2569.765982
477.005719	2568.861095
477.375734	2571.157340
477.745691	2569.597103
478.115588	2572.183215
478.485427	2572.001733
478.855207	2578.782085
479.224928	2581.496747
479.594591	2584.362643
479.964194	2582.658733
480.333739	2584.793661
480.703226	2583.805595
481.072653	2583.354412
481.442022	2584.213929
481.811333	2584.652509
482.180584	2583.714854
482.549777	2583.445153
482.918912	2581.683269
483.287988	2582.837694
483.657005	2582.686459
484.025964	2580.692683
484.394864	2580.105388
484.763706	2580.175964
485.132489	2580.627148
485.501213	2579.616396
485.869879	2579.082034
486.238487	2577.451221
486.607036	2580.901891
486.975527	2579.760069
487.343959	2579.243351
487.712333	2575.797722
488.080648	2580.415419
488.448905	2579.286201
488.817104	2578.391396
489.185244	2583.364494
489.553326	2582.320975
489.921350	2582.310893
490.289315	2590.217943
490.657222	2589.915474
491.025070	2591.198447
491.392861	2590.447315
491.760593	2587.011769
492.128267	2583.377097
492.495883	2581.917683
492.863440	2580.052456
493.230939	2578.025912
493.598380	2579.054308
493.965763	2569.581980
494.333088	2575.248237
494.700354	2572.974676
495.067563	2574.388720
495.434713	2570.340673
495.801805	2575.598597
496.168839	2578.010789
496.535815	2573.516600
496.902733	2572.069789
497.269593	2575.333936
497.636395	2574.668504
498.003139	2572.251271
498.369825	2573.824111
498.736453	2574.539954
499.103023	2572.959553
499.469535	2573.874522
499.835989	2573.337639
500.202385	2573.158678
500.568723	2572.263873
500.935003	2576.511046
501.301226	2569.836558
501.667390	2575.953998
502.033497	2574.623133
502.399546	2573.942578
502.765537	2574.890315
503.131470	2573.415777
503.497345	2577.085737
503.863163	2575.764955
504.228923	2574.550037
504.594625	2574.310582
504.960269	2575.066755
505.325856	2573.534244
505.691385	2573.113308
506.056856	2575.641447
506.422270	2574.776889
506.787625	2574.837382
507.152924	2573.330078
507.518164	2572.742783
507.883347	2574.313103
508.248472	2576.107753
508.613540	2575.442321
508.978550	2575.205387
509.343503	2576.690007
509.708398	2579.654205
510.073236	2576.420305
510.438016	2578.134297
510.802738	2576.967270
511.167403	2579.833166
511.532010	2574.555078
511.896561	2579.495409
512.261053	2579.644123
512.625488	2575.154975
512.989866	2572.024419
513.354186	2576.379976
513.718449	2571.817731
514.082655	2578.106571
514.446803	2579.233269
514.810894	2578.449369
515.174927	2577.226889
515.538904	2577.050449
515.902822	2579.180337
516.266684	2577.859554
516.630488	2576.057342
516.994235	2578.283011
517.357925	2580.599421
517.721558	2578.088927
518.085133	2579.245872
518.448651	2579.787796
518.812112	2579.341653
519.175516	2579.200501
519.538863	2581.005234
519.902152	2577.846951
520.265385	2580.175964
520.628560	2578.615727
520.991678	2579.931468
521.354739	2577.075655
521.717743	2579.412230
522.080690	2578.335943
522.443580	2583.208218
522.806413	2581.597570
523.169189	2582.071438
523.531908	2579.457600
523.894569	2579.155131
524.257174	2579.545820
524.619722	2581.534555
524.982213	2581.590008
525.344647	2582.121850
525.707025	2579.472723
526.069345	2578.792168
526.431608	2579.099678
526.793815	2582.021027
527.155964	2581.625296
527.518057	2580.362487
527.880093	2580.387693
528.242072	2580.886767
528.603995	2581.746284
528.965860	2580.770821
529.327669	2580.218814
529.689421	2577.945254
530.051117	2579.908783
530.412755	2581.526994
530.774337	2582.293249
531.135862	2582.537745
531.497331	2578.252764
531.858743	2574.847465
532.220098	2576.523648
532.581396	2577.420974
532.942638	2576.407702
533.303824	2578.590522
533.664953	2581.524473
534.026025	2579.830645
534.387040	2578.270408
534.747999	2579.737384
535.108902	2579.361818
535.469748	2578.330902
535.830537	2579.044225
536.191270	2578.230079
536.551947	2579.182857
536.912567	2582.129412
537.273131	2580.453228
537.633638	2579.397106
537.994089	2577.451221
538.354483	2579.671849
538.714821	2582.565471
539.075103	2579.228228
539.435328	2578.703947
539.795497	2579.331571
540.155609	2580.319637
540.515665	2579.190419
540.875665	2578.996334
541.235609	2580.939699
541.595496	2581.831983
541.955328	2581.726119
542.315102	2580.145717
542.674821	2578.401478
543.034483	2580.823753
543.394090	2582.905749
543.753640	2580.433063
544.113134	2579.777713
544.472571	2577.597414
544.831953	2581.358115
545.191278	2580.788465
545.550548	2579.596232
545.909761	2581.504308
546.268918	2580.531366
546.628019	2581.703434
546.987064	2579.702096
547.346053	2578.610686
547.704986	2580.276787
548.063863	2580.871644
548.422684	2579.263516
548.781449	2578.729153
549.140158	2580.944740
549.498811	2580.143197
549.857408	2577.816704
550.215949	2578.346026
550.574434	2575.039029
550.932864	2577.486509
551.291237	2576.127918
551.649555	2580.823753
552.007817	2578.184709
552.366022	2578.434246
552.724173	2579.324009
553.082267	2578.048597
553.440305	2580.186047
553.798288	2580.112950
554.156215	2579.931468
554.514086	2579.709658
554.871902	2578.739236
555.229661	2581.569843
555.587365	2580.828794
555.945014	2578.504822
556.302606	2578.608166
556.660143	2580.934658
557.017625	2579.923907
557.375050	2580.181006
557.732421	2578.968608
558.089735	2578.280491
558.446994	2580.634709
558.804197	2580.669997
559.161345	2578.061200
559.518437	2579.097157
559.875474	2579.056828
560.232455	2579.434915
560.589381	2581.476582
560.946251	2578.701427
561.303065	2580.538928
561.659825	2579.283680
562.016528	2576.647157
562.373177	2579.530697
562.729770	2578.588001
563.086307	2580.798547
563.442789	2581.590008
563.799216	2579.399627
564.155587	2578.603124
564.511904	2579.392065
564.868164	2578.658577
565.224370	2581.660584
565.580520	2580.637230
565.936615	2578.393917
566.292654	2576.982393
566.648638	2579.329051
567.004567	2578.840059
567.360441	2580.218814
567.716260	2576.377455
568.072023	2581.305183
568.427732	2574.174471
568.783385	2579.192939
569.138982	2574.053483
569.494525	2574.759245
569.850013	2574.797053
570.205445	2576.972311
570.560823	2577.849472
570.916145	2578.628330
571.271412	2577.604976
571.626625	2578.429205
571.981782	2577.196642
572.336884	2578.081365
572.691931	2576.962229
573.046923	2574.943247
573.401860	2576.861406
573.756743	2576.158165
574.111570	2575.979204
574.466342	2577.539441
574.821059	2575.543144
575.175722	2575.636405
575.530330	2574.928123
575.884882	2574.915520
576.239380	2575.465006
576.593823	2574.650860
576.948211	2574.610531
577.302544	2575.384348
577.656823	2573.998030
578.011047	2572.465520
578.365216	2577.572208
578.719330	2572.561302
579.073389	2574.308061
579.427394	2571.905952
579.781344	2576.589183
580.135239	2574.711354
580.489080	2571.885787
580.842866	2571.366548
581.196597	2576.906776
581.550273	2573.234296
581.903895	2572.281517
582.257463	2573.627506
582.610975	2572.798236
582.964434	2573.206569
583.317837	2573.151117
583.671186	2572.710016
584.024481	2573.035170
584.377721	2573.367886
584.730906	2570.421332
585.084037	2572.546178
585.437113	2570.779254
585.790135	2571.106929
586.143103	2573.272104
586.496016	2572.732701
586.848874	2566.736248
587.201679	2569.239181
587.554428	2566.446382
587.907124	2567.197514
588.259765	2566.436300
588.612352	2570.549881
588.964884	2567.593244
589.317362	2572.094995
589.669786	2572.412587
590.022155	2567.996537
590.374470	2568.777916
590.726731	2570.920406
591.078937	2569.438307
591.431090	2564.815569
591.783188	2570.680951
592.135232	2570.711198
592.487222	2570.096177
592.839157	2567.852864
593.191038	2569.156002
593.542866	2568.805642
593.894639	2571.205231
594.246358	2567.719273
594.598022	2571.215313
594.949633	2567.086608
595.301190	2568.820765
595.652692	2566.574931
596.004141	2568.901424
596.355535	2570.751527
596.706876	2567.709191
597.058162	2569.342525
597.409395	2569.947463
597.760573	2566.849674
598.111698	2568.518296
598.462768	2567.686506
598.813785	2566.274983
599.164748	2565.105435
599.515657	2567.557956
599.866511	2565.022256
600.217312	2568.011660
600.568060	2566.582493
600.918753	2566.131310
601.269392	2566.723645
601.619978	2566.179201
601.970510	2566.693398
602.320988	2567.283213
602.671412	2565.639797
603.021783	2563.232646
603.372100	2566.484191
603.722363	2566.884962
604.072572	2565.160888
604.422728	2568.004098
604.772830	2563.242729
605.122878	2560.515464
605.472872	2564.886145
605.822813	2561.286761
606.172701	2562.577296
606.522534	2565.342369
606.872314	2561.475804
607.222041	2564.190466
607.571714	2566.337997
607.921333	2568.843451
608.270899	2565.975034
608.620411	2567.933522
608.969870	2565.390260
609.319276	2567.394119
609.668627	2569.075344
610.017926	2570.635581
610.367171	2570.943091
610.716362	2571.837896
611.065500	2572.624316
611.414585	2567.111814
611.763616	2570.038204
612.112594	2568.611557
612.461518	2568.571228
612.810389	2568.107442
613.159207	2569.892011
613.507971	2567.499983
613.856682	2566.441341
614.205340	2567.895714
614.553945	2568.853533
614.902496	2567.283213
615.250994	2564.361865
615.599439	2566.605178
615.947830	2565.901937
616.296169	2566.872359
616.644454	2566.542164
616.992686	2566.101063
617.340864	2569.665159
617.688990	2566.201886
618.037063	2566.587534
618.385082	2564.555949
618.733048	2567.240364
619.080961	2565.745662
619.428821	2567.802452
619.776628	2566.895045
620.124382	2565.430589
620.472083	2564.782801
620.819731	2566.673234
621.167326	2565.909499
621.514868	2562.899930
621.862357	2564.661813
622.209793	2564.634087
622.557176	2565.150805
622.904506	2562.040413
623.251783	2556.933725
623.599007	2560.810372
623.946179	2559.479507
624.293297	2558.257027
624.640363	2564.835733
624.987376	2565.276834
625.334336	2562.773901
625.681243	2563.938408
626.028097	2561.952193
626.374899	2563.940928
626.721647	2561.445557
627.068343	2559.998746
627.414987	2562.889848
627.761577	2559.053530
628.108115	2562.766340
628.454600	2561.067471
628.801032	2559.585372
629.147412	2561.095197
629.493739	2561.506051
629.840014	2559.287943
630.186236	2562.789025
630.532405	2559.439178
630.878521	2561.649724
631.224585	2563.623336
631.570597	2560.311298
631.916556	2558.635114
632.262462	2557.037068
632.608316	2559.701318
632.954117	2561.415310
633.299866	2559.736606
633.645562	2558.216698
633.991206	2560.449929
634.336797	2556.326266
634.682336	2561.014539
635.027823	2557.208467
635.373257	2557.591595
635.718639	2556.137222
636.063968	2556.926163
636.409245	2557.087480
636.754470	2555.630586
637.099642	2555.507078
637.444762	2555.481872
637.789829	2557.790721
638.134845	2556.646379
638.479808	2558.055381
638.824719	2558.020093
639.169577	2555.280226
639.514383	2557.095042
639.859137	2557.415155
640.203839	2556.333827
640.548489	2558.433468
640.893086	2553.019269
641.237632	2553.140256
641.582125	2554.153528
641.926566	2550.594474
642.270955	2554.715617
642.615292	2553.152859
642.959576	2554.418189
643.303809	2556.880793
643.647990	2554.463559
643.992118	2554.745864
644.336195	2555.323076
644.680219	2554.375339
645.024192	2556.976574
645.368112	2553.790565
645.711981	2557.740309
646.055797	2555.181924
646.399562	2557.248797
646.743274	2558.279713
647.086935	2559.678633
647.430544	2556.348951
647.774101	2556.666543
648.117606	2552.953734
648.461059	2558.617470
648.804460	2557.657130
649.147810	2556.974054
649.491108	2554.438353
649.834354	2556.578323
650.177548	2553.609084
650.520690	2555.983467
650.863781	2553.891388
651.206820	2558.622511
651.549807	2552.729402
651.892742	2553.470452
652.235626	2552.868034
652.578458	2556.613611
652.921238	2552.905843
653.263967	2553.488096
653.606644	2552.195040
653.949269	2553.087324
654.291843	2550.697817
654.634365	2553.369629
654.976836	2550.811243
655.319255	2555.542366
655.661622	2552.552962
656.003938	2553.611604
656.346203	2554.435833
656.688416	2553.775442
657.030577	2552.522715
657.372687	2554.922304
657.714746	2551.885009
658.056753	2552.686552
658.398708	2549.729916
658.740612	2550.428116
659.082465	2547.700851
659.424266	2551.310318
659.766016	2548.618341
660.107715	2553.089845
660.449362	2553.223435
660.790958	2552.744526
661.132503	2553.674619
661.473996	2552.381563
661.815438	2552.676470
662.156829	2552.663867
662.498168	2552.051367
662.839456	2555.134033
663.180693	2551.706048
663.521879	2553.619166
663.863013	2552.535318
664.204097	2551.804351
664.545129	2555.154197
664.886110	2551.799309
665.227040	2553.727551
665.567918	2551.663198
665.908746	2551.600184
666.249522	2554.085473
666.590248	2550.939793
666.930922	2552.666388
667.271545	2552.926007
667.612118	2555.865000
667.952639	2554.970195
668.293109	2554.682849
668.633528	2550.975081
668.973896	2551.680842
669.314213	2552.424412
669.654480	2551.915256
669.994695	2554.264434
670.334859	2553.004145
670.674973	2552.346275
671.015035	2554.166131
671.355047	2552.968857
671.695008	2551.224618
672.034918	2552.772252
672.374777	2550.113043
672.714585	2553.644372
673.054342	2553.599001
673.394049	2553.780483
673.733705	2552.174875
674.073310	2552.232849
674.412864	2552.031203
674.752368	2555.587737
675.091820	2551.504402
675.431223	2550.763352
675.770574	2553.956923
676.109875	2550.395348
676.449125	2546.707744
676.788324	2547.224462
677.127473	2550.665050
677.466571	2549.147663
677.805619	2553.909032
678.144616	2549.742519
678.483562	2550.997766
678.822458	2546.972405
679.161303	2551.879968
679.500098	2548.603218
679.838842	2552.636141
680.177535	2552.028682
680.516179	2550.193702
680.854771	2548.734288
681.193314	2549.702189
681.531805	2552.154711
681.870247	2554.680329
682.208638	2555.149156
682.546978	2552.832746
682.885268	2555.665874
683.223508	2552.021120
683.561697	2551.156562
683.899836	2552.016079
684.237925	2551.799309
684.575963	2552.505071
684.913951	2550.153373
685.251889	2552.164793
685.589776	2552.038764
685.927614	2551.665719
686.265401	2549.684545
686.603137	2549.371994
686.940824	2552.396686
687.278460	2553.820812
687.616046	2553.785524
687.953582	2552.505071
688.291068	2552.119423
688.628504	2553.432643
688.965889	2551.942982
689.303224	2553.624207
689.640510	2552.893240
689.977745	2551.925338
690.314930	2552.379042
690.652065	2552.590771
690.989150	2550.332334
691.326185	2550.465924
691.663170	2551.171686
692.000105	2546.899308
692.336990	2550.407951
692.673825	2550.473486
693.010610	2551.143959
693.347345	2545.727240
693.684030	2543.524255
694.020665	2545.540717
694.357251	2541.255736
694.693786	2546.198588
695.030272	2544.766900
695.366707	2546.954761
695.703093	2545.563402
696.039429	2545.258412
696.375716	2547.141283
696.711952	2546.385110
697.048139	2547.990718
697.384276	2547.252189
697.720363	2547.990718
698.056400	2548.328475
698.392388	2546.085162
698.728326	2546.979966
699.064214	2546.128011
699.400053	2548.005841
699.735842	2546.682538
700.071581	2544.908052
700.407270	2547.849565
700.742910	2547.569781
701.078501	2546.949719
701.414042	2545.518032
701.749533	2544.013247
702.084974	2547.635316
702.420366	2547.836963
702.755709	2543.763710
703.091002	2546.196067
703.426246	2543.844369
703.761440	2547.249668
704.096584	2549.321582
704.431679	2543.226827
704.766725	2546.861499
705.101721	2543.259595
705.436668	2543.297403
705.771565	2544.025850
706.106413	2545.265974
706.441212	2543.249512
706.775961	2546.690100
707.110661	2546.901828
707.445311	2545.747404
707.779913	2543.090716
708.114465	2548.580533
708.448967	2543.680531
708.783421	2545.366797
709.117825	2546.339740
709.452180	2543.433515
709.786485	2544.734132
710.120742	2547.226983
710.454949	2547.141283
710.789107	2546.039791
711.123216	2543.194060
711.457275	2546.458207
711.791286	2542.437887
712.125247	2543.796478
712.459159	2548.215049
712.793023	2549.639175
713.126837	2545.976777
713.460602	2547.748742
713.794318	2548.704041
714.127985	2545.402085
714.461602	2545.749925
714.795171	2550.292004
715.128691	2545.883515
715.462162	2542.369831
715.795584	2546.070038
716.128957	2548.179761
716.462281	2543.052908
716.795556	2545.192877
717.128782	2545.613814
717.461960	2546.367466
717.795088	2544.046015
718.128167	2546.160779
718.461198	2541.694317
718.794180	2547.559699
719.127113	2545.528114
719.459997	2545.245809
719.792833	2542.412681
720.125619	2544.837476
720.458357	2542.760521
720.791046	2545.064328
721.123686	2542.634492
721.456278	2546.685059
721.788821	2542.483257
722.121315	2545.923845
722.453761	2541.258257
722.786158	2544.252702
723.118506	2541.722043
723.450805	2546.077600
723.783056	2544.136756
724.115259	2541.467465
724.447412	2546.115408
724.779518	2541.459903
725.111574	2543.430994
725.443582	2545.069369
725.775542	2543.040305
726.107453	2543.700696
726.439315	2542.488298
726.771129	2548.325954
727.102895	2542.364790
727.434612	2543.751107
727.766281	2542.344625
728.097901	2541.724563
728.429473	2541.311189
728.760996	2541.228010
729.092471	2539.214069
729.423897	2544.787064
729.755276	2544.771941
730.086606	2545.339071
730.417887	2544.353525
730.749120	2544.305634
731.080305	2546.115408
731.411442	2544.671118
731.742530	2546.364946
732.073570	2545.616334
732.404562	2546.309493
732.735506	2542.846220
733.066401	2544.867723
733.397249	2546.808567
733.728048	2544.910573
734.058798	2544.610624
734.389501	2544.774462
734.720156	2543.985521
735.050762	2543.627599
735.381320	2542.657177
735.711831	2541.422094
736.042293	2542.942002
736.372707	2541.417053
736.703073	2542.326981
737.033391	2543.357897
737.363661	2546.170861
737.693883	2543.473844
738.024056	2541.580891
738.354182	2543.695655
738.684260	2543.337733
739.014290	2544.454348
739.344272	2541.028884
739.674207	2543.579708
740.004093	2544.048535
740.333931	2543.940151
740.663722	2542.233720
740.993464	2541.661549
741.323159	2544.542568
741.652806	2542.155582
741.982405	2545.003834
742.311956	2542.833617
742.641460	2546.054915
742.970915	2540.698689
743.300323	2541.991745
743.629683	2542.092568
743.958996	2542.397557
744.288260	2542.029553
744.617477	2540.398740
744.946647	2537.452186
745.275768	2540.920499
745.604842	2536.380940
745.933869	2537.782381
746.262847	2536.804397
746.591778	2540.691127
746.920662	2539.299768
747.249498	2542.755479
747.578286	2540.164326
747.907027	2542.742877
748.235720	2540.638195
748.564365	2542.493339
748.892963	2541.152393
749.221514	2540.207176
749.550017	2542.924358
749.878473	2540.814635
750.206881	2539.188863
750.535242	2539.551826
750.863555	2539.254398
751.191821	2540.408822
751.520039	2543.113401
751.848210	2540.509645
752.176334	2540.549975
752.504411	2540.328164
752.832440	2541.966539
753.160421	2540.880170
753.488356	2538.843544
753.816243	2540.040818
754.144082	2538.412525
754.471875	2541.051569
754.799620	2539.176260
755.127318	2539.138452
755.454969	2540.711292
755.782572	2538.866229
756.110129	2540.572660
756.437638	2538.999820
756.765100	2541.399409
757.092515	2541.427135
757.419882	2540.146682
757.747203	2539.884542
758.074477	2539.453524
758.401703	2540.081147
758.728882	2539.352701
759.056014	2540.434028
759.383099	2539.718184
759.710138	2541.238092
760.037129	2540.802032
760.364073	2539.524100
760.690970	2537.749614
761.017820	2541.986703
761.344623	2538.596527
761.671379	2542.127856
761.998088	2538.878832
762.324751	2538.967052
762.651366	2540.028215
762.977935	2546.934596
763.304456	2545.880995
763.630931	2553.200750
763.957359	2550.095399
764.283740	2549.031716
764.610074	2543.395706
764.936362	2542.881508
765.262602	2545.331509
765.588796	2541.497712
765.914943	2540.703730
766.241044	2543.153731
766.567097	2540.635674
766.893104	2541.850592
767.219064	2539.713143
767.544978	2538.258770
767.870845	2537.923533
768.196665	2540.615510
768.522438	2538.110056
768.848165	2540.870088
769.173846	2536.514531
769.499479	2537.668955
769.825066	2539.519059
770.150607	2538.906558
770.476101	2537.553009
770.801548	2539.234233
771.126949	2537.782381
771.452303	2537.868081
771.777611	2538.604089
772.102872	2533.633512
772.428087	2537.172402
772.753256	2534.976979
773.078378	2538.241126
773.403453	2536.023018
773.728482	2537.500077
774.053465	2535.450848
774.378401	2535.561753
774.703291	2533.157122
775.028135	2537.938657
775.352932	2535.261804
775.677683	2536.408667
776.002388	2538.253729
776.327046	2536.943029
776.651658	2537.457227
776.976224	2537.116949
777.300743	2536.943029
777.625216	2538.553678
777.949643	2537.638708
778.274024	2537.232895
778.598359	2533.802390
778.922647	2534.001516
779.246889	2534.893800
779.571086	2530.810465
779.895236	2536.252391
780.219339	2538.079809
780.543397	2537.701723
780.867409	2538.384799
781.191374	2538.465457
781.515294	2536.756506
781.839167	2537.154757
782.162995	2537.064017
782.486776	2536.554860
782.810511	2536.285158
783.134201	2535.440765
783.457844	2537.326157
783.781441	2535.655014
784.104993	2537.341280
784.428498	2535.009747
784.751958	2534.876156
785.075372	2537.835313
785.398739	2536.348173
785.722061	2535.778522
786.045337	2534.452699
786.368568	2535.811290
786.691752	2536.040663
787.014891	2536.322967
787.337983	2534.021680
787.661030	2536.678368
787.984031	2537.757175
788.306987	2538.944367
788.629897	2537.432021
788.952760	2535.483615
789.275579	2540.307999
789.598351	2541.956457
789.921078	2535.133255
790.243759	2537.253060
790.566395	2534.475384
790.888984	2537.263142
791.211529	2536.184335
791.534027	2539.372865
791.856480	2535.012267
792.178888	2540.202135
792.501249	2534.114942
792.823566	2539.133410
793.145836	2536.244829
793.468062	2538.152906
793.790241	2537.560570
794.112375	2537.358924
794.434464	2537.283307
794.756507	2535.077802
795.078505	2536.640560
795.400457	2533.817514
795.722364	2532.905065
796.044226	2533.567977
796.366042	2532.219468
796.687812	2534.321629
797.009538	2537.658873
797.331218	2539.017464
797.652852	2535.166022
797.974442	2534.135106
798.295986	2535.362627
798.617484	2533.600744
798.938938	2536.106197
799.260346	2536.325488
799.581709	2535.150899
799.903026	2536.499408
800.224299	2535.957483
800.545526	2535.271887
800.866708	2536.446475
801.187845	2534.561084
801.508936	2536.917823
801.829983	2535.788605
802.150984	2533.348686
802.471940	2535.274407
802.792851	2534.767771
803.113717	2535.128214
803.434538	2536.058307
803.755314	2536.506969
804.076045	2534.135106
804.396731	2534.861033
804.717372	2535.299613
805.037967	2535.055117
805.358518	2533.331042
805.679024	2537.497556
805.999485	2534.455220
806.319901	2535.770961
806.640272	2533.862884
806.960598	2537.671476
807.280879	2534.692154
807.601115	2536.683410
807.921306	2534.336752
808.241453	2536.254912
808.561554	2534.649304
808.881611	2537.981507
809.201623	2534.104859
809.521590	2536.396064
809.841513	2536.968235
810.161390	2536.128883
810.481223	2535.450847
810.801011	2536.537216
811.120755	2534.384643
811.440453	2535.395395
811.760107	2533.525127
812.079716	2533.298275
812.399281	2531.548994
812.718801	2531.480939
813.038276	2531.274252
813.357707	2535.796167
813.677093	2531.612009
813.996434	2533.421783
814.315731	2534.263656
814.634983	2538.420087
814.954191	2532.526978
815.273354	2533.583100
815.592473	2535.274407
815.911547	2533.961187
816.230577	2533.983872
816.549562	2535.062679
816.868502	2535.634850
817.187399	2537.376568
817.506250	2533.998995
817.825058	2539.912269
818.143821	2536.058307
818.462539	2537.001002
818.781213	2534.437576
819.099843	2538.193235
819.418429	2537.308513
819.736970	2542.412681
820.055466	2539.277083
820.373919	2543.022661
820.692327	2542.843700
821.010691	2548.308310
821.329011	2554.191337
821.647286	2570.965776
821.965517	2586.830288
822.283704	2599.697833
822.601847	2600.252360
822.919945	2593.540063
823.237999	2583.457756
823.556010	2571.038873
823.873976	2564.248439
824.191897	2559.792059
824.509775	2553.803168
824.827609	2550.266799
825.145398	2546.753114
825.463144	2550.165976
825.780845	2547.027857
826.098502	2548.522559
826.416116	2554.473642
826.733685	2560.936401
827.051210	2562.594940
827.368692	2558.725855
827.686129	2555.005483
828.003522	2548.900646
828.320872	2542.387475
828.638177	2541.837989
828.955439	2538.112577
829.272656	2535.201310
829.589830	2534.099818
829.906960	2537.550488
830.224046	2540.189532
830.541088	2538.488143
830.858086	2536.842206
831.175041	2537.497556
831.491952	2534.641742
831.808819	2535.818852
832.125642	2536.212062
832.442421	2538.707433
832.759157	2540.925541
833.075849	2542.062321
833.392497	2545.139945
833.709101	2548.328475
834.025662	2545.417209
834.342179	2546.133053
834.658653	2544.116591
834.975083	2544.378731
835.291469	2543.196580
835.607811	2537.182484
835.924110	2537.424459
836.240366	2534.493028
836.556578	2536.905220
836.872746	2534.311547
837.188871	2535.077802
837.504952	2535.995292
837.820990	2530.964221
838.136984	2532.116124
838.452935	2533.910775
838.768842	2533.885569
839.084706	2534.329191
839.400526	2536.680889
839.716303	2534.641742
840.032037	2539.680376
840.347727	2540.333205
840.663373	2539.312371
840.978977	2538.389840
841.294537	2533.588141
841.610054	2533.046217
841.925527	2536.063348
842.240957	2532.118645
842.556344	2534.402287
842.871687	2535.042514
843.186987	2534.220806
843.502244	2531.193593
843.817458	2532.063192
844.132629	2532.141330
844.447756	2531.065044
844.762840	2528.879703
845.077881	2528.433561
845.392879	2530.414735
845.707833	2531.533871
846.022745	2527.695032
846.337613	2533.726773
846.652438	2530.502955
846.967221	2532.532019
847.281960	2527.006915
847.596656	2533.762061
847.911309	2533.537730
848.225919	2534.263656
848.540485	2533.194931
848.855009	2531.312060
849.169490	2531.327184
849.483928	2534.203162
849.798323	2532.542102
850.112675	2533.754499
850.426984	2532.673172
850.741251	2533.487318
851.055474	2533.666279
851.369654	2533.293234
851.683792	2530.470187
851.997887	2532.738707
852.311938	2530.281144
852.625947	2530.197965
852.939914	2533.141999
853.253837	2533.860363
853.567718	2532.219468
853.881555	2530.187883
854.195350	2529.514889
854.509103	2533.585621
854.822812	2530.172759
855.136479	2531.377595
855.450103	2528.231915
855.763685	2532.758871
856.077224	2529.850126
856.390720	2533.593182
856.704173	2532.408511
857.017584	2532.390867
857.330953	2533.167205
857.644278	2531.740558
857.957561	2532.325332
858.270802	2532.181659
858.584000	2528.640249
858.897155	2533.089067
859.210268	2531.422966
859.523339	2530.870959
859.836367	2532.433717
860.149352	2534.006557
860.462295	2534.792977
860.775195	2527.609333
861.088054	2527.281658
861.400869	2529.328366
861.713642	2527.553880
862.026373	2531.690147
862.339062	2530.432379
862.651708	2533.305837
862.964312	2529.595547
863.276873	2532.118645
863.589392	2530.409694
863.901869	2534.682072
864.214303	2533.106711
864.526696	2530.293747
864.839045	2534.435055
865.151353	2532.935312
865.463619	2533.769623
865.775842	2530.510517
866.088023	2531.438089
866.400162	2530.359282
866.712258	2529.519930
867.024313	2533.923378
867.336325	2532.660569
867.648296	2532.957997
867.960224	2532.322812
868.272110	2532.705939
868.583954	2530.129910
868.895755	2530.162677
869.207515	2532.438758
869.519233	2533.038655
869.830909	2530.470188
870.142542	2531.120496
870.454134	2531.422966
870.765684	2531.622091
871.077191	2530.366844
871.388657	2534.757689
871.700081	2535.075282
872.011463	2532.973120
872.322803	2532.365661
872.634101	2533.021011
872.945357	2529.837523
873.256571	2533.504962
873.567744	2533.066382
873.878874	2532.574869
874.189963	2534.246012
874.501010	2533.290713
874.812015	2532.642925
875.122979	2532.151412
875.433900	2533.946063
875.744780	2533.031094
876.055618	2533.073943
876.366415	2535.110570
876.677169	2532.393388
876.987882	2528.811648
877.298554	2528.680578
877.609183	2530.545805
877.919771	2530.278624
878.230317	2529.819879
878.540822	2537.142155
878.851285	2536.370858
879.161707	2535.879346
879.472087	2536.958152
879.782425	2539.405633
880.092722	2541.285983
880.402977	2548.086500
880.713191	2554.473642
881.023363	2562.947821
881.333494	2570.572566
881.643583	2570.426373
881.953631	2570.123904
882.263637	2570.701116
882.573602	2565.080229
882.883526	2561.269117
883.193408	2556.091852
883.503248	2551.819474
883.813048	2547.589946
884.122806	2545.699513
884.432522	2541.767413
884.742197	2540.232382
885.051831	2540.484440
885.361424	2538.162988
885.670975	2538.843544
885.980485	2536.597710
886.289954	2535.274407
886.599382	2533.935981
886.908768	2535.108049
887.218113	2536.272556
887.527417	2536.542257
887.836680	2534.324150
888.145901	2535.223996
888.455082	2533.091587
888.764221	2532.133768
889.073319	2530.762574
889.382376	2534.185518
889.691392	2530.908768
890.000366	2534.485467
890.309300	2532.577390
890.618193	2530.495393
890.927044	2531.453213
891.235855	2531.032276
891.544625	2533.888090
891.853353	2531.115455
892.162041	2532.186700
892.470687	2535.929757
892.779293	2533.764582
893.087858	2533.073943
893.396381	2533.847761
893.704864	2534.205682
894.013306	2535.055117
894.321707	2542.924358
894.630068	2545.356715
894.938387	2544.522404
895.246665	2545.215562
895.554903	2544.156920
895.863100	2541.321271
896.171256	2541.437218
896.479371	2532.075795
896.787446	2537.416898
897.095480	2535.009747
897.403473	2535.206352
897.711425	2534.926567
898.019336	2535.773481
898.327207	2535.387833
898.635038	2537.333718
898.942827	2534.767771
899.250576	2534.253573
899.558284	2530.928933
899.865952	2534.808100
900.173579	2531.052441
900.481165	2531.735517
900.788711	2529.867770
901.096216	2531.856505
901.403681	2533.567977
901.711105	2531.465815
902.018489	2529.346010
902.325832	2533.487318
902.633135	2532.398429
902.940397	2533.182328
903.247619	2537.023688
903.554800	2538.389840
903.861941	2542.238761
904.169041	2550.445760
904.476101	2551.453990
904.783121	2551.905174
905.090100	2547.713454
905.397039	2546.143135
905.703938	2544.040974
906.010796	2540.781868
906.317614	2538.198276
906.624391	2537.626105
906.931129	2532.635363
907.237826	2533.205013
907.544483	2532.005219
907.851099	2536.847247
908.157675	2531.433048
908.464211	2532.443799
908.770707	2526.727131
909.077163	2531.995137
909.383578	2526.344003
909.689954	2527.488345
909.996289	2526.709487
910.302584	2530.092101
910.608839	2533.157123
910.915054	2530.762574
911.221229	2530.762574
911.527363	2531.695188
911.833458	2530.719725
912.139513	2530.576052
912.445527	2530.523120
912.751502	2533.608306
913.057436	2528.526823
913.363331	2532.773995
913.669186	2531.763243
913.975000	2531.100332
914.280775	2534.162833
914.586510	2534.296423
914.892205	2536.015457
915.197859	2541.573329
915.503475	2542.059800
915.809050	2545.523073
916.114585	2546.715306
916.420081	2551.010369
916.725536	2547.882333
917.030952	2545.800336
917.336328	2543.557023
917.641665	2544.119112
917.946961	2538.644418
918.252218	2539.405633
918.557435	2538.258770
918.862612	2537.852957
919.167750	2534.412370
919.472848	2534.989582
919.777906	2531.675023
920.082925	2533.545291
920.387904	2533.235260
920.692843	2532.577390
920.997743	2532.244674
921.302603	2530.833151
921.607423	2534.132586
921.912204	2532.353058
922.216946	2530.568490
922.521647	2531.864067
922.826310	2529.202337
923.130932	2530.218130
923.435516	2531.823737
923.740059	2534.598893
924.044564	2530.213089
924.349028	2530.586134
924.653454	2524.798889
924.957840	2526.154960
925.262186	2523.170597
925.566493	2527.609333
925.870761	2524.662778
926.174989	2529.376257
926.479178	2530.853315
926.783328	2528.844415
927.087438	2528.244518
927.391509	2532.216947
927.695541	2529.030938
927.999533	2529.930784
928.303486	2529.774508
928.607400	2528.615043
928.911275	2528.897347
929.215110	2528.572193
929.518906	2530.840712
929.822663	2527.692512
930.126381	2529.842564
930.430060	2528.882224
930.733699	2528.894827
931.037299	2528.640249
931.340861	2530.709642
931.644383	2529.041020
931.947866	2528.864580
932.251309	2528.262162
932.554714	2527.619415
932.858080	2528.299971
933.161407	2530.056813
933.464694	2531.740558
933.767943	2530.223171
934.071153	2529.668644
934.374323	2529.313243
934.677455	2528.468849
934.980548	2528.756195
935.283602	2527.440454
935.586617	2525.542460
935.889593	2528.231915
936.192530	2527.632018
936.495428	2528.975485
936.798287	2527.911802
937.101108	2528.932636
937.403890	2529.824920
937.706632	2532.516896
938.009336	2529.582944
938.312002	2529.635877
938.614628	2528.877183
938.917216	2529.214940
939.219765	2527.725279
939.522275	2528.173942
939.824747	2532.010260
940.127179	2527.868952
940.429573	2524.647655
940.731929	2528.763757
941.034246	2525.091276
941.336524	2528.496576
941.638763	2528.854498
941.940964	2530.787780
942.243126	2528.398273
942.545250	2530.346679
942.847335	2529.096473
943.149381	2527.851308
943.451389	2529.497245
943.753359	2530.689478
944.055290	2528.272244
944.357182	2531.700229
944.659036	2526.747295
944.960851	2531.080167
945.262628	2531.743079
945.564367	2529.696370
945.866067	2530.210568
946.167729	2528.252080
946.469352	2528.388191
946.770937	2529.421628
947.072484	2528.574714
947.373992	2527.417769
947.675462	2530.518078
947.976893	2527.289219
948.278286	2528.869621
948.579641	2530.628984
948.880958	2528.181504
949.182236	2529.963552
949.483476	2530.278624
949.784678	2529.537574
950.085841	2528.292409
950.386967	2530.951618
950.688054	2528.262162
950.989103	2531.208717
951.290114	2526.480114
951.591087	2529.136802
951.892021	2528.337779
952.192917	2528.728469
952.493776	2528.665454
952.794596	2527.505989
953.095378	2528.902389
953.396122	2530.636546
953.696828	2527.604292
953.997496	2528.342821
954.298126	2529.401463
954.598718	2531.697708
954.899272	2530.659231
955.199788	2529.983716
955.500266	2529.777029
955.800706	2525.880217
956.101108	2523.629342
956.401472	2528.400794
956.701798	2525.308046
957.002087	2526.785104
957.302337	2527.689991
957.602550	2529.638397
957.902724	2530.155115
958.202861	2531.584282
958.502960	2527.490866
958.803022	2527.745444
959.103045	2529.724097
959.403031	2526.414579
959.702979	2528.957841
960.002889	2526.505320
960.302762	2525.943231
960.602596	2527.039682
960.902393	2525.577748
961.202153	2527.185876
961.501875	2525.106400
961.801559	2528.257121
962.101205	2528.052954
962.400814	2526.031452
962.700385	2525.711338
962.999918	2527.216123
963.299414	2525.857532
963.598873	2529.736700
963.898293	2522.381656
964.197677	2526.984230
964.497022	2525.388704
964.796331	2526.643952
965.095601	2525.542460
965.394835	2529.071267
965.694030	2525.048427
965.993189	2526.966586
966.292309	2526.407017
966.591393	2527.979857
966.890439	2526.573376
967.189447	2527.415248
967.488419	2526.434744
967.787353	2526.316277
968.086249	2527.546318
968.385108	2527.813499
968.683930	2526.701925
968.982714	2529.648479
969.281462	2528.128572
969.580172	2526.369209
969.878844	2526.286030
970.177480	2528.126051
970.476078	2526.974147
970.774639	2526.507841
971.073162	2526.250742
971.371649	2524.698066
971.670098	2525.416431
971.968510	2524.123375
972.266885	2520.478621
972.565223	2527.153108
972.863524	2526.341483
973.161788	2527.198479
973.460014	2526.207892
973.758204	2528.073119
974.056356	2525.630680
974.354471	2528.854498
974.652550	2526.802748
974.950591	2525.126564
975.248595	2528.171421
975.546563	2526.409538
975.844493	2526.780063
976.142386	2524.206554
976.440243	2529.172090
976.738062	2526.028931
977.035845	2526.051616
977.333590	2526.525485
977.631299	2525.809641
977.928971	2528.675537
978.226606	2528.761236
978.524204	2527.876514
978.821765	2525.789476
979.119290	2527.692512
979.416777	2524.100690
979.714228	2527.175793
980.011642	2527.097656
980.309020	2528.554549
980.606360	2526.712007
980.903664	2523.636903
981.200931	2524.962727
981.498162	2528.693181
981.795356	2525.877696
982.092513	2528.844415
982.389633	2525.900382
982.686717	2529.991278
982.983764	2526.994312
983.280775	2526.903571
983.577749	2526.878365
983.874686	2527.261493
984.171587	2528.282327
984.468451	2528.675537
984.765279	2528.615043
985.062070	2526.555732
985.358824	2524.723272
985.655543	2525.260155
985.952224	2525.643283
986.248869	2527.221164
986.545478	2522.280833
986.842050	2524.239321
987.138586	2523.001718
987.435086	2524.682943
987.731549	2522.328724
988.027975	2528.027748
988.324366	2524.753519
988.620719	2525.865093
988.917037	2526.379291
989.213318	2527.730320
989.509563	2526.772501
989.805772	2526.817872
990.101944	2528.710825
990.398080	2527.085053
990.694180	2524.894671
990.990244	2526.386853
991.286271	2526.391894
991.582262	2526.442306
991.878217	2526.283509
992.174136	2527.914322
992.470019	2522.840401
992.765865	2524.869466
993.061676	2525.648324
993.357450	2525.691174
993.653188	2526.686802
993.948890	2526.351565
994.244556	2523.979702
994.540186	2525.063550
994.835780	2529.661082
995.131337	2527.884076
995.426859	2526.399456
995.722345	2525.701256
996.017795	2525.199661
996.313208	2526.777542
996.608586	2526.749816
996.903928	2528.229395
997.199234	2526.618746
997.494504	2526.152439
997.789738	2525.459281
998.084936	2525.703777
998.380099	2525.141688
998.675225	2524.650175
998.970316	2522.696728
999.265371	2526.311236
999.560390	2524.299815
999.855373	2526.593540
1000.150320	2525.529857
1000.445232	2525.050947
1000.740108	2524.884589
1001.034948	2526.041534
1001.329752	2527.818541
1001.624521	2525.323169
1001.919254	2521.388549
1002.213951	2524.027593
1002.508613	2521.552386
1002.803239	2524.640093
1003.097829	2519.956861
1003.392384	2525.426513
1003.686903	2528.998171
1003.981386	2528.448685
1004.275834	2528.015146
1004.570246	2525.650844
1004.864623	2523.694877
1005.158964	2525.499610
1005.453270	2524.128416
1005.747540	2527.332069
1006.041775	2527.354754
1006.335974	2526.691843
1006.630138	2526.772501
1006.924266	2526.626308
1007.218359	2524.972809
1007.512416	2527.339631
1007.806438	2524.398118
1008.100425	2523.470545
1008.394376	2524.942562
1008.688292	2526.555732
1008.982172	2523.480628
1009.276017	2527.221164
1009.569827	2525.897861
1009.863602	2526.341482
1010.157341	2524.955165
1010.451045	2524.632531
1010.744714	2526.084384
1011.038347	2526.404497
1011.331945	2523.959537
1011.625508	2525.396266
1011.919036	2526.233098
1012.212528	2528.035310
1012.505986	2524.156142
1012.799408	2524.965248
1013.092795	2524.791328
1013.386147	2523.089938
1013.679464	2526.102028
1013.972745	2524.219157
1014.265992	2527.362316
1014.559204	2526.596061
1014.852380	2524.062881
1015.145521	2526.202851
1015.438628	2525.749147
1015.731699	2526.580937
1016.024736	2525.827285
1016.317737	2526.588499
1016.610703	2524.113293
1016.903635	2518.026099
1017.196531	2525.970958
1017.489393	2522.525329
1017.782219	2520.821419
1018.075011	2524.405679
1018.367768	2527.997502
1018.660490	2524.516585
1018.953177	2524.516585
1019.245829	2524.516585
