Dividing Wavelength (nm)	Counts (n)	Blue Motor Position (mm): 0.000000	Red Motor Position (mm): 4.500000	
326.493990	2102.161154
326.888308	2102.161154
327.282561	2102.161154
327.676750	2079.475962
328.070874	2011.420385
328.464933	2059.311346
328.858929	2069.393654
329.252859	2054.270192
329.646726	2097.120000
330.040528	2104.681731
330.434265	2006.379231
330.827938	2167.696154
331.221547	2084.517115
331.615091	2147.531538
332.008571	2185.340192
332.401986	2263.478077
332.795338	2228.190000
333.188625	2235.751731
333.581847	2308.848462
333.975006	2255.916346
334.368100	2321.451346
334.761129	2389.506923
335.154095	2376.904038
335.546996	2394.548077
335.939833	2381.945192
336.332606	2419.753846
336.725315	2404.630385
337.117960	2381.945192
337.510540	2386.986346
337.903056	2455.041923
338.295508	2455.041923
338.687896	2533.179808
339.080220	2470.165385
339.472480	2407.150962
339.864676	2518.056346
340.256807	2467.644808
340.648875	2439.918462
341.040879	2455.041923
341.432818	2457.562500
341.824694	2407.150962
342.216506	2442.439038
342.608253	2450.000769
342.999937	2422.274423
343.391557	2427.315577
343.783113	2386.986346
344.174605	2520.576923
344.566033	2515.535769
344.957397	2460.083077
345.348697	2477.727115
345.739934	2457.562500
346.131106	2429.836154
346.522215	2457.562500
346.913260	2439.918462
347.304241	2492.850577
347.695159	2502.932885
348.086012	2505.453462
348.476802	2432.356731
348.867528	2409.671538
349.258191	2450.000769
349.648789	2465.124231
350.039324	2437.397885
350.429796	2480.247692
350.820203	2470.165385
351.210548	2439.918462
351.600828	2361.780577
351.991045	2452.521346
352.381198	2369.342308
352.771288	2394.548077
353.161314	2455.041923
353.551276	2339.095385
353.941175	2439.918462
354.331010	2404.630385
354.720782	2427.315577
355.110490	2407.150962
355.500135	2389.506923
355.889717	2434.877308
356.279235	2422.274423
356.668689	2412.192115
357.058080	2386.986346
357.447408	2384.465769
357.836672	2432.356731
358.225873	2439.918462
358.615010	2419.753846
359.004084	2376.904038
359.393095	2432.356731
359.782043	2490.330000
360.170927	2444.959615
360.559748	2455.041923
360.948505	2477.727115
361.337199	2490.330000
361.725830	2439.918462
362.114398	2487.809423
362.502903	2482.768269
362.891344	2497.891731
363.279722	2439.918462
363.668037	2470.165385
364.056289	2533.179808
364.444478	2444.959615
364.832603	2492.850577
365.220665	2404.630385
365.608665	2384.465769
365.996601	2500.412308
366.384474	2437.397885
366.772284	2429.836154
367.160031	2452.521346
367.547715	2452.521346
367.935336	2495.371154
368.322893	2457.562500
368.710388	2394.548077
369.097820	2460.083077
369.485189	2399.589231
369.872495	2392.027500
370.259738	2392.027500
370.646918	2417.233269
371.034035	2384.465769
371.421090	2439.918462
371.808081	2450.000769
372.195010	2455.041923
372.581875	2472.685962
372.968678	2422.274423
373.355418	2535.700385
373.742096	2429.836154
374.128710	2548.303269
374.515262	2424.795000
374.901751	2424.795000
375.288177	2442.439038
375.674540	2455.041923
376.060841	2452.521346
376.447079	2422.274423
376.833254	2422.274423
377.219367	2439.918462
377.605417	2392.027500
377.991404	2399.589231
378.377329	2419.753846
378.763191	2404.630385
379.148991	2470.165385
379.534727	2510.494615
379.920402	2414.712692
380.306013	2530.659231
380.691563	2457.562500
381.077049	2495.371154
381.462474	2505.453462
381.847835	2417.233269
382.233134	2485.288846
382.618371	2492.850577
383.003545	2548.303269
383.388657	2543.262115
383.773706	2482.768269
384.158693	2417.233269
384.543618	2399.589231
384.928480	2507.974038
385.313280	2510.494615
385.698017	2444.959615
386.082692	2507.974038
386.467305	2455.041923
386.851856	2507.974038
387.236344	2550.823846
387.620770	2518.056346
388.005133	2477.727115
388.389435	2407.150962
388.773674	2386.986346
389.157851	2460.083077
389.541965	2538.220962
389.926018	2462.603654
390.310008	2477.727115
390.693936	2427.315577
391.077802	2480.247692
391.461606	2437.397885
391.845348	2480.247692
392.229027	2397.068654
392.612645	2407.150962
392.996200	2535.700385
393.379694	2513.015192
393.763125	2490.330000
394.146494	2513.015192
394.529801	2467.644808
394.913047	2482.768269
395.296230	2444.959615
395.679351	2429.836154
396.062410	2414.712692
396.445408	2467.644808
396.828343	2389.506923
397.211217	2427.315577
397.594028	2419.753846
397.976778	2518.056346
398.359466	2442.439038
398.742092	2470.165385
399.124656	2518.056346
399.507158	2404.630385
399.889598	2467.644808
400.271977	2470.165385
400.654294	2450.000769
401.036549	2457.562500
401.418742	2452.521346
401.800874	2442.439038
402.182944	2470.165385
402.564952	2500.412308
402.946898	2553.344423
403.328783	2545.782692
403.710606	2510.494615
404.092367	2490.330000
404.474067	2490.330000
404.855705	2414.712692
405.237282	2427.315577
405.618797	2455.041923
406.000250	2480.247692
406.381642	2389.506923
406.762972	2482.768269
407.144240	2538.220962
407.525447	2366.821731
407.906593	2409.671538
408.287677	2389.506923
408.668700	2450.000769
409.049661	2442.439038
409.430560	2447.480192
409.811399	2434.877308
410.192176	2444.959615
410.572891	2500.412308
410.953545	2424.795000
411.334138	2507.974038
411.714669	2462.603654
412.095139	2518.056346
412.475547	2525.618077
412.855894	2543.262115
413.236180	2502.932885
413.616405	2480.247692
413.996568	2462.603654
414.376670	2513.015192
414.756711	2480.247692
415.136691	2480.247692
415.516609	2540.741538
415.896466	2460.083077
416.276262	2545.782692
416.655997	2520.576923
417.035670	2460.083077
417.415283	2505.453462
417.794834	2470.165385
418.174324	2533.179808
418.553753	2530.659231
418.933121	2460.083077
419.312428	2538.220962
419.691674	2414.712692
420.070859	2465.124231
420.449983	2505.453462
420.829045	2384.465769
421.208047	2518.056346
421.586988	2462.603654
421.965867	2492.850577
422.344686	2427.315577
422.723444	2588.632500
423.102141	2477.727115
423.480777	2434.877308
423.859352	2586.111923
424.237866	2427.315577
424.616319	2502.932885
424.994712	2477.727115
425.373044	2507.974038
425.751314	2417.233269
426.129524	2487.809423
426.507673	2444.959615
426.885762	2452.521346
427.263789	2447.480192
427.641756	2462.603654
428.019662	2502.932885
428.397508	2452.521346
428.775292	2515.535769
429.153016	2528.138654
429.530679	2495.371154
429.908282	2500.412308
430.285824	2530.659231
430.663305	2427.315577
431.040726	2462.603654
431.418086	2482.768269
431.795385	2485.288846
432.172624	2475.206538
432.549802	2497.891731
432.926920	2439.918462
433.303977	2525.618077
433.680974	2497.891731
434.057910	2543.262115
434.434786	2477.727115
434.811601	2434.877308
435.188355	2371.862885
435.565050	2528.138654
435.941683	2530.659231
436.318257	2467.644808
436.694770	2472.685962
437.071222	2480.247692
437.447614	2472.685962
437.823946	2530.659231
438.200218	2462.603654
438.576429	2460.083077
438.952580	2515.535769
439.328670	2515.535769
439.704700	2434.877308
440.080670	2424.795000
440.456580	2591.153077
440.832429	2452.521346
441.208218	2462.603654
441.583947	2538.220962
441.959616	2417.233269
442.335224	2394.548077
442.710773	2505.453462
443.086261	2515.535769
443.461689	2487.809423
443.837057	2477.727115
444.212365	2553.344423
444.587612	2462.603654
444.962800	2482.768269
445.337927	2507.974038
445.712995	2432.356731
446.088002	2525.618077
446.462949	2485.288846
446.837837	2555.865000
447.212664	2422.274423
447.587431	2500.412308
447.962139	2452.521346
448.336786	2457.562500
448.711374	2523.097500
449.085901	2510.494615
449.460369	2550.823846
449.834776	2450.000769
450.209124	2432.356731
450.583412	2409.671538
450.957640	2535.700385
451.331808	2455.041923
451.705917	2455.041923
452.079965	2424.795000
452.453954	2429.836154
452.827883	2543.262115
453.201752	2462.603654
453.575562	2482.768269
453.949311	2497.891731
454.323001	2480.247692
454.696632	2505.453462
455.070202	2480.247692
455.443713	2520.576923
455.817164	2502.932885
456.190556	2470.165385
456.563888	2452.521346
456.937160	2555.865000
457.310373	2495.371154
457.683526	2570.988462
458.056619	2485.288846
458.429653	2495.371154
458.802628	2548.303269
459.175542	2381.945192
459.548398	2490.330000
459.921194	2502.932885
460.293930	2548.303269
460.666607	2482.768269
461.039224	2450.000769
461.411782	2439.918462
461.784280	2455.041923
462.156719	2422.274423
462.529099	2455.041923
462.901419	2480.247692
463.273680	2500.412308
463.645882	2487.809423
464.018024	2460.083077
464.390106	2538.220962
464.762130	2505.453462
465.134094	2560.906154
465.505999	2492.850577
465.877845	2505.453462
466.249631	2538.220962
466.621358	2437.397885
466.993026	2470.165385
467.364634	2439.918462
467.736184	2442.439038
468.107674	2472.685962
468.479105	2462.603654
468.850477	2485.288846
469.221790	2455.041923
469.593043	2480.247692
469.964238	2540.741538
470.335373	2465.124231
470.706449	2492.850577
471.077467	2432.356731
471.448425	2505.453462
471.819324	2495.371154
472.190164	2518.056346
472.560945	2560.906154
472.931667	2525.618077
473.302330	2487.809423
473.672934	2472.685962
474.043479	2427.315577
474.413965	2520.576923
474.784393	2452.521346
475.154761	2543.262115
475.525070	2439.918462
475.895321	2502.932885
476.265513	2455.041923
476.635645	2505.453462
477.005719	2510.494615
477.375734	2540.741538
477.745691	2465.124231
478.115588	2442.439038
478.485427	2457.562500
478.855207	2495.371154
479.224928	2515.535769
479.594591	2568.467885
479.964194	2540.741538
480.333739	2492.850577
480.703226	2492.850577
481.072653	2386.986346
481.442022	2427.315577
481.811333	2545.782692
482.180584	2586.111923
482.549777	2480.247692
482.918912	2568.467885
483.287988	2432.356731
483.657005	2487.809423
484.025964	2538.220962
484.394864	2490.330000
484.763706	2502.932885
485.132489	2475.206538
485.501213	2513.015192
485.869879	2397.068654
486.238487	2525.618077
486.607036	2500.412308
486.975527	2437.397885
487.343959	2439.918462
487.712333	2568.467885
488.080648	2472.685962
488.448905	2450.000769
488.817104	2502.932885
489.185244	2490.330000
489.553326	2492.850577
489.921350	2480.247692
490.289315	2515.535769
490.657222	2429.836154
491.025070	2485.288846
491.392861	2540.741538
491.760593	2510.494615
492.128267	2447.480192
492.495883	2515.535769
492.863440	2533.179808
493.230939	2555.865000
493.598380	2505.453462
493.965763	2482.768269
494.333088	2457.562500
494.700354	2444.959615
495.067563	2578.550192
495.434713	2472.685962
495.801805	2429.836154
496.168839	2502.932885
496.535815	2558.385577
496.902733	2513.015192
497.269593	2485.288846
497.636395	2495.371154
498.003139	2465.124231
498.369825	2492.850577
498.736453	2535.700385
499.103023	2462.603654
499.469535	2523.097500
499.835989	2518.056346
500.202385	2515.535769
500.568723	2533.179808
500.935003	2515.535769
501.301226	2485.288846
501.667390	2437.397885
502.033497	2437.397885
502.399546	2515.535769
502.765537	2497.891731
503.131470	2502.932885
503.497345	2381.945192
503.863163	2492.850577
504.228923	2462.603654
504.594625	2482.768269
504.960269	2576.029615
505.325856	2470.165385
505.691385	2515.535769
506.056856	2470.165385
506.422270	2530.659231
506.787625	2407.150962
507.152924	2520.576923
507.518164	2487.809423
507.883347	2495.371154
508.248472	2439.918462
508.613540	2538.220962
508.978550	2475.206538
509.343503	2507.974038
509.708398	2523.097500
510.073236	2495.371154
510.438016	2538.220962
510.802738	2386.986346
511.167403	2452.521346
511.532010	2510.494615
511.896561	2533.179808
512.261053	2437.397885
512.625488	2467.644808
512.989866	2510.494615
513.354186	2545.782692
513.718449	2450.000769
514.082655	2472.685962
514.446803	2437.397885
514.810894	2495.371154
515.174927	2538.220962
515.538904	2439.918462
515.902822	2515.535769
516.266684	2497.891731
516.630488	2497.891731
516.994235	2528.138654
517.357925	2550.823846
517.721558	2533.179808
518.085133	2467.644808
518.448651	2518.056346
518.812112	2482.768269
519.175516	2480.247692
519.538863	2520.576923
519.902152	2442.439038
520.265385	2543.262115
520.628560	2399.589231
520.991678	2485.288846
521.354739	2455.041923
521.717743	2520.576923
522.080690	2515.535769
522.443580	2555.865000
522.806413	2432.356731
523.169189	2533.179808
523.531908	2540.741538
523.894569	2477.727115
524.257174	2507.974038
524.619722	2500.412308
524.982213	2505.453462
525.344647	2550.823846
525.707025	2462.603654
526.069345	2497.891731
526.431608	2581.070769
526.793815	2528.138654
527.155964	2581.070769
527.518057	2460.083077
527.880093	2518.056346
528.242072	2535.700385
528.603995	2538.220962
528.965860	2520.576923
529.327669	2490.330000
529.689421	2487.809423
530.051117	2507.974038
530.412755	2558.385577
530.774337	2465.124231
531.135862	2540.741538
531.497331	2462.603654
531.858743	2523.097500
532.220098	2492.850577
532.581396	2487.809423
532.942638	2495.371154
533.303824	2550.823846
533.664953	2505.453462
534.026025	2535.700385
534.387040	2477.727115
534.747999	2523.097500
535.108902	2460.083077
535.469748	2518.056346
535.830537	2397.068654
536.191270	2573.509038
536.551947	2470.165385
536.912567	2450.000769
537.273131	2422.274423
537.633638	2497.891731
537.994089	2429.836154
538.354483	2510.494615
538.714821	2565.947308
539.075103	2439.918462
539.435328	2492.850577
539.795497	2490.330000
540.155609	2545.782692
540.515665	2492.850577
540.875665	2490.330000
541.235609	2485.288846
541.595496	2555.865000
541.955328	2467.644808
542.315102	2450.000769
542.674821	2530.659231
543.034483	2533.179808
543.394090	2397.068654
543.753640	2533.179808
544.113134	2495.371154
544.472571	2560.906154
544.831953	2530.659231
545.191278	2497.891731
545.550548	2460.083077
545.909761	2507.974038
546.268918	2596.194231
546.628019	2495.371154
546.987064	2538.220962
547.346053	2495.371154
547.704986	2513.015192
548.063863	2543.262115
548.422684	2568.467885
548.781449	2598.714808
549.140158	2457.562500
549.498811	2450.000769
549.857408	2470.165385
550.215949	2543.262115
550.574434	2452.521346
550.932864	2573.509038
551.291237	2439.918462
551.649555	2555.865000
552.007817	2510.494615
552.366022	2450.000769
552.724173	2495.371154
553.082267	2576.029615
553.440305	2507.974038
553.798288	2530.659231
554.156215	2444.959615
554.514086	2543.262115
554.871902	2477.727115
555.229661	2447.480192
555.587365	2520.576923
555.945014	2523.097500
556.302606	2555.865000
556.660143	2432.356731
557.017625	2523.097500
557.375050	2560.906154
557.732421	2470.165385
558.089735	2482.768269
558.446994	2485.288846
558.804197	2515.535769
559.161345	2596.194231
559.518437	2450.000769
559.875474	2525.618077
560.232455	2427.315577
560.589381	2538.220962
560.946251	2543.262115
561.303065	2439.918462
561.659825	2563.426731
562.016528	2507.974038
562.373177	2523.097500
562.729770	2480.247692
563.086307	2535.700385
563.442789	2475.206538
563.799216	2523.097500
564.155587	2545.782692
564.511904	2495.371154
564.868164	2507.974038
565.224370	2472.685962
565.580520	2495.371154
565.936615	2477.727115
566.292654	2513.015192
566.648638	2502.932885
567.004567	2570.988462
567.360441	2533.179808
567.716260	2447.480192
568.072023	2515.535769
568.427732	2429.836154
568.783385	2530.659231
569.138982	2480.247692
569.494525	2482.768269
569.850013	2513.015192
570.205445	2505.453462
570.560823	2495.371154
570.916145	2465.124231
571.271412	2450.000769
571.626625	2444.959615
571.981782	2457.562500
572.336884	2457.562500
572.691931	2553.344423
573.046923	2450.000769
573.401860	2457.562500
573.756743	2548.303269
574.111570	2548.303269
574.466342	2429.836154
574.821059	2520.576923
575.175722	2558.385577
575.530330	2543.262115
575.884882	2533.179808
576.239380	2455.041923
576.593823	2520.576923
576.948211	2543.262115
577.302544	2525.618077
577.656823	2475.206538
578.011047	2523.097500
578.365216	2550.823846
578.719330	2500.412308
579.073389	2502.932885
579.427394	2507.974038
579.781344	2565.947308
580.135239	2470.165385
580.489080	2540.741538
580.842866	2480.247692
581.196597	2497.891731
581.550273	2543.262115
581.903895	2500.412308
582.257463	2439.918462
582.610975	2540.741538
582.964434	2497.891731
583.317837	2586.111923
583.671186	2555.865000
584.024481	2404.630385
584.377721	2515.535769
584.730906	2487.809423
585.084037	2538.220962
585.437113	2442.439038
585.790135	2407.150962
586.143103	2482.768269
586.496016	2513.015192
586.848874	2437.397885
587.201679	2510.494615
587.554428	2482.768269
587.907124	2485.288846
588.259765	2439.918462
588.612352	2502.932885
588.964884	2429.836154
589.317362	2495.371154
589.669786	2497.891731
590.022155	2409.671538
590.374470	2495.371154
590.726731	2550.823846
591.078937	2573.509038
591.431090	2482.768269
591.783188	2505.453462
592.135232	2457.562500
592.487222	2545.782692
592.839157	2495.371154
593.191038	2550.823846
593.542866	2507.974038
593.894639	2553.344423
594.246358	2628.961731
594.598022	2447.480192
594.949633	2505.453462
595.301190	2467.644808
595.652692	2545.782692
596.004141	2467.644808
596.355535	2518.056346
596.706876	2523.097500
597.058162	2492.850577
597.409395	2492.850577
597.760573	2568.467885
598.111698	2497.891731
598.462768	2560.906154
598.813785	2465.124231
599.164748	2500.412308
599.515657	2432.356731
599.866511	2412.192115
600.217312	2500.412308
600.568060	2447.480192
600.918753	2480.247692
601.269392	2495.371154
601.619978	2520.576923
601.970510	2510.494615
602.320988	2487.809423
602.671412	2490.330000
603.021783	2568.467885
603.372100	2515.535769
603.722363	2505.453462
604.072572	2507.974038
604.422728	2560.906154
604.772830	2432.356731
605.122878	2462.603654
605.472872	2442.439038
605.822813	2432.356731
606.172701	2455.041923
606.522534	2475.206538
606.872314	2460.083077
607.222041	2555.865000
607.571714	2490.330000
607.921333	2507.974038
608.270899	2432.356731
608.620411	2535.700385
608.969870	2543.262115
609.319276	2570.988462
609.668627	2457.562500
610.017926	2475.206538
610.367171	2528.138654
610.716362	2429.836154
611.065500	2565.947308
611.414585	2452.521346
611.763616	2558.385577
612.112594	2492.850577
612.461518	2510.494615
612.810389	2452.521346
613.159207	2525.618077
613.507971	2457.562500
613.856682	2500.412308
614.205340	2500.412308
614.553945	2525.618077
614.902496	2447.480192
615.250994	2502.932885
615.599439	2460.083077
615.947830	2510.494615
616.296169	2432.356731
616.644454	2492.850577
616.992686	2505.453462
617.340864	2485.288846
617.688990	2520.576923
618.037063	2480.247692
618.385082	2560.906154
618.733048	2528.138654
619.080961	2543.262115
619.428821	2460.083077
619.776628	2530.659231
620.124382	2475.206538
620.472083	2533.179808
620.819731	2460.083077
621.167326	2490.330000
621.514868	2515.535769
621.862357	2513.015192
622.209793	2555.865000
622.557176	2550.823846
622.904506	2525.618077
623.251783	2502.932885
623.599007	2540.741538
623.946179	2578.550192
624.293297	2505.453462
624.640363	2492.850577
624.987376	2480.247692
625.334336	2545.782692
625.681243	2492.850577
626.028097	2482.768269
626.374899	2500.412308
626.721647	2465.124231
627.068343	2558.385577
627.414987	2520.576923
627.761577	2540.741538
628.108115	2485.288846
628.454600	2588.632500
628.801032	2482.768269
629.147412	2510.494615
629.493739	2495.371154
629.840014	2482.768269
630.186236	2422.274423
630.532405	2470.165385
630.878521	2560.906154
631.224585	2457.562500
631.570597	2455.041923
631.916556	2540.741538
632.262462	2485.288846
632.608316	2550.823846
632.954117	2507.974038
633.299866	2507.974038
633.645562	2424.795000
633.991206	2513.015192
634.336797	2470.165385
634.682336	2513.015192
635.027823	2518.056346
635.373257	2432.356731
635.718639	2525.618077
636.063968	2490.330000
636.409245	2515.535769
636.754470	2513.015192
637.099642	2475.206538
637.444762	2507.974038
637.789829	2414.712692
638.134845	2502.932885
638.479808	2515.535769
638.824719	2462.603654
639.169577	2492.850577
639.514383	2497.891731
639.859137	2525.618077
640.203839	2502.932885
640.548489	2550.823846
640.893086	2475.206538
641.237632	2543.262115
641.582125	2462.603654
641.926566	2480.247692
642.270955	2500.412308
642.615292	2573.509038
642.959576	2515.535769
643.303809	2520.576923
643.647990	2480.247692
643.992118	2460.083077
644.336195	2550.823846
644.680219	2513.015192
645.024192	2515.535769
645.368112	2470.165385
645.711981	2510.494615
646.055797	2444.959615
646.399562	2500.412308
646.743274	2518.056346
647.086935	2475.206538
647.430544	2520.576923
647.774101	2427.315577
648.117606	2490.330000
648.461059	2568.467885
648.804460	2568.467885
649.147810	2465.124231
649.491108	2502.932885
649.834354	2404.630385
650.177548	2598.714808
650.520690	2402.109808
650.863781	2497.891731
651.206820	2555.865000
651.549807	2482.768269
651.892742	2467.644808
652.235626	2576.029615
652.578458	2583.591346
652.921238	2538.220962
653.263967	2545.782692
653.606644	2487.809423
653.949269	2497.891731
654.291843	2500.412308
654.634365	2447.480192
654.976836	2447.480192
655.319255	2507.974038
655.661622	2442.439038
656.003938	2520.576923
656.346203	2477.727115
656.688416	2452.521346
657.030577	2422.274423
657.372687	2485.288846
657.714746	2444.959615
658.056753	2497.891731
658.398708	2434.877308
658.740612	2525.618077
659.082465	2518.056346
659.424266	2507.974038
659.766016	2548.303269
660.107715	2548.303269
660.449362	2578.550192
660.790958	2477.727115
661.132503	2502.932885
661.473996	2568.467885
661.815438	2573.509038
662.156829	2528.138654
662.498168	2447.480192
662.839456	2460.083077
663.180693	2472.685962
663.521879	2480.247692
663.863013	2518.056346
664.204097	2548.303269
664.545129	2505.453462
664.886110	2535.700385
665.227040	2399.589231
665.567918	2472.685962
665.908746	2467.644808
666.249522	2447.480192
666.590248	2598.714808
666.930922	2455.041923
667.271545	2444.959615
667.612118	2497.891731
667.952639	2598.714808
668.293109	2467.644808
668.633528	2442.439038
668.973896	2497.891731
669.314213	2452.521346
669.654480	2392.027500
669.994695	2457.562500
670.334859	2465.124231
670.674973	2402.109808
671.015035	2480.247692
671.355047	2550.823846
671.695008	2502.932885
672.034918	2553.344423
672.374777	2505.453462
672.714585	2500.412308
673.054342	2530.659231
673.394049	2555.865000
673.733705	2429.836154
674.073310	2492.850577
674.412864	2444.959615
674.752368	2495.371154
675.091820	2528.138654
675.431223	2565.947308
675.770574	2424.795000
676.109875	2502.932885
676.449125	2538.220962
676.788324	2452.521346
677.127473	2538.220962
677.466571	2618.879423
677.805619	2500.412308
678.144616	2558.385577
678.483562	2550.823846
678.822458	2513.015192
679.161303	2447.480192
679.500098	2505.453462
679.838842	2482.768269
680.177535	2434.877308
680.516179	2555.865000
680.854771	2528.138654
681.193314	2568.467885
681.531805	2505.453462
681.870247	2487.809423
682.208638	2523.097500
682.546978	2442.439038
682.885268	2507.974038
683.223508	2528.138654
683.561697	2452.521346
683.899836	2515.535769
684.237925	2480.247692
684.575963	2563.426731
684.913951	2467.644808
685.251889	2505.453462
685.589776	2447.480192
685.927614	2570.988462
686.265401	2475.206538
686.603137	2518.056346
686.940824	2442.439038
687.278460	2628.961731
687.616046	2525.618077
687.953582	2457.562500
688.291068	2492.850577
688.628504	2424.795000
688.965889	2528.138654
689.303224	2558.385577
689.640510	2502.932885
689.977745	2560.906154
690.314930	2477.727115
690.652065	2492.850577
690.989150	2528.138654
691.326185	2485.288846
691.663170	2540.741538
692.000105	2558.385577
692.336990	2515.535769
692.673825	2523.097500
693.010610	2502.932885
693.347345	2540.741538
693.684030	2518.056346
694.020665	2437.397885
694.357251	2485.288846
694.693786	2495.371154
695.030272	2485.288846
695.366707	2432.356731
695.703093	2513.015192
696.039429	2538.220962
696.375716	2447.480192
696.711952	2492.850577
697.048139	2530.659231
697.384276	2470.165385
697.720363	2487.809423
698.056400	2568.467885
698.392388	2480.247692
698.728326	2565.947308
699.064214	2525.618077
699.400053	2548.303269
699.735842	2528.138654
700.071581	2586.111923
700.407270	2462.603654
700.742910	2502.932885
701.078501	2583.591346
701.414042	2482.768269
701.749533	2482.768269
702.084974	2535.700385
702.420366	2455.041923
702.755709	2520.576923
703.091002	2429.836154
703.426246	2525.618077
703.761440	2502.932885
704.096584	2467.644808
704.431679	2450.000769
704.766725	2530.659231
705.101721	2502.932885
705.436668	2490.330000
705.771565	2507.974038
706.106413	2555.865000
706.441212	2525.618077
706.775961	2540.741538
707.110661	2505.453462
707.445311	2518.056346
707.779913	2553.344423
708.114465	2543.262115
708.448967	2490.330000
708.783421	2477.727115
709.117825	2518.056346
709.452180	2540.741538
709.786485	2550.823846
710.120742	2525.618077
710.454949	2462.603654
710.789107	2548.303269
711.123216	2525.618077
711.457275	2419.753846
711.791286	2472.685962
712.125247	2515.535769
712.459159	2533.179808
712.793023	2518.056346
713.126837	2480.247692
713.460602	2550.823846
713.794318	2492.850577
714.127985	2500.412308
714.461602	2477.727115
714.795171	2545.782692
715.128691	2485.288846
715.462162	2570.988462
715.795584	2460.083077
716.128957	2462.603654
716.462281	2452.521346
716.795556	2467.644808
717.128782	2570.988462
717.461960	2475.206538
717.795088	2434.877308
718.128167	2429.836154
718.461198	2528.138654
718.794180	2545.782692
719.127113	2502.932885
719.459997	2487.809423
719.792833	2545.782692
720.125619	2492.850577
720.458357	2502.932885
720.791046	2505.453462
721.123686	2502.932885
721.456278	2477.727115
721.788821	2520.576923
722.121315	2399.589231
722.453761	2533.179808
722.786158	2429.836154
723.118506	2523.097500
723.450805	2520.576923
723.783056	2515.535769
724.115259	2540.741538
724.447412	2485.288846
724.779518	2379.424615
725.111574	2565.947308
725.443582	2507.974038
725.775542	2434.877308
726.107453	2558.385577
726.439315	2505.453462
726.771129	2497.891731
727.102895	2457.562500
727.434612	2487.809423
727.766281	2422.274423
728.097901	2487.809423
728.429473	2507.974038
728.760996	2593.673654
729.092471	2472.685962
729.423897	2555.865000
729.755276	2482.768269
730.086606	2507.974038
730.417887	2475.206538
730.749120	2424.795000
731.080305	2472.685962
731.411442	2475.206538
731.742530	2513.015192
732.073570	2492.850577
732.404562	2442.439038
732.735506	2444.959615
733.066401	2563.426731
733.397249	2475.206538
733.728048	2576.029615
734.058798	2515.535769
734.389501	2507.974038
734.720156	2576.029615
735.050762	2553.344423
735.381320	2548.303269
735.711831	2548.303269
736.042293	2558.385577
736.372707	2563.426731
736.703073	2465.124231
737.033391	2598.714808
737.363661	2563.426731
737.693883	2477.727115
738.024056	2500.412308
738.354182	2492.850577
738.684260	2487.809423
739.014290	2570.988462
739.344272	2507.974038
739.674207	2450.000769
740.004093	2500.412308
740.333931	2447.480192
740.663722	2540.741538
740.993464	2518.056346
741.323159	2500.412308
741.652806	2515.535769
741.982405	2497.891731
742.311956	2460.083077
742.641460	2518.056346
742.970915	2586.111923
743.300323	2523.097500
743.629683	2523.097500
743.958996	2555.865000
744.288260	2558.385577
744.617477	2447.480192
744.946647	2465.124231
745.275768	2560.906154
745.604842	2457.562500
745.933869	2477.727115
746.262847	2467.644808
746.591778	2502.932885
746.920662	2470.165385
747.249498	2518.056346
747.578286	2558.385577
747.907027	2497.891731
748.235720	2500.412308
748.564365	2540.741538
748.892963	2502.932885
749.221514	2578.550192
749.550017	2528.138654
749.878473	2515.535769
750.206881	2475.206538
750.535242	2475.206538
750.863555	2492.850577
751.191821	2518.056346
751.520039	2492.850577
751.848210	2482.768269
752.176334	2548.303269
752.504411	2439.918462
752.832440	2507.974038
753.160421	2505.453462
753.488356	2520.576923
753.816243	2492.850577
754.144082	2480.247692
754.471875	2568.467885
754.799620	2472.685962
755.127318	2490.330000
755.454969	2470.165385
755.782572	2409.671538
756.110129	2472.685962
756.437638	2530.659231
756.765100	2540.741538
757.092515	2550.823846
757.419882	2505.453462
757.747203	2505.453462
758.074477	2460.083077
758.401703	2545.782692
758.728882	2460.083077
759.056014	2528.138654
759.383099	2437.397885
759.710138	2485.288846
760.037129	2543.262115
760.364073	2485.288846
760.690970	2538.220962
761.017820	2563.426731
761.344623	2472.685962
761.671379	2450.000769
761.998088	2548.303269
762.324751	2427.315577
762.651366	2480.247692
762.977935	2495.371154
763.304456	2444.959615
763.630931	2447.480192
763.957359	2518.056346
764.283740	2434.877308
764.610074	2452.521346
764.936362	2523.097500
765.262602	2487.809423
765.588796	2588.632500
765.914943	2442.439038
766.241044	2530.659231
766.567097	2455.041923
766.893104	2452.521346
767.219064	2513.015192
767.544978	2485.288846
767.870845	2444.959615
768.196665	2417.233269
768.522438	2500.412308
768.848165	2510.494615
769.173846	2462.603654
769.499479	2452.521346
769.825066	2447.480192
770.150607	2485.288846
770.476101	2465.124231
770.801548	2480.247692
771.126949	2495.371154
771.452303	2518.056346
771.777611	2492.850577
772.102872	2492.850577
772.428087	2495.371154
772.753256	2492.850577
773.078378	2507.974038
773.403453	2560.906154
773.728482	2535.700385
774.053465	2528.138654
774.378401	2505.453462
774.703291	2518.056346
775.028135	2460.083077
775.352932	2513.015192
775.677683	2583.591346
776.002388	2513.015192
776.327046	2583.591346
776.651658	2455.041923
776.976224	2581.070769
777.300743	2500.412308
777.625216	2490.330000
777.949643	2520.576923
778.274024	2538.220962
778.598359	2475.206538
778.922647	2495.371154
779.246889	2520.576923
779.571086	2555.865000
779.895236	2578.550192
780.219339	2472.685962
780.543397	2432.356731
780.867409	2480.247692
781.191374	2507.974038
781.515294	2553.344423
781.839167	2414.712692
782.162995	2490.330000
782.486776	2480.247692
782.810511	2492.850577
783.134201	2555.865000
783.457844	2457.562500
783.781441	2490.330000
784.104993	2576.029615
784.428498	2586.111923
784.751958	2462.603654
785.075372	2447.480192
785.398739	2510.494615
785.722061	2482.768269
786.045337	2513.015192
786.368568	2550.823846
786.691752	2568.467885
787.014891	2555.865000
787.337983	2434.877308
787.661030	2480.247692
787.984031	2490.330000
788.306987	2523.097500
788.629897	2457.562500
788.952760	2553.344423
789.275579	2510.494615
789.598351	2485.288846
789.921078	2591.153077
790.243759	2543.262115
790.566395	2550.823846
790.888984	2475.206538
791.211529	2467.644808
791.534027	2374.383462
791.856480	2525.618077
792.178888	2485.288846
792.501249	2452.521346
792.823566	2528.138654
793.145836	2502.932885
793.468062	2477.727115
793.790241	2533.179808
794.112375	2500.412308
794.434464	2563.426731
794.756507	2500.412308
795.078505	2502.932885
795.400457	2540.741538
795.722364	2510.494615
796.044226	2444.959615
796.366042	2455.041923
796.687812	2545.782692
797.009538	2505.453462
797.331218	2545.782692
797.652852	2513.015192
797.974442	2472.685962
798.295986	2452.521346
798.617484	2502.932885
798.938938	2457.562500
799.260346	2505.453462
799.581709	2450.000769
799.903026	2596.194231
800.224299	2460.083077
800.545526	2482.768269
800.866708	2452.521346
801.187845	2455.041923
801.508936	2482.768269
801.829983	2525.618077
802.150984	2465.124231
802.471940	2495.371154
802.792851	2528.138654
803.113717	2490.330000
803.434538	2402.109808
803.755314	2523.097500
804.076045	2568.467885
804.396731	2457.562500
804.717372	2419.753846
805.037967	2530.659231
805.358518	2480.247692
805.679024	2437.397885
805.999485	2462.603654
806.319901	2490.330000
806.640272	2465.124231
806.960598	2444.959615
807.280879	2513.015192
807.601115	2545.782692
807.921306	2480.247692
808.241453	2492.850577
808.561554	2427.315577
808.881611	2530.659231
809.201623	2467.644808
809.521590	2439.918462
809.841513	2525.618077
810.161390	2462.603654
810.481223	2500.412308
810.801011	2543.262115
811.120755	2470.165385
811.440453	2492.850577
811.760107	2555.865000
812.079716	2500.412308
812.399281	2480.247692
812.718801	2550.823846
813.038276	2455.041923
813.357707	2528.138654
813.677093	2404.630385
813.996434	2470.165385
814.315731	2565.947308
814.634983	2548.303269
814.954191	2442.439038
815.273354	2518.056346
815.592473	2525.618077
815.911547	2507.974038
816.230577	2543.262115
816.549562	2540.741538
816.868502	2482.768269
817.187399	2462.603654
817.506250	2507.974038
817.825058	2570.988462
818.143821	2495.371154
818.462539	2465.124231
818.781213	2419.753846
819.099843	2518.056346
819.418429	2596.194231
819.736970	2432.356731
820.055466	2523.097500
820.373919	2500.412308
820.692327	2442.439038
821.010691	2502.932885
821.329011	2465.124231
821.647286	2434.877308
821.965517	2545.782692
822.283704	2455.041923
822.601847	2545.782692
822.919945	2502.932885
823.237999	2543.262115
823.556010	2603.755962
823.873976	2563.426731
824.191897	2497.891731
824.509775	2570.988462
824.827609	2404.630385
825.145398	2510.494615
825.463144	2606.276538
825.780845	2477.727115
826.098502	2535.700385
826.416116	2437.397885
826.733685	2434.877308
827.051210	2563.426731
827.368692	2422.274423
827.686129	2477.727115
828.003522	2447.480192
828.320872	2533.179808
828.638177	2480.247692
828.955439	2450.000769
829.272656	2588.632500
829.589830	2457.562500
829.906960	2530.659231
830.224046	2560.906154
830.541088	2520.576923
830.858086	2437.397885
831.175041	2392.027500
831.491952	2515.535769
831.808819	2460.083077
832.125642	2419.753846
832.442421	2502.932885
832.759157	2495.371154
833.075849	2543.262115
833.392497	2515.535769
833.709101	2485.288846
834.025662	2510.494615
834.342179	2533.179808
834.658653	2535.700385
834.975083	2482.768269
835.291469	2467.644808
835.607811	2540.741538
835.924110	2550.823846
836.240366	2412.192115
836.556578	2591.153077
836.872746	2437.397885
837.188871	2460.083077
837.504952	2520.576923
837.820990	2570.988462
838.136984	2535.700385
838.452935	2442.439038
838.768842	2570.988462
839.084706	2505.453462
839.400526	2520.576923
839.716303	2462.603654
840.032037	2485.288846
840.347727	2530.659231
840.663373	2497.891731
840.978977	2505.453462
841.294537	2470.165385
841.610054	2467.644808
841.925527	2555.865000
842.240957	2482.768269
842.556344	2462.603654
842.871687	2525.618077
843.186987	2502.932885
843.502244	2477.727115
843.817458	2520.576923
844.132629	2525.618077
844.447756	2467.644808
844.762840	2510.494615
845.077881	2462.603654
845.392879	2485.288846
845.707833	2528.138654
846.022745	2457.562500
846.337613	2545.782692
846.652438	2555.865000
846.967221	2467.644808
847.281960	2487.809423
847.596656	2492.850577
847.911309	2548.303269
848.225919	2558.385577
848.540485	2487.809423
848.855009	2518.056346
849.169490	2394.548077
849.483928	2452.521346
849.798323	2447.480192
850.112675	2507.974038
850.426984	2502.932885
850.741251	2472.685962
851.055474	2490.330000
851.369654	2507.974038
851.683792	2548.303269
851.997887	2450.000769
852.311938	2505.453462
852.625947	2480.247692
852.939914	2523.097500
853.253837	2477.727115
853.567718	2545.782692
853.881555	2467.644808
854.195350	2555.865000
854.509103	2460.083077
854.822812	2497.891731
855.136479	2427.315577
855.450103	2513.015192
855.763685	2548.303269
856.077224	2565.947308
856.390720	2442.439038
856.704173	2467.644808
857.017584	2505.453462
857.330953	2457.562500
857.644278	2543.262115
857.957561	2470.165385
858.270802	2472.685962
858.584000	2513.015192
858.897155	2538.220962
859.210268	2424.795000
859.523339	2500.412308
859.836367	2475.206538
860.149352	2465.124231
860.462295	2492.850577
860.775195	2553.344423
861.088054	2465.124231
861.400869	2583.591346
861.713642	2397.068654
862.026373	2495.371154
862.339062	2555.865000
862.651708	2487.809423
862.964312	2434.877308
863.276873	2477.727115
863.589392	2518.056346
863.901869	2417.233269
864.214303	2523.097500
864.526696	2513.015192
864.839045	2543.262115
865.151353	2523.097500
865.463619	2467.644808
865.775842	2581.070769
866.088023	2460.083077
866.400162	2525.618077
866.712258	2455.041923
867.024313	2518.056346
867.336325	2545.782692
867.648296	2510.494615
867.960224	2407.150962
868.272110	2538.220962
868.583954	2482.768269
868.895755	2447.480192
869.207515	2470.165385
869.519233	2518.056346
869.830909	2487.809423
870.142542	2444.959615
870.454134	2568.467885
870.765684	2515.535769
871.077191	2492.850577
871.388657	2583.591346
871.700081	2492.850577
872.011463	2518.056346
872.322803	2563.426731
872.634101	2404.630385
872.945357	2485.288846
873.256571	2495.371154
873.567744	2553.344423
873.878874	2490.330000
874.189963	2497.891731
874.501010	2442.439038
874.812015	2507.974038
875.122979	2434.877308
875.433900	2465.124231
875.744780	2487.809423
876.055618	2490.330000
876.366415	2482.768269
876.677169	2548.303269
876.987882	2452.521346
877.298554	2437.397885
877.609183	2545.782692
877.919771	2460.083077
878.230317	2482.768269
878.540822	2460.083077
878.851285	2543.262115
879.161707	2467.644808
879.472087	2520.576923
879.782425	2414.712692
880.092722	2510.494615
880.402977	2570.988462
880.713191	2452.521346
881.023363	2535.700385
881.333494	2538.220962
881.643583	2510.494615
881.953631	2475.206538
882.263637	2550.823846
882.573602	2487.809423
882.883526	2543.262115
883.193408	2419.753846
883.503248	2467.644808
883.813048	2485.288846
884.122806	2482.768269
884.432522	2535.700385
884.742197	2565.947308
885.051831	2513.015192
885.361424	2482.768269
885.670975	2616.358846
885.980485	2482.768269
886.289954	2497.891731
886.599382	2470.165385
886.908768	2470.165385
887.218113	2477.727115
887.527417	2530.659231
887.836680	2452.521346
888.145901	2480.247692
888.455082	2485.288846
888.764221	2528.138654
889.073319	2510.494615
889.382376	2500.412308
889.691392	2510.494615
890.000366	2467.644808
890.309300	2528.138654
890.618193	2470.165385
890.927044	2444.959615
891.235855	2455.041923
891.544625	2427.315577
891.853353	2467.644808
892.162041	2550.823846
892.470687	2467.644808
892.779293	2457.562500
893.087858	2472.685962
893.396381	2442.439038
893.704864	2555.865000
894.013306	2548.303269
894.321707	2447.480192
894.630068	2485.288846
894.938387	2570.988462
895.246665	2432.356731
895.554903	2492.850577
895.863100	2507.974038
896.171256	2593.673654
896.479371	2480.247692
896.787446	2439.918462
897.095480	2530.659231
897.403473	2457.562500
897.711425	2475.206538
898.019336	2475.206538
898.327207	2470.165385
898.635038	2475.206538
898.942827	2472.685962
899.250576	2487.809423
899.558284	2558.385577
899.865952	2525.618077
900.173579	2502.932885
900.481165	2555.865000
900.788711	2492.850577
901.096216	2543.262115
901.403681	2538.220962
901.711105	2500.412308
902.018489	2462.603654
902.325832	2480.247692
902.633135	2480.247692
902.940397	2477.727115
903.247619	2485.288846
903.554800	2480.247692
903.861941	2404.630385
904.169041	2510.494615
904.476101	2523.097500
904.783121	2533.179808
905.090100	2611.317692
905.397039	2558.385577
905.703938	2520.576923
906.010796	2530.659231
906.317614	2525.618077
906.624391	2500.412308
906.931129	2371.862885
907.237826	2444.959615
907.544483	2520.576923
907.851099	2518.056346
908.157675	2515.535769
908.464211	2555.865000
908.770707	2518.056346
909.077163	2611.317692
909.383578	2558.385577
909.689954	2593.673654
909.996289	2502.932885
910.302584	2507.974038
910.608839	2485.288846
910.915054	2523.097500
911.221229	2515.535769
911.527363	2510.494615
911.833458	2497.891731
912.139513	2553.344423
912.445527	2565.947308
912.751502	2507.974038
913.057436	2465.124231
913.363331	2487.809423
913.669186	2465.124231
913.975000	2477.727115
914.280775	2467.644808
914.586510	2502.932885
914.892205	2578.550192
915.197859	2492.850577
915.503475	2487.809423
915.809050	2412.192115
916.114585	2515.535769
916.420081	2442.439038
916.725536	2394.548077
917.030952	2467.644808
917.336328	2550.823846
917.641665	2497.891731
917.946961	2545.782692
918.252218	2513.015192
918.557435	2392.027500
918.862612	2470.165385
919.167750	2462.603654
919.472848	2538.220962
919.777906	2450.000769
920.082925	2485.288846
920.387904	2465.124231
920.692843	2495.371154
920.997743	2497.891731
921.302603	2369.342308
921.607423	2467.644808
921.912204	2432.356731
922.216946	2422.274423
922.521647	2462.603654
922.826310	2510.494615
923.130932	2523.097500
923.435516	2490.330000
923.740059	2535.700385
924.044564	2485.288846
924.349028	2545.782692
924.653454	2434.877308
924.957840	2475.206538
925.262186	2462.603654
925.566493	2513.015192
925.870761	2447.480192
926.174989	2422.274423
926.479178	2558.385577
926.783328	2419.753846
927.087438	2495.371154
927.391509	2462.603654
927.695541	2545.782692
927.999533	2533.179808
928.303486	2404.630385
928.607400	2523.097500
928.911275	2455.041923
929.215110	2412.192115
929.518906	2565.947308
929.822663	2487.809423
930.126381	2505.453462
930.430060	2472.685962
930.733699	2540.741538
931.037299	2462.603654
931.340861	2618.879423
931.644383	2538.220962
931.947866	2520.576923
932.251309	2470.165385
932.554714	2465.124231
932.858080	2467.644808
933.161407	2462.603654
933.464694	2480.247692
933.767943	2510.494615
934.071153	2543.262115
934.374323	2482.768269
934.677455	2460.083077
934.980548	2550.823846
935.283602	2470.165385
935.586617	2570.988462
935.889593	2560.906154
936.192530	2490.330000
936.495428	2465.124231
936.798287	2460.083077
937.101108	2480.247692
937.403890	2429.836154
937.706632	2540.741538
938.009336	2513.015192
938.312002	2520.576923
938.614628	2485.288846
938.917216	2490.330000
939.219765	2525.618077
939.522275	2500.412308
939.824747	2535.700385
940.127179	2523.097500
940.429573	2480.247692
940.731929	2528.138654
941.034246	2465.124231
941.336524	2477.727115
941.638763	2555.865000
941.940964	2515.535769
942.243126	2548.303269
942.545250	2568.467885
942.847335	2467.644808
943.149381	2482.768269
943.451389	2477.727115
943.753359	2447.480192
944.055290	2563.426731
944.357182	2467.644808
944.659036	2465.124231
944.960851	2588.632500
945.262628	2513.015192
945.564367	2485.288846
945.866067	2573.509038
946.167729	2492.850577
946.469352	2523.097500
946.770937	2500.412308
947.072484	2487.809423
947.373992	2495.371154
947.675462	2540.741538
947.976893	2470.165385
948.278286	2465.124231
948.579641	2548.303269
948.880958	2477.727115
949.182236	2465.124231
949.483476	2465.124231
949.784678	2573.509038
950.085841	2528.138654
950.386967	2497.891731
950.688054	2528.138654
950.989103	2507.974038
951.290114	2505.453462
951.591087	2452.521346
951.892021	2502.932885
952.192917	2477.727115
952.493776	2472.685962
952.794596	2447.480192
953.095378	2510.494615
953.396122	2525.618077
953.696828	2442.439038
953.997496	2470.165385
954.298126	2447.480192
954.598718	2419.753846
954.899272	2487.809423
955.199788	2490.330000
955.500266	2419.753846
955.800706	2538.220962
956.101108	2434.877308
956.401472	2513.015192
956.701798	2434.877308
957.002087	2404.630385
957.302337	2563.426731
957.602550	2457.562500
957.902724	2535.700385
958.202861	2472.685962
958.502960	2402.109808
958.803022	2525.618077
959.103045	2477.727115
959.403031	2462.603654
959.702979	2530.659231
960.002889	2460.083077
960.302762	2553.344423
960.602596	2558.385577
960.902393	2545.782692
961.202153	2565.947308
961.501875	2439.918462
961.801559	2490.330000
962.101205	2497.891731
962.400814	2457.562500
962.700385	2523.097500
962.999918	2565.947308
963.299414	2545.782692
963.598873	2477.727115
963.898293	2558.385577
964.197677	2505.453462
964.497022	2467.644808
964.796331	2447.480192
965.095601	2502.932885
965.394835	2477.727115
965.694030	2563.426731
965.993189	2518.056346
966.292309	2452.521346
966.591393	2419.753846
966.890439	2507.974038
967.189447	2470.165385
967.488419	2482.768269
967.787353	2490.330000
968.086249	2450.000769
968.385108	2563.426731
968.683930	2475.206538
968.982714	2429.836154
969.281462	2505.453462
969.580172	2475.206538
969.878844	2485.288846
970.177480	2533.179808
970.476078	2515.535769
970.774639	2477.727115
971.073162	2457.562500
971.371649	2518.056346
971.670098	2500.412308
971.968510	2457.562500
972.266885	2583.591346
972.565223	2513.015192
972.863524	2563.426731
973.161788	2455.041923
973.460014	2467.644808
973.758204	2414.712692
974.056356	2495.371154
974.354471	2439.918462
974.652550	2497.891731
974.950591	2457.562500
975.248595	2563.426731
975.546563	2467.644808
975.844493	2510.494615
976.142386	2497.891731
976.440243	2533.179808
976.738062	2500.412308
977.035845	2507.974038
977.333590	2515.535769
977.631299	2462.603654
977.928971	2515.535769
978.226606	2500.412308
978.524204	2558.385577
978.821765	2432.356731
979.119290	2455.041923
979.416777	2502.932885
979.714228	2500.412308
980.011642	2482.768269
980.309020	2470.165385
980.606360	2487.809423
980.903664	2500.412308
981.200931	2515.535769
981.498162	2495.371154
981.795356	2495.371154
982.092513	2467.644808
982.389633	2510.494615
982.686717	2482.768269
982.983764	2553.344423
983.280775	2467.644808
983.577749	2497.891731
983.874686	2450.000769
984.171587	2465.124231
984.468451	2414.712692
984.765279	2523.097500
985.062070	2492.850577
985.358824	2570.988462
985.655543	2492.850577
985.952224	2462.603654
986.248869	2565.947308
986.545478	2530.659231
986.842050	2495.371154
987.138586	2581.070769
987.435086	2485.288846
987.731549	2502.932885
988.027975	2485.288846
988.324366	2422.274423
988.620719	2465.124231
988.917037	2533.179808
989.213318	2500.412308
989.509563	2513.015192
989.805772	2500.412308
990.101944	2563.426731
990.398080	2555.865000
990.694180	2485.288846
990.990244	2444.959615
991.286271	2535.700385
991.582262	2409.671538
991.878217	2402.109808
992.174136	2427.315577
992.470019	2437.397885
992.765865	2472.685962
993.061676	2485.288846
993.357450	2550.823846
993.653188	2442.439038
993.948890	2573.509038
994.244556	2450.000769
994.540186	2472.685962
994.835780	2450.000769
995.131337	2560.906154
995.426859	2379.424615
995.722345	2485.288846
996.017795	2429.836154
996.313208	2404.630385
996.608586	2545.782692
996.903928	2500.412308
997.199234	2492.850577
997.494504	2460.083077
997.789738	2507.974038
998.084936	2513.015192
998.380099	2560.906154
998.675225	2475.206538
998.970316	2520.576923
999.265371	2588.632500
999.560390	2434.877308
999.855373	2520.576923
1000.150320	2437.397885
1000.445232	2510.494615
1000.740108	2447.480192
1001.034948	2477.727115
1001.329752	2455.041923
1001.624521	2507.974038
1001.919254	2535.700385
1002.213951	2422.274423
1002.508613	2467.644808
1002.803239	2442.439038
1003.097829	2548.303269
1003.392384	2467.644808
1003.686903	2570.988462
1003.981386	2472.685962
1004.275834	2409.671538
1004.570246	2548.303269
1004.864623	2457.562500
1005.158964	2465.124231
1005.453270	2535.700385
1005.747540	2581.070769
1006.041775	2467.644808
1006.335974	2467.644808
1006.630138	2447.480192
1006.924266	2553.344423
1007.218359	2530.659231
1007.512416	2507.974038
1007.806438	2513.015192
1008.100425	2427.315577
1008.394376	2455.041923
1008.688292	2540.741538
1008.982172	2417.233269
1009.276017	2490.330000
1009.569827	2492.850577
1009.863602	2467.644808
1010.157341	2515.535769
1010.451045	2482.768269
1010.744714	2510.494615
1011.038347	2470.165385
1011.331945	2462.603654
1011.625508	2502.932885
1011.919036	2525.618077
1012.212528	2429.836154
1012.505986	2535.700385
1012.799408	2444.959615
1013.092795	2450.000769
1013.386147	2462.603654
1013.679464	2530.659231
1013.972745	2538.220962
1014.265992	2507.974038
1014.559204	2470.165385
1014.852380	2555.865000
1015.145521	2515.535769
1015.438628	2497.891731
1015.731699	2523.097500
1016.024736	2455.041923
1016.317737	2467.644808
1016.610703	2442.439038
1016.903635	2407.150962
1017.196531	2500.412308
1017.489393	2543.262115
1017.782219	2538.220962
1018.075011	2485.288846
1018.367768	2553.344423
1018.660490	2505.453462
1018.953177	2505.453462
1019.245829	2505.453462
