Dividing Wavelength (nm)	Counts (n)	Blue Motor Position (mm): 0.000000	Red Motor Position (mm): 11.000000	
326.493990	2148.534728
326.888308	2148.534728
327.282561	2148.534728
327.676750	2126.903137
328.070874	2124.672426
328.464933	2128.778446
328.858929	2141.494757
329.252859	2151.650161
329.646726	2163.887562
330.040528	2179.338699
330.434265	2200.854343
330.827938	2217.956458
331.221547	2237.201063
331.615091	2257.075812
332.008571	2277.689090
332.401986	2296.359003
332.795338	2315.790130
333.188625	2334.918789
333.581847	2353.581140
333.975006	2374.892618
334.368100	2393.262583
334.761129	2411.365366
335.154095	2425.142840
335.546996	2442.537341
335.939833	2459.790690
336.332606	2467.246557
336.725315	2483.126191
337.117960	2490.574496
337.510540	2499.653614
337.903056	2508.112670
338.295508	2514.691376
338.687896	2522.658920
339.080220	2529.124199
339.472480	2534.976979
339.864676	2537.726928
340.256807	2541.621220
340.648875	2543.453679
341.040879	2546.886705
341.432818	2546.397713
341.824694	2548.356201
342.216506	2548.267981
342.608253	2547.632796
342.999937	2545.281098
343.391557	2545.709596
343.783113	2542.299255
344.174605	2544.529966
344.566033	2541.790098
344.957397	2541.079296
345.348697	2538.329346
345.739934	2535.818852
346.131106	2535.990251
346.522215	2535.395395
346.913260	2530.674354
347.304241	2531.564118
347.695159	2529.388860
348.086012	2527.347193
348.476802	2525.224867
348.867528	2526.344003
349.258191	2520.720596
349.648789	2522.603467
350.039324	2520.876872
350.429796	2519.460308
350.820203	2516.967457
351.210548	2517.098527
351.600828	2515.576098
351.991045	2516.254134
352.381198	2518.288239
352.771288	2515.349247
353.161314	2513.108454
353.551276	2514.073835
353.941175	2515.934020
354.331010	2516.551562
354.720782	2514.882940
355.110490	2517.567354
355.500135	2516.349916
355.889717	2516.060049
356.279235	2519.293949
356.668689	2520.450894
357.058080	2518.275636
357.447408	2516.065090
357.836672	2514.091479
358.225873	2515.767662
358.615010	2514.978722
359.004084	2523.465504
359.393095	2517.532066
359.782043	2523.236132
360.170927	2521.275123
360.559748	2520.599608
360.948505	2523.959537
361.337199	2522.416944
361.725830	2523.858714
362.114398	2525.144208
362.502903	2523.440298
362.891344	2522.371574
363.279722	2528.549508
363.668037	2526.530526
364.056289	2526.964065
364.444478	2527.581606
364.832603	2530.540764
365.220665	2526.250742
365.608665	2525.187058
365.996601	2528.892306
366.384474	2528.317615
366.772284	2527.425331
367.160031	2528.962883
367.547715	2530.681916
367.935336	2533.346166
368.322893	2530.694519
368.710388	2529.915661
369.097820	2535.405477
369.485189	2529.330887
369.872495	2528.352903
370.259738	2531.443130
370.646918	2530.180321
371.034035	2532.917668
371.421090	2535.191228
371.808081	2532.779036
372.195010	2534.535878
372.581875	2530.276103
372.968678	2536.627957
373.355418	2535.103008
373.742096	2536.998482
374.128710	2537.762217
374.515262	2537.505118
374.901751	2536.663245
375.288177	2541.931251
375.674540	2541.790098
376.060841	2543.856972
376.447079	2543.829245
376.833254	2544.696324
377.219367	2544.966025
377.605417	2548.971222
377.991404	2546.566592
378.377329	2550.753270
378.763191	2551.469114
379.148991	2560.283571
379.534727	2564.447564
379.920402	2568.263718
380.306013	2571.631209
380.691563	2576.034657
381.077049	2579.946592
381.462474	2582.923393
381.847835	2590.550659
382.233134	2594.926381
382.618371	2598.336721
383.003545	2607.826693
383.388657	2611.315172
383.773706	2621.465535
384.158693	2624.041565
384.543618	2632.566156
384.928480	2637.640077
385.313280	2645.433701
385.698017	2651.379742
386.082692	2663.533964
386.467305	2667.642504
386.851856	2677.699606
387.236344	2688.631348
387.620770	2691.441792
388.005133	2700.447813
388.389435	2711.850903
388.773674	2718.926162
389.157851	2726.071998
389.541965	2735.816548
389.926018	2737.825448
390.310008	2751.328179
390.693936	2760.709766
391.077802	2769.909872
391.461606	2778.235337
391.845348	2784.713220
392.229027	2795.854170
392.612645	2806.871612
392.996200	2813.616676
393.379694	2823.991370
393.763125	2838.172136
394.146494	2843.856037
394.529801	2852.630165
394.913047	2864.270189
395.296230	2864.605426
395.679351	2867.375540
396.062410	2883.287942
396.445408	2874.755789
396.828343	2880.716954
397.211217	2881.392468
397.594028	2872.711602
397.976778	2878.347612
398.359466	2886.166441
398.742092	2880.328785
399.124656	2884.432284
399.507158	2891.557955
399.889598	2890.166597
400.271977	2895.676578
400.654294	2892.183058
401.036549	2896.543656
401.418742	2894.108779
401.800874	2901.292423
402.182944	2899.102042
402.564952	2909.393558
402.946898	2895.825292
403.328783	2894.746485
403.710606	2891.328583
404.092367	2898.849984
404.474067	2901.584810
404.855705	2887.207439
405.237282	2878.420708
405.618797	2884.472613
406.000250	2884.782644
406.381642	2891.373953
406.762972	2880.117057
407.144240	2862.992257
407.525447	2862.941845
407.906593	2851.369877
408.287677	2848.919876
408.668700	2843.848475
409.049661	2830.920436
409.430560	2824.145125
409.811399	2812.253043
410.192176	2810.145841
410.572891	2800.938174
410.953545	2798.505817
411.334138	2777.532096
411.714669	2782.666512
412.095139	2754.650299
412.475547	2756.119795
412.855894	2744.729308
413.236180	2740.514904
413.616405	2725.265413
413.996568	2720.466235
414.376670	2708.783361
414.756711	2700.246167
415.136691	2695.444468
415.516609	2688.908612
415.896466	2680.966274
416.276262	2675.539472
416.655997	2666.324242
417.035670	2658.838129
417.415283	2659.659837
417.794834	2651.659526
418.174324	2645.983187
418.553753	2638.020684
418.933121	2633.203862
419.312428	2627.625825
419.691674	2623.555093
420.070859	2619.214660
420.449983	2610.725357
420.829045	2609.248299
421.208047	2603.597165
421.586988	2602.828389
421.965867	2596.287492
422.344686	2593.713983
422.723444	2593.832450
423.102141	2586.061512
423.480777	2587.818354
423.859352	2582.111768
424.237866	2580.493557
424.616319	2577.015161
424.994712	2577.224369
425.373044	2576.022054
425.751314	2577.093299
426.129524	2570.817062
426.507673	2574.103895
426.885762	2573.330077
427.263789	2568.417473
427.641756	2570.033163
428.019662	2569.569377
428.397508	2567.968810
428.775292	2569.392936
429.153016	2567.595765
429.530679	2569.274469
429.908282	2566.988306
430.285824	2564.808007
430.663305	2564.790363
431.040726	2564.452606
431.418086	2566.151474
431.795385	2568.636763
432.172624	2564.616443
432.549802	2566.186762
432.926920	2563.709035
433.303977	2568.354459
433.680974	2566.002760
434.057910	2566.015363
434.434786	2563.557801
434.811601	2566.085939
435.188355	2564.003943
435.565050	2565.377657
435.941683	2565.576783
436.318257	2564.419838
436.694770	2562.363047
437.071222	2559.550083
437.447614	2564.286248
437.823946	2562.564693
438.200218	2564.596278
438.576429	2566.869839
438.952580	2566.796742
439.328670	2564.818089
439.704700	2567.517627
440.080670	2567.444530
440.456580	2566.005281
440.832429	2568.553584
441.208218	2567.547874
441.583947	2569.513924
441.959616	2569.251784
442.335224	2565.687688
442.710773	2566.277503
443.086261	2568.757751
443.461689	2567.928481
443.837057	2566.491752
444.212365	2567.399160
444.587612	2567.290775
444.962800	2566.935374
445.337927	2568.233471
445.712995	2567.512586
446.088002	2567.792370
446.462949	2569.203893
446.837837	2567.850343
447.212664	2568.036866
447.587431	2568.467885
447.962139	2571.117011
448.336786	2573.229254
448.711374	2572.352094
449.085901	2572.962073
449.460369	2567.784808
449.834776	2572.304203
450.209124	2570.391085
450.583412	2568.845971
450.957640	2568.210786
451.331808	2571.164902
451.705917	2571.066599
452.079965	2570.411249
452.453954	2569.876887
452.827883	2571.787484
453.201752	2573.065417
453.575562	2569.806311
453.949311	2571.275807
454.323001	2571.951322
454.696632	2571.782443
455.070202	2573.660273
455.443713	2571.056517
455.817164	2567.646177
456.190556	2570.494428
456.563888	2568.578790
456.937160	2569.438307
457.310373	2572.415108
457.683526	2574.300500
458.056619	2574.832341
458.429653	2574.829821
458.802628	2573.693041
459.175542	2573.680438
459.548398	2570.265056
459.921194	2570.234809
460.293930	2576.037177
460.666607	2573.975345
461.039224	2577.027764
461.411782	2575.452403
461.784280	2574.653380
462.156719	2575.689337
462.529099	2578.439287
462.901419	2575.217990
463.273680	2575.233113
463.645882	2576.465675
464.018024	2575.719584
464.390106	2573.342680
464.762130	2576.228741
465.134094	2577.398289
465.505999	2576.972311
465.877845	2581.579926
466.249631	2579.805440
466.621358	2582.578074
466.993026	2581.809298
467.364634	2583.881212
467.736184	2579.273598
468.107674	2579.044225
468.479105	2581.012796
468.850477	2577.788978
469.221790	2579.313927
469.593043	2579.669328
469.964238	2578.814853
470.335373	2581.562282
470.706449	2579.192939
471.077467	2579.069431
471.448425	2580.397775
471.819324	2583.976994
472.190164	2583.871130
472.560945	2583.757704
472.931667	2580.269226
473.302330	2579.260995
473.672934	2579.422312
474.043479	2578.159503
474.413965	2579.344174
474.784393	2577.310068
475.154761	2577.347877
475.525070	2575.689338
475.895321	2576.929461
476.265513	2577.897363
476.635645	2579.981880
477.005719	2577.983063
477.375734	2579.888619
477.745691	2575.144893
478.115588	2579.999524
478.485427	2578.676221
478.855207	2584.097982
479.224928	2581.874833
479.594591	2581.307703
479.964194	2580.768300
480.333739	2581.194277
480.703226	2582.721747
481.072653	2582.479772
481.442022	2583.745101
481.811333	2582.704103
482.180584	2585.060842
482.549777	2583.679566
482.918912	2584.574371
483.287988	2583.243507
483.657005	2584.095462
484.025964	2580.639751
484.394864	2583.722416
484.763706	2580.412899
485.132489	2582.129412
485.501213	2583.692169
485.869879	2581.577405
486.238487	2577.753690
486.607036	2580.599421
486.975527	2580.561613
487.343959	2579.881057
487.712333	2580.375090
488.080648	2581.809298
488.448905	2581.433732
488.817104	2580.402816
489.185244	2581.738722
489.553326	2581.615214
489.921350	2581.900039
490.289315	2585.522108
490.657222	2584.513877
491.025070	2586.061512
491.392861	2587.389856
491.760593	2584.430698
492.128267	2581.945409
492.495883	2580.859041
492.863440	2582.898187
493.230939	2582.701582
493.598380	2581.393403
493.965763	2578.398958
494.333088	2581.610173
494.700354	2578.824935
495.067563	2580.211252
495.434713	2581.317786
495.801805	2582.026068
496.168839	2581.400965
496.535815	2582.542786
496.902733	2580.286870
497.269593	2583.712334
497.636395	2580.707806
498.003139	2580.178485
498.369825	2582.787282
498.736453	2582.391552
499.103023	2578.537589
499.469535	2581.955492
499.835989	2580.710327
500.202385	2583.669484
500.568723	2583.452714
500.935003	2581.378280
501.301226	2580.501119
501.667390	2582.305852
502.033497	2582.913311
502.399546	2582.041191
502.765537	2582.610842
503.131470	2581.799216
503.497345	2581.973136
503.863163	2582.426840
504.228923	2580.012127
504.594625	2584.952458
504.960269	2580.188567
505.325856	2582.535224
505.691385	2582.366346
506.056856	2582.646130
506.422270	2583.251068
506.787625	2580.889288
507.152924	2581.521952
507.518164	2582.663774
507.883347	2581.612693
508.248472	2579.155131
508.613540	2582.038671
508.978550	2583.119998
509.343503	2581.723599
509.708398	2582.464648
510.073236	2583.190574
510.438016	2582.046232
510.802738	2581.133784
511.167403	2583.903898
511.532010	2580.090265
511.896561	2582.328537
512.261053	2584.052612
512.625488	2578.474575
512.989866	2578.459452
513.354186	2577.912486
513.718449	2577.128587
514.082655	2576.626992
514.446803	2582.230235
514.810894	2581.448856
515.174927	2583.435070
515.538904	2582.182344
515.902822	2579.692014
516.266684	2583.372056
516.630488	2580.354925
516.994235	2580.561613
517.357925	2581.708475
517.721558	2581.032961
518.085133	2581.489185
518.448651	2580.894329
518.812112	2580.702765
519.175516	2583.770307
519.538863	2583.056984
519.902152	2581.796695
520.265385	2582.131932
520.628560	2581.153948
520.991678	2583.079669
521.354739	2583.334247
521.717743	2581.282498
522.080690	2582.091603
522.443580	2584.400451
522.806413	2584.261820
523.169189	2579.742425
523.531908	2582.585636
523.894569	2582.257961
524.257174	2583.266192
524.619722	2581.632858
524.982213	2583.195616
525.344647	2581.141345
525.707025	2583.951789
526.069345	2584.811305
526.431608	2583.382138
526.793815	2582.913311
527.155964	2582.343661
527.518057	2582.300811
527.880093	2583.908939
528.242072	2584.448342
528.603995	2582.757035
528.965860	2582.252920
529.327669	2581.053125
529.689421	2582.651171
530.051117	2583.913980
530.412755	2580.554051
530.774337	2583.102354
531.135862	2581.161510
531.497331	2577.567167
531.858743	2581.164031
532.220098	2580.944740
532.581396	2579.578588
532.942638	2577.617579
533.303824	2582.716706
533.664953	2580.546489
534.026025	2580.765779
534.387040	2579.651684
534.747999	2580.894329
535.108902	2582.399113
535.469748	2581.713516
535.830537	2582.802406
536.191270	2583.563620
536.551947	2582.888105
536.912567	2582.182344
537.273131	2583.165369
537.633638	2581.045563
537.994089	2582.812488
538.354483	2581.927765
538.714821	2584.521439
539.075103	2582.925914
539.435328	2583.220821
539.795497	2582.162179
540.155609	2581.368197
540.515665	2581.635378
540.875665	2582.928434
541.235609	2581.562282
541.595496	2586.626121
541.955328	2580.271746
542.315102	2581.393403
542.674821	2582.794844
543.034483	2583.309042
543.394090	2583.036819
543.753640	2581.486664
544.113134	2581.438773
544.472571	2582.739391
544.831953	2582.230235
545.191278	2581.463979
545.550548	2580.796026
545.909761	2580.511201
546.268918	2583.513208
546.628019	2582.625965
546.987064	2582.968764
547.346053	2581.748804
547.704986	2581.307703
548.063863	2583.495564
548.422684	2581.718557
548.781449	2582.507498
549.140158	2580.261664
549.498811	2585.466655
549.857408	2584.251737
550.215949	2579.535738
550.574434	2578.096488
550.932864	2580.498598
551.291237	2576.442990
551.649555	2581.642940
552.007817	2582.129412
552.366022	2581.912642
552.724173	2579.868454
553.082267	2583.112437
553.440305	2580.801068
553.798288	2582.295770
554.156215	2580.115471
554.514086	2580.798547
554.871902	2581.385841
555.229661	2581.232086
555.587365	2582.202508
555.945014	2583.482961
556.302606	2580.995152
556.660143	2582.361305
557.017625	2579.651684
557.375050	2581.038002
557.732421	2584.755853
558.089735	2584.034968
558.446994	2583.490523
558.804197	2584.576892
559.161345	2582.358784
559.518437	2586.260637
559.875474	2582.066397
560.232455	2584.004721
560.589381	2583.162848
560.946251	2583.858527
561.303065	2582.827611
561.659825	2583.069587
562.016528	2581.663105
562.373177	2580.301993
562.729770	2584.849114
563.086307	2579.868454
563.442789	2581.406006
563.799216	2581.902560
564.155587	2583.722416
564.511904	2583.256109
564.868164	2582.386510
565.224370	2584.445822
565.580520	2582.744432
565.936615	2582.031109
566.292654	2584.334916
566.648638	2585.020513
567.004567	2581.562282
567.360441	2581.274936
567.716260	2582.986408
568.072023	2581.995821
568.427732	2580.700244
568.783385	2580.065059
569.138982	2576.551375
569.494525	2583.195616
569.850013	2578.724112
570.205445	2579.694534
570.560823	2581.463979
570.916145	2580.617065
571.271412	2581.776531
571.626625	2580.332240
571.981782	2581.779051
572.336884	2584.433219
572.691931	2581.796695
573.046923	2581.612693
573.401860	2585.408682
573.756743	2583.674525
574.111570	2583.021696
574.466342	2582.580595
574.821059	2580.848958
575.175722	2581.655543
575.530330	2584.405492
575.884882	2583.561099
576.239380	2579.462641
576.593823	2581.894998
576.948211	2584.513877
577.302544	2582.396593
577.656823	2582.406675
578.011047	2581.844586
578.365216	2580.629668
578.719330	2584.138311
579.073389	2582.013465
579.427394	2580.518763
579.781344	2582.167220
580.135239	2581.474062
580.489080	2583.482961
580.842866	2581.882395
581.196597	2587.621749
581.550273	2581.007755
581.903895	2579.455079
582.257463	2583.067066
582.610975	2582.625965
582.964434	2582.134453
583.317837	2580.899370
583.671186	2581.650502
584.024481	2582.910790
584.377721	2584.100503
584.730906	2581.388362
585.084037	2582.552868
585.437113	2581.945409
585.790135	2582.091603
586.143103	2583.125039
586.496016	2583.009093
586.848874	2578.245202
587.201679	2583.293918
587.554428	2582.885585
587.907124	2578.277970
588.259765	2575.338977
588.612352	2580.307034
588.964884	2580.755697
589.317362	2582.220152
589.669786	2578.961046
590.022155	2579.969277
590.374470	2582.371387
590.726731	2579.707137
591.078937	2581.101016
591.431090	2580.649833
591.783188	2582.063877
592.135232	2582.522622
592.487222	2581.045563
592.839157	2582.346181
593.191038	2581.889957
593.542866	2580.659915
593.894639	2581.108578
594.246358	2578.630851
594.598022	2581.317786
594.949633	2580.065059
595.301190	2581.264854
595.652692	2580.962384
596.004141	2583.329206
596.355535	2581.436253
596.706876	2582.091603
597.058162	2585.224680
597.409395	2583.031778
597.760573	2582.386510
598.111698	2579.820563
598.462768	2582.699062
598.813785	2580.433063
599.164748	2581.113619
599.515657	2581.587487
599.866511	2581.348033
600.217312	2580.150759
600.568060	2583.974474
600.918753	2582.348702
601.269392	2585.353229
601.619978	2582.298290
601.970510	2582.076479
602.320988	2578.517425
602.671412	2581.746284
603.021783	2579.576067
603.372100	2581.718557
603.722363	2580.443146
604.072572	2579.361818
604.422728	2581.469020
604.772830	2578.333423
605.122878	2575.825449
605.472872	2578.295614
605.822813	2577.693196
606.172701	2578.262847
606.522534	2581.078331
606.872314	2581.854669
607.222041	2579.555903
607.571714	2580.685121
607.921333	2580.344843
608.270899	2579.313927
608.620411	2581.375759
608.969870	2582.734350
609.319276	2579.515573
609.668627	2580.848958
610.017926	2579.064390
610.367171	2581.723599
610.716362	2583.767787
611.065500	2583.445153
611.414585	2581.279977
611.763616	2581.879874
612.112594	2579.666808
612.461518	2577.342836
612.810389	2580.629668
613.159207	2578.971129
613.507971	2582.351222
613.856682	2584.077817
614.205340	2581.519432
614.553945	2582.772159
614.902496	2580.100347
615.250994	2582.673856
615.599439	2583.190574
615.947830	2582.784762
616.296169	2582.421798
616.644454	2582.517580
616.992686	2581.968095
617.340864	2581.285018
617.688990	2583.661922
618.037063	2581.655543
618.385082	2576.528690
618.733048	2582.240317
619.080961	2582.996490
619.428821	2582.076479
619.776628	2582.298290
620.124382	2585.270050
620.472083	2582.734350
620.819731	2581.670667
621.167326	2582.625965
621.514868	2583.445153
621.862357	2577.403330
622.209793	2583.351891
622.557176	2580.778382
622.904506	2578.832497
623.251783	2577.254616
623.599007	2580.528845
623.946179	2579.185378
624.293297	2577.206725
624.640363	2580.375090
624.987376	2579.082034
625.334336	2580.773341
625.681243	2581.645461
626.028097	2580.271746
626.374899	2578.318299
626.721647	2581.282498
627.068343	2580.997672
627.414987	2579.807960
627.761577	2583.263671
628.108115	2581.693352
628.454600	2583.190574
628.801032	2581.658064
629.147412	2582.391552
629.493739	2580.422981
629.840014	2580.934658
630.186236	2581.952971
630.532405	2579.324009
630.878521	2580.851479
631.224585	2580.559092
631.570597	2580.279308
631.916556	2581.300142
632.262462	2579.732343
632.608316	2581.285018
632.954117	2579.797878
633.299866	2579.845769
633.645562	2579.775193
633.991206	2583.359453
634.336797	2581.101016
634.682336	2580.632189
635.027823	2580.322158
635.373257	2580.082703
635.718639	2578.288052
636.063968	2579.976839
636.409245	2581.345512
636.754470	2580.196129
637.099642	2579.437435
637.444762	2583.795513
637.789829	2580.496078
638.134845	2576.085068
638.479808	2578.593042
638.824719	2579.102199
639.169577	2579.288721
639.514383	2580.531366
639.859137	2576.377455
640.203839	2580.286870
640.548489	2579.805440
640.893086	2574.802094
641.237632	2576.662280
641.582125	2574.161868
641.926566	2574.628175
642.270955	2577.970460
642.615292	2576.899214
642.959576	2581.161510
643.303809	2578.545151
643.647990	2580.463310
643.992118	2580.392734
644.336195	2577.640264
644.680219	2577.849472
645.024192	2577.325192
645.368112	2579.248392
645.711981	2580.702765
646.055797	2581.786613
646.399562	2577.846951
646.743274	2579.661767
647.086935	2579.757549
647.430544	2579.863413
647.774101	2581.403485
648.117606	2579.306365
648.461059	2576.793350
648.804460	2580.803588
649.147810	2579.450038
649.491108	2577.494071
649.834354	2579.923907
650.177548	2578.540110
650.520690	2581.161510
650.863781	2579.281160
651.206820	2579.669328
651.549807	2580.221335
651.892742	2576.914338
652.235626	2578.194791
652.578458	2577.640264
652.921238	2576.488360
653.263967	2578.716550
653.606644	2574.139183
653.949269	2578.802250
654.291843	2577.771334
654.634365	2578.396437
654.976836	2579.941551
655.319255	2578.769483
655.661622	2578.371231
656.003938	2579.094637
656.346203	2578.429205
656.688416	2575.396951
657.030577	2578.217476
657.372687	2578.603124
657.714746	2577.584811
658.056753	2577.509194
658.398708	2575.664132
658.740612	2572.495767
659.082465	2576.909297
659.424266	2575.835531
659.766016	2575.180181
660.107715	2576.180850
660.449362	2574.585325
660.790958	2577.635223
661.132503	2578.673701
661.473996	2581.237127
661.815438	2578.829976
662.156829	2577.922569
662.498168	2576.881570
662.839456	2579.220666
663.180693	2579.997003
663.521879	2580.496078
663.863013	2578.154462
664.204097	2579.291242
664.545129	2579.235789
664.886110	2578.865264
665.227040	2577.965418
665.567918	2578.845100
665.908746	2577.239492
666.249522	2578.880388
666.590248	2578.550192
666.930922	2577.693196
667.271545	2578.320820
667.612118	2579.238310
667.952639	2575.616241
668.293109	2580.440625
668.633528	2579.656726
668.973896	2575.084399
669.314213	2579.266036
669.654480	2581.337950
669.994695	2575.601117
670.334859	2577.458782
670.674973	2579.520614
671.015035	2578.540110
671.355047	2574.817218
671.695008	2578.852662
672.034918	2579.311407
672.374777	2575.792681
672.714585	2577.204204
673.054342	2576.591704
673.394049	2576.858885
673.733705	2578.714030
674.073310	2578.784606
674.412864	2578.847620
674.752368	2575.908628
675.091820	2578.179667
675.431223	2580.097827
675.770574	2581.315265
676.109875	2573.362845
676.449125	2575.643967
676.788324	2576.170768
677.127473	2576.974832
677.466571	2569.841599
677.805619	2578.880388
678.144616	2576.692527
678.483562	2578.998855
678.822458	2577.748649
679.161303	2580.831314
679.500098	2580.521283
679.838842	2579.046746
680.177535	2579.059349
680.516179	2578.053639
680.854771	2577.070614
681.193314	2576.460634
681.531805	2576.861406
681.870247	2577.983062
682.208638	2579.192939
682.546978	2576.604307
682.885268	2578.736715
683.223508	2578.512384
683.561697	2581.219483
683.899836	2579.923907
684.237925	2575.512897
684.575963	2579.001376
684.913951	2574.582804
685.251889	2578.325861
685.589776	2578.146900
685.927614	2578.870306
686.265401	2576.682445
686.603137	2576.977352
686.940824	2578.928279
687.278460	2576.122877
687.616046	2579.288721
687.953582	2581.169072
688.291068	2577.738567
688.628504	2575.699420
688.965889	2577.443659
689.303224	2581.438773
689.640510	2580.183526
689.977745	2577.239492
690.314930	2578.461972
690.652065	2578.368711
690.989150	2576.717733
691.326185	2577.277301
691.663170	2577.788978
692.000105	2577.698237
692.336990	2578.240161
692.673825	2575.510377
693.010610	2578.436766
693.347345	2575.281004
693.684030	2572.480643
694.020665	2572.687330
694.357251	2573.360324
694.693786	2574.728998
695.030272	2576.939544
695.366707	2575.084399
695.703093	2577.070614
696.039429	2579.502970
696.375716	2575.520459
696.711952	2575.086920
697.048139	2576.445511
697.384276	2576.838721
697.720363	2576.284194
698.056400	2575.807805
698.392388	2575.563309
698.728326	2576.337126
699.064214	2579.084555
699.400053	2576.828638
699.735842	2579.361818
700.071581	2579.961715
700.407270	2576.581622
700.742910	2575.359142
701.078501	2575.606158
701.414042	2574.726477
701.749533	2576.543813
702.084974	2574.033318
702.420366	2578.411561
702.755709	2574.779409
703.091002	2575.190263
703.426246	2576.032136
703.761440	2574.938206
704.096584	2575.971642
704.431679	2574.620613
704.766725	2577.811663
705.101721	2575.104564
705.436668	2575.543144
705.771565	2576.442990
706.106413	2575.417115
706.441212	2574.421487
706.775961	2576.518607
707.110661	2573.347722
707.445311	2574.663463
707.779913	2575.253278
708.114465	2577.042887
708.448967	2577.214287
708.783421	2577.279822
709.117825	2574.371076
709.452180	2576.201015
709.786485	2576.185891
710.120742	2575.923751
710.454949	2574.076168
710.789107	2573.292269
711.123216	2572.508369
711.457275	2572.581466
711.791286	2573.045252
712.125247	2571.724470
712.459159	2574.885273
712.793023	2577.662949
713.126837	2574.509707
713.460602	2574.849985
713.794318	2575.044070
714.127985	2577.547003
714.461602	2575.220510
714.795171	2578.373752
715.128691	2574.829821
715.462162	2574.144224
715.795584	2575.817887
716.128957	2577.123546
716.462281	2572.561302
716.795556	2577.052970
717.128782	2577.552044
717.461960	2578.489698
717.795088	2573.687999
718.128167	2576.800912
718.461198	2573.698082
718.794180	2575.165058
719.127113	2576.327043
719.459997	2576.818556
719.792833	2575.011302
720.125619	2575.076837
720.458357	2574.262691
720.791046	2574.628175
721.123686	2573.783781
721.456278	2575.684296
721.788821	2574.358473
722.121315	2574.328226
722.453761	2577.405850
722.786158	2571.676579
723.118506	2575.843093
723.450805	2575.459965
723.783056	2575.888463
724.115259	2572.394943
724.447412	2575.737228
724.779518	2577.995665
725.111574	2574.116497
725.443582	2575.288566
725.775542	2572.730180
726.107453	2576.952147
726.439315	2574.734039
726.771129	2579.140007
727.102895	2575.079358
727.434612	2575.777558
727.766281	2576.659760
728.097901	2570.494428
728.429473	2572.079871
728.760996	2570.262535
729.092471	2570.078533
729.423897	2573.756055
729.755276	2575.381827
730.086606	2575.233113
730.417887	2574.544996
730.749120	2574.088771
731.080305	2575.623802
731.411442	2576.175809
731.742530	2573.468709
732.073570	2575.636405
732.404562	2574.897876
732.735506	2574.844944
733.066401	2575.033987
733.397249	2576.253947
733.728048	2573.942578
734.058798	2574.842424
734.389501	2574.479461
734.720156	2575.293607
735.050762	2572.692372
735.381320	2576.390058
735.711831	2574.726477
736.042293	2574.693710
736.372707	2575.845613
736.703073	2576.037177
737.033391	2573.577094
737.363661	2574.015674
737.693883	2576.218659
738.024056	2576.511046
738.354182	2573.506518
738.684260	2573.672876
739.014290	2573.408215
739.344272	2574.096333
739.674207	2573.335119
740.004093	2574.870150
740.333931	2572.825962
740.663722	2573.529203
740.993464	2574.174471
741.323159	2576.261508
741.652806	2574.784450
741.982405	2574.300500
742.311956	2571.984089
742.641460	2576.846282
742.970915	2574.635736
743.300323	2575.036508
743.629683	2573.574573
743.958996	2574.184553
744.288260	2572.493246
744.617477	2574.219841
744.946647	2570.272618
745.275768	2571.815211
745.604842	2572.389902
745.933869	2570.978379
746.262847	2567.356310
746.591778	2573.282187
746.920662	2573.317475
747.249498	2575.268401
747.578286	2573.509038
747.907027	2573.057855
748.235720	2574.945767
748.564365	2574.136662
748.892963	2572.410067
749.221514	2572.389902
749.550017	2573.400654
749.878473	2576.049780
750.206881	2574.454255
750.535242	2575.185222
750.863555	2570.751527
751.191821	2572.009295
751.520039	2573.677917
751.848210	2574.391240
752.176334	2573.509038
752.504411	2573.778740
752.832440	2574.083730
753.160421	2569.798749
753.488356	2575.008782
753.816243	2575.217990
754.144082	2572.243709
754.471875	2575.134811
754.799620	2572.626837
755.127318	2573.168761
755.454969	2570.726322
755.782572	2573.904769
756.110129	2574.081209
756.437638	2572.621795
756.765100	2575.903587
757.092515	2575.147413
757.419882	2575.840572
757.747203	2575.081878
758.074477	2574.194635
758.401703	2571.008626
758.728882	2573.917372
759.056014	2574.960891
759.383099	2572.805797
759.710138	2572.616754
760.037129	2572.868812
760.364073	2573.987948
760.690970	2571.553071
761.017820	2573.730849
761.344623	2573.635067
761.671379	2572.450396
761.998088	2569.844120
762.324751	2572.387382
762.651366	2570.693554
762.977935	2572.936867
763.304456	2573.236816
763.630931	2575.212948
763.957359	2576.974832
764.283740	2574.842424
764.610074	2574.247567
764.936362	2575.888463
765.262602	2573.438462
765.588796	2574.323185
765.914943	2575.333936
766.241044	2573.730849
766.567097	2573.264542
766.893104	2574.734039
767.219064	2571.013667
767.544978	2572.513411
767.870845	2574.119018
768.196665	2572.531055
768.522438	2573.221693
768.848165	2573.141034
769.173846	2570.922927
769.499479	2570.381002
769.825066	2570.446537
770.150607	2572.548699
770.476101	2571.691702
770.801548	2574.318144
771.126949	2572.989800
771.452303	2572.785633
771.777611	2572.276476
772.102872	2571.742114
772.428087	2572.215982
772.753256	2569.924778
773.078378	2572.581466
773.403453	2572.909141
773.728482	2569.526527
774.053465	2574.381158
774.378401	2572.309244
774.703291	2573.836713
775.028135	2571.815211
775.352932	2573.488874
775.677683	2572.266394
776.002388	2573.317475
776.327046	2570.857392
776.651658	2570.300344
776.976224	2571.464851
777.300743	2573.687999
777.625216	2571.159861
777.949643	2572.087433
778.274024	2573.864440
778.598359	2569.198852
778.922647	2567.747000
779.246889	2567.966290
779.571086	2568.346897
779.895236	2570.476784
780.219339	2571.021229
780.543397	2574.010633
780.867409	2570.746486
781.191374	2569.995354
781.515294	2571.180025
781.839167	2570.922927
782.162995	2572.868812
782.486776	2570.751527
782.810511	2572.815880
783.134201	2571.351425
783.457844	2572.536096
783.781441	2569.229099
784.104993	2571.893349
784.428498	2567.825137
784.751958	2570.648184
785.075372	2572.397464
785.398739	2571.200190
785.722061	2572.455437
786.045337	2572.848647
786.368568	2573.146075
786.691752	2570.464182
787.014891	2570.789336
787.337983	2571.497618
787.661030	2571.696744
787.984031	2570.693554
788.306987	2571.374110
788.629897	2571.671538
788.952760	2569.607185
789.275579	2569.239181
789.598351	2573.695561
789.921078	2572.982238
790.243759	2573.559450
790.566395	2573.040211
790.888984	2572.513411
791.211529	2573.703123
791.534027	2572.246229
791.856480	2570.486867
792.178888	2571.028791
792.501249	2571.726991
792.823566	2572.210941
793.145836	2569.886969
793.468062	2572.677248
793.790241	2568.654407
794.112375	2570.496949
794.434464	2570.806980
794.756507	2571.101887
795.078505	2571.563153
795.400457	2568.293965
795.722364	2569.889490
796.044226	2570.426373
796.366042	2567.114335
796.687812	2567.356310
797.009538	2570.925447
797.331218	2570.993503
797.652852	2572.662125
797.974442	2570.791857
798.295986	2572.755386
798.617484	2574.247568
798.938938	2571.341342
799.260346	2571.691703
799.581709	2571.623647
799.903026	2573.645150
800.224299	2571.434604
800.545526	2573.017526
800.866708	2572.795715
801.187845	2572.490725
801.508936	2569.728173
801.829983	2574.056004
802.150984	2572.407546
802.471940	2571.565674
802.792851	2571.888307
803.113717	2569.927299
803.434538	2572.344532
803.755314	2571.822772
804.076045	2570.474264
804.396731	2571.449727
804.717372	2571.343863
805.037967	2569.513924
805.358518	2570.139027
805.679024	2570.990982
805.999485	2570.751527
806.319901	2568.220868
806.640272	2570.335632
806.960598	2570.464182
807.280879	2568.442679
807.601115	2570.859912
807.921306	2570.224727
808.241453	2568.641804
808.561554	2570.718760
808.881611	2572.813359
809.201623	2568.359500
809.521590	2567.537792
809.841513	2568.674572
810.161390	2571.023750
810.481223	2565.349931
810.801011	2570.212124
811.120755	2569.024932
811.440453	2571.197669
811.760107	2570.070972
812.079716	2568.092319
812.399281	2566.360682
812.718801	2567.852864
813.038276	2567.300857
813.357707	2571.283369
813.677093	2571.129614
813.996434	2569.118193
814.315731	2569.914696
814.634983	2569.410580
814.954191	2569.765982
815.273354	2569.680282
815.592473	2570.524675
815.911547	2569.271949
816.230577	2570.287741
816.549562	2571.432083
816.868502	2571.094326
817.187399	2568.379664
817.506250	2569.985272
817.825058	2572.102557
818.143821	2570.799418
818.462539	2568.629202
818.781213	2568.115004
819.099843	2571.976528
819.418429	2572.024419
819.736970	2573.015005
820.055466	2572.727660
820.373919	2572.755386
820.692327	2572.858730
821.010691	2575.517938
821.329011	2577.373083
821.647286	2582.593198
821.965517	2585.786769
822.283704	2588.312387
822.601847	2591.576534
822.919945	2589.857500
823.237999	2588.831626
823.556010	2587.220977
823.873976	2586.628641
824.191897	2584.435739
824.509775	2579.891139
824.827609	2582.013465
825.145398	2575.333936
825.463144	2578.066242
825.780845	2575.661611
826.098502	2575.044070
826.416116	2579.203022
826.733685	2580.606983
827.051210	2578.998855
827.368692	2578.318299
827.686129	2576.785788
828.003522	2576.430387
828.320872	2570.282700
828.638177	2571.245560
828.955439	2572.778071
829.272656	2571.502659
829.589830	2567.338666
829.906960	2572.836044
830.224046	2572.974676
830.541088	2573.307392
830.858086	2571.732032
831.175041	2570.645663
831.491952	2570.232288
831.808819	2570.688513
832.125642	2568.646846
832.442421	2571.941240
832.759157	2572.954512
833.075849	2572.533575
833.392497	2573.501477
833.709101	2574.224882
834.025662	2575.154975
834.342179	2575.825449
834.658653	2572.349573
834.975083	2571.671538
835.291469	2574.275294
835.607811	2571.351425
835.924110	2570.043245
836.240366	2571.971487
836.556578	2569.808832
836.872746	2571.459809
837.188871	2570.181877
837.504952	2570.393605
837.820990	2567.752041
838.136984	2569.002247
838.452935	2572.057186
838.768842	2571.502659
839.084706	2568.898903
839.400526	2571.225396
839.716303	2569.559294
840.032037	2570.065930
840.347727	2565.410425
840.663373	2570.222206
840.978977	2568.215827
841.294537	2567.046279
841.610054	2569.622309
841.925527	2571.250602
842.240957	2569.690364
842.556344	2571.790005
842.871687	2567.862946
843.186987	2568.251115
843.502244	2568.200703
843.817458	2568.457802
844.132629	2566.995868
844.447756	2566.950497
844.762840	2567.094170
845.077881	2562.599982
845.392879	2565.478480
845.707833	2567.242884
846.022745	2565.526371
846.337613	2569.304716
846.652438	2568.026784
846.967221	2568.178018
847.281960	2566.630384
847.596656	2567.991496
847.911309	2568.427555
848.225919	2567.109294
848.540485	2568.518296
848.855009	2570.086095
849.169490	2568.137689
849.483928	2570.791857
849.798323	2567.399160
850.112675	2568.223389
850.426984	2568.326732
850.741251	2567.489901
851.055474	2567.162226
851.369654	2569.511403
851.683792	2567.426886
851.997887	2567.444530
852.311938	2568.603996
852.625947	2569.881928
852.939914	2567.109294
853.253837	2568.457802
853.567718	2568.823286
853.881555	2566.612740
854.195350	2567.255487
854.509103	2568.089798
854.822812	2566.282544
855.136479	2569.576938
855.450103	2568.304047
855.763685	2569.163564
856.077224	2568.346897
856.390720	2570.000395
856.704173	2568.326732
857.017584	2570.262535
857.330953	2570.065930
857.644278	2569.471074
857.957561	2569.881928
858.270802	2568.568708
858.584000	2564.165260
858.897155	2568.442679
859.210268	2568.785477
859.523339	2565.014694
859.836367	2567.885631
860.149352	2571.200190
860.462295	2567.898234
860.775195	2563.580486
861.088054	2567.618450
861.400869	2564.886145
861.713642	2562.083263
862.026373	2563.923284
862.339062	2569.776064
862.651708	2567.527709
862.964312	2570.005437
863.276873	2568.288924
863.589392	2569.385375
863.901869	2569.128276
864.214303	2564.470250
864.526696	2567.137020
864.839045	2567.048800
865.151353	2565.876732
865.463619	2568.117524
865.775842	2567.436969
866.088023	2570.060889
866.400162	2569.191290
866.712258	2566.695919
867.024313	2570.282700
867.336325	2567.363872
867.648296	2568.966959
867.960224	2567.840261
868.272110	2571.979048
868.583954	2568.724983
868.895755	2569.249263
869.207515	2566.269942
869.519233	2568.503173
869.830909	2567.936043
870.142542	2568.830848
870.454134	2567.351269
870.765684	2568.170457
871.077191	2568.747669
871.388657	2570.882597
871.700081	2570.340673
872.011463	2570.328070
872.322803	2567.447051
872.634101	2566.738769
872.945357	2565.614592
873.256571	2568.790518
873.567744	2566.784139
873.878874	2567.010991
874.189963	2569.307237
874.501010	2568.878739
874.812015	2569.624829
875.122979	2567.613409
875.433900	2567.918399
875.744780	2565.239026
876.055618	2568.465364
876.366415	2568.019222
876.677169	2569.529047
876.987882	2565.796073
877.298554	2563.893038
877.609183	2567.578121
877.919771	2564.664334
878.230317	2565.027297
878.540822	2568.949315
878.851285	2565.869170
879.161707	2569.987792
879.472087	2566.947977
879.782425	2567.121897
880.092722	2567.724314
880.402977	2571.427042
880.713191	2574.829821
881.023363	2574.761765
881.333494	2579.334092
881.643583	2581.224524
881.953631	2580.249061
882.263637	2578.149421
882.573602	2579.195460
882.883526	2579.437435
883.193408	2577.239492
883.503248	2577.501632
883.813048	2575.578432
884.122806	2575.109605
884.432522	2576.584142
884.742197	2571.606003
885.051831	2573.751014
885.361424	2572.168092
885.670975	2571.028791
885.980485	2569.541650
886.289954	2570.716239
886.599382	2569.871846
886.908768	2569.859243
887.218113	2567.683985
887.527417	2572.107598
887.836680	2570.237330
888.145901	2569.418142
888.455082	2568.470405
888.764221	2571.162381
889.073319	2569.955025
889.382376	2567.996537
889.691392	2567.152143
890.000366	2568.475446
890.309300	2566.673234
890.618193	2566.685837
890.927044	2567.804973
891.235855	2568.074675
891.544625	2565.740620
891.853353	2569.685323
892.162041	2569.057700
892.470687	2571.036353
892.779293	2568.765313
893.087858	2566.290106
893.396381	2565.486042
893.704864	2565.735579
894.013306	2565.934705
894.321707	2571.611044
894.630068	2570.171795
894.938387	2572.495767
895.246665	2569.912175
895.554903	2572.266394
895.863100	2570.053327
896.171256	2572.621795
896.479371	2570.602813
896.787446	2570.723801
897.095480	2571.777402
897.403473	2568.157854
897.711425	2567.550395
898.019336	2569.677762
898.327207	2569.045097
898.635038	2567.862946
898.942827	2569.738255
899.250576	2567.678944
899.558284	2566.665672
899.865952	2566.890003
900.173579	2567.777247
900.481165	2569.304716
900.788711	2568.304047
901.096216	2569.471074
901.403681	2566.915209
901.711105	2566.257339
902.018489	2566.380847
902.325832	2570.577607
902.633135	2567.144582
902.940397	2570.244891
903.247619	2567.263049
903.554800	2570.247412
903.861941	2571.424521
904.169041	2572.405026
904.476101	2572.044583
904.783121	2573.274625
905.090100	2571.422001
905.397039	2573.463668
905.703938	2572.339491
906.010796	2571.185067
906.317614	2567.875549
906.624391	2570.312947
906.931129	2569.932340
907.237826	2568.283882
907.544483	2567.784808
907.851099	2569.087947
908.157675	2568.452761
908.464211	2567.560477
908.770707	2564.918912
909.077163	2563.242729
909.383578	2563.462019
909.689954	2562.698284
909.996289	2563.207441
910.302584	2566.166598
910.608839	2567.898234
910.915054	2566.839592
911.221229	2565.889334
911.527363	2569.642473
911.833458	2567.263049
912.139513	2568.167936
912.445527	2566.388409
912.751502	2568.654407
913.057436	2567.139541
913.363331	2567.328584
913.669186	2569.382854
913.975000	2568.130127
914.280775	2566.398491
914.586510	2570.164233
914.892205	2568.172977
915.197859	2567.164746
915.503475	2570.292782
915.809050	2569.347566
916.114585	2570.983420
916.420081	2571.026270
916.725536	2570.060889
917.030952	2573.057855
917.336328	2572.049624
917.641665	2571.606003
917.946961	2570.670869
918.252218	2565.170970
918.557435	2570.242371
918.862612	2570.146589
919.167750	2571.616085
919.472848	2570.000395
919.777906	2569.637432
920.082925	2568.793039
920.387904	2568.863615
920.692843	2569.221537
920.997743	2567.134499
921.302603	2567.545353
921.607423	2568.399829
921.912204	2566.022925
922.216946	2567.925961
922.521647	2568.462843
922.826310	2565.728017
923.130932	2565.733059
923.435516	2567.003429
923.740059	2567.376475
924.044564	2568.578790
924.349028	2567.053841
924.653454	2564.220713
924.957840	2562.683161
925.262186	2565.601989
925.566493	2565.624674
925.870761	2562.158881
926.174989	2567.419325
926.479178	2566.325394
926.783328	2569.763461
927.087438	2564.598799
927.391509	2565.612071
927.695541	2564.853377
927.999533	2565.712894
928.303486	2565.896896
928.607400	2565.990157
928.911275	2566.832030
929.215110	2565.733059
929.518906	2566.529561
929.822663	2566.890003
930.126381	2566.448902
930.430060	2566.395970
930.733699	2568.167936
931.037299	2564.984447
931.340861	2565.841443
931.644383	2565.954869
931.947866	2568.251115
932.251309	2565.329766
932.554714	2566.027966
932.858080	2566.423697
933.161407	2564.384550
933.464694	2566.322874
933.767943	2566.534602
934.071153	2566.756413
934.374323	2564.550908
934.677455	2564.339180
934.980548	2566.348079
935.283602	2561.790876
935.586617	2564.681978
935.889593	2565.022256
936.192530	2566.597617
936.495428	2564.089642
936.798287	2567.610888
937.101108	2565.763306
937.403890	2566.438820
937.706632	2566.322874
938.009336	2565.785991
938.312002	2567.202555
938.614628	2564.757595
938.917216	2566.181721
939.219765	2564.351783
939.522275	2564.382029
939.824747	2569.529047
940.127179	2561.296843
940.429573	2561.455640
940.731929	2563.711556
941.034246	2560.510423
941.336524	2563.953531
941.638763	2564.878583
941.940964	2565.697771
942.243126	2566.632905
942.545250	2566.295147
942.847335	2564.024107
943.149381	2564.790363
943.451389	2563.988819
943.753359	2565.097873
944.055290	2564.656772
944.357182	2566.186762
944.659036	2564.694581
944.960851	2569.150961
945.262628	2566.227092
945.564367	2566.297668
945.866067	2565.541495
946.167729	2565.788511
946.469352	2564.450085
946.770937	2566.723645
947.072484	2564.286247
947.373992	2566.153995
947.675462	2566.401012
947.976893	2567.270611
948.278286	2563.731721
948.579641	2563.028480
948.880958	2565.793552
949.182236	2565.155847
949.483476	2563.341031
949.784678	2563.504869
950.085841	2565.692729
950.386967	2565.629715
950.688054	2567.421845
950.989103	2564.399673
951.290114	2564.596278
951.591087	2564.170301
951.892021	2562.529405
952.192917	2566.179201
952.493776	2564.833213
952.794596	2566.441341
953.095378	2565.425548
953.396122	2567.134499
953.696828	2564.172822
953.997496	2567.142061
954.298126	2563.023438
954.598718	2566.733728
954.899272	2563.867832
955.199788	2563.986299
955.500266	2565.841443
955.800706	2562.854560
956.101108	2561.702656
956.401472	2560.901113
956.701798	2558.781308
957.002087	2563.527554
957.302337	2564.646690
957.602550	2565.894376
957.902724	2560.497820
958.202861	2564.913871
958.502960	2565.286917
958.803022	2565.453275
959.103045	2564.785322
959.403031	2563.799776
959.702979	2562.662996
960.002889	2563.267934
960.302762	2563.925805
960.602596	2564.739951
960.902393	2563.651062
961.202153	2567.484860
961.501875	2564.946639
961.801559	2564.046793
962.101205	2565.170970
962.400814	2566.390929
962.700385	2563.855229
962.999918	2567.081567
963.299414	2564.782801
963.598873	2565.962431
963.898293	2564.777760
964.197677	2563.507389
964.497022	2563.623336
964.796331	2565.362534
965.095601	2565.304561
965.394835	2567.499983
965.694030	2565.712894
965.993189	2566.461505
966.292309	2564.034190
966.591393	2563.341031
966.890439	2563.174673
967.189447	2564.424879
967.488419	2563.003274
967.787353	2564.389591
968.086249	2564.041752
968.385108	2564.341700
968.683930	2564.253480
968.982714	2564.992009
969.281462	2562.403377
969.580172	2564.606361
969.878844	2564.848336
970.177480	2563.683830
970.476078	2564.984447
970.774639	2563.240208
971.073162	2562.902451
971.371649	2561.228788
971.670098	2560.994374
971.968510	2560.109652
972.266885	2559.708880
972.565223	2559.693756
972.863524	2564.956721
973.161788	2563.469581
973.460014	2562.665517
973.758204	2562.789025
974.056356	2564.218192
974.354471	2566.864798
974.652550	2564.888665
974.950591	2565.289437
975.248595	2566.027966
975.546563	2566.474108
975.844493	2564.180383
976.142386	2564.626525
976.440243	2563.822461
976.738062	2564.762637
977.035845	2562.967986
977.333590	2565.266752
977.631299	2564.969324
977.928971	2565.256670
978.226606	2563.404046
978.524204	2564.702143
978.821765	2566.539643
979.119290	2565.554098
979.416777	2563.444375
979.714228	2565.463357
980.011642	2562.294992
980.309020	2567.545353
980.606360	2564.376988
980.903664	2566.708522
981.200931	2564.840774
981.498162	2563.736762
981.795356	2564.182904
982.092513	2563.298181
982.389633	2564.903789
982.686717	2562.453788
982.983764	2565.554098
983.280775	2566.736248
983.577749	2565.559139
983.874686	2566.857236
984.171587	2564.954200
984.468451	2568.014181
984.765279	2565.909499
985.062070	2563.966134
985.358824	2565.244067
985.655543	2563.943449
985.952224	2564.331618
986.248869	2565.022256
986.545478	2561.311967
986.842050	2561.069991
987.138586	2560.273489
987.435086	2559.461863
987.731549	2559.633262
988.027975	2567.126938
988.324366	2562.907492
988.620719	2562.458829
988.917037	2563.106617
989.213318	2563.310784
989.509563	2564.694581
989.805772	2561.695094
990.101944	2563.875393
990.398080	2563.842626
990.694180	2564.311453
990.990244	2565.665003
991.286271	2565.564180
991.582262	2563.346072
991.878217	2562.239539
992.174136	2563.588048
992.470019	2563.474622
992.765865	2561.390105
993.061676	2561.939590
993.357450	2563.845147
993.653188	2563.174673
993.948890	2565.115517
994.244556	2562.559652
994.540186	2564.618964
994.835780	2561.558983
995.131337	2564.326577
995.426859	2562.426062
995.722345	2563.703994
996.017795	2565.990157
996.313208	2564.349262
996.608586	2561.974878
996.903928	2564.797925
997.199234	2564.424879
997.494504	2564.898748
997.789738	2565.067626
998.084936	2563.787173
998.380099	2563.545198
998.675225	2565.866649
998.970316	2563.741803
999.265371	2565.339849
999.560390	2563.446895
999.855373	2563.439334
1000.150320	2562.756257
1000.445232	2561.501010
1000.740108	2564.117369
1001.034948	2564.472770
1001.329752	2564.321536
1001.624521	2564.089643
1001.919254	2561.420352
1002.213951	2561.629559
1002.508613	2558.834240
1002.803239	2563.469581
1003.097829	2559.802141
1003.392384	2562.809189
1003.686903	2563.088973
1003.981386	2563.028480
1004.275834	2561.811041
1004.570246	2567.608368
1004.864623	2562.920095
1005.158964	2565.143244
1005.453270	2562.766340
1005.747540	2563.845147
1006.041775	2561.954714
1006.335974	2559.378684
1006.630138	2561.049827
1006.924266	2561.748027
1007.218359	2563.005794
1007.512416	2563.489745
1007.806438	2562.617626
1008.100425	2561.997564
1008.394376	2564.094684
1008.688292	2560.618808
1008.982172	2561.997564
1009.276017	2563.716597
1009.569827	2563.096535
1009.863602	2562.410938
1010.157341	2564.699622
1010.451045	2562.237018
1010.744714	2564.500497
1011.038347	2564.129972
1011.331945	2563.666186
1011.625508	2564.591237
1011.919036	2561.972358
1012.212528	2561.301884
1012.505986	2564.008984
1012.799408	2564.999571
1013.092795	2562.960424
1013.386147	2564.777760
1013.679464	2562.809189
1013.972745	2562.761298
1014.265992	2564.981927
1014.559204	2563.663665
1014.852380	2562.806669
1015.145521	2563.913202
1015.438628	2563.401525
1015.731699	2565.402863
1016.024736	2562.778942
1016.317737	2563.961093
1016.610703	2564.157698
1016.903635	2557.783159
1017.196531	2560.666699
1017.489393	2560.583520
1017.782219	2558.473797
1018.075011	2561.485887
1018.367768	2564.142575
1018.660490	2563.865311
1018.953177	2563.865311
1019.245829	2563.865311
