Dividing Wavelength (nm)	Counts (n)	Blue Motor Position (mm): 31.500000	Red Motor Position (mm): 0.000000	
326.493990	2215.025027
326.888308	2215.025027
327.282561	2215.025027
327.676750	2175.580518
328.070874	2173.576660
328.464933	2173.246464
328.858929	2177.443225
329.252859	2182.229800
329.646726	2189.224401
330.040528	2205.625795
330.434265	2217.555686
330.827938	2233.594117
331.221547	2252.548855
331.615091	2269.529982
332.008571	2286.957251
332.401986	2306.259829
332.795338	2326.787408
333.188625	2344.471775
333.581847	2359.998529
333.975006	2382.018289
334.368100	2401.227606
334.761129	2422.455905
335.154095	2435.572987
335.546996	2463.206072
335.939833	2500.170332
336.332606	2515.820594
336.725315	2527.505989
337.117960	2539.617361
337.510540	2552.898281
337.903056	2560.964127
338.295508	2573.093143
338.687896	2581.325348
339.080220	2588.665267
339.472480	2595.667430
339.864676	2601.195055
340.256807	2607.662856
340.648875	2613.245934
341.040879	2612.101592
341.432818	2617.483023
341.824694	2617.135184
342.216506	2619.267592
342.608253	2619.620473
342.999937	2620.258179
343.391557	2618.166100
343.783113	2618.110647
344.174605	2618.070318
344.566033	2617.467900
344.957397	2615.317848
345.348697	2614.322220
345.739934	2615.154010
346.131106	2610.208638
346.522215	2610.667383
346.913260	2607.972887
347.304241	2607.546909
347.695159	2607.551950
348.086012	2603.201435
348.476802	2601.152206
348.867528	2598.868563
349.258191	2595.332193
349.648789	2591.805906
350.039324	2589.812130
350.429796	2596.186669
350.820203	2592.773808
351.210548	2594.908737
351.600828	2592.113417
351.991045	2588.725761
352.381198	2589.129054
352.771288	2588.072932
353.161314	2584.743250
353.551276	2586.651327
353.941175	2584.828949
354.331010	2587.417582
354.720782	2586.638724
355.110490	2583.919021
355.500135	2586.240472
355.889717	2587.568817
356.279235	2584.634865
356.668689	2588.241811
357.058080	2587.087386
357.447408	2585.580081
357.836672	2586.641244
358.225873	2586.111923
358.615010	2586.396748
359.004084	2587.289032
359.393095	2588.017479
359.782043	2587.805751
360.170927	2589.368508
360.559748	2589.807089
360.948505	2590.570824
361.337199	2592.572162
361.725830	2593.104003
362.114398	2589.885227
362.502903	2593.086359
362.891344	2594.124837
363.279722	2591.170721
363.668037	2592.400762
364.056289	2595.485949
364.444478	2592.355392
364.832603	2598.024170
365.220665	2596.819334
365.608665	2596.499221
365.996601	2594.296236
366.384474	2595.667430
366.772284	2598.167843
367.160031	2598.356886
367.547715	2598.056937
367.935336	2599.092894
368.322893	2593.721545
368.710388	2594.381936
369.097820	2600.025508
369.485189	2598.102308
369.872495	2600.360744
370.259738	2600.564911
370.646918	2601.890735
371.034035	2600.448965
371.421090	2604.771754
371.808081	2603.387957
372.195010	2601.699171
372.581875	2604.673452
372.968678	2602.132710
373.355418	2602.155395
373.742096	2601.731938
374.128710	2605.485077
374.515262	2604.635643
374.901751	2602.190683
375.288177	2603.277052
375.674540	2604.227309
376.060841	2608.731580
376.447079	2604.544902
376.833254	2607.660335
377.219367	2605.328802
377.605417	2606.599172
377.991404	2606.059769
378.377329	2608.025819
378.763191	2608.892897
379.148991	2605.956425
379.534727	2608.794595
379.920402	2607.030191
380.306013	2605.500201
380.691563	2610.798453
381.077049	2609.938937
381.462474	2610.692589
381.847835	2610.357352
382.233134	2608.633278
382.618371	2610.647219
383.003545	2610.153186
383.388657	2607.385592
383.773706	2609.598659
384.158693	2611.070676
384.543618	2610.130501
384.928480	2611.602517
385.313280	2611.327775
385.698017	2612.068824
386.082692	2614.531428
386.467305	2615.116202
386.851856	2613.873557
387.236344	2615.375821
387.620770	2614.047477
388.005133	2611.027826
388.389435	2611.300048
388.773674	2611.572271
389.157851	2618.176182
389.541965	2616.595780
389.926018	2616.535287
390.310008	2618.171141
390.693936	2620.235493
391.077802	2619.499485
391.461606	2620.479989
391.845348	2618.231635
392.229027	2623.819754
392.612645	2619.559979
392.996200	2618.458487
393.379694	2620.384207
393.763125	2619.887654
394.146494	2624.633900
394.529801	2623.739095
394.913047	2622.163735
395.296230	2623.234980
395.679351	2624.548201
396.062410	2624.908643
396.445408	2624.260855
396.828343	2627.209930
397.211217	2624.207923
397.594028	2626.662965
397.976778	2623.756739
398.359466	2627.542646
398.742092	2626.148767
399.124656	2626.521812
399.507158	2628.538274
399.889598	2631.386526
400.271977	2628.681947
400.654294	2629.914509
401.036549	2630.164046
401.418742	2628.467698
401.800874	2633.546660
402.182944	2630.242184
402.564952	2634.557412
402.946898	2632.462812
403.328783	2633.919706
403.710606	2635.013636
404.092367	2635.129582
404.474067	2635.734521
404.855705	2637.831641
405.237282	2635.585807
405.618797	2637.193935
406.000250	2637.529172
406.381642	2637.844244
406.762972	2639.112094
407.144240	2637.072947
407.525447	2640.821045
407.906593	2638.416415
408.287677	2641.967908
408.668700	2641.491519
409.049661	2643.455048
409.430560	2645.373207
409.811399	2645.519401
410.192176	2644.506129
410.572891	2645.625265
410.953545	2649.136428
411.334138	2647.402272
411.714669	2649.133908
412.095139	2648.014772
412.475547	2649.907725
412.855894	2649.257416
413.236180	2652.428302
413.616405	2654.134732
413.996568	2651.951913
414.376670	2653.633138
414.756711	2656.163797
415.136691	2659.473314
415.516609	2660.587409
415.896466	2662.558501
416.276262	2665.207627
416.655997	2670.783143
417.035670	2674.886642
417.415283	2687.633200
417.794834	2693.092769
418.174324	2700.314222
418.553753	2706.749255
418.933121	2726.200547
419.312428	2740.923237
419.691674	2757.019641
420.070859	2786.210443
420.449983	2799.793832
420.829045	2837.468895
421.208047	2860.892616
421.586988	2903.898700
421.965867	2945.825976
422.344686	2992.678460
422.723444	3035.571118
423.102141	3040.241747
423.480777	3148.760145
423.859352	3170.631191
424.237866	3286.769293
424.616319	3338.219309
424.994712	3457.603915
425.373044	3480.359683
425.751314	3618.194912
426.129524	3677.181453
426.507673	3781.656846
426.885762	3896.212026
427.263789	3972.789673
427.641756	4046.602248
428.019662	4171.675795
428.397508	4312.767609
428.775292	4340.257021
429.153016	4547.481212
429.530679	4608.267445
429.908282	4726.404365
430.285824	4736.711004
430.663305	5060.083379
431.040726	4995.044932
431.418086	5089.191001
431.795385	5316.967976
432.172624	5461.492816
432.549802	5541.649682
432.926920	5693.995872
433.303977	5749.667855
433.680974	5955.714936
434.057910	6116.799966
434.434786	6250.420790
434.811601	6313.830943
435.188355	6711.129319
435.565050	6687.569487
435.941683	6764.787361
436.318257	7168.868609
436.694770	7346.294539
437.071222	7531.521655
437.447614	7558.396046
437.823946	7614.146166
438.200218	7842.023964
438.576429	7817.629821
438.952580	8094.477387
439.328670	8260.260773
439.704700	8212.460552
440.080670	8302.445148
440.456580	8830.695057
440.832429	8750.878468
441.208218	8542.618320
441.583947	8896.933298
441.959616	9106.370555
442.335224	9044.548364
442.710773	9257.796734
443.086261	9515.155199
443.461689	9005.297941
443.837057	9613.742525
444.212365	9945.299213
444.587612	9720.345284
444.962800	10010.297330
445.337927	9886.070697
445.712995	9547.171568
446.088002	10599.756929
446.462949	10334.655251
446.837837	10369.897957
447.212664	10449.888466
447.587431	10947.825917
447.962139	11638.252265
448.336786	13766.569446
448.711374	14385.575247
449.085901	12428.770723
449.460369	12106.842639
449.834776	11631.608024
450.209124	12455.728293
450.583412	12888.468501
450.957640	13840.460158
451.331808	13110.748098
451.705917	12120.718415
452.079965	11498.398055
452.453954	12385.003426
452.827883	12045.388453
453.201752	12334.823780
453.575562	11877.528112
453.949311	12299.588635
454.323001	12264.550096
454.696632	12488.347079
455.070202	12792.628605
455.443713	13059.618195
455.817164	13509.964633
456.190556	13534.363817
456.563888	13899.086257
456.937160	14083.889916
457.310373	13427.476232
457.683526	13508.974046
458.056619	13080.609560
458.429653	13204.332078
458.802628	12681.420751
459.175542	13029.053679
459.548398	13978.754132
459.921194	14301.357731
460.293930	14357.299415
460.666607	15259.053453
461.039224	16278.006757
461.411782	16973.355792
461.784280	16900.495996
462.156719	16935.756346
462.529099	16631.043802
462.901419	15550.222938
463.273680	15351.306569
463.645882	15212.516042
464.018024	14944.281287
464.390106	15163.160625
464.762130	15900.837708
465.134094	16637.577137
465.505999	18594.885777
465.877845	21847.143331
466.249631	24688.652710
466.621358	24417.320166
466.993026	22978.272389
467.364634	22424.549530
467.736184	20982.552678
468.107674	20161.678912
468.479105	20296.433996
468.850477	19760.130844
469.221790	19331.627726
469.593043	18662.563267
469.964238	18111.018186
470.335373	17781.142723
470.706449	18190.814611
471.077467	17745.204337
471.448425	19551.661488
471.819324	23525.267829
472.190164	25637.569263
472.560945	22136.845839
472.931667	19723.814372
473.302330	19091.305840
473.672934	18570.471468
474.043479	18938.619372
474.413965	18747.955372
474.784393	18393.307678
475.154761	19050.691784
475.525070	19069.570905
475.895321	18722.157267
476.265513	19297.501635
476.635645	19875.548061
477.005719	19674.204377
477.375734	19861.112717
477.745691	20342.666418
478.115588	20853.524346
478.485427	21354.128567
478.855207	22411.752561
479.224928	24166.028729
479.594591	26372.640070
479.964194	26454.523532
480.333739	26656.411662
480.703226	26224.455353
481.072653	25895.338583
481.442022	26433.126355
481.811333	27356.617848
482.180584	27300.595506
482.549777	26349.286925
482.918912	25983.737736
483.287988	26089.591885
483.657005	25785.512005
484.025964	25504.649160
484.394864	25448.682270
484.763706	25143.639530
485.132489	24572.111316
485.501213	24733.740790
485.869879	24652.976465
486.238487	24453.314005
486.607036	24603.555513
486.975527	24287.886021
487.343959	24620.594613
487.712333	24574.457973
488.080648	24242.573609
488.448905	24708.487130
488.817104	24454.728048
489.185244	25125.352745
489.553326	25099.191677
489.921350	26078.029998
490.289315	28339.592437
490.657222	30150.531174
491.025070	30634.272736
491.392861	30431.008371
491.760593	29586.640308
492.128267	28695.354226
492.495883	27649.617272
492.863440	26775.067820
493.230939	25900.097432
493.598380	25758.163746
493.965763	25340.516752
494.333088	24901.840586
494.700354	24825.073895
495.067563	24711.700866
495.434713	24468.001407
495.801805	24605.806388
496.168839	24417.602471
496.535815	24250.566359
496.902733	24466.728515
497.269593	24136.895901
497.636395	24319.655372
498.003139	24308.998373
498.369825	24049.449526
498.736453	24240.582354
499.103023	24121.802687
499.469535	24140.424709
499.835989	24351.654096
500.202385	24374.901377
500.568723	23871.300190
500.935003	24136.928669
501.301226	23748.132199
501.667390	24572.370935
502.033497	24812.226515
502.399546	24540.556213
502.765537	24118.732624
503.131470	24507.375339
503.497345	24637.618589
503.863163	23844.287167
504.228923	24448.035917
504.594625	24663.003320
504.960269	24171.402599
505.325856	24678.898078
505.691385	24078.335338
506.056856	24695.914492
506.422270	24655.781867
506.787625	24242.094700
507.152924	24644.156966
507.518164	24667.820142
507.883347	24477.448529
508.248472	24169.723895
508.613540	24947.558810
508.978550	24741.572223
509.343503	24721.926846
509.708398	24984.505427
510.073236	25141.807071
510.438016	25357.694484
510.802738	25020.532033
511.167403	25266.310968
511.532010	24975.660722
511.896561	25752.820123
512.261053	25718.474742
512.625488	25557.251080
512.989866	25442.446363
513.354186	25301.316740
513.718449	25394.555401
514.082655	25774.597907
514.446803	25510.539748
514.810894	25977.552241
515.174927	25457.559742
515.538904	25493.498128
515.902822	25982.558106
516.266684	25741.023823
516.630488	25644.803319
516.994235	25625.568797
517.357925	25919.500833
517.721558	26110.147190
518.085133	26194.538626
518.448651	26105.461437
518.812112	25842.353536
519.175516	26039.654215
519.538863	26193.623656
519.902152	25971.283566
520.265385	26275.555009
520.628560	26064.618009
520.991678	26067.942650
521.354739	26143.683466
521.717743	26198.279162
522.080690	25993.903223
522.443580	26326.332031
522.806413	26330.019635
523.169189	26422.658399
523.531908	26467.779246
523.894569	26074.818783
524.257174	26155.290722
524.619722	26342.090678
524.982213	26026.660641
525.344647	26089.901916
525.707025	26227.308646
526.069345	26202.037342
526.431608	26159.260631
526.793815	26347.749373
527.155964	25814.564175
527.518057	25983.223539
527.880093	25898.421249
528.242072	26138.695244
528.603995	25841.592321
528.965860	25643.790047
529.327669	25690.919795
529.689421	25680.136767
530.051117	25510.995973
530.412755	25691.451636
530.774337	25490.135678
531.135862	25358.122982
531.497331	25556.232767
531.858743	25116.321518
532.220098	25594.941267
532.581396	25277.194819
532.942638	25216.900098
533.303824	25308.946527
533.664953	25324.942108
534.026025	24993.587065
534.387040	25221.701797
534.747999	25278.540807
535.108902	25454.650996
535.469748	24941.693428
535.830537	25135.379600
536.191270	25236.268212
536.551947	25112.039057
536.912567	24780.842811
537.273131	25120.064574
537.633638	24820.249511
537.994089	25039.476689
538.354483	24570.596449
538.714821	25067.389558
539.075103	25116.596260
539.435328	24892.774071
539.795497	24448.540032
540.155609	24862.224678
540.515665	25161.321377
540.875665	24384.416555
541.235609	24674.885319
541.595496	24645.513036
541.955328	24997.196532
542.315102	24913.783079
542.674821	24467.086437
543.034483	24340.999618
543.394090	24512.265258
543.753640	24295.006651
544.113134	24927.351345
544.472571	24531.116653
544.831953	24823.914430
545.191278	24454.380209
545.550548	24369.797209
545.909761	24577.790176
546.268918	24810.192409
546.628019	24765.729432
546.987064	24466.257167
547.346053	24215.779877
547.704986	24339.948537
548.063863	24507.841645
548.422684	24517.313973
548.781449	24056.567635
549.140158	24442.079793
549.498811	24019.799980
549.857408	23769.073152
550.215949	24201.745304
550.574434	23884.190421
550.932864	24095.167750
551.291237	24246.966975
551.649555	24117.232881
552.007817	24171.117774
552.366022	24030.643502
552.724173	24082.549742
553.082267	24019.978941
553.440305	24494.449820
553.798288	23757.349949
554.156215	24280.599033
554.514086	24376.479258
554.871902	23737.102154
555.229661	24026.134190
555.587365	23886.605133
555.945014	23737.502926
556.302606	23996.741742
556.660143	23951.401604
557.017625	24185.172511
557.375050	23729.096802
557.732421	24119.161122
558.089735	23926.473099
558.446994	23984.774043
558.804197	24005.377239
559.161345	23957.692964
559.518437	23716.481315
559.875474	23915.319546
560.232455	24093.148768
560.589381	23916.731069
560.946251	23895.417070
561.303065	24219.154929
561.659825	24304.471417
562.016528	23917.091511
562.373177	23642.948524
562.729770	23995.335260
563.086307	23871.322876
563.442789	24046.651686
563.799216	23876.313618
564.155587	23868.439336
564.511904	23851.188507
564.868164	23788.499238
565.224370	23767.190281
565.580520	23685.200955
565.936615	23807.995901
566.292654	23497.720443
566.648638	23795.118273
567.004567	23614.705460
567.360441	23576.153236
567.716260	23296.999341
568.072023	23618.032621
568.427732	23385.695923
568.783385	23173.206247
569.138982	23403.402976
569.494525	23442.771867
569.850013	23187.490356
570.205445	23271.183593
570.560823	23086.591662
570.916145	22844.689374
571.271412	23024.378783
571.626625	22782.118573
571.981782	22882.140106
572.336884	22701.497920
572.691931	22837.225946
573.046923	22563.980284
573.401860	22452.858130
573.756743	22454.269653
574.111570	22361.439325
574.466342	22301.535294
574.821059	22386.718191
575.175722	22083.966656
575.530330	22068.873441
575.884882	22101.890478
576.239380	22013.319926
576.593823	21903.936970
576.948211	21883.616079
577.302544	21723.138508
577.656823	21587.065162
578.011047	21693.919980
578.365216	21555.769679
578.719330	21433.350299
579.073389	21330.664516
579.427394	21482.088175
579.781344	21247.727453
580.135239	21136.564970
580.489080	21104.218406
580.842866	20878.122656
581.196597	21063.034700
581.550273	21045.809077
581.903895	20939.458375
582.257463	21249.398596
582.610975	20775.199938
582.964434	21084.724264
583.317837	20789.655447
583.671186	20871.180987
584.024481	20849.259530
584.377721	20617.825198
584.730906	20681.885660
585.084037	20707.409022
585.437113	20611.750607
585.790135	20807.702778
586.143103	20275.629154
586.496016	20286.762542
586.848874	20531.208092
587.201679	20468.228957
587.554428	20140.748042
587.907124	20484.244703
588.259765	20253.354816
588.612352	20319.492234
588.964884	19896.083202
589.317362	20062.368182
589.669786	20113.800554
590.022155	20153.350926
590.374470	20346.172540
590.726731	20144.163423
591.078937	19902.858512
591.431090	20003.739562
591.783188	19759.223436
592.135232	19718.546366
592.487222	19822.094187
592.839157	19846.339616
593.191038	19718.558969
593.542866	19615.275809
593.894639	19325.752261
594.246358	19550.552435
594.598022	19449.258010
594.949633	19202.493529
595.301190	19173.138890
595.652692	19340.074179
596.004141	19578.097299
596.355535	18898.201921
596.706876	18920.992978
597.058162	18799.826324
597.409395	19034.602941
597.760573	19111.253686
598.111698	18885.924191
598.462768	18817.377102
598.813785	18790.041445
599.164748	18603.669987
599.515657	18644.261358
599.866511	18430.239171
600.217312	18790.953894
600.568060	18317.208940
600.918753	18619.968038
601.269392	18527.228451
601.619978	18312.215678
601.970510	18517.388118
602.320988	18467.120253
602.671412	18672.138939
603.021783	18580.747861
603.372100	18306.332651
603.722363	18447.237942
604.072572	18387.202841
604.422728	18529.007978
604.772830	18296.547771
605.122878	18238.629955
605.472872	18232.877998
605.822813	18216.431234
606.172701	18188.656997
606.522534	18386.882728
606.872314	18404.284791
607.222041	18241.377384
607.571714	18459.082133
607.921333	18294.029715
608.270899	18359.526906
608.620411	18531.715078
608.969870	18309.306932
609.319276	18312.563517
609.668627	18343.506119
610.017926	18473.688876
610.367171	18586.870342
610.716362	18637.470924
611.065500	18456.148182
611.414585	18587.560980
611.763616	18568.354184
612.112594	18518.514816
612.461518	18484.545001
612.810389	18671.975101
613.159207	18532.277166
613.507971	18430.723122
613.856682	18710.403817
614.205340	18650.361154
614.553945	18793.774419
614.902496	18535.259009
615.250994	18760.674203
615.599439	18708.820895
615.947830	18698.189101
616.296169	18752.769674
616.644454	18715.538232
616.992686	18692.301033
617.340864	18900.306603
617.688990	18652.859046
618.037063	18824.114604
618.385082	18672.832097
618.733048	18954.922464
619.080961	18837.118260
619.428821	18865.159678
619.776628	18746.183406
620.124382	18680.701338
620.472083	18722.366475
620.819731	18731.667404
621.167326	18431.852341
621.514868	18465.963308
621.862357	18235.325478
622.209793	18255.180063
622.557176	18082.875945
622.904506	17904.678718
623.251783	17817.106314
623.599007	17580.081343
623.946179	17524.527827
624.293297	17461.934341
624.640363	17219.991723
624.987376	17228.090337
625.334336	17022.577618
625.681243	16866.705141
626.028097	16886.834469
626.374899	16809.538457
626.721647	16678.256728
627.068343	16504.019328
627.414987	16445.867098
627.761577	16416.078920
628.108115	16462.046681
628.454600	16190.010896
628.801032	16269.393946
629.147412	16206.462702
629.493739	16231.819705
629.840014	16037.548760
630.186236	16130.689118
630.532405	15903.617905
630.878521	16092.318376
631.224585	15982.101108
631.570597	15813.966025
631.916556	15848.381982
632.262462	15816.504246
632.608316	15735.324025
632.954117	15683.599266
633.299866	15675.556105
633.645562	15585.251395
633.991206	15347.465210
634.336797	15220.407968
634.682336	15194.093145
635.027823	15079.953860
635.373257	14955.225632
635.718639	14855.725858
636.063968	14803.365913
636.409245	14558.965734
636.754470	14583.254013
637.099642	14431.248101
637.444762	14198.145147
637.789829	14241.567126
638.134845	14086.574330
638.479808	14113.196664
638.824719	14053.537128
639.169577	13906.975663
639.514383	13954.175986
639.859137	13776.908852
640.203839	13861.514537
640.548489	13699.937995
640.893086	13685.656406
641.237632	13560.202251
641.582125	13718.940624
641.926566	13542.906053
642.270955	13547.657340
642.615292	13501.997089
642.959576	13525.070450
643.303809	13556.544894
643.647990	13486.321621
643.992118	13548.010221
644.336195	13316.729644
644.680219	13522.537270
645.024192	13449.299387
645.368112	13689.533053
645.711981	13742.986928
646.055797	13916.952106
646.399562	13896.041400
646.743274	14164.500486
647.086935	14431.616105
647.430544	14393.719231
647.774101	14424.868521
648.117606	14579.694958
648.461059	14549.755546
648.804460	14540.741962
649.147810	14273.026446
649.491108	14167.089119
649.834354	14188.153580
650.177548	13880.310479
650.520690	13688.708825
650.863781	13602.928551
651.206820	13651.900840
651.549807	13475.621772
651.892742	13281.784366
652.235626	13221.635838
652.578458	13220.814130
652.921238	12910.974733
653.263967	13111.053088
653.606644	12935.358794
653.949269	12916.608222
654.291843	12712.733878
654.634365	12873.496274
654.976836	12725.369530
655.319255	12737.954771
655.661622	12680.805730
656.003938	12602.337650
656.346203	12535.330633
656.688416	12613.652520
657.030577	12570.265829
657.372687	12485.980258
657.714746	12457.311216
658.056753	12650.336997
658.398708	12464.552833
658.740612	12469.898977
659.082465	12567.079820
659.424266	12541.737940
659.766016	12565.839696
660.107715	12477.488434
660.449362	12542.237014
660.790958	12506.568330
661.132503	12448.806789
661.473996	12513.814989
661.815438	12523.151206
662.156829	12553.786297
662.498168	12520.756657
662.839456	12524.282945
663.180693	12538.672918
663.521879	12635.377373
663.863013	12602.632558
664.204097	12584.701173
664.545129	12704.080738
664.886110	12674.234586
665.227040	12771.123043
665.567918	12777.376594
665.908746	12803.625882
666.249522	12788.862863
666.590248	12831.750479
666.930922	12956.491311
667.271545	12923.993513
667.612118	13011.293694
667.952639	12909.427098
668.293109	12931.988783
668.633528	12887.999674
668.973896	12863.643339
669.314213	12932.412239
669.654480	12678.363291
669.994695	12744.813261
670.334859	12770.520625
670.674973	12721.891134
671.015035	12759.271290
671.355047	12691.019108
671.695008	12672.339112
672.034918	12677.899505
672.374777	12717.759909
672.714585	12628.171043
673.054342	12669.687466
673.394049	12615.936163
673.733705	12712.186913
674.073310	12613.839043
674.412864	12637.126653
674.752368	12497.400992
675.091820	12519.672809
675.431223	12502.802588
675.770574	12379.390101
676.109875	12293.738376
676.449125	12251.979978
676.788324	12195.040146
677.127473	12035.865713
677.466571	12020.666634
677.805619	11921.860019
678.144616	11842.308091
678.483562	11813.006384
678.822458	11678.909171
679.161303	11663.059783
679.500098	11653.365644
679.838842	11604.194230
680.177535	11633.372428
680.516179	11691.806963
680.854771	11639.613377
681.193314	11845.088287
681.531805	12007.022751
681.870247	12427.323912
682.208638	12838.828259
682.546978	13152.151094
682.885268	13198.590204
683.223508	12882.953479
683.561697	12733.914286
683.899836	12628.836475
684.237925	12433.859768
684.575963	12344.674195
684.913951	12265.707040
685.251889	12220.649207
685.589776	12317.094042
685.927614	12237.572361
686.265401	12209.218391
686.603137	12254.167839
686.940824	12407.280284
687.278460	12530.352494
687.616046	12579.871748
687.953582	12745.536666
688.291068	12674.413547
688.628504	12902.790419
688.965889	12910.629414
689.303224	12879.099517
689.640510	12772.174123
689.977745	12456.802059
690.314930	12225.559291
690.652065	12145.888896
690.989150	11851.241015
691.326185	11633.765638
691.663170	11427.779051
692.000105	11182.426093
692.336990	11064.934441
692.673825	10817.872532
693.010610	10698.442557
693.347345	10485.312654
693.684030	10293.796699
694.020665	10233.383511
694.357251	10040.922340
694.693786	9978.028904
695.030272	9813.200818
695.366707	9694.103558
695.703093	9626.547055
696.039429	9630.955544
696.375716	9550.959995
696.711952	9415.726002
697.048139	9461.313156
697.384276	9409.875742
697.720363	9432.749978
698.056400	9367.207416
698.392388	9313.428387
698.728326	9278.568808
699.064214	9215.090599
699.400053	9259.167928
699.735842	9069.123989
700.071581	9033.336838
700.407270	8960.557700
700.742910	8873.746510
701.078501	8796.256414
701.414042	8664.284048
701.749533	8601.743493
702.084974	8452.704300
702.420366	8577.500584
702.755709	8453.936862
703.091002	8327.751740
703.426246	8352.770987
703.761440	8301.268038
704.096584	8255.282633
704.431679	8190.410545
704.766725	8178.629368
705.101721	8124.227757
705.436668	8171.128131
705.771565	8063.411277
706.106413	8150.227507
706.441212	8188.719238
706.775961	8149.022672
707.110661	8180.784462
707.445311	8323.252510
707.779913	8220.128147
708.114465	8350.966254
708.448967	8385.893888
708.783421	8532.586424
709.117825	8713.788178
709.452180	8752.831915
709.786485	8841.830965
710.120742	9120.258933
710.454949	9122.822360
710.789107	9219.236948
711.123216	9432.490359
711.457275	9605.815310
711.791286	9758.337940
712.125247	9760.971943
712.459159	9740.028470
712.793023	9990.024330
713.126837	9563.721676
713.460602	9721.388803
713.794318	9543.733501
714.127985	9576.460671
714.461602	9248.820959
714.795171	9200.680461
715.128691	8953.190054
715.462162	8703.670582
715.795584	8648.467427
716.128957	8499.604675
716.462281	8326.559507
716.795556	8380.366263
717.128782	8175.476127
717.461960	7909.472082
717.795088	7981.709296
718.128167	7893.327787
718.461198	7722.359575
718.794180	7664.529978
719.127113	7657.457240
719.459997	7500.994948
719.792833	7272.255112
720.125619	7338.044691
720.458357	7189.481887
720.791046	7184.302101
721.123686	7177.088210
721.456278	7018.496031
721.788821	7042.809516
722.121315	6932.078051
722.453761	7001.091447
722.786158	6942.329237
723.118506	6957.225847
723.450805	6921.617657
723.783056	6987.157698
724.115259	6897.808287
724.447412	6895.726291
724.779518	6936.584842
725.111574	6935.228772
725.443582	7018.833788
725.775542	6999.979873
726.107453	7199.453289
726.439315	7103.232786
726.771129	7165.891807
727.102895	7333.852971
727.434612	7440.173427
727.766281	7480.855538
728.097901	7553.160808
728.429473	7551.111579
728.760996	7529.966459
729.092471	7501.647777
729.423897	7449.630631
729.755276	7464.136551
730.086606	7381.605301
730.417887	7481.891495
730.749120	7683.867845
731.080305	7873.765589
731.411442	7996.613467
731.742530	7988.640883
732.073570	8099.359745
732.404562	8183.531890
732.735506	8033.388685
733.066401	8175.750869
733.397249	8102.336546
733.728048	7867.083540
734.058798	7531.486367
734.389501	7301.740821
734.720156	7127.510983
735.050762	6893.004068
735.381320	6801.945706
735.711831	6749.336224
736.042293	6644.654144
736.372707	6663.001423
736.703073	6523.527820
737.033391	6565.823101
737.363661	6576.943886
737.693883	6601.479182
738.024056	6688.691143
738.354182	6725.360496
738.684260	6759.874756
739.014290	6880.076028
739.344272	6989.007801
739.674207	7016.960999
740.004093	7088.384067
740.333931	7107.495081
740.663722	7111.598581
740.993464	7183.339241
741.323159	7178.416554
741.652806	6921.826865
741.982405	6939.531397
742.311956	7000.529358
742.641460	6830.834038
742.970915	6638.314893
743.300323	6626.412729
743.629683	6575.252579
743.958996	6441.979595
744.288260	6353.706470
744.617477	6299.899715
744.946647	6307.567310
745.275768	6143.462628
745.604842	6090.843065
745.933869	6080.828812
746.262847	6037.968923
746.591778	6023.790677
746.920662	5986.347507
747.249498	5975.246886
747.578286	6028.247057
747.907027	6101.318582
748.235720	6160.032901
748.564365	6128.084589
748.892963	6160.796636
749.221514	6313.165511
749.550017	6142.928266
749.878473	6020.594586
750.206881	6074.023255
750.535242	6015.233319
750.863555	5950.870387
751.191821	5965.411595
751.520039	5964.446214
751.848210	5874.234766
752.176334	5899.354836
752.504411	5944.763029
752.832440	5869.556575
753.160421	5800.591070
753.488356	5850.846333
753.816243	5879.976640
754.144082	5728.192539
754.471875	5704.383170
754.799620	5745.710549
755.127318	5753.920068
755.454969	5712.340631
755.782572	5677.113048
756.110129	5722.165840
756.437638	5703.891657
756.765100	5643.135671
757.092515	5645.303367
757.419882	5695.414957
757.747203	5675.681360
758.074477	5740.215691
758.401703	5726.145831
758.728882	5673.463252
759.056014	5735.698817
759.383099	5865.163210
759.710138	5869.604466
760.037129	5857.210790
760.364073	5865.213621
760.690970	5940.324293
761.017820	5924.379123
761.344623	5885.736159
761.671379	5985.062013
761.998088	6103.516525
762.324751	6345.605336
762.651366	6954.405321
762.977935	8267.661186
763.304456	9899.419672
763.630931	10790.448655
763.957359	10390.886802
764.283740	9449.400909
764.610074	8613.958209
764.936362	7617.596836
765.262602	7024.154726
765.588796	6485.721687
765.914943	6150.671478
766.241044	5987.025542
766.567097	5784.882835
766.893104	5526.163258
767.219064	5346.617522
767.544978	5284.223161
767.870845	5210.997881
768.196665	5101.657775
768.522438	5031.333678
768.848165	4996.723637
769.173846	4932.426240
769.499479	4886.985279
769.825066	4839.532898
770.150607	4769.347434
770.476101	4751.789095
770.801548	4746.516048
771.126949	4670.011497
771.452303	4617.626347
771.777611	4576.190583
772.102872	4596.690435
772.428087	4561.112492
772.753256	4517.687992
773.078378	4471.730313
773.403453	4402.911002
773.728482	4385.599679
774.053465	4336.395497
774.378401	4327.215556
774.703291	4329.642872
775.028135	4259.349023
775.352932	4205.965724
775.677683	4194.547510
776.002388	4216.889904
776.327046	4225.716965
776.651658	4149.585459
776.976224	4090.334258
777.300743	4093.157304
777.625216	4114.672948
777.949643	4111.925519
778.274024	4069.148808
778.598359	4023.463352
778.922647	4046.140982
779.246889	4040.709139
779.571086	4034.216133
779.895236	4016.065458
780.219339	4002.051051
780.543397	3993.476048
780.867409	4048.021333
781.191374	4063.931214
781.515294	3995.621059
781.839167	3994.993435
782.162995	4013.572608
782.486776	3999.621215
782.810511	4007.341742
783.134201	4006.731762
783.457844	3961.036223
783.781441	3903.597316
784.104993	3914.655087
784.428498	3931.694187
784.751958	3927.021037
785.075372	3906.879107
785.398739	3868.568859
785.722061	3881.209552
786.045337	3922.156324
786.368568	3956.587405
786.691752	3866.590206
787.014891	3916.301024
787.337983	4047.035787
787.661030	4207.036969
787.984031	4367.005383
788.306987	4533.766753
788.629897	4619.297489
788.952760	4571.766970
789.275579	4507.993854
789.598351	4442.272331
789.921078	4300.560455
790.243759	4098.402624
790.566395	4086.077003
790.888984	4082.293617
791.211529	3972.091473
791.534027	3909.976896
791.856480	3898.573806
792.178888	3838.347141
792.501249	3786.965181
792.823566	3800.750216
793.145836	3829.071418
793.468062	3775.113428
793.790241	3732.520719
794.112375	3760.990636
794.434464	3827.052436
794.756507	3848.862988
795.078505	3828.529494
795.400457	3864.954351
795.722364	4004.546422
796.044226	4107.174232
796.366042	4173.992206
796.687812	4156.869927
797.009538	4165.084487
797.331218	4124.941779
797.652852	4097.583437
797.974442	4073.867328
798.295986	4075.682144
798.617484	3996.513343
798.938938	3910.952360
799.260346	3952.196560
799.581709	3943.485446
799.903026	3872.442985
800.224299	3836.277748
800.545526	3828.544618
800.866708	3790.188999
801.187845	3726.345306
801.508936	3762.717231
801.829983	3762.886109
802.150984	3684.284439
802.471940	3673.914785
802.792851	3682.620858
803.113717	3683.510622
803.434538	3684.609593
803.755314	3629.918115
804.076045	3607.855505
804.396731	3625.381077
804.717372	3650.377638
805.037967	3634.074546
805.358518	3623.634317
805.679024	3649.487874
805.999485	3668.235925
806.319901	3668.868590
806.640272	3680.223789
806.960598	3695.054864
807.280879	3666.242149
807.601115	3683.513142
807.921306	3698.964279
808.241453	3737.738313
808.561554	3712.608162
808.881611	3648.782113
809.201623	3688.791230
809.521590	3698.198023
809.841513	3671.744568
810.161390	3703.909651
810.481223	3676.359745
810.801011	3625.398721
811.120755	3615.810446
811.440453	3650.561640
811.760107	3653.165396
812.079716	3611.104529
812.399281	3577.966504
812.718801	3604.578755
813.038276	3577.084302
813.357707	3574.122624
813.677093	3589.493102
813.996434	3533.566542
814.315731	3548.856361
814.634983	3550.159499
814.954191	3565.998805
815.273354	3589.737598
815.592473	3589.939244
815.911547	3598.458794
816.230577	3637.855412
816.549562	3689.693597
816.868502	3730.524422
817.187399	3751.314141
817.506250	3749.569902
817.825058	3723.192064
818.143821	3816.667659
818.462539	3919.660953
818.781213	3962.972026
819.099843	4022.692055
819.418429	4272.042648
819.736970	4509.055017
820.055466	4759.421402
820.373919	5122.565960
820.692327	5533.223394
821.010691	5976.280323
821.329011	7367.283383
821.647286	10134.123192
821.965517	14710.467530
822.283704	18732.839472
822.601847	20865.522292
822.919945	19036.541265
823.237999	16440.694874
823.556010	13959.751502
823.873976	11862.850793
824.191897	9767.606102
824.509775	8415.165348
824.827609	7294.300078
825.145398	6757.298727
825.463144	6643.582899
825.780845	6750.828406
826.098502	6939.972498
826.416116	7830.893097
826.733685	9159.534563
827.051210	10264.842832
827.368692	10298.089242
827.686129	9031.748875
828.003522	7520.378184
828.320872	6505.687176
828.638177	5805.286905
828.955439	5242.830247
829.272656	4745.054113
829.589830	4461.554744
829.906960	4291.350267
830.224046	4105.079633
830.541088	3975.116166
830.858086	3929.027417
831.175041	3853.067311
831.491952	3836.386132
831.808819	3847.927854
832.125642	3923.315789
832.442421	4068.705187
832.759157	4349.003423
833.075849	4902.146549
833.392497	5768.020175
833.709101	6544.105810
834.025662	6872.390789
834.342179	6503.486713
834.658653	5839.160938
834.975083	5194.798133
835.291469	4614.997385
835.607811	4214.134914
835.924110	4075.561156
836.240366	3874.519941
836.556578	3667.250380
836.872746	3561.557548
837.188871	3519.279912
837.504952	3453.621403
837.820990	3368.625029
838.136984	3328.028617
838.452935	3348.261288
838.768842	3342.620237
839.084706	3367.722662
839.400526	3527.832229
839.716303	3867.280844
840.032037	4398.068973
840.347727	4655.830731
840.663373	4377.175911
840.978977	3991.494875
841.294537	3685.176723
841.610054	3457.898822
841.925527	3351.714478
842.240957	3282.116308
842.556344	3229.332907
842.871687	3168.763443
843.186987	3117.719240
843.502244	3082.746235
843.817458	3047.445556
844.132629	3015.976153
844.447756	3026.562576
844.762840	3010.987931
845.077881	2977.154227
845.392879	2960.513378
845.707833	2957.753346
846.022745	2958.522122
846.337613	2957.347533
846.652438	2943.602828
846.967221	2942.455965
847.281960	2930.311825
847.596656	2924.451484
847.911309	2927.836619
848.225919	2916.957809
848.540485	2911.954464
848.855009	2913.118970
849.169490	2902.852660
849.483928	2893.516443
849.798323	2892.656927
850.112675	2888.213150
850.426984	2902.393915
850.741251	2898.862587
851.055474	2887.257851
851.369654	2879.406254
851.683792	2886.146277
851.997887	2895.593399
852.311938	2899.596075
852.625947	2885.501009
852.939914	2886.579816
853.253837	2895.406876
853.567718	2879.900287
853.881555	2880.051522
854.195350	2893.995353
854.509103	2887.441853
854.822812	2882.274670
855.136479	2879.769217
855.450103	2882.738457
855.763685	2872.411653
856.077224	2869.540716
856.390720	2884.535628
856.704173	2893.889489
857.017584	2885.193498
857.330953	2884.502860
857.644278	2894.554921
857.957561	2902.310736
858.270802	2904.924575
858.584000	2904.740573
858.897155	2890.161556
859.210268	2889.307080
859.523339	2888.969323
859.836367	2888.808006
860.149352	2884.820453
860.462295	2879.234855
860.775195	2885.924466
861.088054	2886.514281
861.400869	2868.361086
861.713642	2867.604913
862.026373	2880.046480
862.339062	2883.368601
862.651708	2888.503016
862.964312	2893.450908
863.276873	2884.822974
863.589392	2894.633059
863.901869	2907.082188
864.214303	2929.205292
864.526696	2946.282201
864.839045	2938.662497
865.151353	2940.197528
865.463619	2939.343053
865.775842	2941.523352
866.088023	2961.244345
866.400162	2962.668471
866.712258	2937.003957
867.024313	2927.045158
867.336325	2933.860798
867.648296	2955.366360
867.960224	2951.247737
868.272110	2937.026642
868.583954	2939.753907
868.895755	2954.559775
869.207515	2941.009154
869.519233	2943.905297
869.830909	2956.979529
870.142542	2965.763740
870.454134	2961.052782
870.765684	2967.137454
871.077191	2963.472535
871.388657	2972.932261
871.700081	2987.602018
872.011463	2997.800273
872.322803	3000.603154
872.634101	2998.001919
872.945357	3018.184178
873.256571	3044.347767
873.567744	3033.995757
873.878874	3026.481917
874.189963	3050.787841
874.501010	3051.584343
874.812015	3042.623692
875.122979	3041.181922
875.433900	3039.573794
875.744780	3042.023795
876.055618	3054.440157
876.366415	3050.999569
876.677169	3060.287895
876.987882	3057.865621
877.298554	3052.446380
877.609183	3074.025039
877.919771	3096.001949
878.230317	3121.832822
878.540822	3176.811646
878.851285	3213.228941
879.161707	3258.001949
879.472087	3359.878627
879.782425	3586.349943
880.092722	4027.783621
880.402977	4560.303387
880.713191	5191.183626
881.023363	6355.077664
881.333494	7636.304558
881.643583	8183.909977
881.953631	7885.319914
882.263637	7245.496668
882.573602	6658.910527
882.883526	6080.564152
883.193408	5507.911760
883.503248	5043.654258
883.813048	4740.708639
884.122806	4434.430816
884.432522	4119.273001
884.742197	3885.181981
885.051831	3688.203936
885.361424	3555.614028
885.670975	3481.551916
885.980485	3396.288361
886.289954	3321.180209
886.599382	3276.266049
886.908768	3238.298599
887.218113	3191.156249
887.527417	3133.311529
887.836680	3087.631113
888.145901	3081.662387
888.455082	3072.825245
888.764221	3019.948582
889.073319	2990.581340
889.382376	2990.972030
889.691392	2993.711897
890.000366	2992.428923
890.309300	2978.495174
890.618193	2990.349447
890.927044	3009.989783
891.235855	3007.895183
891.544625	2992.123933
891.853353	3003.438803
892.162041	3023.857997
892.470687	3066.730490
892.779293	3114.729836
893.087858	3162.204902
893.396381	3232.019842
893.704864	3355.578523
894.013306	3598.589864
894.321707	3901.366606
894.630068	4102.256586
894.938387	4100.676185
895.246665	4053.478382
895.554903	3934.207202
895.863100	3731.595667
896.171256	3567.251532
896.479371	3425.743822
896.787446	3305.865184
897.095480	3201.621684
897.403473	3134.367651
897.711425	3098.018411
898.019336	3086.935434
898.327207	3061.966599
898.635038	3026.020652
898.942827	3009.808301
899.250576	2998.667351
899.558284	2966.701394
899.865952	2947.686162
900.173579	2925.885692
900.481165	2922.918973
900.788711	2906.656211
901.096216	2883.189640
901.403681	2870.611961
901.711105	2877.165461
902.018489	2877.974566
902.325832	2876.943650
902.633135	2885.206101
902.940397	2918.618869
903.247619	3001.651714
903.554800	3195.481559
903.861941	3544.394940
904.169041	3971.116010
904.476101	4272.836630
904.783121	4223.352663
905.090100	3974.450733
905.397039	3702.077191
905.703938	3451.393213
906.010796	3269.347066
906.317614	3154.638130
906.624391	3063.937690
906.931129	2988.252327
907.237826	2928.466763
907.544483	2882.002448
907.851099	2850.966584
908.157675	2832.856239
908.464211	2808.920841
908.770707	2795.297122
909.077163	2781.013013
909.383578	2766.756630
909.689954	2757.690115
909.996289	2754.582243
910.302584	2756.071904
910.608839	2759.515012
910.915054	2749.152921
911.221229	2743.108577
911.527363	2746.234093
911.833458	2753.470669
912.139513	2755.620721
912.445527	2762.816968
912.751502	2768.170674
913.057436	2778.351284
913.363331	2789.620783
913.669186	2815.434012
913.975000	2847.067252
914.280775	2911.508322
914.586510	2981.645895
914.892205	3059.894685
915.197859	3187.879499
915.503475	3384.378635
915.809050	3597.276644
916.114585	3741.267121
916.420081	3762.515585
916.725536	3702.868652
917.030952	3581.701999
917.336328	3456.089048
917.641665	3320.129129
917.946961	3223.331413
918.252218	3153.642502
918.557435	3074.506469
918.862612	3013.344670
919.167750	2967.744913
919.472848	2927.640014
919.777906	2901.305026
920.082925	2869.576004
920.387904	2840.128104
920.692843	2825.657472
920.997743	2816.162458
921.302603	2799.191414
921.607423	2789.759415
921.912204	2777.030502
922.216946	2765.723193
922.521647	2759.381422
922.826310	2748.104361
923.130932	2743.542117
923.435516	2733.469891
923.740059	2727.049982
924.044564	2721.764332
924.349028	2712.922148
924.653454	2706.252702
924.957840	2701.657690
925.262186	2697.695343
925.566493	2691.101514
925.870761	2685.861234
926.174989	2684.048939
926.479178	2677.608865
926.783328	2671.965294
927.087438	2672.565191
927.391509	2672.315654
927.695541	2669.036383
927.999533	2667.135868
928.303486	2662.772750
928.607400	2661.721669
928.911275	2661.114210
929.215110	2661.567914
929.518906	2661.073881
929.822663	2658.845691
930.126381	2660.559683
930.430060	2660.673109
930.733699	2659.909374
931.037299	2663.564211
931.340861	2665.048831
931.644383	2663.168480
931.947866	2662.729900
932.251309	2658.666730
932.554714	2659.861483
932.858080	2660.156391
933.161407	2655.611791
933.464694	2655.042140
933.767943	2649.887560
934.071153	2654.696821
934.374323	2654.772438
934.677455	2655.352171
934.980548	2649.605256
935.283602	2649.227169
935.586617	2650.111892
935.889593	2652.957623
936.192530	2652.062818
936.495428	2652.145997
936.798287	2653.204640
937.101108	2658.817964
937.403890	2662.737462
937.706632	2665.469767
938.009336	2673.243226
938.312002	2681.881243
938.614628	2688.419620
938.917216	2695.091587
939.219765	2694.279961
939.522275	2695.341124
939.824747	2691.734178
940.127179	2689.531194
940.429573	2689.319466
940.731929	2686.498940
941.034246	2681.004082
941.336524	2679.232117
941.638763	2676.242713
941.940964	2674.453103
942.243126	2673.966632
942.545250	2670.258863
942.847335	2668.038235
943.149381	2665.114366
943.451389	2659.299395
943.753359	2659.158242
944.055290	2658.901143
944.357182	2658.296205
944.659036	2656.574651
944.960851	2654.618683
945.262628	2654.215391
945.564367	2652.463590
945.866067	2656.867038
946.167729	2653.587767
946.469352	2655.604229
946.770937	2653.597850
947.072484	2652.486275
947.373992	2649.920328
947.675462	2648.075266
947.976893	2647.876140
948.278286	2642.172074
948.579641	2643.618886
948.880958	2641.022691
949.182236	2647.361942
949.483476	2642.081334
949.784678	2644.130563
950.085841	2643.293731
950.386967	2644.208701
950.688054	2646.981335
950.989103	2644.145686
951.290114	2644.717857
951.591087	2649.406130
951.892021	2651.457880
952.192917	2653.373518
952.493776	2656.546925
952.794596	2657.139260
953.095378	2656.768735
953.396122	2656.776297
953.696828	2653.197078
953.997496	2651.402427
954.298126	2650.318579
954.598718	2649.471665
954.899272	2648.662560
955.199788	2643.510501
955.500266	2641.955305
955.800706	2639.727115
956.101108	2638.429018
956.401472	2634.101187
956.701798	2634.088584
957.002087	2631.462143
957.302337	2629.065074
957.602550	2630.937863
957.902724	2626.567183
958.202861	2626.662965
958.502960	2623.166924
958.803022	2626.390742
959.103045	2626.035341
959.403031	2622.564507
959.702979	2622.128447
960.002889	2623.383694
960.302762	2619.222222
960.602596	2622.753550
960.902393	2622.125926
961.202153	2620.800103
961.501875	2618.130812
961.801559	2619.370936
962.101205	2621.309259
962.400814	2619.144084
962.700385	2621.647017
962.999918	2616.303393
963.299414	2613.911366
963.598873	2617.462859
963.898293	2612.431787
964.197677	2615.975718
964.497022	2620.119547
964.796331	2616.356326
965.095601	2617.520832
965.394835	2616.328599
965.694030	2617.157869
965.993189	2619.577623
966.292309	2615.312807
966.591393	2618.188785
966.890439	2614.150821
967.189447	2614.886829
967.488419	2614.813732
967.787353	2618.748353
968.086249	2618.153497
968.385108	2616.074021
968.683930	2614.579319
968.982714	2616.419340
969.281462	2613.119905
969.580172	2616.762138
969.878844	2614.826335
970.177480	2614.402878
970.476078	2615.385903
970.774639	2618.029989
971.073162	2619.595267
971.371649	2615.055708
971.670098	2618.377828
971.968510	2616.631068
972.266885	2618.158538
972.565223	2616.363887
972.863524	2615.882457
973.161788	2617.520832
973.460014	2615.559823
973.758204	2619.703652
974.056356	2615.106119
974.354471	2616.061418
974.652550	2614.972529
974.950591	2618.067797
975.248595	2615.118722
975.546563	2616.353805
975.844493	2616.691562
976.142386	2617.367077
976.440243	2618.607201
976.738062	2612.832559
977.035845	2614.544031
977.333590	2617.520832
977.631299	2613.455142
977.928971	2611.899946
978.226606	2614.080245
978.524204	2611.574791
978.821765	2609.747373
979.119290	2612.368773
979.416777	2614.919597
979.714228	2613.008999
980.011642	2613.150152
980.309020	2613.636623
980.606360	2615.612755
980.903664	2614.455811
981.200931	2615.146449
981.498162	2613.855913
981.795356	2617.190637
982.092513	2618.728188
982.389633	2617.477982
982.686717	2623.789507
982.983764	2626.370578
983.280775	2631.988944
983.577749	2631.315950
983.874686	2630.496762
984.171587	2627.870321
984.468451	2624.306225
984.765279	2624.573406
985.062070	2619.580143
985.358824	2621.168107
985.655543	2618.846656
985.952224	2615.751387
986.248869	2616.706686
986.545478	2617.215842
986.842050	2614.415481
987.138586	2613.452621
987.435086	2612.320882
987.731549	2613.215687
988.027975	2612.756942
988.324366	2609.681838
988.620719	2610.911879
988.917037	2609.354163
989.213318	2608.661004
989.509563	2610.581684
989.805772	2611.355501
990.101944	2608.953391
990.398080	2609.046652
990.694180	2612.220059
990.990244	2611.310131
991.286271	2613.601335
991.582262	2611.093361
991.878217	2610.967332
992.174136	2609.785182
992.470019	2609.036570
992.765865	2609.775099
993.061676	2607.932557
993.357450	2607.249481
993.653188	2604.907865
993.948890	2610.682507
994.244556	2614.075203
994.540186	2610.006992
994.835780	2612.020933
995.131337	2613.838269
995.426859	2611.700820
995.722345	2614.859103
996.017795	2611.703341
996.313208	2613.828187
996.608586	2616.963785
996.903928	2616.129474
997.199234	2615.937910
997.494504	2615.534617
997.789738	2614.486057
998.084936	2612.101592
998.380099	2611.952878
998.675225	2613.787858
998.970316	2613.319030
999.265371	2613.452621
999.560390	2612.550254
999.855373	2608.718977
1000.150320	2611.002620
1000.445232	2611.809205
1000.740108	2609.538165
1001.034948	2612.257867
1001.329752	2610.528752
1001.624521	2609.281066
1001.919254	2610.682507
1002.213951	2612.164606
1002.508613	2611.940275
1002.803239	2608.318206
1003.097829	2608.789554
1003.392384	2610.546396
1003.686903	2608.618154
1003.981386	2610.432970
1004.275834	2606.589090
1004.570246	2610.380038
1004.864623	2607.070520
1005.158964	2610.478340
1005.453270	2608.159409
1005.747540	2607.756117
1006.041775	2608.794595
1006.335974	2608.169492
1006.630138	2607.914913
1006.924266	2609.961622
1007.218359	2609.913731
1007.512416	2607.582197
1007.806438	2604.310488
1008.100425	2603.448451
1008.394376	2603.587083
1008.688292	2609.581015
1008.982172	2607.756117
1009.276017	2607.985490
1009.569827	2608.653442
1009.863602	2607.514142
1010.157341	2608.391302
1010.451045	2606.846189
1010.744714	2606.780654
1011.038347	2608.547578
1011.331945	2608.298041
1011.625508	2607.912393
1011.919036	2609.913731
1012.212528	2608.106477
1012.505986	2607.481374
1012.799408	2605.812752
1013.092795	2605.628750
1013.386147	2608.925665
1013.679464	2607.587238
1013.972745	2607.587238
1014.265992	2608.615634
1014.559204	2609.349122
1014.852380	2607.539347
1015.145521	2608.159409
1015.438628	2607.942640
1015.731699	2607.912393
1016.024736	2605.868205
1016.317737	2607.430963
1016.610703	2607.105808
1016.903635	2606.818462
1017.196531	2605.643874
1017.489393	2606.881477
1017.782219	2608.081272
1018.075011	2609.036570
1018.367768	2608.761827
1018.660490	2606.533637
1018.953177	2606.533637
1019.245829	2606.533637
