Dividing Wavelength (nm)	Counts (n)	Blue Motor Position (mm): 0.000000	Red Motor Position (mm): 13.500000	
326.493990	2147.428195
326.888308	2147.428195
327.282561	2147.428195
327.676750	2121.108331
328.070874	2125.504217
328.464933	2128.029835
328.858929	2138.018881
329.252859	2150.583957
329.646726	2161.503096
330.040528	2177.475992
330.434265	2196.740762
330.827938	2213.555530
331.221547	2236.104612
331.615091	2254.058681
332.008571	2273.222627
332.401986	2294.191307
332.795338	2312.924234
333.188625	2333.018274
333.581847	2351.012672
333.975006	2372.059490
334.368100	2389.978271
334.761129	2407.347567
335.154095	2425.432706
335.546996	2444.112702
335.939833	2453.486727
336.332606	2469.716722
336.725315	2481.777682
337.117960	2487.645586
337.510540	2495.313181
337.903056	2504.944305
338.295508	2512.400172
338.687896	2519.432581
339.080220	2527.674868
339.472480	2531.831299
339.864676	2535.181146
340.256807	2539.773637
340.648875	2542.289173
341.040879	2544.968546
341.432818	2544.754297
341.824694	2547.947868
342.216506	2546.042312
342.608253	2547.408464
342.999937	2543.625078
343.391557	2545.187836
343.783113	2544.156920
344.174605	2542.447969
344.566033	2540.925541
344.957397	2536.433873
345.348697	2535.960004
345.739934	2535.246681
346.131106	2534.528316
346.522215	2534.976979
346.913260	2530.797862
347.304241	2526.003725
347.695159	2526.853160
348.086012	2523.987264
348.476802	2522.114475
348.867528	2519.740092
349.258191	2522.066584
349.648789	2519.515760
350.039324	2518.827643
350.429796	2519.031809
350.820203	2519.367046
351.210548	2515.946623
351.600828	2515.805471
351.991045	2514.847652
352.381198	2513.438649
352.771288	2516.506191
353.161314	2515.513084
353.551276	2512.924452
353.941175	2514.310769
354.331010	2516.188599
354.720782	2511.200377
355.110490	2514.522497
355.500135	2513.673063
355.889717	2516.846469
356.279235	2513.879750
356.668689	2516.649864
357.058080	2514.913187
357.447408	2512.344719
357.836672	2510.595438
358.225873	2514.625841
358.615010	2512.662312
359.004084	2518.469721
359.393095	2517.332941
359.782043	2518.976357
360.170927	2520.904598
360.559748	2519.046933
360.948505	2520.700431
361.337199	2521.287726
361.725830	2521.640607
362.114398	2524.705628
362.502903	2523.094979
362.891344	2522.548014
363.279722	2522.941224
363.668037	2525.814682
364.056289	2523.359640
364.444478	2526.752337
364.832603	2523.846111
365.220665	2526.533046
365.608665	2523.694877
365.996601	2526.694363
366.384474	2526.081863
366.772284	2526.495238
367.160031	2525.809641
367.547715	2527.387522
367.935336	2527.957172
368.322893	2530.762574
368.710388	2524.892151
369.097820	2532.206865
369.485189	2527.145547
369.872495	2531.647297
370.259738	2529.633356
370.646918	2529.124199
371.034035	2528.831813
371.421090	2532.665610
371.808081	2530.679395
372.195010	2533.071423
372.581875	2534.465302
372.968678	2532.161495
373.355418	2533.212575
373.742096	2532.133768
374.128710	2537.124511
374.515262	2537.227854
374.901751	2536.484284
375.288177	2537.074099
375.674540	2537.598379
376.060841	2541.346477
376.447079	2543.337733
376.833254	2547.857127
377.219367	2544.724050
377.605417	2547.577343
377.991404	2548.436860
378.377329	2550.344937
378.763191	2553.089845
379.148991	2560.177707
379.534727	2562.980589
379.920402	2567.416804
380.306013	2572.241188
380.691563	2575.313772
381.077049	2578.524987
381.462474	2583.087231
381.847835	2588.219125
382.233134	2592.335227
382.618371	2599.463419
383.003545	2603.914758
383.388657	2609.956581
383.773706	2618.612242
384.158693	2621.261368
384.543618	2629.856536
384.928480	2637.604789
385.313280	2644.518732
385.698017	2654.772438
386.082692	2660.625218
386.467305	2664.668223
386.851856	2674.982424
387.236344	2686.856862
387.620770	2690.796524
388.005133	2699.086701
388.389435	2712.594473
388.773674	2718.870710
389.157851	2728.809344
389.541965	2739.305027
389.926018	2739.562126
390.310008	2753.987387
390.693936	2761.400404
391.077802	2771.447424
391.461606	2780.420677
391.845348	2789.893006
392.229027	2797.122020
392.612645	2813.311686
392.996200	2823.013386
393.379694	2834.285406
393.763125	2851.778210
394.146494	2859.637369
394.529801	2870.304451
394.913047	2886.695762
395.296230	2889.624673
395.679351	2891.431926
396.062410	2910.575708
396.445408	2904.246539
396.828343	2917.449321
397.211217	2929.595982
397.594028	2918.167686
397.976778	2933.258380
398.359466	2941.863629
398.742092	2938.687703
399.124656	2953.284363
399.507158	2965.957824
399.889598	2970.638536
400.271977	2984.534476
400.654294	2990.825836
401.036549	2998.057371
401.418742	2999.975530
401.800874	3019.328520
402.182944	3021.428161
402.564952	3047.034702
402.946898	3033.151364
403.328783	3040.302241
403.710606	3047.374979
404.092367	3066.790983
404.474067	3081.838828
404.855705	3068.885583
405.237282	3064.189748
405.618797	3084.838314
406.000250	3093.950200
406.381642	3113.477109
406.762972	3109.784464
407.144240	3094.545056
407.525447	3108.090636
407.906593	3097.776436
408.287677	3103.309102
408.668700	3110.643981
409.049661	3099.341714
409.430560	3102.391612
409.811399	3091.790065
410.192176	3096.140581
410.572891	3092.647062
410.953545	3105.633074
411.334138	3073.621747
411.714669	3092.863831
412.095139	3044.904814
412.475547	3067.017835
412.855894	3045.560164
413.236180	3055.060218
413.616405	3027.162473
413.996568	3026.396218
414.376670	3013.309382
414.756711	3000.913185
415.136691	3001.066940
415.516609	2995.136023
415.896466	2984.894919
416.276262	2984.030361
416.655997	2981.572798
417.035670	2971.379585
417.415283	2980.776296
417.794834	2972.118114
418.174324	2951.162038
418.553753	2935.731066
418.933121	2936.996395
419.312428	2917.361101
419.691674	2899.858215
420.070859	2897.398132
420.449983	2872.734287
420.829045	2873.664380
421.208047	2854.747450
421.586988	2851.319465
421.965867	2844.334947
422.344686	2829.304746
422.723444	2825.662513
423.102141	2789.255300
423.480777	2800.252577
423.859352	2778.830193
424.237866	2784.317489
424.616319	2766.123965
424.994712	2762.201947
425.373044	2748.558065
425.751314	2747.451531
426.129524	2725.184755
426.507673	2726.792883
426.885762	2712.556664
427.263789	2704.271528
427.641756	2694.048068
428.019662	2687.308045
428.397508	2679.136335
428.775292	2672.837413
429.153016	2664.824499
429.530679	2658.787717
429.908282	2650.472334
430.285824	2640.707619
430.663305	2639.099491
431.040726	2629.594396
431.418086	2620.946296
431.795385	2623.078704
432.172624	2616.016048
432.549802	2612.958588
432.926920	2605.081785
433.303977	2605.159923
433.680974	2601.348811
434.057910	2596.320260
434.434786	2594.031576
434.811601	2593.792121
435.188355	2589.348344
435.565050	2587.203333
435.941683	2586.048909
436.318257	2582.177302
436.694770	2578.313258
437.071222	2578.441808
437.447614	2572.616754
437.823946	2573.708164
438.200218	2574.630695
438.576429	2575.021385
438.952580	2573.476271
439.328670	2573.405695
439.704700	2573.902248
440.080670	2573.388051
440.456580	2572.412588
440.832429	2573.667835
441.208218	2571.653894
441.583947	2572.231106
441.959616	2571.210272
442.335224	2570.423852
442.710773	2571.444686
443.086261	2572.299162
443.461689	2568.150292
443.837057	2569.271949
444.212365	2570.519634
444.587612	2570.658266
444.962800	2572.730180
445.337927	2572.460478
445.712995	2569.246743
446.088002	2569.418142
446.462949	2571.759758
446.837837	2570.761610
447.212664	2570.247412
447.587431	2569.496280
447.962139	2574.996179
448.336786	2572.321847
448.711374	2572.324367
449.085901	2573.128431
449.460369	2571.028791
449.834776	2573.055335
450.209124	2573.496436
450.583412	2573.614903
450.957640	2572.122721
451.331808	2573.040211
451.705917	2572.198338
452.079965	2573.317475
452.453954	2571.623647
452.827883	2572.684810
453.201752	2572.233627
453.575562	2574.779409
453.949311	2575.127249
454.323001	2573.745973
454.696632	2574.950808
455.070202	2572.624316
455.443713	2573.824111
455.817164	2571.921075
456.190556	2569.733214
456.563888	2570.985941
456.937160	2570.050807
457.310373	2572.815880
457.683526	2570.718760
458.056619	2572.828483
458.429653	2573.821590
458.802628	2573.433421
459.175542	2574.965932
459.548398	2575.850654
459.921194	2575.419636
460.293930	2573.342680
460.666607	2576.064903
461.039224	2575.649008
461.411782	2575.696899
461.784280	2577.531879
462.156719	2579.581108
462.529099	2580.329720
462.901419	2578.242682
463.273680	2577.715881
463.645882	2576.626992
464.018024	2578.409040
464.390106	2578.920717
464.762130	2578.630851
465.134094	2580.491037
465.505999	2581.133784
465.877845	2585.708631
466.249631	2584.483630
466.621358	2583.336768
466.993026	2587.344485
467.364634	2587.195771
467.736184	2583.059504
468.107674	2581.398444
468.479105	2583.172930
468.850477	2582.464648
469.221790	2583.377097
469.593043	2582.053794
469.964238	2579.770152
470.335373	2582.245358
470.706449	2581.000193
471.077467	2582.981367
471.448425	2586.928590
471.819324	2587.717531
472.190164	2587.568817
472.560945	2584.418095
472.931667	2584.990266
473.302330	2585.421285
473.672934	2582.260482
474.043479	2581.746284
474.413965	2581.963053
474.784393	2581.655543
475.154761	2581.965574
475.525070	2577.032805
475.895321	2580.385172
476.265513	2576.506004
476.635645	2584.160997
477.005719	2583.999680
477.375734	2586.008579
477.745691	2584.836511
478.115588	2584.536562
478.485427	2584.511357
478.855207	2587.654516
479.224928	2586.454722
479.594591	2589.282809
479.964194	2589.285329
480.333739	2590.190217
480.703226	2589.096286
481.072653	2590.245669
481.442022	2589.691142
481.811333	2588.244331
482.180584	2589.053436
482.549777	2589.867583
482.918912	2589.610484
483.287988	2588.438416
483.657005	2587.548652
484.025964	2587.251224
484.394864	2589.524784
484.763706	2587.200812
485.132489	2586.081676
485.501213	2586.353898
485.869879	2587.654516
486.238487	2584.375246
486.607036	2585.053281
486.975527	2586.837849
487.343959	2585.166707
487.712333	2586.905905
488.080648	2582.963722
488.448905	2585.970771
488.817104	2584.967581
489.185244	2584.808785
489.553326	2586.353898
489.921350	2588.007397
490.289315	2591.190886
490.657222	2592.811617
491.025070	2588.793817
491.392861	2591.228694
491.760593	2588.587130
492.128267	2587.407500
492.495883	2587.919177
492.863440	2586.878178
493.230939	2587.220977
493.598380	2587.165524
493.965763	2583.077148
494.333088	2586.739547
494.700354	2583.359453
495.067563	2585.738878
495.434713	2580.601942
495.801805	2586.860534
496.168839	2585.711151
496.535815	2587.465473
496.902733	2585.635534
497.269593	2588.551842
497.636395	2586.691656
498.003139	2584.544124
498.369825	2583.082190
498.736453	2586.999166
499.103023	2585.653178
499.469535	2585.917839
499.835989	2586.172417
500.202385	2585.708631
500.568723	2584.632344
500.935003	2585.007910
501.301226	2586.207705
501.667390	2585.932962
502.033497	2587.215936
502.399546	2586.058991
502.765537	2585.179310
503.131470	2585.577561
503.497345	2587.026892
503.863163	2587.077304
504.228923	2583.538414
504.594625	2587.294074
504.960269	2582.371387
505.325856	2584.949937
505.691385	2584.944896
506.056856	2584.506316
506.422270	2584.760894
506.787625	2586.752150
507.152924	2582.915832
507.518164	2586.064032
507.883347	2584.776017
508.248472	2582.341140
508.613540	2583.319124
508.978550	2583.309042
509.343503	2583.399782
509.708398	2585.965730
510.073236	2581.771490
510.438016	2584.410534
510.802738	2584.823908
511.167403	2587.473035
511.532010	2588.168714
511.896561	2584.531521
512.261053	2586.784917
512.625488	2579.583629
512.989866	2581.849628
513.354186	2581.897518
513.718449	2579.664287
514.082655	2583.225862
514.446803	2583.659402
514.810894	2585.549834
515.174927	2585.857345
515.538904	2584.360122
515.902822	2586.374063
516.266684	2583.006572
516.630488	2584.980184
516.994235	2587.301635
517.357925	2585.325503
517.721558	2586.369022
518.085133	2586.490010
518.448651	2588.352716
518.812112	2585.302818
519.175516	2585.799372
519.538863	2583.850966
519.902152	2586.696697
520.265385	2586.890781
520.628560	2586.681573
520.991678	2584.781058
521.354739	2585.953127
521.717743	2587.881368
522.080690	2587.982191
522.443580	2586.895822
522.806413	2586.280802
523.169189	2585.380956
523.531908	2585.421285
523.894569	2586.048909
524.257174	2586.361460
524.619722	2585.012952
524.982213	2587.357088
525.344647	2585.048240
525.707025	2585.857345
526.069345	2583.480441
526.431608	2586.215267
526.793815	2585.121336
527.155964	2584.171079
527.518057	2583.011613
527.880093	2587.868765
528.242072	2586.416913
528.603995	2588.009918
528.965860	2588.778693
529.327669	2585.320462
529.689421	2586.863055
530.051117	2586.318610
530.412755	2583.979515
530.774337	2586.311049
531.135862	2585.854824
531.497331	2582.832652
531.858743	2582.406675
532.220098	2582.484813
532.581396	2582.951120
532.942638	2581.894998
533.303824	2582.872982
533.664953	2586.316090
534.026025	2584.564289
534.387040	2586.391707
534.747999	2585.229721
535.108902	2585.557396
535.469748	2583.765266
535.830537	2584.241655
536.191270	2585.035637
536.551947	2585.887592
536.912567	2585.317941
537.273131	2586.008579
537.633638	2585.217118
537.994089	2585.138980
538.354483	2585.028075
538.714821	2584.602098
539.075103	2587.185689
539.435328	2585.514546
539.795497	2585.922880
540.155609	2587.188209
540.515665	2583.195616
540.875665	2583.941706
541.235609	2583.798033
541.595496	2584.168558
541.955328	2584.970102
542.315102	2585.572520
542.674821	2585.333065
543.034483	2585.396079
543.394090	2584.418095
543.753640	2587.089907
544.113134	2587.026892
544.472571	2583.823239
544.831953	2583.230904
545.191278	2585.209557
545.550548	2584.176120
545.909761	2584.647468
546.268918	2582.429360
546.628019	2583.455235
546.987064	2585.940524
547.346053	2582.157138
547.704986	2586.242993
548.063863	2582.792323
548.422684	2583.404823
548.781449	2586.923549
549.140158	2584.208887
549.498811	2587.019331
549.857408	2587.795668
550.215949	2581.791654
550.574434	2579.649164
550.932864	2580.801068
551.291237	2579.508012
551.649555	2584.062694
552.007817	2582.444484
552.366022	2588.042685
552.724173	2583.039340
553.082267	2583.987077
553.440305	2584.080338
553.798288	2582.225193
554.156215	2582.978846
554.514086	2583.561099
554.871902	2586.311049
555.229661	2587.180648
555.587365	2582.935996
555.945014	2583.941706
556.302606	2584.546645
556.660143	2585.375915
557.017625	2583.087231
557.375050	2583.349371
557.732421	2583.465317
558.089735	2582.625965
558.446994	2582.996490
558.804197	2585.912797
559.161345	2587.770463
559.518437	2584.768456
559.875474	2585.859865
560.232455	2584.327355
560.589381	2583.142683
560.946251	2586.363981
561.303065	2585.930442
561.659825	2587.198292
562.016528	2585.718713
562.373177	2585.547314
562.729770	2581.567323
563.086307	2585.948086
563.442789	2582.941037
563.799216	2584.125708
564.155587	2585.196954
564.511904	2587.437747
564.868164	2582.872982
565.224370	2585.065884
565.580520	2581.494226
565.936615	2584.642427
566.292654	2584.660071
566.648638	2586.910946
567.004567	2582.701582
567.360441	2583.145204
567.716260	2587.828436
568.072023	2585.658219
568.427732	2580.191088
568.783385	2582.663774
569.138982	2579.835687
569.494525	2582.641089
569.850013	2581.645461
570.205445	2587.266347
570.560823	2585.920359
570.916145	2583.765266
571.271412	2586.298446
571.626625	2583.437591
571.981782	2587.740216
572.336884	2585.995977
572.691931	2585.348188
573.046923	2584.922211
573.401860	2582.673856
573.756743	2584.085379
574.111570	2585.615369
574.466342	2585.983374
574.821059	2587.039495
575.175722	2585.101172
575.530330	2585.481779
575.884882	2587.117633
576.239380	2584.942375
576.593823	2584.314752
576.948211	2584.050091
577.302544	2583.823239
577.656823	2584.302149
578.011047	2584.090420
578.365216	2585.025554
578.719330	2585.176789
579.073389	2583.767787
579.427394	2582.530183
579.781344	2583.109916
580.135239	2584.498754
580.489080	2583.586305
580.842866	2582.431881
581.196597	2584.725606
581.550273	2585.247365
581.903895	2584.980184
582.257463	2585.413723
582.610975	2583.919021
582.964434	2584.307190
583.317837	2585.615369
583.671186	2584.198805
584.024481	2584.455904
584.377721	2585.963209
584.730906	2582.620924
585.084037	2586.585792
585.437113	2584.465986
585.790135	2583.329206
586.143103	2582.474731
586.496016	2584.289546
586.848874	2578.378793
587.201679	2581.615214
587.554428	2582.482292
587.907124	2584.443301
588.259765	2579.318968
588.612352	2581.799216
588.964884	2584.160997
589.317362	2582.898187
589.669786	2582.036150
590.022155	2584.390369
590.374470	2584.375246
590.726731	2583.271233
591.078937	2584.549165
591.431090	2584.531521
591.783188	2581.118660
592.135232	2580.233938
592.487222	2582.184864
592.839157	2582.378949
593.191038	2579.805440
593.542866	2583.876171
593.894639	2582.489854
594.246358	2584.760894
594.598022	2581.675708
594.949633	2584.541604
595.301190	2585.257447
595.652692	2582.366346
596.004141	2581.970615
596.355535	2584.198805
596.706876	2582.673856
597.058162	2584.009762
597.409395	2583.036819
597.760573	2582.419278
598.111698	2581.085893
598.462768	2582.673856
598.813785	2582.298290
599.164748	2582.562951
599.515657	2583.712334
599.866511	2579.634040
600.217312	2580.503639
600.568060	2581.751325
600.918753	2585.058322
601.269392	2582.888105
601.619978	2584.246696
601.970510	2584.569330
602.320988	2582.898187
602.671412	2582.956161
603.021783	2580.448187
603.372100	2584.357602
603.722363	2583.077148
604.072572	2581.998342
604.422728	2583.898857
604.772830	2578.693865
605.122878	2579.581108
605.472872	2579.046746
605.822813	2578.484657
606.172701	2580.178485
606.522534	2581.867272
606.872314	2583.021696
607.222041	2585.385997
607.571714	2584.758373
607.921333	2583.921542
608.270899	2583.072107
608.620411	2581.166551
608.969870	2582.013465
609.319276	2580.480954
609.668627	2583.445153
610.017926	2584.070256
610.367171	2583.304000
610.716362	2580.609504
611.065500	2582.767117
611.414585	2581.756366
611.763616	2584.037488
612.112594	2582.583115
612.461518	2583.513208
612.810389	2585.091089
613.159207	2582.333578
613.507971	2581.264854
613.856682	2583.311562
614.205340	2581.874833
614.553945	2584.135791
614.902496	2582.250399
615.250994	2583.165369
615.599439	2580.428022
615.947830	2584.660071
616.296169	2582.625965
616.644454	2581.965574
616.992686	2585.053281
617.340864	2581.453897
617.688990	2582.220152
618.037063	2581.690831
618.385082	2583.679566
618.733048	2583.119998
619.080961	2581.650502
619.428821	2581.015317
619.776628	2580.997672
620.124382	2583.588826
620.472083	2582.452045
620.819731	2581.406006
621.167326	2583.636717
621.514868	2581.892477
621.862357	2583.142683
622.209793	2582.348702
622.557176	2582.540266
622.904506	2581.584967
623.251783	2580.443146
623.599007	2576.316961
623.946179	2578.499781
624.293297	2577.294945
624.640363	2582.855338
624.987376	2583.916501
625.334336	2581.375759
625.681243	2582.714185
626.028097	2582.862899
626.374899	2583.775348
626.721647	2581.297621
627.068343	2580.589339
627.414987	2581.771490
627.761577	2582.026068
628.108115	2580.843917
628.454600	2581.146387
628.801032	2581.713516
629.147412	2579.659246
629.493739	2581.824422
629.840014	2584.627303
630.186236	2580.942220
630.532405	2583.339288
630.878521	2579.634040
631.224585	2580.518763
631.570597	2578.842579
631.916556	2580.317117
632.262462	2580.949782
632.608316	2580.664956
632.954117	2578.930799
633.299866	2582.628486
633.645562	2578.736715
633.991206	2579.558423
634.336797	2581.892477
634.682336	2577.738567
635.027823	2582.484813
635.373257	2581.607652
635.718639	2578.577919
636.063968	2581.227045
636.409245	2580.556572
636.754470	2581.952971
637.099642	2579.964236
637.444762	2583.041860
637.789829	2576.526169
638.134845	2576.264029
638.479808	2578.018351
638.824719	2581.393403
639.169577	2580.244020
639.514383	2577.972980
639.859137	2580.528845
640.203839	2579.263516
640.548489	2580.037333
640.893086	2581.000193
641.237632	2574.424008
641.582125	2576.077506
641.926566	2570.978379
642.270955	2582.769638
642.615292	2577.458782
642.959576	2582.484813
643.303809	2578.431725
643.647990	2578.729153
643.992118	2582.656212
644.336195	2581.466500
644.680219	2578.063721
645.024192	2580.788465
645.368112	2579.979359
645.711981	2581.337950
646.055797	2582.247879
646.399562	2580.886767
646.743274	2579.807960
647.086935	2577.985583
647.430544	2580.024730
647.774101	2580.629668
648.117606	2579.913824
648.461059	2578.729153
648.804460	2580.990111
649.147810	2581.078331
649.491108	2577.950295
649.834354	2579.712178
650.177548	2579.129925
650.520690	2581.209401
650.863781	2582.903229
651.206820	2579.039184
651.549807	2581.000193
651.892742	2579.457600
652.235626	2577.819225
652.578458	2580.579257
652.921238	2579.402147
653.263967	2581.133784
653.606644	2576.944585
653.949269	2575.601117
654.291843	2578.552713
654.634365	2580.342322
654.976836	2582.361305
655.319255	2577.073134
655.661622	2579.071952
656.003938	2578.479616
656.346203	2578.799729
656.688416	2579.069431
657.030577	2580.438104
657.372687	2577.620099
657.714746	2579.555902
658.056753	2577.821746
658.398708	2574.562640
658.740612	2575.308730
659.082465	2576.279152
659.424266	2574.857547
659.766016	2574.910479
660.107715	2578.099009
660.449362	2578.434246
660.790958	2582.938517
661.132503	2579.230748
661.473996	2577.098340
661.815438	2579.462641
662.156829	2579.160172
662.498168	2577.531879
662.839456	2578.497260
663.180693	2577.294945
663.521879	2581.494226
663.863013	2579.218145
664.204097	2578.199832
664.545129	2579.434915
664.886110	2579.250913
665.227040	2575.820407
665.567918	2580.531366
665.908746	2578.829976
666.249522	2578.164544
666.590248	2577.536920
666.930922	2581.254771
667.271545	2578.277970
667.612118	2580.238979
667.952639	2577.236972
668.293109	2578.719071
668.633528	2578.340984
668.973896	2578.318299
669.314213	2577.589852
669.654480	2579.936510
669.994695	2577.103381
670.334859	2578.219997
670.674973	2577.269739
671.015035	2576.483319
671.355047	2575.646488
671.695008	2578.865264
672.034918	2579.061869
672.374777	2581.174113
672.714585	2577.395768
673.054342	2579.646643
673.394049	2579.132446
673.733705	2581.862230
674.073310	2579.412230
674.412864	2576.216138
674.752368	2579.248392
675.091820	2578.812332
675.431223	2577.562126
675.770574	2576.112794
676.109875	2576.102712
676.449125	2574.469378
676.788324	2574.885273
677.127473	2575.966601
677.466571	2569.879408
677.805619	2580.758218
678.144616	2578.731674
678.483562	2575.379307
678.822458	2581.128742
679.161303	2579.893660
679.500098	2577.746128
679.838842	2576.390058
680.177535	2578.562795
680.516179	2577.940213
680.854771	2577.209245
681.193314	2577.022723
681.531805	2579.167734
681.870247	2580.725450
682.208638	2576.843762
682.546978	2580.037333
682.885268	2580.672518
683.223508	2579.926427
683.561697	2577.715881
683.899836	2578.451890
684.237925	2577.862075
684.575963	2577.925089
684.913951	2576.939544
685.251889	2579.260995
685.589776	2578.119174
685.927614	2576.861406
686.265401	2578.577919
686.603137	2578.230079
686.940824	2578.209914
687.278460	2576.942064
687.616046	2578.056159
687.953582	2577.141190
688.291068	2577.327712
688.628504	2578.925758
688.965889	2578.250244
689.303224	2579.540779
689.640510	2577.514235
689.977745	2577.070614
690.314930	2577.554564
690.652065	2577.746128
690.989150	2576.783268
691.326185	2577.236972
691.663170	2575.714543
692.000105	2577.489029
692.336990	2574.098853
692.673825	2579.374421
693.010610	2577.872157
693.347345	2575.996848
693.684030	2573.814028
694.020665	2576.952147
694.357251	2569.826476
694.693786	2570.370920
695.030272	2578.426684
695.366707	2577.194122
695.703093	2575.618761
696.039429	2576.500963
696.375716	2575.444842
696.711952	2572.909141
697.048139	2576.100192
697.384276	2579.462641
697.720363	2576.896694
698.056400	2576.695048
698.392388	2572.969635
698.728326	2577.168916
699.064214	2576.478278
699.400053	2576.483319
699.735842	2573.753534
700.071581	2573.443503
700.407270	2573.529203
700.742910	2575.124728
701.078501	2577.410892
701.414042	2575.734708
701.749533	2573.347722
702.084974	2575.550706
702.420366	2574.081209
702.755709	2576.087589
703.091002	2574.461817
703.426246	2575.752352
703.761440	2575.233113
704.096584	2575.669173
704.431679	2572.180694
704.766725	2575.258319
705.101721	2574.345870
705.436668	2574.643298
705.771565	2577.017682
706.106413	2576.064903
706.441212	2575.459965
706.775961	2576.992476
707.110661	2573.193966
707.445311	2575.822928
707.779913	2576.150603
708.114465	2574.844944
708.448967	2574.275294
708.783421	2575.528021
709.117825	2571.041394
709.452180	2577.516756
709.786485	2573.640108
710.120742	2573.390571
710.454949	2574.945767
710.789107	2576.626992
711.123216	2572.704974
711.457275	2573.556929
711.791286	2572.150447
712.125247	2572.707495
712.459159	2576.566498
712.793023	2573.834193
713.126837	2575.671693
713.460602	2575.091961
713.794318	2576.236303
714.127985	2574.371076
714.461602	2576.117836
714.795171	2573.645150
715.128691	2573.503997
715.462162	2574.308061
715.795584	2576.322002
716.128957	2575.286045
716.462281	2575.502815
716.795556	2574.945767
717.128782	2575.724626
717.461960	2575.752352
717.795088	2574.774368
718.128167	2575.926272
718.461198	2574.396282
718.794180	2576.813515
719.127113	2575.843093
719.459997	2574.207238
719.792833	2576.543813
720.125619	2572.273956
720.458357	2574.648339
720.791046	2574.308061
721.123686	2574.681107
721.456278	2575.621282
721.788821	2576.258988
722.121315	2576.115315
722.453761	2572.001733
722.786158	2572.697413
723.118506	2573.488874
723.450805	2574.232444
723.783056	2572.616754
724.115259	2576.064903
724.447412	2571.613565
724.779518	2573.168761
725.111574	2573.645150
725.443582	2574.129100
725.775542	2576.160685
726.107453	2575.175140
726.439315	2573.798905
726.771129	2579.505491
727.102895	2575.512897
727.434612	2576.967270
727.766281	2574.494584
728.097901	2572.155489
728.429473	2572.578946
728.760996	2571.845458
729.092471	2569.173646
729.423897	2574.161868
729.755276	2572.919223
730.086606	2576.556416
730.417887	2575.782599
730.749120	2574.988617
731.080305	2576.604307
731.411442	2575.283525
731.742530	2573.587176
732.073570	2574.035839
732.404562	2573.740932
732.735506	2572.914182
733.066401	2574.358473
733.397249	2576.526169
733.728048	2574.151786
734.058798	2572.493246
734.389501	2572.969635
734.720156	2574.625654
735.050762	2574.572722
735.381320	2572.248750
735.711831	2572.336970
736.042293	2571.842937
736.372707	2573.526682
736.703073	2571.744635
737.033391	2575.621282
737.363661	2574.968453
737.693883	2572.049624
738.024056	2574.716395
738.354182	2573.738411
738.684260	2573.751014
739.014290	2573.070458
739.344272	2574.116497
739.674207	2575.333936
740.004093	2574.408884
740.333931	2574.900397
740.663722	2573.466189
740.993464	2570.824624
741.323159	2572.757907
741.652806	2574.292938
741.982405	2574.340829
742.311956	2573.713205
742.641460	2573.776220
742.970915	2574.723957
743.300323	2574.913000
743.629683	2575.613720
743.958996	2571.953843
744.288260	2573.582135
744.617477	2575.656570
744.946647	2570.370920
745.275768	2572.190777
745.604842	2568.916547
745.933869	2569.337484
746.262847	2569.337484
746.591778	2572.757907
746.920662	2572.006775
747.249498	2571.802608
747.578286	2570.214644
747.907027	2575.422156
748.235720	2574.481981
748.564365	2575.681776
748.892963	2570.852350
749.221514	2572.982238
749.550017	2572.967114
749.878473	2574.434090
750.206881	2571.341342
750.535242	2572.606672
750.863555	2572.604151
751.191821	2572.619275
751.520039	2572.410067
751.848210	2575.769996
752.176334	2570.479305
752.504411	2571.527865
752.832440	2571.517783
753.160421	2574.628175
753.488356	2572.082392
753.816243	2573.065417
754.144082	2572.523493
754.471875	2571.991651
754.799620	2570.396126
755.127318	2568.984603
755.454969	2572.321847
755.782572	2572.044583
756.110129	2572.024419
756.437638	2570.804459
756.765100	2575.023905
757.092515	2572.377299
757.419882	2573.456106
757.747203	2572.740262
758.074477	2572.909141
758.401703	2569.801270
758.728882	2573.715726
759.056014	2571.139696
759.383099	2573.844275
759.710138	2574.875191
760.037129	2569.881928
760.364073	2572.415108
760.690970	2572.949470
761.017820	2576.972311
761.344623	2573.940057
761.671379	2574.063565
761.998088	2572.311764
762.324751	2568.780436
762.651366	2572.916703
762.977935	2575.197825
763.304456	2569.677762
763.630931	2574.386199
763.957359	2575.258319
764.283740	2574.421487
764.610074	2575.833010
764.936362	2576.735377
765.262602	2571.580797
765.588796	2573.292269
765.914943	2572.583987
766.241044	2576.337126
766.567097	2572.954512
766.893104	2575.681776
767.219064	2572.468040
767.544978	2570.885118
767.870845	2570.509552
768.196665	2571.540468
768.522438	2574.303020
768.848165	2572.611713
769.173846	2571.303534
769.499479	2570.088616
769.825066	2570.678431
770.150607	2571.444686
770.476101	2570.444017
770.801548	2571.268246
771.126949	2570.590210
771.452303	2570.645663
771.777611	2571.361507
772.102872	2571.689182
772.428087	2570.829665
772.753256	2569.955025
773.078378	2571.389233
773.403453	2569.781105
773.728482	2569.188770
774.053465	2570.915365
774.378401	2569.644994
774.703291	2572.715057
775.028135	2569.697926
775.352932	2571.427042
775.677683	2570.822103
776.002388	2572.515931
776.327046	2572.520972
776.651658	2572.042063
776.976224	2571.364027
777.300743	2568.891342
777.625216	2571.006106
777.949643	2570.106260
778.274024	2571.686661
778.598359	2567.187432
778.922647	2564.825651
779.246889	2566.940415
779.571086	2566.544684
779.895236	2567.983934
780.219339	2571.585838
780.543397	2572.450396
780.867409	2570.151630
781.191374	2573.791343
781.515294	2569.319840
781.839167	2569.947463
782.162995	2569.574418
782.486776	2571.152299
782.810511	2569.156002
783.134201	2570.575087
783.457844	2572.218503
783.781441	2570.363358
784.104993	2571.490056
784.428498	2569.823955
784.751958	2571.913513
785.075372	2569.907134
785.398739	2571.177505
785.722061	2570.784295
786.045337	2569.720611
786.368568	2571.227916
786.691752	2569.176167
787.014891	2570.154151
787.337983	2572.402505
787.661030	2568.707339
787.984031	2572.510890
788.306987	2569.211455
788.629897	2570.197000
788.952760	2572.291600
789.275579	2566.156516
789.598351	2569.125755
789.921078	2570.892680
790.243759	2571.026270
790.566395	2569.544171
790.888984	2570.204562
791.211529	2570.315467
791.534027	2570.670869
791.856480	2569.438307
792.178888	2571.366548
792.501249	2571.071641
792.823566	2570.086095
793.145836	2569.728173
793.468062	2570.181877
793.790241	2568.165415
794.112375	2567.867987
794.434464	2569.743297
794.756507	2571.638770
795.078505	2566.635425
795.400457	2565.765826
795.722364	2569.110632
796.044226	2567.230281
796.366042	2566.925292
796.687812	2567.159705
797.009538	2569.095508
797.331218	2570.499470
797.652852	2572.641960
797.974442	2568.656928
798.295986	2570.292782
798.617484	2570.945612
798.938938	2569.899572
799.260346	2568.757751
799.581709	2572.221024
799.903026	2571.132134
800.224299	2571.028791
800.545526	2569.634912
800.866708	2570.933009
801.187845	2570.625498
801.508936	2568.921588
801.829983	2572.052145
802.150984	2568.505693
802.471940	2570.086095
802.792851	2566.267421
803.113717	2571.114490
803.434538	2568.412432
803.755314	2568.472926
804.076045	2570.131465
804.396731	2570.927968
804.717372	2566.726166
805.037967	2570.191959
805.358518	2571.018708
805.679024	2570.839747
805.999485	2567.245405
806.319901	2571.439645
806.640272	2568.351938
806.960598	2569.508883
807.280879	2571.076682
807.601115	2569.168605
807.921306	2569.266907
808.241453	2566.360682
808.561554	2569.085426
808.881611	2570.701116
809.201623	2568.898903
809.521590	2567.600806
809.841513	2567.376475
810.161390	2572.105077
810.481223	2565.271793
810.801011	2569.952504
811.120755	2567.721794
811.440453	2568.619119
811.760107	2569.483677
812.079716	2564.908830
812.399281	2563.693912
812.718801	2566.058213
813.038276	2567.094170
813.357707	2568.631722
813.677093	2571.686661
813.996434	2572.198338
814.315731	2569.637432
814.634983	2571.422001
814.954191	2569.990313
815.273354	2568.137689
815.592473	2567.865467
815.911547	2569.352607
816.230577	2571.853019
816.549562	2570.658266
816.868502	2568.641804
817.187399	2571.038873
817.506250	2570.171795
817.825058	2568.911506
818.143821	2569.302196
818.462539	2571.195149
818.781213	2569.551733
819.099843	2570.393605
819.418429	2570.771692
819.736970	2572.397464
820.055466	2570.411249
820.373919	2568.762792
820.692327	2571.041394
821.010691	2576.143041
821.329011	2575.482650
821.647286	2586.921028
821.965517	2586.772314
822.283704	2596.408480
822.601847	2596.226998
822.919945	2596.237081
823.237999	2594.928901
823.556010	2591.132912
823.873976	2586.061512
824.191897	2585.191912
824.509775	2582.373907
824.827609	2580.856520
825.145398	2579.354256
825.463144	2575.409553
825.780845	2576.281673
826.098502	2576.616910
826.416116	2579.160172
826.733685	2579.626479
827.051210	2581.547158
827.368692	2581.285018
827.686129	2578.711509
828.003522	2577.642785
828.320872	2572.188256
828.638177	2574.103895
828.955439	2572.755386
829.272656	2569.224058
829.589830	2567.595765
829.906960	2571.162381
830.224046	2569.735735
830.541088	2569.529048
830.858086	2572.649522
831.175041	2568.404870
831.491952	2571.232957
831.808819	2570.779254
832.125642	2567.217678
832.442421	2572.221024
832.759157	2569.876887
833.075849	2570.776733
833.392497	2573.186405
833.709101	2575.674214
834.025662	2573.231775
834.342179	2574.534913
834.658653	2574.716395
834.975083	2575.785119
835.291469	2577.640264
835.607811	2571.487536
835.924110	2571.419480
836.240366	2571.487536
836.556578	2569.471074
836.872746	2569.380333
837.188871	2569.150961
837.504952	2569.251784
837.820990	2569.783626
838.136984	2567.268090
838.452935	2568.074675
838.768842	2570.086095
839.084706	2570.113821
839.400526	2568.301527
839.716303	2567.449572
840.032037	2570.680951
840.347727	2570.164233
840.663373	2571.159861
840.978977	2565.443192
841.294537	2569.377813
841.610054	2567.767164
841.925527	2569.095508
842.240957	2569.430745
842.556344	2570.713719
842.871687	2568.195662
843.186987	2569.740776
843.502244	2563.769529
843.817458	2568.046948
844.132629	2564.805486
844.447756	2567.663821
844.762840	2561.606874
845.077881	2565.481001
845.392879	2566.297668
845.707833	2567.086608
846.022745	2562.501679
846.337613	2566.401012
846.652438	2566.159036
846.967221	2568.409911
847.281960	2563.595609
847.596656	2569.133317
847.911309	2563.976217
848.225919	2567.817576
848.540485	2567.111814
848.855009	2566.973182
849.169490	2567.583162
849.483928	2567.850343
849.798323	2567.447051
850.112675	2568.717422
850.426984	2565.728017
850.741251	2569.004767
851.055474	2566.053172
851.369654	2566.080898
851.683792	2567.230281
851.997887	2569.884449
852.311938	2567.888152
852.625947	2565.337328
852.939914	2565.100394
853.253837	2566.075857
853.567718	2564.192986
853.881555	2567.429407
854.195350	2566.771536
854.509103	2568.472926
854.822812	2565.733059
855.136479	2567.794891
855.450103	2566.592575
855.763685	2565.188614
856.077224	2566.211968
856.390720	2569.211455
856.704173	2567.590724
857.017584	2568.084757
857.330953	2563.310784
857.644278	2564.808007
857.957561	2567.583162
858.270802	2566.940415
858.584000	2568.422514
858.897155	2568.397308
859.210268	2565.702812
859.523339	2566.519479
859.836367	2566.920250
860.149352	2567.084088
860.462295	2568.805642
860.775195	2563.915723
861.088054	2564.258521
861.400869	2565.428069
861.713642	2563.993861
862.026373	2564.077040
862.339062	2566.587534
862.651708	2567.726835
862.964312	2566.597617
863.276873	2566.690878
863.589392	2568.561146
863.901869	2566.000240
864.214303	2565.571742
864.526696	2564.450085
864.839045	2567.573080
865.151353	2569.092988
865.463619	2563.940928
865.775842	2567.810014
866.088023	2566.080898
866.400162	2566.791701
866.712258	2564.928995
867.024313	2567.802452
867.336325	2563.272976
867.648296	2568.946794
867.960224	2568.031825
868.272110	2565.080229
868.583954	2567.880590
868.895755	2566.027966
869.207515	2566.708522
869.519233	2569.972669
869.830909	2567.404201
870.142542	2566.953018
870.454134	2565.622153
870.765684	2566.877401
871.077191	2564.424879
871.388657	2568.016701
871.700081	2567.071485
872.011463	2567.668862
872.322803	2567.918399
872.634101	2567.252967
872.945357	2567.154664
873.256571	2569.478636
873.567744	2565.778429
873.878874	2565.496124
874.189963	2564.147616
874.501010	2569.128276
874.812015	2567.663821
875.122979	2567.210117
875.433900	2568.813204
875.744780	2567.275652
876.055618	2567.283213
876.366415	2567.273131
876.677169	2566.723645
876.987882	2564.407235
877.298554	2562.186607
877.609183	2565.319684
877.919771	2564.165260
878.230317	2562.070660
878.540822	2568.939232
878.851285	2567.936043
879.161707	2565.501166
879.472087	2572.838565
879.782425	2568.019222
880.092722	2567.850343
880.402977	2573.481312
880.713191	2576.377455
881.023363	2577.645305
881.333494	2579.641602
881.643583	2580.758218
881.953631	2584.687797
882.263637	2581.663105
882.573602	2583.485482
882.883526	2579.112281
883.193408	2581.663105
883.503248	2576.621951
883.813048	2573.718246
884.122806	2574.628175
884.432522	2575.946436
884.742197	2574.240006
885.051831	2574.038360
885.361424	2572.692372
885.670975	2570.247412
885.980485	2569.851681
886.289954	2571.308575
886.599382	2566.332956
886.908768	2571.966445
887.218113	2568.445199
887.527417	2567.550395
887.836680	2568.200703
888.145901	2566.532082
888.455082	2565.463357
888.764221	2567.822617
889.073319	2567.449572
889.382376	2566.622822
889.691392	2566.703481
890.000366	2566.164077
890.309300	2567.124417
890.618193	2567.570559
890.927044	2567.976372
891.235855	2567.595765
891.544625	2565.596948
891.853353	2568.452761
892.162041	2568.404870
892.470687	2568.064592
892.779293	2567.784808
893.087858	2561.735424
893.396381	2566.181721
893.704864	2566.060734
894.013306	2566.375806
894.321707	2568.838409
894.630068	2571.850499
894.938387	2570.602813
895.246665	2568.946794
895.554903	2573.025088
895.863100	2567.716753
896.171256	2569.506362
896.479371	2569.738255
896.787446	2570.902762
897.095480	2566.453944
897.403473	2571.422001
897.711425	2569.246743
898.019336	2568.868656
898.327207	2567.658779
898.635038	2565.722976
898.942827	2568.253636
899.250576	2569.090467
899.558284	2567.058882
899.865952	2568.387226
900.173579	2566.101063
900.481165	2569.506362
900.788711	2564.003943
901.096216	2565.654921
901.403681	2564.800445
901.711105	2568.551064
902.018489	2569.196331
902.325832	2568.417473
902.633135	2566.826989
902.940397	2566.738769
903.247619	2568.417473
903.554800	2569.334963
903.861941	2571.726991
904.169041	2570.081054
904.476101	2571.671538
904.783121	2570.716239
905.090100	2570.023081
905.397039	2568.997206
905.703938	2570.615416
906.010796	2570.640622
906.317614	2567.903275
906.624391	2568.223389
906.931129	2567.686506
907.237826	2565.934705
907.544483	2568.072154
907.851099	2568.616599
908.157675	2568.319171
908.464211	2565.932184
908.770707	2562.204251
909.077163	2563.913202
909.383578	2565.196176
909.689954	2560.893551
909.996289	2561.425393
910.302584	2565.854046
910.608839	2566.912689
910.915054	2564.319015
911.221229	2564.780281
911.527363	2566.131310
911.833458	2563.761967
912.139513	2566.655590
912.445527	2567.031156
912.751502	2565.561659
913.057436	2564.500497
913.363331	2564.482852
913.669186	2568.891342
913.975000	2565.410425
914.280775	2564.732390
914.586510	2565.833882
914.892205	2567.747000
915.197859	2568.107442
915.503475	2568.356979
915.809050	2569.642473
916.114585	2572.233627
916.420081	2571.613565
916.725536	2571.984089
917.030952	2568.949315
917.336328	2569.632391
917.641665	2572.243709
917.946961	2570.691033
918.252218	2568.578790
918.557435	2568.016701
918.862612	2567.378995
919.167750	2567.124417
919.472848	2568.669531
919.777906	2566.494273
920.082925	2567.598286
920.387904	2567.689026
920.692843	2566.116186
920.997743	2568.147771
921.302603	2569.035014
921.607423	2566.574931
921.912204	2565.264231
922.216946	2566.267421
922.521647	2566.824468
922.826310	2569.332443
923.130932	2565.755744
923.435516	2565.274314
923.740059	2562.965465
924.044564	2564.666855
924.349028	2566.716084
924.653454	2561.196020
924.957840	2563.330949
925.262186	2562.728531
925.566493	2562.504200
925.870761	2560.515464
926.174989	2565.304561
926.479178	2564.699622
926.783328	2567.489901
927.087438	2564.598799
927.391509	2566.940415
927.695541	2563.083932
927.999533	2563.971175
928.303486	2566.108625
928.607400	2562.121072
928.911275	2564.394632
929.215110	2564.200548
929.518906	2565.680127
929.822663	2565.632236
930.126381	2562.542008
930.430060	2564.298850
930.733699	2566.910168
931.037299	2565.065106
931.340861	2563.678788
931.644383	2564.601320
931.947866	2566.446382
932.251309	2563.580486
932.554714	2564.608881
932.858080	2563.184755
933.161407	2562.824313
933.464694	2564.316494
933.767943	2564.465208
934.071153	2563.182235
934.374323	2561.909343
934.677455	2565.496124
934.980548	2563.018397
935.283602	2564.495455
935.586617	2563.099056
935.889593	2565.849005
936.192530	2565.599468
936.495428	2564.003943
936.798287	2565.170970
937.101108	2567.016032
937.403890	2564.079560
937.706632	2564.361865
938.009336	2565.564180
938.312002	2566.879921
938.614628	2565.196176
938.917216	2567.048800
939.219765	2564.326577
939.522275	2564.450085
939.824747	2564.515620
940.127179	2560.175187
940.429573	2560.754919
940.731929	2560.094528
941.034246	2558.640155
941.336524	2559.764332
941.638763	2564.830692
941.940964	2563.915723
942.243126	2562.935218
942.545250	2566.126269
942.847335	2563.013356
943.149381	2560.762481
943.451389	2561.695094
943.753359	2564.263562
944.055290	2563.920764
944.357182	2562.758778
944.659036	2563.845147
944.960851	2564.034190
945.262628	2563.192317
945.564367	2565.571742
945.866067	2564.059396
946.167729	2564.510579
946.469352	2564.825651
946.770937	2566.630384
947.072484	2564.107287
947.373992	2564.434962
947.675462	2566.317832
947.976893	2561.987481
948.278286	2563.565363
948.579641	2563.111659
948.880958	2564.066957
949.182236	2565.977555
949.483476	2564.697102
949.784678	2563.467060
950.085841	2565.347410
950.386967	2566.930333
950.688054	2564.997050
950.989103	2562.484035
951.290114	2565.231464
951.591087	2562.264745
951.892021	2563.320867
952.192917	2566.000240
952.493776	2565.670044
952.794596	2565.496124
953.095378	2562.090825
953.396122	2565.922102
953.696828	2562.605023
953.997496	2564.729869
954.298126	2562.146278
954.598718	2564.845816
954.899272	2563.903120
955.199788	2562.131154
955.500266	2564.220713
955.800706	2559.053530
956.101108	2560.092007
956.401472	2559.166956
956.701798	2557.906667
957.002087	2561.062430
957.302337	2560.344065
957.602550	2562.277348
957.902724	2562.458829
958.202861	2563.028480
958.502960	2563.209961
958.803022	2564.059396
959.103045	2560.812893
959.403031	2567.391598
959.702979	2565.163408
960.002889	2562.292471
960.302762	2563.928326
960.602596	2560.843139
960.902393	2563.673747
961.202153	2563.041082
961.501875	2562.100907
961.801559	2563.512430
962.101205	2566.819427
962.400814	2564.994530
962.700385	2563.363716
962.999918	2562.410938
963.299414	2562.965465
963.598873	2565.304561
963.898293	2558.564538
964.197677	2563.996381
964.497022	2562.121072
964.796331	2562.249621
965.095601	2563.789694
965.394835	2564.427400
965.694030	2562.194169
965.993189	2564.855898
966.292309	2560.780125
966.591393	2561.972358
966.890439	2563.698953
967.189447	2563.658624
967.488419	2561.390105
967.787353	2561.012018
968.086249	2562.305074
968.385108	2563.633418
968.683930	2561.372461
968.982714	2564.127451
969.281462	2561.690053
969.580172	2562.743654
969.878844	2561.846329
970.177480	2563.119220
970.476078	2563.804817
970.774639	2563.409087
971.073162	2562.289951
971.371649	2558.864487
971.670098	2559.701318
971.968510	2559.713921
972.266885	2559.963458
972.565223	2563.151988
972.863524	2561.579148
973.161788	2563.119220
973.460014	2559.945814
973.758204	2563.290620
974.056356	2562.733572
974.354471	2564.813048
974.652550	2563.157029
974.950591	2560.195351
975.248595	2558.388098
975.546563	2562.325239
975.844493	2561.332131
976.142386	2563.698953
976.440243	2563.893037
976.738062	2564.049313
977.035845	2563.953531
977.333590	2561.662327
977.631299	2560.732234
977.928971	2565.352452
978.226606	2564.543346
978.524204	2562.751216
978.821765	2561.984961
979.119290	2561.382543
979.416777	2564.339180
979.714228	2561.526216
980.011642	2562.720969
980.309020	2565.712894
980.606360	2561.160732
980.903664	2562.315156
981.200931	2561.044786
981.498162	2564.795404
981.795356	2562.995712
982.092513	2563.189797
982.389633	2564.402194
982.686717	2563.308264
982.983764	2562.897410
983.280775	2562.720969
983.577749	2560.454971
983.874686	2564.608881
984.171587	2563.416648
984.468451	2562.965465
984.765279	2564.235836
985.062070	2563.449416
985.358824	2564.944118
985.655543	2561.294323
985.952224	2563.709035
986.248869	2562.826833
986.545478	2559.119065
986.842050	2559.149312
987.138586	2558.766184
987.435086	2557.470607
987.731549	2556.041440
988.027975	2560.417162
988.324366	2563.391443
988.620719	2562.869683
988.917037	2561.470763
989.213318	2562.902451
989.509563	2561.470763
989.805772	2563.968655
990.101944	2560.946483
990.398080	2563.106617
990.694180	2558.768705
990.990244	2562.237018
991.286271	2562.998233
991.582262	2561.765671
991.878217	2558.861966
992.174136	2562.108469
992.470019	2562.456309
992.765865	2562.852039
993.061676	2559.683674
993.357450	2562.854560
993.653188	2561.725341
993.948890	2562.252142
994.244556	2559.194682
994.540186	2562.773901
994.835780	2559.940773
995.131337	2562.068140
995.426859	2563.073850
995.722345	2561.949673
996.017795	2562.194169
996.313208	2562.889848
996.608586	2562.771381
996.903928	2563.620815
997.199234	2561.261555
997.494504	2563.068809
997.789738	2561.498489
998.084936	2564.064437
998.380099	2561.705177
998.675225	2563.882955
998.970316	2563.875393
999.265371	2562.839436
999.560390	2562.025290
999.855373	2563.149467
1000.150320	2560.616287
1000.445232	2561.478325
1000.740108	2562.781463
1001.034948	2562.302553
1001.329752	2562.794066
1001.624521	2561.662327
1001.919254	2559.396328
1002.213951	2560.661658
1002.508613	2559.045968
1002.803239	2560.036555
1003.097829	2557.160577
1003.392384	2561.647203
1003.686903	2563.043603
1003.981386	2563.270455
1004.275834	2561.289282
1004.570246	2565.715415
1004.864623	2560.092007
1005.158964	2562.882286
1005.453270	2562.945301
1005.747540	2562.700805
1006.041775	2562.279868
1006.335974	2563.537636
1006.630138	2559.852553
1006.924266	2562.461350
1007.218359	2561.853891
1007.512416	2561.322049
1007.806438	2562.907492
1008.100425	2563.174673
1008.394376	2561.296843
1008.688292	2561.521175
1008.982172	2563.819941
1009.276017	2561.138047
1009.569827	2562.269786
1009.863602	2564.213151
1010.157341	2561.679971
1010.451045	2561.324570
1010.744714	2561.702656
1011.038347	2561.087635
1011.331945	2561.291802
1011.625508	2561.077553
1011.919036	2562.562173
1012.212528	2561.987481
1012.505986	2559.678633
1012.799408	2562.395815
1013.092795	2561.062430
1013.386147	2562.786504
1013.679464	2562.095866
1013.972745	2563.136864
1014.265992	2562.229457
1014.559204	2564.495455
1014.852380	2561.122923
1015.145521	2564.208110
1015.438628	2562.524364
1015.731699	2562.410938
1016.024736	2562.783984
1016.317737	2561.253993
1016.610703	2563.973696
1016.903635	2557.546225
1017.196531	2560.467573
1017.489393	2557.097562
1017.782219	2559.224929
1018.075011	2560.583520
1018.367768	2560.051678
1018.660490	2560.452450
1018.953177	2560.452450
1019.245829	2560.452450
