Dividing Wavelength (nm)	Counts (n)	Blue Motor Position (mm): 0.000000	Red Motor Position (mm): 9.200000	
326.493990	2167.696154
326.888308	2167.696154
327.282561	2167.696154
327.676750	2011.420385
328.070874	2026.543846
328.464933	2006.379231
328.858929	2036.626154
329.252859	2102.161154
329.646726	2119.805192
330.040528	2177.778462
330.434265	2097.120000
330.827938	2102.161154
331.221547	2160.134423
331.615091	2172.737308
332.008571	2228.190000
332.401986	2283.642692
332.795338	2276.080962
333.188625	2313.889615
333.581847	2276.080962
333.975006	2323.971923
334.368100	2296.245577
334.761129	2260.957500
335.154095	2240.792885
335.546996	2336.574808
335.939833	2326.492500
336.332606	2381.945192
336.725315	2354.218846
337.117960	2384.465769
337.510540	2361.780577
337.903056	2371.862885
338.295508	2525.618077
338.687896	2427.315577
339.080220	2392.027500
339.472480	2510.494615
339.864676	2434.877308
340.256807	2452.521346
340.648875	2432.356731
341.040879	2429.836154
341.432818	2505.453462
341.824694	2492.850577
342.216506	2525.618077
342.608253	2414.712692
342.999937	2374.383462
343.391557	2502.932885
343.783113	2480.247692
344.174605	2457.562500
344.566033	2492.850577
344.957397	2538.220962
345.348697	2505.453462
345.739934	2455.041923
346.131106	2437.397885
346.522215	2480.247692
346.913260	2447.480192
347.304241	2482.768269
347.695159	2437.397885
348.086012	2502.932885
348.476802	2444.959615
348.867528	2528.138654
349.258191	2344.136538
349.648789	2523.097500
350.039324	2439.918462
350.429796	2457.562500
350.820203	2412.192115
351.210548	2407.150962
351.600828	2490.330000
351.991045	2450.000769
352.381198	2472.685962
352.771288	2424.795000
353.161314	2366.821731
353.551276	2450.000769
353.941175	2465.124231
354.331010	2429.836154
354.720782	2457.562500
355.110490	2472.685962
355.500135	2444.959615
355.889717	2392.027500
356.279235	2500.412308
356.668689	2432.356731
357.058080	2520.576923
357.447408	2397.068654
357.836672	2450.000769
358.225873	2369.342308
358.615010	2470.165385
359.004084	2455.041923
359.393095	2407.150962
359.782043	2409.671538
360.170927	2520.576923
360.559748	2495.371154
360.948505	2452.521346
361.337199	2422.274423
361.725830	2460.083077
362.114398	2404.630385
362.502903	2487.809423
362.891344	2460.083077
363.279722	2399.589231
363.668037	2439.918462
364.056289	2462.603654
364.444478	2371.862885
364.832603	2434.877308
365.220665	2399.589231
365.608665	2535.700385
365.996601	2409.671538
366.384474	2455.041923
366.772284	2447.480192
367.160031	2470.165385
367.547715	2462.603654
367.935336	2470.165385
368.322893	2437.397885
368.710388	2492.850577
369.097820	2475.206538
369.485189	2414.712692
369.872495	2444.959615
370.259738	2513.015192
370.646918	2429.836154
371.034035	2472.685962
371.421090	2447.480192
371.808081	2513.015192
372.195010	2419.753846
372.581875	2444.959615
372.968678	2475.206538
373.355418	2432.356731
373.742096	2495.371154
374.128710	2460.083077
374.515262	2442.439038
374.901751	2402.109808
375.288177	2434.877308
375.674540	2467.644808
376.060841	2399.589231
376.447079	2389.506923
376.833254	2450.000769
377.219367	2407.150962
377.605417	2482.768269
377.991404	2424.795000
378.377329	2500.412308
378.763191	2460.083077
379.148991	2492.850577
379.534727	2560.906154
379.920402	2462.603654
380.306013	2434.877308
380.691563	2384.465769
381.077049	2475.206538
381.462474	2540.741538
381.847835	2485.288846
382.233134	2507.974038
382.618371	2462.603654
383.003545	2518.056346
383.388657	2419.753846
383.773706	2472.685962
384.158693	2462.603654
384.543618	2485.288846
384.928480	2452.521346
385.313280	2470.165385
385.698017	2530.659231
386.082692	2505.453462
386.467305	2422.274423
386.851856	2510.494615
387.236344	2465.124231
387.620770	2439.918462
388.005133	2518.056346
388.389435	2535.700385
388.773674	2470.165385
389.157851	2462.603654
389.541965	2429.836154
389.926018	2502.932885
390.310008	2467.644808
390.693936	2495.371154
391.077802	2505.453462
391.461606	2384.465769
391.845348	2540.741538
392.229027	2477.727115
392.612645	2462.603654
392.996200	2422.274423
393.379694	2477.727115
393.763125	2495.371154
394.146494	2482.768269
394.529801	2490.330000
394.913047	2555.865000
395.296230	2477.727115
395.679351	2518.056346
396.062410	2404.630385
396.445408	2470.165385
396.828343	2457.562500
397.211217	2407.150962
397.594028	2482.768269
397.976778	2442.439038
398.359466	2505.453462
398.742092	2381.945192
399.124656	2502.932885
399.507158	2500.412308
399.889598	2465.124231
400.271977	2482.768269
400.654294	2535.700385
401.036549	2439.918462
401.418742	2495.371154
401.800874	2467.644808
402.182944	2510.494615
402.564952	2467.644808
402.946898	2500.412308
403.328783	2427.315577
403.710606	2432.356731
404.092367	2560.906154
404.474067	2457.562500
404.855705	2520.576923
405.237282	2467.644808
405.618797	2424.795000
406.000250	2475.206538
406.381642	2402.109808
406.762972	2515.535769
407.144240	2487.809423
407.525447	2427.315577
407.906593	2452.521346
408.287677	2490.330000
408.668700	2487.809423
409.049661	2513.015192
409.430560	2472.685962
409.811399	2460.083077
410.192176	2465.124231
410.572891	2487.809423
410.953545	2495.371154
411.334138	2570.988462
411.714669	2480.247692
412.095139	2533.179808
412.475547	2467.644808
412.855894	2487.809423
413.236180	2545.782692
413.616405	2359.260000
413.996568	2444.959615
414.376670	2442.439038
414.756711	2543.262115
415.136691	2427.315577
415.516609	2555.865000
415.896466	2462.603654
416.276262	2480.247692
416.655997	2460.083077
417.035670	2467.644808
417.415283	2467.644808
417.794834	2444.959615
418.174324	2490.330000
418.553753	2429.836154
418.933121	2502.932885
419.312428	2482.768269
419.691674	2452.521346
420.070859	2460.083077
420.449983	2480.247692
420.829045	2439.918462
421.208047	2419.753846
421.586988	2460.083077
421.965867	2409.671538
422.344686	2465.124231
422.723444	2439.918462
423.102141	2545.782692
423.480777	2545.782692
423.859352	2550.823846
424.237866	2487.809423
424.616319	2520.576923
424.994712	2381.945192
425.373044	2523.097500
425.751314	2530.659231
426.129524	2472.685962
426.507673	2429.836154
426.885762	2450.000769
427.263789	2480.247692
427.641756	2545.782692
428.019662	2515.535769
428.397508	2515.535769
428.775292	2485.288846
429.153016	2404.630385
429.530679	2497.891731
429.908282	2487.809423
430.285824	2467.644808
430.663305	2442.439038
431.040726	2558.385577
431.418086	2452.521346
431.795385	2507.974038
432.172624	2447.480192
432.549802	2475.206538
432.926920	2462.603654
433.303977	2505.453462
433.680974	2553.344423
434.057910	2507.974038
434.434786	2457.562500
434.811601	2495.371154
435.188355	2427.315577
435.565050	2535.700385
435.941683	2492.850577
436.318257	2472.685962
436.694770	2462.603654
437.071222	2437.397885
437.447614	2477.727115
437.823946	2495.371154
438.200218	2515.535769
438.576429	2505.453462
438.952580	2462.603654
439.328670	2477.727115
439.704700	2472.685962
440.080670	2583.591346
440.456580	2538.220962
440.832429	2500.412308
441.208218	2513.015192
441.583947	2525.618077
441.959616	2500.412308
442.335224	2523.097500
442.710773	2424.795000
443.086261	2530.659231
443.461689	2427.315577
443.837057	2455.041923
444.212365	2439.918462
444.587612	2402.109808
444.962800	2530.659231
445.337927	2482.768269
445.712995	2492.850577
446.088002	2460.083077
446.462949	2404.630385
446.837837	2444.959615
447.212664	2540.741538
447.587431	2535.700385
447.962139	2460.083077
448.336786	2528.138654
448.711374	2497.891731
449.085901	2485.288846
449.460369	2518.056346
449.834776	2475.206538
450.209124	2447.480192
450.583412	2487.809423
450.957640	2507.974038
451.331808	2538.220962
451.705917	2432.356731
452.079965	2518.056346
452.453954	2528.138654
452.827883	2482.768269
453.201752	2452.521346
453.575562	2475.206538
453.949311	2487.809423
454.323001	2447.480192
454.696632	2470.165385
455.070202	2560.906154
455.443713	2507.974038
455.817164	2518.056346
456.190556	2432.356731
456.563888	2439.918462
456.937160	2444.959615
457.310373	2462.603654
457.683526	2427.315577
458.056619	2465.124231
458.429653	2606.276538
458.802628	2457.562500
459.175542	2475.206538
459.548398	2467.644808
459.921194	2492.850577
460.293930	2477.727115
460.666607	2427.315577
461.039224	2608.797115
461.411782	2422.274423
461.784280	2515.535769
462.156719	2472.685962
462.529099	2513.015192
462.901419	2482.768269
463.273680	2510.494615
463.645882	2538.220962
464.018024	2480.247692
464.390106	2535.700385
464.762130	2460.083077
465.134094	2475.206538
465.505999	2528.138654
465.877845	2480.247692
466.249631	2528.138654
466.621358	2429.836154
466.993026	2497.891731
467.364634	2477.727115
467.736184	2525.618077
468.107674	2412.192115
468.479105	2455.041923
468.850477	2467.644808
469.221790	2523.097500
469.593043	2442.439038
469.964238	2394.548077
470.335373	2513.015192
470.706449	2518.056346
471.077467	2399.589231
471.448425	2455.041923
471.819324	2492.850577
472.190164	2535.700385
472.560945	2513.015192
472.931667	2530.659231
473.302330	2482.768269
473.672934	2535.700385
474.043479	2457.562500
474.413965	2455.041923
474.784393	2470.165385
475.154761	2490.330000
475.525070	2447.480192
475.895321	2553.344423
476.265513	2492.850577
476.635645	2495.371154
477.005719	2525.618077
477.375734	2457.562500
477.745691	2460.083077
478.115588	2495.371154
478.485427	2457.562500
478.855207	2482.768269
479.224928	2492.850577
479.594591	2560.906154
479.964194	2432.356731
480.333739	2553.344423
480.703226	2581.070769
481.072653	2515.535769
481.442022	2550.823846
481.811333	2560.906154
482.180584	2470.165385
482.549777	2530.659231
482.918912	2513.015192
483.287988	2439.918462
483.657005	2444.959615
484.025964	2555.865000
484.394864	2505.453462
484.763706	2515.535769
485.132489	2490.330000
485.501213	2543.262115
485.869879	2523.097500
486.238487	2467.644808
486.607036	2628.961731
486.975527	2495.371154
487.343959	2520.576923
487.712333	2530.659231
488.080648	2427.315577
488.448905	2497.891731
488.817104	2487.809423
489.185244	2480.247692
489.553326	2495.371154
489.921350	2518.056346
490.289315	2533.179808
490.657222	2457.562500
491.025070	2495.371154
491.392861	2497.891731
491.760593	2502.932885
492.128267	2530.659231
492.495883	2502.932885
492.863440	2407.150962
493.230939	2492.850577
493.598380	2550.823846
493.965763	2470.165385
494.333088	2530.659231
494.700354	2472.685962
495.067563	2450.000769
495.434713	2439.918462
495.801805	2460.083077
496.168839	2485.288846
496.535815	2500.412308
496.902733	2460.083077
497.269593	2520.576923
497.636395	2505.453462
498.003139	2467.644808
498.369825	2495.371154
498.736453	2525.618077
499.103023	2565.947308
499.469535	2523.097500
499.835989	2482.768269
500.202385	2523.097500
500.568723	2523.097500
500.935003	2543.262115
501.301226	2434.877308
501.667390	2495.371154
502.033497	2450.000769
502.399546	2485.288846
502.765537	2455.041923
503.131470	2487.809423
503.497345	2497.891731
503.863163	2505.453462
504.228923	2452.521346
504.594625	2598.714808
504.960269	2618.879423
505.325856	2523.097500
505.691385	2533.179808
506.056856	2520.576923
506.422270	2472.685962
506.787625	2558.385577
507.152924	2444.959615
507.518164	2409.671538
507.883347	2520.576923
508.248472	2520.576923
508.613540	2487.809423
508.978550	2477.727115
509.343503	2460.083077
509.708398	2470.165385
510.073236	2515.535769
510.438016	2477.727115
510.802738	2538.220962
511.167403	2540.741538
511.532010	2505.453462
511.896561	2507.974038
512.261053	2482.768269
512.625488	2568.467885
512.989866	2505.453462
513.354186	2558.385577
513.718449	2613.838269
514.082655	2520.576923
514.446803	2528.138654
514.810894	2502.932885
515.174927	2533.179808
515.538904	2404.630385
515.902822	2439.918462
516.266684	2452.521346
516.630488	2520.576923
516.994235	2500.412308
517.357925	2427.315577
517.721558	2399.589231
518.085133	2424.795000
518.448651	2470.165385
518.812112	2540.741538
519.175516	2462.603654
519.538863	2505.453462
519.902152	2598.714808
520.265385	2434.877308
520.628560	2455.041923
520.991678	2424.795000
521.354739	2502.932885
521.717743	2523.097500
522.080690	2482.768269
522.443580	2507.974038
522.806413	2487.809423
523.169189	2505.453462
523.531908	2515.535769
523.894569	2555.865000
524.257174	2507.974038
524.619722	2573.509038
524.982213	2568.467885
525.344647	2492.850577
525.707025	2437.397885
526.069345	2502.932885
526.431608	2480.247692
526.793815	2467.644808
527.155964	2560.906154
527.518057	2472.685962
527.880093	2510.494615
528.242072	2480.247692
528.603995	2548.303269
528.965860	2424.795000
529.327669	2550.823846
529.689421	2570.988462
530.051117	2540.741538
530.412755	2533.179808
530.774337	2462.603654
531.135862	2530.659231
531.497331	2545.782692
531.858743	2505.453462
532.220098	2525.618077
532.581396	2409.671538
532.942638	2394.548077
533.303824	2563.426731
533.664953	2523.097500
534.026025	2502.932885
534.387040	2485.288846
534.747999	2386.986346
535.108902	2475.206538
535.469748	2495.371154
535.830537	2429.836154
536.191270	2457.562500
536.551947	2472.685962
536.912567	2513.015192
537.273131	2497.891731
537.633638	2480.247692
537.994089	2513.015192
538.354483	2576.029615
538.714821	2555.865000
539.075103	2397.068654
539.435328	2429.836154
539.795497	2530.659231
540.155609	2553.344423
540.515665	2603.755962
540.875665	2548.303269
541.235609	2520.576923
541.595496	2535.700385
541.955328	2530.659231
542.315102	2601.235385
542.674821	2472.685962
543.034483	2510.494615
543.394090	2467.644808
543.753640	2450.000769
544.113134	2495.371154
544.472571	2490.330000
544.831953	2525.618077
545.191278	2497.891731
545.550548	2505.453462
545.909761	2477.727115
546.268918	2515.535769
546.628019	2432.356731
546.987064	2492.850577
547.346053	2482.768269
547.704986	2513.015192
548.063863	2593.673654
548.422684	2424.795000
548.781449	2500.412308
549.140158	2565.947308
549.498811	2550.823846
549.857408	2480.247692
550.215949	2538.220962
550.574434	2500.412308
550.932864	2447.480192
551.291237	2490.330000
551.649555	2444.959615
552.007817	2492.850577
552.366022	2570.988462
552.724173	2462.603654
553.082267	2495.371154
553.440305	2482.768269
553.798288	2495.371154
554.156215	2606.276538
554.514086	2510.494615
554.871902	2492.850577
555.229661	2510.494615
555.587365	2457.562500
555.945014	2487.809423
556.302606	2570.988462
556.660143	2434.877308
557.017625	2470.165385
557.375050	2462.603654
557.732421	2487.809423
558.089735	2485.288846
558.446994	2548.303269
558.804197	2450.000769
559.161345	2560.906154
559.518437	2432.356731
559.875474	2432.356731
560.232455	2518.056346
560.589381	2460.083077
560.946251	2550.823846
561.303065	2434.877308
561.659825	2500.412308
562.016528	2497.891731
562.373177	2495.371154
562.729770	2379.424615
563.086307	2583.591346
563.442789	2470.165385
563.799216	2482.768269
564.155587	2477.727115
564.511904	2545.782692
564.868164	2510.494615
565.224370	2515.535769
565.580520	2606.276538
565.936615	2462.603654
566.292654	2513.015192
566.648638	2450.000769
567.004567	2452.521346
567.360441	2472.685962
567.716260	2555.865000
568.072023	2490.330000
568.427732	2434.877308
568.783385	2455.041923
569.138982	2565.947308
569.494525	2487.809423
569.850013	2560.906154
570.205445	2457.562500
570.560823	2497.891731
570.916145	2472.685962
571.271412	2452.521346
571.626625	2444.959615
571.981782	2482.768269
572.336884	2513.015192
572.691931	2606.276538
573.046923	2424.795000
573.401860	2467.644808
573.756743	2495.371154
574.111570	2480.247692
574.466342	2482.768269
574.821059	2467.644808
575.175722	2457.562500
575.530330	2533.179808
575.884882	2535.700385
576.239380	2520.576923
576.593823	2528.138654
576.948211	2452.521346
577.302544	2525.618077
577.656823	2513.015192
578.011047	2475.206538
578.365216	2548.303269
578.719330	2525.618077
579.073389	2533.179808
579.427394	2586.111923
579.781344	2427.315577
580.135239	2477.727115
580.489080	2578.550192
580.842866	2480.247692
581.196597	2502.932885
581.550273	2447.480192
581.903895	2502.932885
582.257463	2482.768269
582.610975	2555.865000
582.964434	2399.589231
583.317837	2507.974038
583.671186	2565.947308
584.024481	2470.165385
584.377721	2563.426731
584.730906	2500.412308
585.084037	2533.179808
585.437113	2402.109808
585.790135	2520.576923
586.143103	2465.124231
586.496016	2510.494615
586.848874	2490.330000
587.201679	2485.288846
587.554428	2444.959615
587.907124	2482.768269
588.259765	2535.700385
588.612352	2550.823846
588.964884	2482.768269
589.317362	2578.550192
589.669786	2515.535769
590.022155	2407.150962
590.374470	2434.877308
590.726731	2465.124231
591.078937	2492.850577
591.431090	2548.303269
591.783188	2407.150962
592.135232	2573.509038
592.487222	2492.850577
592.839157	2495.371154
593.191038	2528.138654
593.542866	2497.891731
593.894639	2530.659231
594.246358	2475.206538
594.598022	2447.480192
594.949633	2407.150962
595.301190	2502.932885
595.652692	2505.453462
596.004141	2518.056346
596.355535	2563.426731
596.706876	2467.644808
597.058162	2555.865000
597.409395	2422.274423
597.760573	2593.673654
598.111698	2576.029615
598.462768	2487.809423
598.813785	2442.439038
599.164748	2525.618077
599.515657	2535.700385
599.866511	2598.714808
600.217312	2502.932885
600.568060	2545.782692
600.918753	2492.850577
601.269392	2482.768269
601.619978	2573.509038
601.970510	2434.877308
602.320988	2628.961731
602.671412	2470.165385
603.021783	2470.165385
603.372100	2576.029615
603.722363	2497.891731
604.072572	2497.891731
604.422728	2525.618077
604.772830	2515.535769
605.122878	2558.385577
605.472872	2482.768269
605.822813	2528.138654
606.172701	2492.850577
606.522534	2497.891731
606.872314	2518.056346
607.222041	2505.453462
607.571714	2513.015192
607.921333	2520.576923
608.270899	2487.809423
608.620411	2432.356731
608.969870	2487.809423
609.319276	2480.247692
609.668627	2510.494615
610.017926	2573.509038
610.367171	2485.288846
610.716362	2543.262115
611.065500	2455.041923
611.414585	2490.330000
611.763616	2500.412308
612.112594	2548.303269
612.461518	2444.959615
612.810389	2507.974038
613.159207	2439.918462
613.507971	2515.535769
613.856682	2513.015192
614.205340	2523.097500
614.553945	2417.233269
614.902496	2540.741538
615.250994	2452.521346
615.599439	2500.412308
615.947830	2515.535769
616.296169	2447.480192
616.644454	2530.659231
616.992686	2480.247692
617.340864	2505.453462
617.688990	2462.603654
618.037063	2482.768269
618.385082	2495.371154
618.733048	2460.083077
619.080961	2553.344423
619.428821	2505.453462
619.776628	2495.371154
620.124382	2533.179808
620.472083	2520.576923
620.819731	2540.741538
621.167326	2477.727115
621.514868	2502.932885
621.862357	2555.865000
622.209793	2565.947308
622.557176	2515.535769
622.904506	2457.562500
623.251783	2500.412308
623.599007	2513.015192
623.946179	2432.356731
624.293297	2497.891731
624.640363	2442.439038
624.987376	2525.618077
625.334336	2596.194231
625.681243	2434.877308
626.028097	2568.467885
626.374899	2465.124231
626.721647	2528.138654
627.068343	2487.809423
627.414987	2523.097500
627.761577	2497.891731
628.108115	2472.685962
628.454600	2402.109808
628.801032	2573.509038
629.147412	2525.618077
629.493739	2533.179808
629.840014	2535.700385
630.186236	2520.576923
630.532405	2475.206538
630.878521	2573.509038
631.224585	2470.165385
631.570597	2543.262115
631.916556	2460.083077
632.262462	2507.974038
632.608316	2570.988462
632.954117	2505.453462
633.299866	2490.330000
633.645562	2444.959615
633.991206	2507.974038
634.336797	2455.041923
634.682336	2507.974038
635.027823	2399.589231
635.373257	2427.315577
635.718639	2462.603654
636.063968	2457.562500
636.409245	2482.768269
636.754470	2429.836154
637.099642	2497.891731
637.444762	2470.165385
637.789829	2553.344423
638.134845	2621.400000
638.479808	2480.247692
638.824719	2518.056346
639.169577	2520.576923
639.514383	2404.630385
639.859137	2530.659231
640.203839	2545.782692
640.548489	2563.426731
640.893086	2429.836154
641.237632	2422.274423
641.582125	2485.288846
641.926566	2462.603654
642.270955	2525.618077
642.615292	2480.247692
642.959576	2465.124231
643.303809	2563.426731
643.647990	2480.247692
643.992118	2533.179808
644.336195	2565.947308
644.680219	2507.974038
645.024192	2475.206538
645.368112	2475.206538
645.711981	2480.247692
646.055797	2618.879423
646.399562	2553.344423
646.743274	2518.056346
647.086935	2442.439038
647.430544	2500.412308
647.774101	2482.768269
648.117606	2510.494615
648.461059	2558.385577
648.804460	2490.330000
649.147810	2550.823846
649.491108	2444.959615
649.834354	2490.330000
650.177548	2543.262115
650.520690	2460.083077
650.863781	2429.836154
651.206820	2518.056346
651.549807	2510.494615
651.892742	2530.659231
652.235626	2439.918462
652.578458	2460.083077
652.921238	2518.056346
653.263967	2460.083077
653.606644	2525.618077
653.949269	2470.165385
654.291843	2550.823846
654.634365	2442.439038
654.976836	2495.371154
655.319255	2523.097500
655.661622	2485.288846
656.003938	2480.247692
656.346203	2525.618077
656.688416	2538.220962
657.030577	2525.618077
657.372687	2497.891731
657.714746	2515.535769
658.056753	2563.426731
658.398708	2457.562500
658.740612	2523.097500
659.082465	2487.809423
659.424266	2588.632500
659.766016	2480.247692
660.107715	2497.891731
660.449362	2500.412308
660.790958	2518.056346
661.132503	2422.274423
661.473996	2450.000769
661.815438	2417.233269
662.156829	2540.741538
662.498168	2462.603654
662.839456	2475.206538
663.180693	2480.247692
663.521879	2553.344423
663.863013	2570.988462
664.204097	2576.029615
664.545129	2432.356731
664.886110	2525.618077
665.227040	2485.288846
665.567918	2530.659231
665.908746	2507.974038
666.249522	2470.165385
666.590248	2623.920577
666.930922	2477.727115
667.271545	2475.206538
667.612118	2437.397885
667.952639	2480.247692
668.293109	2470.165385
668.633528	2442.439038
668.973896	2548.303269
669.314213	2477.727115
669.654480	2475.206538
669.994695	2545.782692
670.334859	2505.453462
670.674973	2578.550192
671.015035	2568.467885
671.355047	2462.603654
671.695008	2371.862885
672.034918	2538.220962
672.374777	2462.603654
672.714585	2427.315577
673.054342	2565.947308
673.394049	2545.782692
673.733705	2472.685962
674.073310	2465.124231
674.412864	2497.891731
674.752368	2422.274423
675.091820	2513.015192
675.431223	2429.836154
675.770574	2533.179808
676.109875	2472.685962
676.449125	2450.000769
676.788324	2460.083077
677.127473	2490.330000
677.466571	2434.877308
677.805619	2475.206538
678.144616	2545.782692
678.483562	2525.618077
678.822458	2460.083077
679.161303	2462.603654
679.500098	2457.562500
679.838842	2558.385577
680.177535	2502.932885
680.516179	2465.124231
680.854771	2520.576923
681.193314	2553.344423
681.531805	2497.891731
681.870247	2485.288846
682.208638	2528.138654
682.546978	2520.576923
682.885268	2550.823846
683.223508	2518.056346
683.561697	2417.233269
683.899836	2548.303269
684.237925	2495.371154
684.575963	2606.276538
684.913951	2502.932885
685.251889	2513.015192
685.589776	2593.673654
685.927614	2497.891731
686.265401	2502.932885
686.603137	2439.918462
686.940824	2565.947308
687.278460	2480.247692
687.616046	2558.385577
687.953582	2565.947308
688.291068	2460.083077
688.628504	2558.385577
688.965889	2515.535769
689.303224	2502.932885
689.640510	2502.932885
689.977745	2409.671538
690.314930	2472.685962
690.652065	2507.974038
690.989150	2409.671538
691.326185	2550.823846
691.663170	2404.630385
692.000105	2495.371154
692.336990	2452.521346
692.673825	2500.412308
693.010610	2540.741538
693.347345	2412.192115
693.684030	2437.397885
694.020665	2525.618077
694.357251	2525.618077
694.693786	2525.618077
695.030272	2520.576923
695.366707	2548.303269
695.703093	2457.562500
696.039429	2538.220962
696.375716	2538.220962
696.711952	2485.288846
697.048139	2513.015192
697.384276	2543.262115
697.720363	2487.809423
698.056400	2442.439038
698.392388	2447.480192
698.728326	2465.124231
699.064214	2404.630385
699.400053	2523.097500
699.735842	2465.124231
700.071581	2492.850577
700.407270	2482.768269
700.742910	2487.809423
701.078501	2560.906154
701.414042	2472.685962
701.749533	2500.412308
702.084974	2444.959615
702.420366	2513.015192
702.755709	2485.288846
703.091002	2444.959615
703.426246	2429.836154
703.761440	2538.220962
704.096584	2495.371154
704.431679	2492.850577
704.766725	2432.356731
705.101721	2505.453462
705.436668	2447.480192
705.771565	2492.850577
706.106413	2444.959615
706.441212	2530.659231
706.775961	2533.179808
707.110661	2518.056346
707.445311	2480.247692
707.779913	2568.467885
708.114465	2505.453462
708.448967	2495.371154
708.783421	2507.974038
709.117825	2520.576923
709.452180	2482.768269
709.786485	2568.467885
710.120742	2502.932885
710.454949	2548.303269
710.789107	2495.371154
711.123216	2475.206538
711.457275	2497.891731
711.791286	2515.535769
712.125247	2482.768269
712.459159	2507.974038
712.793023	2462.603654
713.126837	2477.727115
713.460602	2467.644808
713.794318	2520.576923
714.127985	2518.056346
714.461602	2555.865000
714.795171	2427.315577
715.128691	2462.603654
715.462162	2555.865000
715.795584	2523.097500
716.128957	2578.550192
716.462281	2472.685962
716.795556	2419.753846
717.128782	2518.056346
717.461960	2414.712692
717.795088	2523.097500
718.128167	2525.618077
718.461198	2470.165385
718.794180	2457.562500
719.127113	2528.138654
719.459997	2550.823846
719.792833	2497.891731
720.125619	2500.412308
720.458357	2472.685962
720.791046	2487.809423
721.123686	2505.453462
721.456278	2497.891731
721.788821	2525.618077
722.121315	2490.330000
722.453761	2533.179808
722.786158	2578.550192
723.118506	2513.015192
723.450805	2533.179808
723.783056	2460.083077
724.115259	2465.124231
724.447412	2518.056346
724.779518	2540.741538
725.111574	2475.206538
725.443582	2495.371154
725.775542	2452.521346
726.107453	2583.591346
726.439315	2495.371154
726.771129	2548.303269
727.102895	2447.480192
727.434612	2450.000769
727.766281	2505.453462
728.097901	2518.056346
728.429473	2442.439038
728.760996	2462.603654
729.092471	2535.700385
729.423897	2442.439038
729.755276	2452.521346
730.086606	2444.959615
730.417887	2475.206538
730.749120	2528.138654
731.080305	2570.988462
731.411442	2530.659231
731.742530	2462.603654
732.073570	2528.138654
732.404562	2497.891731
732.735506	2495.371154
733.066401	2475.206538
733.397249	2570.988462
733.728048	2427.315577
734.058798	2513.015192
734.389501	2442.439038
734.720156	2452.521346
735.050762	2455.041923
735.381320	2518.056346
735.711831	2505.453462
736.042293	2419.753846
736.372707	2555.865000
736.703073	2507.974038
737.033391	2487.809423
737.363661	2437.397885
737.693883	2470.165385
738.024056	2492.850577
738.354182	2513.015192
738.684260	2492.850577
739.014290	2543.262115
739.344272	2480.247692
739.674207	2530.659231
740.004093	2480.247692
740.333931	2485.288846
740.663722	2419.753846
740.993464	2535.700385
741.323159	2439.918462
741.652806	2535.700385
741.982405	2392.027500
742.311956	2450.000769
742.641460	2462.603654
742.970915	2470.165385
743.300323	2513.015192
743.629683	2424.795000
743.958996	2455.041923
744.288260	2520.576923
744.617477	2515.535769
744.946647	2510.494615
745.275768	2442.439038
745.604842	2462.603654
745.933869	2535.700385
746.262847	2518.056346
746.591778	2545.782692
746.920662	2565.947308
747.249498	2465.124231
747.578286	2502.932885
747.907027	2558.385577
748.235720	2492.850577
748.564365	2513.015192
748.892963	2553.344423
749.221514	2520.576923
749.550017	2578.550192
749.878473	2520.576923
750.206881	2465.124231
750.535242	2525.618077
750.863555	2520.576923
751.191821	2442.439038
751.520039	2555.865000
751.848210	2457.562500
752.176334	2513.015192
752.504411	2555.865000
752.832440	2490.330000
753.160421	2563.426731
753.488356	2462.603654
753.816243	2450.000769
754.144082	2528.138654
754.471875	2475.206538
754.799620	2439.918462
755.127318	2485.288846
755.454969	2591.153077
755.782572	2518.056346
756.110129	2502.932885
756.437638	2495.371154
756.765100	2452.521346
757.092515	2545.782692
757.419882	2502.932885
757.747203	2485.288846
758.074477	2558.385577
758.401703	2520.576923
758.728882	2487.809423
759.056014	2480.247692
759.383099	2487.809423
759.710138	2507.974038
760.037129	2500.412308
760.364073	2497.891731
760.690970	2520.576923
761.017820	2568.467885
761.344623	2553.344423
761.671379	2439.918462
761.998088	2528.138654
762.324751	2565.947308
762.651366	2422.274423
762.977935	2530.659231
763.304456	2500.412308
763.630931	2442.439038
763.957359	2523.097500
764.283740	2439.918462
764.610074	2480.247692
764.936362	2520.576923
765.262602	2475.206538
765.588796	2455.041923
765.914943	2515.535769
766.241044	2570.988462
766.567097	2530.659231
766.893104	2578.550192
767.219064	2437.397885
767.544978	2507.974038
767.870845	2510.494615
768.196665	2570.988462
768.522438	2502.932885
768.848165	2538.220962
769.173846	2608.797115
769.499479	2520.576923
769.825066	2525.618077
770.150607	2470.165385
770.476101	2472.685962
770.801548	2518.056346
771.126949	2565.947308
771.452303	2487.809423
771.777611	2485.288846
772.102872	2434.877308
772.428087	2563.426731
772.753256	2543.262115
773.078378	2472.685962
773.403453	2583.591346
773.728482	2452.521346
774.053465	2555.865000
774.378401	2470.165385
774.703291	2530.659231
775.028135	2439.918462
775.352932	2480.247692
775.677683	2543.262115
776.002388	2500.412308
776.327046	2510.494615
776.651658	2545.782692
776.976224	2424.795000
777.300743	2560.906154
777.625216	2465.124231
777.949643	2485.288846
778.274024	2492.850577
778.598359	2513.015192
778.922647	2455.041923
779.246889	2528.138654
779.571086	2513.015192
779.895236	2490.330000
780.219339	2530.659231
780.543397	2507.974038
780.867409	2467.644808
781.191374	2540.741538
781.515294	2515.535769
781.839167	2505.453462
782.162995	2442.439038
782.486776	2548.303269
782.810511	2596.194231
783.134201	2528.138654
783.457844	2497.891731
783.781441	2460.083077
784.104993	2502.932885
784.428498	2558.385577
784.751958	2447.480192
785.075372	2558.385577
785.398739	2404.630385
785.722061	2490.330000
786.045337	2507.974038
786.368568	2533.179808
786.691752	2487.809423
787.014891	2573.509038
787.337983	2591.153077
787.661030	2422.274423
787.984031	2560.906154
788.306987	2507.974038
788.629897	2485.288846
788.952760	2465.124231
789.275579	2434.877308
789.598351	2444.959615
789.921078	2447.480192
790.243759	2583.591346
790.566395	2457.562500
790.888984	2502.932885
791.211529	2502.932885
791.534027	2518.056346
791.856480	2500.412308
792.178888	2482.768269
792.501249	2485.288846
792.823566	2510.494615
793.145836	2538.220962
793.468062	2550.823846
793.790241	2490.330000
794.112375	2513.015192
794.434464	2525.618077
794.756507	2513.015192
795.078505	2424.795000
795.400457	2520.576923
795.722364	2490.330000
796.044226	2452.521346
796.366042	2535.700385
796.687812	2497.891731
797.009538	2444.959615
797.331218	2510.494615
797.652852	2495.371154
797.974442	2502.932885
798.295986	2487.809423
798.617484	2467.644808
798.938938	2505.453462
799.260346	2608.797115
799.581709	2505.453462
799.903026	2497.891731
800.224299	2392.027500
800.545526	2502.932885
800.866708	2447.480192
801.187845	2482.768269
801.508936	2492.850577
801.829983	2434.877308
802.150984	2570.988462
802.471940	2482.768269
802.792851	2515.535769
803.113717	2409.671538
803.434538	2523.097500
803.755314	2429.836154
804.076045	2591.153077
804.396731	2482.768269
804.717372	2434.877308
805.037967	2550.823846
805.358518	2480.247692
805.679024	2414.712692
805.999485	2500.412308
806.319901	2477.727115
806.640272	2495.371154
806.960598	2525.618077
807.280879	2472.685962
807.601115	2530.659231
807.921306	2528.138654
808.241453	2528.138654
808.561554	2538.220962
808.881611	2565.947308
809.201623	2555.865000
809.521590	2457.562500
809.841513	2538.220962
810.161390	2487.809423
810.481223	2487.809423
810.801011	2513.015192
811.120755	2588.632500
811.440453	2487.809423
811.760107	2402.109808
812.079716	2558.385577
812.399281	2455.041923
812.718801	2487.809423
813.038276	2507.974038
813.357707	2520.576923
813.677093	2477.727115
813.996434	2543.262115
814.315731	2472.685962
814.634983	2513.015192
814.954191	2444.959615
815.273354	2472.685962
815.592473	2530.659231
815.911547	2485.288846
816.230577	2485.288846
816.549562	2497.891731
816.868502	2505.453462
817.187399	2505.453462
817.506250	2528.138654
817.825058	2563.426731
818.143821	2538.220962
818.462539	2487.809423
818.781213	2568.467885
819.099843	2518.056346
819.418429	2424.795000
819.736970	2442.439038
820.055466	2528.138654
820.373919	2482.768269
820.692327	2497.891731
821.010691	2452.521346
821.329011	2455.041923
821.647286	2462.603654
821.965517	2510.494615
822.283704	2518.056346
822.601847	2535.700385
822.919945	2507.974038
823.237999	2470.165385
823.556010	2429.836154
823.873976	2538.220962
824.191897	2437.397885
824.509775	2497.891731
824.827609	2530.659231
825.145398	2515.535769
825.463144	2538.220962
825.780845	2462.603654
826.098502	2487.809423
826.416116	2505.453462
826.733685	2573.509038
827.051210	2447.480192
827.368692	2480.247692
827.686129	2563.426731
828.003522	2472.685962
828.320872	2480.247692
828.638177	2472.685962
828.955439	2535.700385
829.272656	2444.959615
829.589830	2480.247692
829.906960	2530.659231
830.224046	2470.165385
830.541088	2543.262115
830.858086	2507.974038
831.175041	2601.235385
831.491952	2500.412308
831.808819	2530.659231
832.125642	2475.206538
832.442421	2397.068654
832.759157	2505.453462
833.075849	2525.618077
833.392497	2555.865000
833.709101	2518.056346
834.025662	2386.986346
834.342179	2462.603654
834.658653	2467.644808
834.975083	2563.426731
835.291469	2528.138654
835.607811	2447.480192
835.924110	2480.247692
836.240366	2432.356731
836.556578	2515.535769
836.872746	2502.932885
837.188871	2462.603654
837.504952	2475.206538
837.820990	2560.906154
838.136984	2518.056346
838.452935	2576.029615
838.768842	2439.918462
839.084706	2543.262115
839.400526	2480.247692
839.716303	2533.179808
840.032037	2497.891731
840.347727	2505.453462
840.663373	2505.453462
840.978977	2485.288846
841.294537	2500.412308
841.610054	2487.809423
841.925527	2543.262115
842.240957	2462.603654
842.556344	2477.727115
842.871687	2485.288846
843.186987	2573.509038
843.502244	2465.124231
843.817458	2525.618077
844.132629	2427.315577
844.447756	2578.550192
844.762840	2475.206538
845.077881	2583.591346
845.392879	2528.138654
845.707833	2578.550192
846.022745	2442.439038
846.337613	2422.274423
846.652438	2455.041923
846.967221	2472.685962
847.281960	2533.179808
847.596656	2601.235385
847.911309	2515.535769
848.225919	2452.521346
848.540485	2515.535769
848.855009	2520.576923
849.169490	2505.453462
849.483928	2497.891731
849.798323	2560.906154
850.112675	2487.809423
850.426984	2535.700385
850.741251	2518.056346
851.055474	2513.015192
851.369654	2495.371154
851.683792	2497.891731
851.997887	2513.015192
852.311938	2417.233269
852.625947	2465.124231
852.939914	2467.644808
853.253837	2593.673654
853.567718	2465.124231
853.881555	2507.974038
854.195350	2477.727115
854.509103	2513.015192
854.822812	2480.247692
855.136479	2427.315577
855.450103	2422.274423
855.763685	2563.426731
856.077224	2530.659231
856.390720	2465.124231
856.704173	2467.644808
857.017584	2505.453462
857.330953	2515.535769
857.644278	2490.330000
857.957561	2502.932885
858.270802	2487.809423
858.584000	2487.809423
858.897155	2487.809423
859.210268	2444.959615
859.523339	2495.371154
859.836367	2462.603654
860.149352	2472.685962
860.462295	2447.480192
860.775195	2437.397885
861.088054	2543.262115
861.400869	2490.330000
861.713642	2470.165385
862.026373	2558.385577
862.339062	2558.385577
862.651708	2515.535769
862.964312	2581.070769
863.276873	2439.918462
863.589392	2523.097500
863.901869	2472.685962
864.214303	2447.480192
864.526696	2510.494615
864.839045	2429.836154
865.151353	2576.029615
865.463619	2460.083077
865.775842	2523.097500
866.088023	2555.865000
866.400162	2565.947308
866.712258	2452.521346
867.024313	2439.918462
867.336325	2465.124231
867.648296	2472.685962
867.960224	2497.891731
868.272110	2530.659231
868.583954	2500.412308
868.895755	2502.932885
869.207515	2460.083077
869.519233	2573.509038
869.830909	2419.753846
870.142542	2570.988462
870.454134	2369.342308
870.765684	2545.782692
871.077191	2379.424615
871.388657	2444.959615
871.700081	2485.288846
872.011463	2505.453462
872.322803	2437.397885
872.634101	2424.795000
872.945357	2487.809423
873.256571	2472.685962
873.567744	2457.562500
873.878874	2553.344423
874.189963	2457.562500
874.501010	2437.397885
874.812015	2510.494615
875.122979	2553.344423
875.433900	2545.782692
875.744780	2523.097500
876.055618	2518.056346
876.366415	2455.041923
876.677169	2535.700385
876.987882	2457.562500
877.298554	2404.630385
877.609183	2482.768269
877.919771	2467.644808
878.230317	2543.262115
878.540822	2528.138654
878.851285	2472.685962
879.161707	2505.453462
879.472087	2407.150962
879.782425	2465.124231
880.092722	2502.932885
880.402977	2465.124231
880.713191	2492.850577
881.023363	2573.509038
881.333494	2487.809423
881.643583	2485.288846
881.953631	2452.521346
882.263637	2525.618077
882.573602	2535.700385
882.883526	2472.685962
883.193408	2507.974038
883.503248	2490.330000
883.813048	2477.727115
884.122806	2507.974038
884.432522	2450.000769
884.742197	2477.727115
885.051831	2520.576923
885.361424	2412.192115
885.670975	2533.179808
885.980485	2520.576923
886.289954	2417.233269
886.599382	2480.247692
886.908768	2480.247692
887.218113	2434.877308
887.527417	2490.330000
887.836680	2588.632500
888.145901	2465.124231
888.455082	2490.330000
888.764221	2487.809423
889.073319	2555.865000
889.382376	2558.385577
889.691392	2487.809423
890.000366	2444.959615
890.309300	2523.097500
890.618193	2513.015192
890.927044	2518.056346
891.235855	2507.974038
891.544625	2518.056346
891.853353	2540.741538
892.162041	2525.618077
892.470687	2452.521346
892.779293	2397.068654
893.087858	2543.262115
893.396381	2475.206538
893.704864	2528.138654
894.013306	2465.124231
894.321707	2528.138654
894.630068	2520.576923
894.938387	2467.644808
895.246665	2477.727115
895.554903	2507.974038
895.863100	2437.397885
896.171256	2500.412308
896.479371	2386.986346
896.787446	2518.056346
897.095480	2482.768269
897.403473	2442.439038
897.711425	2465.124231
898.019336	2492.850577
898.327207	2523.097500
898.635038	2490.330000
898.942827	2525.618077
899.250576	2452.521346
899.558284	2490.330000
899.865952	2450.000769
900.173579	2500.412308
900.481165	2447.480192
900.788711	2480.247692
901.096216	2455.041923
901.403681	2470.165385
901.711105	2455.041923
902.018489	2548.303269
902.325832	2399.589231
902.633135	2568.467885
902.940397	2450.000769
903.247619	2568.467885
903.554800	2487.809423
903.861941	2475.206538
904.169041	2432.356731
904.476101	2525.618077
904.783121	2497.891731
905.090100	2558.385577
905.397039	2472.685962
905.703938	2520.576923
906.010796	2518.056346
906.317614	2497.891731
906.624391	2523.097500
906.931129	2434.877308
907.237826	2480.247692
907.544483	2437.397885
907.851099	2462.603654
908.157675	2490.330000
908.464211	2563.426731
908.770707	2475.206538
909.077163	2487.809423
909.383578	2465.124231
909.689954	2389.506923
909.996289	2429.836154
910.302584	2548.303269
910.608839	2472.685962
910.915054	2533.179808
911.221229	2576.029615
911.527363	2434.877308
911.833458	2462.603654
912.139513	2570.988462
912.445527	2379.424615
912.751502	2487.809423
913.057436	2543.262115
913.363331	2404.630385
913.669186	2495.371154
913.975000	2490.330000
914.280775	2513.015192
914.586510	2550.823846
914.892205	2447.480192
915.197859	2533.179808
915.503475	2510.494615
915.809050	2550.823846
916.114585	2480.247692
916.420081	2492.850577
916.725536	2550.823846
917.030952	2414.712692
917.336328	2424.795000
917.641665	2545.782692
917.946961	2455.041923
918.252218	2530.659231
918.557435	2598.714808
918.862612	2513.015192
919.167750	2452.521346
919.472848	2462.603654
919.777906	2475.206538
920.082925	2472.685962
920.387904	2434.877308
920.692843	2455.041923
920.997743	2490.330000
921.302603	2513.015192
921.607423	2530.659231
921.912204	2558.385577
922.216946	2497.891731
922.521647	2520.576923
922.826310	2485.288846
923.130932	2545.782692
923.435516	2427.315577
923.740059	2492.850577
924.044564	2560.906154
924.349028	2553.344423
924.653454	2447.480192
924.957840	2472.685962
925.262186	2475.206538
925.566493	2470.165385
925.870761	2525.618077
926.174989	2502.932885
926.479178	2530.659231
926.783328	2538.220962
927.087438	2450.000769
927.391509	2538.220962
927.695541	2535.700385
927.999533	2500.412308
928.303486	2563.426731
928.607400	2540.741538
928.911275	2452.521346
929.215110	2598.714808
929.518906	2535.700385
929.822663	2535.700385
930.126381	2500.412308
930.430060	2439.918462
930.733699	2452.521346
931.037299	2523.097500
931.340861	2452.521346
931.644383	2515.535769
931.947866	2480.247692
932.251309	2570.988462
932.554714	2560.906154
932.858080	2470.165385
933.161407	2507.974038
933.464694	2475.206538
933.767943	2475.206538
934.071153	2460.083077
934.374323	2495.371154
934.677455	2447.480192
934.980548	2553.344423
935.283602	2472.685962
935.586617	2545.782692
935.889593	2452.521346
936.192530	2533.179808
936.495428	2581.070769
936.798287	2460.083077
937.101108	2442.439038
937.403890	2490.330000
937.706632	2586.111923
938.009336	2455.041923
938.312002	2460.083077
938.614628	2535.700385
938.917216	2515.535769
939.219765	2603.755962
939.522275	2497.891731
939.824747	2540.741538
940.127179	2502.932885
940.429573	2513.015192
940.731929	2510.494615
941.034246	2507.974038
941.336524	2455.041923
941.638763	2545.782692
941.940964	2470.165385
942.243126	2535.700385
942.545250	2578.550192
942.847335	2487.809423
943.149381	2472.685962
943.451389	2455.041923
943.753359	2477.727115
944.055290	2528.138654
944.357182	2442.439038
944.659036	2470.165385
944.960851	2477.727115
945.262628	2437.397885
945.564367	2467.644808
945.866067	2565.947308
946.167729	2495.371154
946.469352	2513.015192
946.770937	2397.068654
947.072484	2492.850577
947.373992	2538.220962
947.675462	2472.685962
947.976893	2470.165385
948.278286	2492.850577
948.579641	2419.753846
948.880958	2467.644808
949.182236	2485.288846
949.483476	2510.494615
949.784678	2480.247692
950.085841	2495.371154
950.386967	2558.385577
950.688054	2472.685962
950.989103	2510.494615
951.290114	2480.247692
951.591087	2487.809423
951.892021	2482.768269
952.192917	2510.494615
952.493776	2434.877308
952.794596	2465.124231
953.095378	2482.768269
953.396122	2515.535769
953.696828	2429.836154
953.997496	2482.768269
954.298126	2543.262115
954.598718	2495.371154
954.899272	2442.439038
955.199788	2525.618077
955.500266	2419.753846
955.800706	2550.823846
956.101108	2507.974038
956.401472	2419.753846
956.701798	2507.974038
957.002087	2480.247692
957.302337	2485.288846
957.602550	2583.591346
957.902724	2470.165385
958.202861	2432.356731
958.502960	2444.959615
958.803022	2538.220962
959.103045	2495.371154
959.403031	2460.083077
959.702979	2525.618077
960.002889	2457.562500
960.302762	2482.768269
960.602596	2507.974038
960.902393	2490.330000
961.202153	2553.344423
961.501875	2518.056346
961.801559	2439.918462
962.101205	2523.097500
962.400814	2434.877308
962.700385	2515.535769
962.999918	2497.891731
963.299414	2550.823846
963.598873	2490.330000
963.898293	2492.850577
964.197677	2442.439038
964.497022	2487.809423
964.796331	2530.659231
965.095601	2510.494615
965.394835	2510.494615
965.694030	2490.330000
965.993189	2502.932885
966.292309	2475.206538
966.591393	2475.206538
966.890439	2555.865000
967.189447	2515.535769
967.488419	2560.906154
967.787353	2447.480192
968.086249	2538.220962
968.385108	2507.974038
968.683930	2427.315577
968.982714	2525.618077
969.281462	2502.932885
969.580172	2462.603654
969.878844	2482.768269
970.177480	2523.097500
970.476078	2442.439038
970.774639	2495.371154
971.073162	2550.823846
971.371649	2505.453462
971.670098	2515.535769
971.968510	2460.083077
972.266885	2518.056346
972.565223	2505.453462
972.863524	2513.015192
973.161788	2492.850577
973.460014	2540.741538
973.758204	2457.562500
974.056356	2442.439038
974.354471	2444.959615
974.652550	2475.206538
974.950591	2500.412308
975.248595	2376.904038
975.546563	2414.712692
975.844493	2482.768269
976.142386	2432.356731
976.440243	2439.918462
976.738062	2457.562500
977.035845	2548.303269
977.333590	2500.412308
977.631299	2434.877308
977.928971	2530.659231
978.226606	2457.562500
978.524204	2548.303269
978.821765	2485.288846
979.119290	2497.891731
979.416777	2586.111923
979.714228	2442.439038
980.011642	2634.002885
980.309020	2492.850577
980.606360	2507.974038
980.903664	2502.932885
981.200931	2495.371154
981.498162	2444.959615
981.795356	2515.535769
982.092513	2528.138654
982.389633	2434.877308
982.686717	2492.850577
982.983764	2533.179808
983.280775	2543.262115
983.577749	2543.262115
983.874686	2528.138654
984.171587	2444.959615
984.468451	2490.330000
984.765279	2480.247692
985.062070	2485.288846
985.358824	2492.850577
985.655543	2528.138654
985.952224	2495.371154
986.248869	2480.247692
986.545478	2482.768269
986.842050	2500.412308
987.138586	2381.945192
987.435086	2518.056346
987.731549	2470.165385
988.027975	2475.206538
988.324366	2520.576923
988.620719	2485.288846
988.917037	2487.809423
989.213318	2490.330000
989.509563	2412.192115
989.805772	2470.165385
990.101944	2528.138654
990.398080	2603.755962
990.694180	2500.412308
990.990244	2414.712692
991.286271	2409.671538
991.582262	2477.727115
991.878217	2555.865000
992.174136	2490.330000
992.470019	2497.891731
992.765865	2515.535769
993.061676	2452.521346
993.357450	2523.097500
993.653188	2545.782692
993.948890	2472.685962
994.244556	2497.891731
994.540186	2550.823846
994.835780	2460.083077
995.131337	2472.685962
995.426859	2485.288846
995.722345	2457.562500
996.017795	2399.589231
996.313208	2429.836154
996.608586	2480.247692
996.903928	2528.138654
997.199234	2427.315577
997.494504	2434.877308
997.789738	2434.877308
998.084936	2520.576923
998.380099	2427.315577
998.675225	2467.644808
998.970316	2528.138654
999.265371	2437.397885
999.560390	2565.947308
999.855373	2462.603654
1000.150320	2558.385577
1000.445232	2437.397885
1000.740108	2502.932885
1001.034948	2502.932885
1001.329752	2475.206538
1001.624521	2543.262115
1001.919254	2462.603654
1002.213951	2389.506923
1002.508613	2505.453462
1002.803239	2402.109808
1003.097829	2520.576923
1003.392384	2439.918462
1003.686903	2520.576923
1003.981386	2422.274423
1004.275834	2495.371154
1004.570246	2429.836154
1004.864623	2465.124231
1005.158964	2475.206538
1005.453270	2480.247692
1005.747540	2477.727115
1006.041775	2455.041923
1006.335974	2533.179808
1006.630138	2548.303269
1006.924266	2525.618077
1007.218359	2447.480192
1007.512416	2452.521346
1007.806438	2465.124231
1008.100425	2507.974038
1008.394376	2487.809423
1008.688292	2583.591346
1008.982172	2520.576923
1009.276017	2457.562500
1009.569827	2528.138654
1009.863602	2573.509038
1010.157341	2535.700385
1010.451045	2475.206538
1010.744714	2502.932885
1011.038347	2528.138654
1011.331945	2510.494615
1011.625508	2437.397885
1011.919036	2487.809423
1012.212528	2505.453462
1012.505986	2457.562500
1012.799408	2384.465769
1013.092795	2518.056346
1013.386147	2487.809423
1013.679464	2573.509038
1013.972745	2462.603654
1014.265992	2558.385577
1014.559204	2497.891731
1014.852380	2543.262115
1015.145521	2470.165385
1015.438628	2450.000769
1015.731699	2457.562500
1016.024736	2553.344423
1016.317737	2455.041923
1016.610703	2475.206538
1016.903635	2465.124231
1017.196531	2548.303269
1017.489393	2444.959615
1017.782219	2452.521346
1018.075011	2472.685962
1018.367768	2467.644808
1018.660490	2523.097500
1018.953177	2523.097500
1019.245829	2523.097500
