Dividing Wavelength (nm)	Counts (n)	Blue Motor Position (mm): 0.000000	Red Motor Position (mm): 1.500000	
326.493990	2151.846766
326.888308	2151.846766
327.282561	2151.846766
327.676750	2124.705194
328.070874	2125.229474
328.464933	2131.099898
328.858929	2140.952833
329.252859	2150.142856
329.646726	2165.974600
330.040528	2180.591425
330.434265	2203.689992
330.827938	2219.398228
331.221547	2239.373800
331.615091	2255.278640
332.008571	2278.956940
332.401986	2299.081226
332.795338	2319.376911
333.188625	2338.397185
333.581847	2357.104907
333.975006	2377.261960
334.368100	2396.372975
334.761129	2415.428536
335.154095	2430.425969
335.546996	2447.664194
335.939833	2457.428909
336.332606	2478.105202
336.725315	2482.491006
337.117960	2493.266472
337.510540	2499.782163
337.903056	2510.444204
338.295508	2517.622807
338.687896	2524.831657
339.080220	2529.943387
339.472480	2538.011754
339.864676	2543.869574
340.256807	2541.288504
340.648875	2547.317724
341.040879	2545.460058
341.432818	2547.486602
341.824694	2549.548434
342.216506	2547.668084
342.608253	2547.312682
342.999937	2550.039947
343.391557	2550.806202
343.783113	2545.308824
344.174605	2548.643547
344.566033	2542.977290
344.957397	2543.665408
345.348697	2538.823379
345.739934	2539.541744
346.131106	2539.541744
346.522215	2534.823224
346.913260	2531.014632
347.304241	2529.963552
347.695159	2528.284847
348.086012	2527.536236
348.476802	2526.865763
348.867528	2523.679753
349.258191	2523.848632
349.648789	2524.566996
350.039324	2521.945596
350.429796	2523.573889
350.820203	2519.331758
351.210548	2520.372756
351.600828	2519.188085
351.991045	2519.893847
352.381198	2517.408558
352.771288	2517.421161
353.161314	2516.236490
353.551276	2516.987622
353.941175	2518.867972
354.331010	2517.282529
354.720782	2516.579288
355.110490	2517.559793
355.500135	2516.677591
355.889717	2517.622807
356.279235	2520.390400
356.668689	2521.328055
357.058080	2523.967099
357.447408	2516.969977
357.836672	2515.432426
358.225873	2517.249762
358.615010	2517.325379
359.004084	2519.752694
359.393095	2523.538601
359.782043	2521.287726
360.170927	2523.677233
360.559748	2521.814526
360.948505	2524.584640
361.337199	2524.940042
361.725830	2525.610515
362.114398	2525.192099
362.502903	2524.246883
362.891344	2526.381812
363.279722	2523.641945
363.668037	2529.466998
364.056289	2528.809127
364.444478	2529.736700
364.832603	2526.336441
365.220665	2527.954652
365.608665	2528.670496
365.996601	2529.482121
366.384474	2529.083870
366.772284	2531.276772
367.160031	2532.179139
367.547715	2530.765095
367.935336	2533.237781
368.322893	2529.156967
368.710388	2530.354241
369.097820	2535.261804
369.485189	2532.600075
369.872495	2532.174097
370.259738	2533.991433
370.646918	2529.043541
371.034035	2533.641073
371.421090	2536.194418
371.808081	2533.041176
372.195010	2529.714014
372.581875	2537.744573
372.968678	2535.478574
373.355418	2534.001516
373.742096	2534.437576
374.128710	2532.093439
374.515262	2534.450178
374.901751	2535.700385
375.288177	2535.690302
375.674540	2536.068389
376.060841	2537.376568
376.447079	2534.117462
376.833254	2535.889428
377.219367	2531.438089
377.605417	2534.845909
377.991404	2533.235260
378.377329	2536.557381
378.763191	2531.727955
379.148991	2539.680376
379.534727	2539.118287
379.920402	2538.311702
380.306013	2535.357586
380.691563	2536.496887
381.077049	2538.939326
381.462474	2538.793133
381.847835	2538.682227
382.233134	2538.679707
382.618371	2539.524100
383.003545	2540.504604
383.388657	2535.723070
383.773706	2540.028215
384.158693	2539.319933
384.543618	2540.749100
384.928480	2540.398740
385.313280	2541.187681
385.698017	2540.287835
386.082692	2542.967208
386.467305	2542.538710
386.851856	2541.364121
387.236344	2542.145500
387.620770	2544.046015
388.005133	2541.805222
388.389435	2542.556354
388.773674	2545.316386
389.157851	2543.327650
389.541965	2542.780685
389.926018	2544.650953
390.310008	2541.918648
390.693936	2542.911755
391.077802	2543.267157
391.461606	2543.577188
391.845348	2543.158772
392.229027	2545.379400
392.612645	2546.009544
392.996200	2543.877136
393.379694	2548.719164
393.763125	2545.538196
394.146494	2545.886036
394.529801	2548.416695
394.913047	2544.935778
395.296230	2548.971222
395.679351	2544.860161
396.062410	2546.216232
396.445408	2547.715975
396.828343	2546.853938
397.211217	2543.292362
397.594028	2546.110367
397.976778	2543.788916
398.359466	2546.654812
398.742092	2544.504760
399.124656	2547.889895
399.507158	2547.786551
399.889598	2548.832590
400.271977	2548.111705
400.654294	2549.790410
401.036549	2549.944165
401.418742	2548.477189
401.800874	2547.655481
402.182944	2549.656819
402.564952	2549.843342
402.946898	2550.380225
403.328783	2551.083466
403.710606	2548.177240
404.092367	2552.273178
404.474067	2548.600697
404.855705	2550.551624
405.237282	2551.748898
405.618797	2549.245965
406.000250	2551.764021
406.381642	2553.662016
406.762972	2552.058929
407.144240	2550.690256
407.525447	2550.599515
407.906593	2552.268137
408.287677	2550.740667
408.668700	2551.832077
409.049661	2554.914743
409.430560	2552.137067
409.811399	2556.028838
410.192176	2550.932231
410.572891	2553.777962
410.953545	2552.038764
411.334138	2553.624207
411.714669	2553.394835
412.095139	2551.940462
412.475547	2552.686552
412.855894	2553.891388
413.236180	2551.801830
413.616405	2555.532284
413.996568	2552.512633
414.376670	2554.360216
414.756711	2555.439022
415.136691	2556.253169
415.516609	2556.066646
415.896466	2553.936759
416.276262	2556.795093
416.655997	2550.874258
417.035670	2554.476162
417.415283	2553.737633
417.794834	2553.122612
418.174324	2551.370811
418.553753	2557.120247
418.933121	2554.461039
419.312428	2557.742830
419.691674	2557.478169
420.070859	2554.614794
420.449983	2557.480690
420.829045	2554.014897
421.208047	2555.786862
421.586988	2556.371636
421.965867	2558.433468
422.344686	2555.665874
422.723444	2554.798796
423.102141	2558.650238
423.480777	2557.745350
423.859352	2557.228632
424.237866	2556.928683
424.616319	2557.833571
424.994712	2560.623849
425.373044	2558.062943
425.751314	2558.181410
426.129524	2555.562531
426.507673	2557.977243
426.885762	2559.988664
427.263789	2558.937583
427.641756	2559.600495
428.019662	2556.414486
428.397508	2560.943962
428.775292	2557.790721
429.153016	2556.933725
429.530679	2558.952707
429.908282	2561.032183
430.285824	2559.068653
430.663305	2561.274158
431.040726	2559.837429
431.418086	2559.358520
431.795385	2562.017728
432.172624	2559.908005
432.549802	2558.433468
432.926920	2558.408262
433.303977	2561.821123
433.680974	2557.377346
434.057910	2563.114179
434.434786	2560.976730
434.811601	2558.541853
435.188355	2559.794579
435.565050	2560.525547
435.941683	2560.104610
436.318257	2558.400700
436.694770	2559.620660
437.071222	2559.751730
437.447614	2558.965310
437.823946	2558.148643
438.200218	2562.242060
438.576429	2561.634601
438.952580	2562.410938
439.328670	2562.085784
439.704700	2561.992522
440.080670	2562.985630
440.456580	2560.820454
440.832429	2562.783984
441.208218	2562.978068
441.583947	2563.005794
441.959616	2561.180897
442.335224	2564.472770
442.710773	2562.703325
443.086261	2562.978068
443.461689	2567.537792
443.837057	2560.696946
444.212365	2564.313974
444.587612	2561.170814
444.962800	2561.700136
445.337927	2565.967472
445.712995	2562.524364
446.088002	2561.939590
446.462949	2564.233315
446.837837	2566.832030
447.212664	2563.116700
447.587431	2563.305743
447.962139	2564.848336
448.336786	2568.392267
448.711374	2564.702143
449.085901	2565.740620
449.460369	2565.985116
449.834776	2567.583162
450.209124	2565.549057
450.583412	2565.334807
450.957640	2562.983109
451.331808	2565.072667
451.705917	2562.383212
452.079965	2562.912533
452.453954	2565.165929
452.827883	2566.688357
453.201752	2563.845147
453.575562	2567.994016
453.949311	2564.094684
454.323001	2563.313305
454.696632	2566.320353
455.070202	2565.884293
455.443713	2567.215158
455.817164	2564.787842
456.190556	2562.547049
456.563888	2561.276679
456.937160	2559.126627
457.310373	2566.249777
457.683526	2568.737586
458.056619	2566.015363
458.429653	2566.446382
458.802628	2563.134344
459.175542	2565.375137
459.548398	2565.072667
459.921194	2566.101063
460.293930	2567.409242
460.666607	2567.552915
461.039224	2568.301527
461.411782	2566.743810
461.784280	2566.401012
462.156719	2568.470405
462.529099	2566.232133
462.901419	2566.900086
463.273680	2566.471588
463.645882	2565.906978
464.018024	2567.474777
464.390106	2569.057700
464.762130	2568.659448
465.134094	2569.602144
465.505999	2567.532751
465.877845	2569.113152
466.249631	2568.122566
466.621358	2566.234653
466.993026	2570.940571
467.364634	2572.268915
467.736184	2567.976372
468.107674	2567.230281
468.479105	2571.984089
468.850477	2569.143399
469.221790	2570.406208
469.593043	2569.007288
469.964238	2567.043759
470.335373	2567.734397
470.706449	2568.908986
471.077467	2569.834037
471.448425	2567.467216
471.819324	2567.900755
472.190164	2570.721280
472.560945	2571.149778
472.931667	2568.941753
473.302330	2566.723645
473.672934	2567.371434
474.043479	2570.116342
474.413965	2565.400343
474.784393	2565.521330
475.154761	2565.717935
475.525070	2566.937894
475.895321	2567.139541
476.265513	2565.080229
476.635645	2566.867318
477.005719	2571.026270
477.375734	2568.044428
477.745691	2570.249932
478.115588	2569.992834
478.485427	2569.072823
478.855207	2566.963100
479.224928	2570.925447
479.594591	2569.566856
479.964194	2570.902762
480.333739	2569.939902
480.703226	2569.105591
481.072653	2568.062072
481.442022	2569.087947
481.811333	2570.139027
482.180584	2572.556260
482.549777	2572.387382
482.918912	2569.113152
483.287988	2570.048286
483.657005	2569.642473
484.025964	2572.026939
484.394864	2570.890159
484.763706	2572.914182
485.132489	2571.119532
485.501213	2571.053997
485.869879	2571.190108
486.238487	2571.023750
486.607036	2571.059038
486.975527	2570.161712
487.343959	2570.328070
487.712333	2569.904613
488.080648	2566.786660
488.448905	2570.960735
488.817104	2573.869481
489.185244	2570.869994
489.553326	2572.042063
489.921350	2572.384861
490.289315	2570.582649
490.657222	2571.046435
491.025070	2571.358986
491.392861	2571.767320
491.760593	2570.537278
492.128267	2573.020047
492.495883	2571.840417
492.863440	2575.409553
493.230939	2573.050293
493.598380	2572.352094
493.965763	2568.256156
494.333088	2568.130127
494.700354	2566.849674
495.067563	2571.840417
495.434713	2567.116855
495.801805	2573.035170
496.168839	2571.661456
496.535815	2572.684810
496.902733	2572.306723
497.269593	2572.793195
497.636395	2570.113821
498.003139	2572.720098
498.369825	2574.320664
498.736453	2574.887794
499.103023	2572.518452
499.469535	2571.018708
499.835989	2571.679100
500.202385	2571.469892
500.568723	2572.382341
500.935003	2574.918041
501.301226	2571.643812
501.667390	2573.748493
502.033497	2574.547516
502.399546	2573.554409
502.765537	2571.071641
503.131470	2571.845458
503.497345	2575.006261
503.863163	2575.112125
504.228923	2573.461148
504.594625	2574.010633
504.960269	2571.807649
505.325856	2577.494071
505.691385	2572.198338
506.056856	2574.003072
506.422270	2575.071796
506.787625	2574.023236
507.152924	2574.582804
507.518164	2575.717064
507.883347	2572.331929
508.248472	2573.171281
508.613540	2573.183884
508.978550	2573.199008
509.343503	2576.158165
509.708398	2572.042063
510.073236	2571.777402
510.438016	2573.135993
510.802738	2570.938050
511.167403	2571.986610
511.532010	2571.674058
511.896561	2575.699420
512.261053	2577.312589
512.625488	2571.026270
512.989866	2568.606516
513.354186	2569.460992
513.718449	2569.892011
514.082655	2570.960735
514.446803	2571.369069
514.810894	2575.298648
515.174927	2573.448545
515.538904	2573.529203
515.902822	2574.902917
516.266684	2572.344532
516.630488	2572.594069
516.994235	2572.137845
517.357925	2575.351580
517.721558	2573.955181
518.085133	2574.844944
518.448651	2575.331416
518.812112	2575.243195
519.175516	2575.341498
519.538863	2571.573235
519.902152	2575.361663
520.265385	2575.996848
520.628560	2576.143041
520.991678	2575.288566
521.354739	2573.768658
521.717743	2573.841755
522.080690	2576.170768
522.443580	2573.103226
522.806413	2575.023905
523.169189	2575.270922
523.531908	2573.456106
523.894569	2572.856209
524.257174	2572.263873
524.619722	2574.207238
524.982213	2575.119687
525.344647	2574.519790
525.707025	2575.147413
526.069345	2576.644636
526.431608	2576.427867
526.793815	2574.933164
527.155964	2576.264029
527.518057	2574.308061
527.880093	2574.439131
528.242072	2576.574060
528.603995	2575.306210
528.965860	2574.766806
529.327669	2573.433421
529.689421	2575.699420
530.051117	2575.757393
530.412755	2574.416446
530.774337	2578.174626
531.135862	2575.281004
531.497331	2575.217990
531.858743	2571.795046
532.220098	2573.950139
532.581396	2572.077351
532.942638	2570.202042
533.303824	2573.138514
533.664953	2575.028946
534.026025	2574.766806
534.387040	2576.682445
534.747999	2573.214131
535.108902	2576.848803
535.469748	2576.566498
535.830537	2575.969122
536.191270	2571.248081
536.551947	2575.223031
536.912567	2574.063565
537.273131	2576.921900
537.633638	2572.233627
537.994089	2576.601786
538.354483	2576.468196
538.714821	2573.216652
539.075103	2577.206725
539.435328	2573.539285
539.795497	2576.949626
540.155609	2574.870150
540.515665	2572.147927
540.875665	2577.637743
541.235609	2572.435273
541.595496	2576.107753
541.955328	2576.077506
542.315102	2576.150603
542.674821	2574.996179
543.034483	2575.505335
543.394090	2575.354101
543.753640	2580.649833
544.113134	2574.461817
544.472571	2574.776889
544.831953	2576.054821
545.191278	2575.598597
545.550548	2575.439800
545.909761	2574.272773
546.268918	2576.342167
546.628019	2578.414081
546.987064	2574.824780
547.346053	2576.911817
547.704986	2574.005592
548.063863	2579.460121
548.422684	2577.748649
548.781449	2575.366704
549.140158	2576.130438
549.498811	2575.976683
549.857408	2576.274111
550.215949	2574.154306
550.574434	2571.943760
550.932864	2570.083574
551.291237	2572.994841
551.649555	2573.375448
552.007817	2575.671693
552.366022	2576.561457
552.724173	2574.197156
553.082267	2577.705799
553.440305	2577.761252
553.798288	2573.854357
554.156215	2577.670511
554.514086	2574.083730
554.871902	2574.393761
555.229661	2575.117167
555.587365	2574.776889
555.945014	2578.003227
556.302606	2575.616241
556.660143	2575.071796
557.017625	2577.141190
557.375050	2575.079358
557.732421	2577.461303
558.089735	2574.648339
558.446994	2574.880232
558.804197	2576.105233
559.161345	2577.521797
559.518437	2575.822928
559.875474	2576.747980
560.232455	2576.621951
560.589381	2575.495253
560.946251	2577.892322
561.303065	2576.322002
561.659825	2577.930130
562.016528	2576.992476
562.373177	2577.226889
562.729770	2574.567681
563.086307	2578.240161
563.442789	2576.052301
563.799216	2576.382496
564.155587	2575.036508
564.511904	2573.476271
564.868164	2572.732701
565.224370	2578.300655
565.580520	2578.323340
565.936615	2575.195304
566.292654	2574.655901
566.648638	2574.960891
567.004567	2577.042887
567.360441	2576.674883
567.716260	2575.780078
568.072023	2574.444172
568.427732	2572.057186
568.783385	2573.463668
569.138982	2572.977197
569.494525	2571.366548
569.850013	2574.056004
570.205445	2575.346539
570.560823	2575.863257
570.916145	2577.615058
571.271412	2572.702454
571.626625	2577.027764
571.981782	2576.415264
572.336884	2574.890315
572.691931	2573.619944
573.046923	2575.744790
573.401860	2575.553226
573.756743	2577.882239
574.111570	2575.212948
574.466342	2575.485171
574.821059	2575.759914
575.175722	2576.188412
575.530330	2575.800243
575.884882	2574.257650
576.239380	2575.243195
576.593823	2578.986252
576.948211	2573.710685
577.302544	2573.564491
577.656823	2575.825449
578.011047	2576.740418
578.365216	2575.606158
578.719330	2579.013978
579.073389	2576.405181
579.427394	2574.371076
579.781344	2574.723957
580.135239	2576.831159
580.489080	2574.154306
580.842866	2575.979204
581.196597	2576.173288
581.550273	2578.421643
581.903895	2573.325036
582.257463	2575.210428
582.610975	2577.920048
582.964434	2576.959708
583.317837	2578.240161
583.671186	2575.999368
584.024481	2577.025243
584.377721	2578.882908
584.730906	2575.412074
585.084037	2576.402661
585.437113	2575.767475
585.790135	2575.354101
586.143103	2575.107084
586.496016	2577.126066
586.848874	2572.825962
587.201679	2575.041549
587.554428	2573.388051
587.907124	2576.072465
588.259765	2572.883935
588.612352	2577.778896
588.964884	2575.800243
589.317362	2576.248906
589.669786	2575.412074
590.022155	2580.107909
590.374470	2576.546334
590.726731	2575.202866
591.078937	2578.514904
591.431090	2574.487022
591.783188	2575.817887
592.135232	2577.262177
592.487222	2576.833679
592.839157	2578.184709
593.191038	2572.888977
593.542866	2577.176478
593.894639	2575.233113
594.246358	2575.321333
594.598022	2578.724112
594.949633	2575.051632
595.301190	2576.717733
595.652692	2578.968608
596.004141	2573.826631
596.355535	2577.713361
596.706876	2575.071796
597.058162	2575.880901
597.409395	2576.732856
597.760573	2577.388206
598.111698	2577.511715
598.462768	2575.785119
598.813785	2576.064903
599.164748	2575.855696
599.515657	2576.609348
599.866511	2574.847465
600.217312	2577.423494
600.568060	2576.969791
600.918753	2576.773186
601.269392	2576.543813
601.619978	2577.937692
601.970510	2576.566498
602.320988	2578.358628
602.671412	2579.044225
603.021783	2577.385686
603.372100	2577.433577
603.722363	2576.115315
604.072572	2577.312589
604.422728	2573.861919
604.772830	2574.973494
605.122878	2573.965263
605.472872	2572.417629
605.822813	2571.106929
606.172701	2574.461817
606.522534	2576.541293
606.872314	2576.001889
607.222041	2574.267732
607.571714	2576.647157
607.921333	2575.323854
608.270899	2575.104564
608.620411	2575.308730
608.969870	2577.085737
609.319276	2574.169430
609.668627	2577.340315
610.017926	2574.436611
610.367171	2578.129256
610.716362	2578.648495
611.065500	2574.630695
611.414585	2576.770665
611.763616	2577.136149
612.112594	2576.011971
612.461518	2576.193453
612.810389	2574.240006
613.159207	2575.931313
613.507971	2574.335788
613.856682	2577.972980
614.205340	2575.192784
614.553945	2577.552044
614.902496	2575.643967
615.250994	2577.466344
615.599439	2574.081209
615.947830	2577.874678
616.296169	2576.828638
616.644454	2576.183371
616.992686	2575.391909
617.340864	2579.623958
617.688990	2575.769996
618.037063	2575.069276
618.385082	2573.622464
618.733048	2577.146231
619.080961	2574.832341
619.428821	2573.720767
619.776628	2574.875191
620.124382	2578.502301
620.472083	2574.272773
620.819731	2574.900397
621.167326	2576.586663
621.514868	2575.326374
621.862357	2574.807136
622.209793	2575.394430
622.557176	2576.649677
622.904506	2572.122721
623.251783	2572.750345
623.599007	2573.884604
623.946179	2573.662794
624.293297	2573.922413
624.640363	2577.403330
624.987376	2575.437280
625.334336	2577.456262
625.681243	2576.589183
626.028097	2575.044070
626.374899	2576.911817
626.721647	2575.001220
627.068343	2576.168247
627.414987	2578.824935
627.761577	2578.514904
628.108115	2576.959708
628.454600	2579.165213
628.801032	2575.202866
629.147412	2575.893504
629.493739	2575.649008
629.840014	2576.803432
630.186236	2575.316292
630.532405	2578.446849
630.878521	2576.052301
631.224585	2578.577919
631.570597	2576.485840
631.916556	2576.994996
632.262462	2576.579101
632.608316	2577.531879
632.954117	2574.764286
633.299866	2576.052301
633.645562	2575.444842
633.991206	2579.024061
634.336797	2573.907290
634.682336	2577.985583
635.027823	2574.499625
635.373257	2575.696899
635.718639	2574.265212
636.063968	2575.492732
636.409245	2574.683627
636.754470	2576.248906
637.099642	2576.420305
637.444762	2576.117836
637.789829	2576.153124
638.134845	2577.511715
638.479808	2577.713361
638.824719	2575.187743
639.169577	2575.349060
639.514383	2578.141859
639.859137	2576.238823
640.203839	2577.166396
640.548489	2577.211766
640.893086	2573.249419
641.237632	2571.331260
641.582125	2572.611713
641.926566	2571.162381
642.270955	2578.913155
642.615292	2577.272260
642.959576	2577.294945
643.303809	2574.451734
643.647990	2577.239492
643.992118	2574.421487
644.336195	2574.524831
644.680219	2576.856365
645.024192	2576.712692
645.368112	2576.110274
645.711981	2578.225038
646.055797	2576.359811
646.399562	2575.709502
646.743274	2576.760583
647.086935	2576.619430
647.430544	2576.541292
647.774101	2578.129256
648.117606	2575.114646
648.461059	2578.242682
648.804460	2579.283680
649.147810	2573.819069
649.491108	2574.416446
649.834354	2576.322002
650.177548	2577.872157
650.520690	2574.040880
650.863781	2575.565829
651.206820	2579.707137
651.549807	2574.623133
651.892742	2574.731518
652.235626	2573.771178
652.578458	2572.614234
652.921238	2574.116497
653.263967	2574.792012
653.606644	2574.280335
653.949269	2577.473906
654.291843	2576.924420
654.634365	2575.033987
654.976836	2573.009964
655.319255	2576.213617
655.661622	2576.294276
656.003938	2576.001889
656.346203	2575.822928
656.688416	2577.259657
657.030577	2577.940213
657.372687	2578.164544
657.714746	2574.643298
658.056753	2576.198494
658.398708	2572.909141
658.740612	2571.406877
659.082465	2571.847978
659.424266	2573.602300
659.766016	2570.133986
660.107715	2573.098184
660.449362	2577.516756
660.790958	2573.879563
661.132503	2573.687999
661.473996	2577.652867
661.815438	2577.562126
662.156829	2574.983576
662.498168	2576.223700
662.839456	2576.589183
663.180693	2576.725295
663.521879	2574.973494
663.863013	2576.702609
664.204097	2576.102712
664.545129	2574.832341
664.886110	2574.660942
665.227040	2574.431570
665.567918	2574.101374
665.908746	2576.586663
666.249522	2576.468196
666.590248	2575.611200
666.930922	2578.900552
667.271545	2575.608679
667.612118	2575.953998
667.952639	2575.286045
668.293109	2576.256467
668.633528	2574.849985
668.973896	2574.315623
669.314213	2575.628844
669.654480	2575.565829
669.994695	2576.364852
670.334859	2577.178998
670.674973	2573.798905
671.015035	2576.241344
671.355047	2573.783781
671.695008	2576.914338
672.034918	2575.888463
672.374777	2576.266550
672.714585	2576.178329
673.054342	2574.734039
673.394049	2576.715212
673.733705	2576.533731
674.073310	2575.084399
674.412864	2578.524987
674.752368	2573.057855
675.091820	2573.307392
675.431223	2574.108936
675.770574	2574.877712
676.109875	2569.899572
676.449125	2572.089954
676.788324	2571.338822
677.127473	2572.914182
677.466571	2569.559294
677.805619	2574.061045
678.144616	2572.221024
678.483562	2574.988617
678.822458	2575.583473
679.161303	2576.216138
679.500098	2574.436611
679.838842	2575.447362
680.177535	2576.871488
680.516179	2574.305541
680.854771	2576.800912
681.193314	2574.529872
681.531805	2576.521128
681.870247	2575.187743
682.208638	2575.991807
682.546978	2576.758062
682.885268	2575.570870
683.223508	2578.172106
683.561697	2573.957701
683.899836	2575.301169
684.237925	2575.505335
684.575963	2572.571384
684.913951	2573.604820
685.251889	2575.117167
685.589776	2574.106415
685.927614	2576.291755
686.265401	2574.396282
686.603137	2575.502815
686.940824	2574.550037
687.278460	2578.898032
687.616046	2573.524162
687.953582	2576.332085
688.291068	2577.141190
688.628504	2575.860737
688.965889	2575.553226
689.303224	2573.796384
689.640510	2574.345870
689.977745	2574.335788
690.314930	2575.530541
690.652065	2574.907959
690.989150	2577.443659
691.326185	2573.617423
691.663170	2572.606672
692.000105	2576.014492
692.336990	2575.412074
692.673825	2578.877867
693.010610	2575.230592
693.347345	2572.359655
693.684030	2571.633729
694.020665	2571.845458
694.357251	2567.658779
694.693786	2571.618606
695.030272	2573.788823
695.366707	2576.364852
695.703093	2573.430901
696.039429	2574.333267
696.375716	2574.857547
696.711952	2575.407033
697.048139	2571.439645
697.384276	2575.633885
697.720363	2572.899059
698.056400	2576.233782
698.392388	2574.368555
698.728326	2576.425346
699.064214	2574.272773
699.400053	2575.240675
699.735842	2575.651529
700.071581	2575.006261
700.407270	2573.052814
700.742910	2574.061045
701.078501	2574.663463
701.414042	2575.260839
701.749533	2575.018864
702.084974	2575.349060
702.420366	2574.696230
702.755709	2574.628175
703.091002	2573.415777
703.426246	2571.537947
703.761440	2575.525500
704.096584	2575.061714
704.431679	2575.898545
704.766725	2575.107084
705.101721	2573.259501
705.436668	2578.000707
705.771565	2575.298648
706.106413	2574.035839
706.441212	2574.008113
706.775961	2574.794533
707.110661	2576.581622
707.445311	2574.938206
707.779913	2573.826631
708.114465	2573.279666
708.448967	2574.315623
708.783421	2575.641447
709.117825	2575.031467
709.452180	2575.525500
709.786485	2573.630026
710.120742	2576.072465
710.454949	2577.141190
710.789107	2574.529872
711.123216	2572.520972
711.457275	2572.745304
711.791286	2569.592062
712.125247	2570.771692
712.459159	2573.556929
712.793023	2573.015005
713.126837	2575.021385
713.460602	2573.806467
713.794318	2571.008626
714.127985	2573.166240
714.461602	2574.658422
714.795171	2574.333267
715.128691	2574.875191
715.462162	2573.045252
715.795584	2573.224213
716.128957	2574.839903
716.462281	2575.598597
716.795556	2573.856878
717.128782	2575.127249
717.461960	2575.039029
717.795088	2572.125242
718.128167	2574.292938
718.461198	2575.548185
718.794180	2574.275294
719.127113	2575.709502
719.459997	2572.505849
719.792833	2573.549368
720.125619	2572.707495
720.458357	2574.441652
720.791046	2571.777402
721.123686	2574.734039
721.456278	2575.580953
721.788821	2572.410067
722.121315	2573.632547
722.453761	2574.098853
722.786158	2573.887125
723.118506	2575.354101
723.450805	2573.206569
723.783056	2574.786971
724.115259	2573.677917
724.447412	2573.065417
724.779518	2573.700602
725.111574	2576.485840
725.443582	2575.028946
725.775542	2575.016343
726.107453	2572.226065
726.439315	2575.525500
726.771129	2576.455593
727.102895	2572.924265
727.434612	2574.509708
727.766281	2575.424677
728.097901	2570.466702
728.429473	2567.676423
728.760996	2570.806980
729.092471	2568.954356
729.423897	2571.807649
729.755276	2574.774368
730.086606	2575.142372
730.417887	2572.599110
730.749120	2574.179512
731.080305	2573.526682
731.411442	2573.788823
731.742530	2571.563153
732.073570	2575.210428
732.404562	2573.428380
732.735506	2571.616085
733.066401	2574.683627
733.397249	2573.836713
733.728048	2573.153637
734.058798	2574.630695
734.389501	2574.040880
734.720156	2575.598597
735.050762	2574.040880
735.381320	2572.825962
735.711831	2574.227403
736.042293	2577.027764
736.372707	2573.569532
736.703073	2573.894687
737.033391	2574.290417
737.363661	2575.316292
737.693883	2573.498956
738.024056	2576.049780
738.354182	2572.498287
738.684260	2573.176322
739.014290	2572.203380
739.344272	2572.173133
739.674207	2573.879563
740.004093	2574.565160
740.333931	2573.526682
740.663722	2574.628175
740.993464	2573.357804
741.323159	2572.881415
741.652806	2575.099522
741.982405	2574.507187
742.311956	2574.219841
742.641460	2575.822928
742.970915	2573.902248
743.300323	2575.114646
743.629683	2572.558781
743.958996	2574.366035
744.288260	2573.468709
744.617477	2573.199008
744.946647	2570.507031
745.275768	2572.268915
745.604842	2569.355128
745.933869	2569.148440
746.262847	2568.745148
746.591778	2574.393761
746.920662	2571.777402
747.249498	2574.292938
747.578286	2576.798391
747.907027	2574.691189
748.235720	2574.751683
748.564365	2572.883935
748.892963	2572.896538
749.221514	2573.821590
749.550017	2571.913513
749.878473	2571.757237
750.206881	2572.168092
750.535242	2574.141703
750.863555	2572.745304
751.191821	2571.653894
751.520039	2570.809501
751.848210	2572.470561
752.176334	2572.881415
752.504411	2573.352763
752.832440	2573.083061
753.160421	2571.979048
753.488356	2573.514080
753.816243	2575.810325
754.144082	2573.642629
754.471875	2573.284707
754.799620	2574.900397
755.127318	2570.403688
755.454969	2572.208421
755.782572	2571.061558
756.110129	2575.354101
756.437638	2571.737073
756.765100	2571.469892
757.092515	2572.909141
757.419882	2574.880232
757.747203	2574.466858
758.074477	2573.115828
758.401703	2574.250088
758.728882	2572.067268
759.056014	2574.247567
759.383099	2573.793864
759.710138	2573.415777
760.037129	2572.488205
760.364073	2573.579615
760.690970	2570.035683
761.017820	2574.451734
761.344623	2570.388564
761.671379	2575.039029
761.998088	2569.473595
762.324751	2568.616599
762.651366	2571.323698
762.977935	2567.013512
763.304456	2568.518296
763.630931	2572.069789
763.957359	2574.310582
764.283740	2573.998030
764.610074	2571.711867
764.936362	2575.714543
765.262602	2572.561302
765.588796	2573.614903
765.914943	2570.549881
766.241044	2572.629357
766.567097	2572.452917
766.893104	2572.286559
767.219064	2575.303689
767.544978	2574.358473
767.870845	2571.550550
768.196665	2572.215983
768.522438	2576.503484
768.848165	2572.261353
769.173846	2570.940571
769.499479	2575.215469
769.825066	2570.529717
770.150607	2570.504511
770.476101	2570.295303
770.801548	2574.179512
771.126949	2574.373596
771.452303	2572.047104
771.777611	2572.294120
772.102872	2574.348391
772.428087	2573.070458
772.753256	2572.528534
773.078378	2572.856209
773.403453	2573.088102
773.728482	2569.982751
774.053465	2570.839747
774.378401	2571.611044
774.703291	2570.943091
775.028135	2571.845458
775.352932	2572.422670
775.677683	2574.827300
776.002388	2572.818400
776.327046	2570.499470
776.651658	2572.064748
776.976224	2568.253636
777.300743	2571.278328
777.625216	2574.270253
777.949643	2573.292269
778.274024	2573.067937
778.598359	2570.406208
778.922647	2569.219017
779.246889	2567.641135
779.571086	2569.319840
779.895236	2570.068451
780.219339	2571.779923
780.543397	2571.631209
780.867409	2571.442165
781.191374	2574.285376
781.515294	2572.188256
781.839167	2571.258163
782.162995	2570.592731
782.486776	2572.369738
782.810511	2571.974007
783.134201	2572.868812
783.457844	2573.002402
783.781441	2574.310582
784.104993	2574.030798
784.428498	2572.135324
784.751958	2571.898390
785.075372	2570.643142
785.398739	2572.178174
785.722061	2572.967114
786.045337	2572.445355
786.368568	2573.451065
786.691752	2573.516600
787.014891	2571.863102
787.337983	2570.580128
787.661030	2573.289748
787.984031	2576.586663
788.306987	2573.070458
788.629897	2572.785633
788.952760	2571.832855
789.275579	2571.515262
789.598351	2573.186405
789.921078	2570.655745
790.243759	2573.446024
790.566395	2571.772361
790.888984	2572.699933
791.211529	2568.601475
791.534027	2572.072310
791.856480	2570.345714
792.178888	2572.652042
792.501249	2572.145406
792.823566	2572.808318
793.145836	2571.953842
793.468062	2571.449727
793.790241	2570.917885
794.112375	2571.167423
794.434464	2573.158678
794.756507	2570.020560
795.078505	2573.065417
795.400457	2569.501321
795.722364	2567.726835
796.044226	2570.317988
796.366042	2569.534089
796.687812	2566.126269
797.009538	2571.122052
797.331218	2572.299162
797.652852	2573.561971
797.974442	2570.663307
798.295986	2571.169943
798.617484	2570.078533
798.938938	2569.692885
799.260346	2570.638101
799.581709	2571.333781
799.903026	2571.197669
800.224299	2571.520303
800.545526	2572.848647
800.866708	2570.933009
801.187845	2570.247412
801.508936	2572.495767
801.829983	2570.933009
802.150984	2569.589541
802.471940	2572.468040
802.792851	2572.420149
803.113717	2573.433421
803.434538	2569.982751
803.755314	2572.820921
804.076045	2572.760427
804.396731	2573.027608
804.717372	2572.823442
805.037967	2573.277145
805.358518	2571.800087
805.679024	2573.065417
805.999485	2571.177505
806.319901	2572.977197
806.640272	2572.793195
806.960598	2570.149109
807.280879	2570.449058
807.601115	2571.883266
807.921306	2571.096846
808.241453	2571.575756
808.561554	2571.593400
808.881611	2573.428380
809.201623	2572.256312
809.521590	2572.982238
809.841513	2570.484346
810.161390	2568.510734
810.481223	2571.043914
810.801011	2569.917216
811.120755	2571.696744
811.440453	2570.514593
811.760107	2571.137176
812.079716	2568.122566
812.399281	2566.116186
812.718801	2569.904613
813.038276	2566.867318
813.357707	2570.869994
813.677093	2571.013667
813.996434	2571.033832
814.315731	2569.100549
814.634983	2571.429562
814.954191	2568.518296
815.273354	2571.343863
815.592473	2572.594069
815.911547	2572.064748
816.230577	2571.679100
816.549562	2568.974521
816.868502	2570.706157
817.187399	2574.003072
817.506250	2570.990982
817.825058	2570.365879
818.143821	2569.970148
818.462539	2572.793195
818.781213	2571.038873
819.099843	2572.415108
819.418429	2570.456620
819.736970	2570.542319
820.055466	2572.087433
820.373919	2571.517783
820.692327	2571.482495
821.010691	2574.444173
821.329011	2572.541137
821.647286	2573.642629
821.965517	2568.543502
822.283704	2570.317988
822.601847	2571.038873
822.919945	2573.980386
823.237999	2569.851681
823.556010	2570.081054
823.873976	2569.256825
824.191897	2572.112639
824.509775	2572.097515
824.827609	2574.368555
825.145398	2569.995354
825.463144	2572.926785
825.780845	2570.375961
826.098502	2568.780436
826.416116	2571.106929
826.733685	2575.124728
827.051210	2572.243709
827.368692	2572.094995
827.686129	2570.527196
828.003522	2569.150961
828.320872	2567.842782
828.638177	2565.425548
828.955439	2565.531412
829.272656	2565.760785
829.589830	2567.467216
829.906960	2567.326063
830.224046	2572.084912
830.541088	2571.467371
830.858086	2570.736404
831.175041	2570.078533
831.491952	2569.168605
831.808819	2570.363358
832.125642	2572.132803
832.442421	2571.474933
832.759157	2569.844120
833.075849	2571.699264
833.392497	2569.728173
833.709101	2569.960066
834.025662	2569.783626
834.342179	2568.603996
834.658653	2569.733214
834.975083	2572.563822
835.291469	2571.520303
835.607811	2572.314285
835.924110	2569.854202
836.240366	2571.134655
836.556578	2570.554922
836.872746	2568.301527
837.188871	2571.212793
837.504952	2571.948801
837.820990	2569.282031
838.136984	2568.866136
838.452935	2570.060889
838.768842	2570.454099
839.084706	2571.565674
839.400526	2572.306723
839.716303	2572.773030
840.032037	2571.860581
840.347727	2571.777402
840.663373	2568.845971
840.978977	2570.721280
841.294537	2569.642473
841.610054	2570.227247
841.925527	2572.049624
842.240957	2568.954356
842.556344	2571.351425
842.871687	2573.123390
843.186987	2570.456620
843.502244	2569.380333
843.817458	2573.267063
844.132629	2571.358986
844.447756	2570.214644
844.762840	2567.028635
845.077881	2567.562998
845.392879	2567.457133
845.707833	2570.194480
846.022745	2565.128120
846.337613	2570.617937
846.652438	2568.528378
846.967221	2571.303534
847.281960	2570.736404
847.596656	2572.314285
847.911309	2570.222206
848.225919	2568.697257
848.540485	2566.844633
848.855009	2570.426373
849.169490	2569.574418
849.483928	2571.185067
849.798323	2570.620457
850.112675	2569.173646
850.426984	2569.188770
850.741251	2568.964438
851.055474	2569.702967
851.369654	2570.234809
851.683792	2569.886969
851.997887	2572.692372
852.311938	2567.983934
852.625947	2570.151630
852.939914	2570.212124
853.253837	2572.460478
853.567718	2569.357648
853.881555	2570.786815
854.195350	2570.451579
854.509103	2569.526527
854.822812	2570.975859
855.136479	2571.237999
855.450103	2569.350087
855.763685	2569.851681
856.077224	2570.983420
856.390720	2571.663976
856.704173	2570.890159
857.017584	2568.813204
857.330953	2572.168092
857.644278	2571.837896
857.957561	2572.707495
858.270802	2569.907134
858.584000	2571.427042
858.897155	2570.398647
859.210268	2570.985941
859.523339	2569.574418
859.836367	2569.854202
860.149352	2571.180025
860.462295	2570.708678
860.775195	2566.839592
861.088054	2566.343038
861.400869	2566.353121
861.713642	2565.818758
862.026373	2565.710373
862.339062	2568.987123
862.651708	2571.316137
862.964312	2567.961249
863.276873	2570.222206
863.589392	2568.301527
863.901869	2569.382854
864.214303	2567.263049
864.526696	2571.114490
864.839045	2570.779254
865.151353	2568.924109
865.463619	2570.174315
865.775842	2570.534758
866.088023	2569.894531
866.400162	2570.360838
866.712258	2570.393605
867.024313	2570.779254
867.336325	2566.713563
867.648296	2567.499983
867.960224	2569.705488
868.272110	2571.553071
868.583954	2570.834706
868.895755	2570.421332
869.207515	2572.437793
869.519233	2569.937381
869.830909	2567.139541
870.142542	2568.876218
870.454134	2569.793708
870.765684	2569.219017
871.077191	2572.601631
871.388657	2571.311095
871.700081	2571.427042
872.011463	2568.495611
872.322803	2569.433266
872.634101	2568.314129
872.945357	2568.868656
873.256571	2568.866136
873.567744	2567.898234
873.878874	2569.629871
874.189963	2569.443348
874.501010	2569.718091
874.812015	2571.573235
875.122979	2568.649366
875.433900	2568.939232
875.744780	2571.396795
876.055618	2570.779254
876.366415	2568.684654
876.677169	2570.096177
876.987882	2567.013512
877.298554	2566.171639
877.609183	2563.550239
877.919771	2566.370765
878.230317	2566.950497
878.540822	2570.479305
878.851285	2570.446538
879.161707	2569.045097
879.472087	2567.749520
879.782425	2571.588359
880.092722	2567.401681
880.402977	2569.050138
880.713191	2567.419325
881.023363	2569.236661
881.333494	2569.158523
881.643583	2569.271949
881.953631	2569.453430
882.263637	2568.152812
882.573602	2567.404201
882.883526	2569.680282
883.193408	2570.214644
883.503248	2571.663976
883.813048	2568.921588
884.122806	2566.932853
884.432522	2571.207752
884.742197	2569.100549
885.051831	2570.315467
885.361424	2568.525858
885.670975	2568.430076
885.980485	2567.426886
886.289954	2568.107442
886.599382	2566.635425
886.908768	2568.099880
887.218113	2568.382185
887.527417	2569.435786
887.836680	2569.637432
888.145901	2569.403019
888.455082	2566.610219
888.764221	2569.955025
889.073319	2567.658779
889.382376	2569.725652
889.691392	2567.736917
890.000366	2569.249263
890.309300	2569.692885
890.618193	2568.384706
890.927044	2568.674572
891.235855	2569.725653
891.544625	2569.352607
891.853353	2569.123235
892.162041	2568.488049
892.470687	2570.746486
892.779293	2569.854202
893.087858	2565.765826
893.396381	2564.152657
893.704864	2564.124931
894.013306	2566.484191
894.321707	2568.591393
894.630068	2567.550395
894.938387	2572.105077
895.246665	2567.537792
895.554903	2570.368400
895.863100	2567.555436
896.171256	2566.869839
896.479371	2571.270766
896.787446	2569.004767
897.095480	2568.188101
897.403473	2570.260015
897.711425	2567.610888
898.019336	2568.278841
898.327207	2566.733728
898.635038	2570.852350
898.942827	2567.991496
899.250576	2569.544171
899.558284	2568.800601
899.865952	2569.627350
900.173579	2568.825807
900.481165	2568.460323
900.788711	2569.287072
901.096216	2567.578121
901.403681	2568.999726
901.711105	2564.692060
902.018489	2568.089798
902.325832	2568.997206
902.633135	2567.346228
902.940397	2565.617112
903.247619	2567.116855
903.554800	2567.764644
903.861941	2566.635425
904.169041	2567.568039
904.476101	2568.677092
904.783121	2565.982596
905.090100	2567.058882
905.397039	2568.326732
905.703938	2567.641135
906.010796	2569.176167
906.317614	2568.175498
906.624391	2568.964438
906.931129	2567.321022
907.237826	2567.678944
907.544483	2569.740776
907.851099	2565.884293
908.157675	2568.740107
908.464211	2567.754561
908.770707	2563.177194
909.077163	2565.092832
909.383578	2563.212482
909.689954	2566.257339
909.996289	2563.749365
910.302584	2569.808832
910.608839	2568.911506
910.915054	2571.157340
911.221229	2568.961918
911.527363	2570.290262
911.833458	2566.718604
912.139513	2568.455282
912.445527	2568.341856
912.751502	2565.463357
913.057436	2568.770354
913.363331	2570.139027
913.669186	2569.365210
913.975000	2566.826989
914.280775	2569.118193
914.586510	2567.736917
914.892205	2568.152812
915.197859	2569.783626
915.503475	2568.286403
915.809050	2566.025446
916.114585	2568.200703
916.420081	2567.641135
916.725536	2566.393450
917.030952	2568.062072
917.336328	2568.188101
917.641665	2568.283883
917.946961	2568.498132
918.252218	2567.260528
918.557435	2565.561659
918.862612	2568.697257
919.167750	2565.365054
919.472848	2566.678275
919.777906	2567.638615
920.082925	2567.804973
920.387904	2568.906465
920.692843	2567.638615
920.997743	2568.939232
921.302603	2564.782801
921.607423	2569.052658
921.912204	2568.271280
922.216946	2564.092163
922.521647	2568.326732
922.826310	2569.970148
923.130932	2572.561302
923.435516	2567.888152
923.740059	2568.535940
924.044564	2568.394788
924.349028	2569.319840
924.653454	2562.773901
924.957840	2566.002760
925.262186	2564.046793
925.566493	2566.040569
925.870761	2565.034859
926.174989	2566.307750
926.479178	2568.412432
926.783328	2567.565518
927.087438	2567.711712
927.391509	2568.997206
927.695541	2566.431258
927.999533	2567.857905
928.303486	2568.132648
928.607400	2568.979562
928.911275	2566.688357
929.215110	2567.414283
929.518906	2566.441341
929.822663	2566.779098
930.126381	2569.430745
930.430060	2568.500652
930.733699	2566.181721
931.037299	2569.279510
931.340861	2566.723645
931.644383	2567.482339
931.947866	2568.881259
932.251309	2568.654407
932.554714	2568.760272
932.858080	2568.596434
933.161407	2566.413614
933.464694	2566.758933
933.767943	2568.152813
934.071153	2568.372103
934.374323	2567.792370
934.677455	2570.040725
934.980548	2566.469067
935.283602	2567.184911
935.586617	2564.157698
935.889593	2566.196845
936.192530	2565.949828
936.495428	2565.206258
936.798287	2567.691547
937.101108	2569.100549
937.403890	2564.190466
937.706632	2570.292782
938.009336	2567.018553
938.312002	2568.115004
938.614628	2568.362020
938.917216	2569.803790
939.219765	2565.576783
939.522275	2567.442010
939.824747	2570.244891
940.127179	2563.945970
940.429573	2563.734241
940.731929	2563.157029
941.034246	2562.852039
941.336524	2563.373799
941.638763	2566.816907
941.940964	2565.037379
942.243126	2566.748851
942.545250	2566.320353
942.847335	2566.950497
943.149381	2567.489901
943.451389	2567.583162
943.753359	2568.609037
944.055290	2566.993347
944.357182	2567.454613
944.659036	2566.350600
944.960851	2567.971331
945.262628	2567.116855
945.564367	2569.997875
945.866067	2568.480487
946.167729	2568.389747
946.469352	2567.462174
946.770937	2568.419994
947.072484	2565.455795
947.373992	2567.913358
947.675462	2566.355641
947.976893	2566.680796
948.278286	2566.799263
948.579641	2566.988306
948.880958	2567.089129
949.182236	2567.119376
949.483476	2568.233471
949.784678	2566.416135
950.085841	2566.307750
950.386967	2566.955538
950.688054	2565.843964
950.989103	2566.569890
951.290114	2566.103583
951.591087	2565.770867
951.892021	2568.704819
952.192917	2568.208265
952.493776	2567.626012
952.794596	2566.327915
953.095378	2568.951835
953.396122	2567.464695
953.696828	2566.506876
953.997496	2566.141392
954.298126	2568.087277
954.598718	2565.584345
954.899272	2562.988150
955.199788	2568.490570
955.500266	2568.498132
955.800706	2562.224416
956.101108	2564.651731
956.401472	2562.239539
956.701798	2563.421690
957.002087	2560.449929
957.302337	2564.966803
957.602550	2567.671382
957.902724	2567.106773
958.202861	2565.843964
958.502960	2565.576783
958.803022	2568.293965
959.103045	2568.069633
959.403031	2569.317319
959.702979	2567.447051
960.002889	2568.835889
960.302762	2565.072667
960.602596	2566.781619
960.902393	2567.436969
961.202153	2568.775395
961.501875	2567.648697
961.801559	2566.224571
962.101205	2566.622822
962.400814	2565.637277
962.700385	2569.937381
962.999918	2568.717422
963.299414	2568.046948
963.598873	2567.154664
963.898293	2566.587534
964.197677	2566.733728
964.497022	2570.844789
964.796331	2568.518296
965.095601	2567.593244
965.394835	2568.233471
965.694030	2564.387071
965.993189	2564.974365
966.292309	2567.731876
966.591393	2568.170457
966.890439	2568.049469
967.189447	2567.752041
967.488419	2566.136351
967.787353	2565.627194
968.086249	2567.540312
968.385108	2568.374623
968.683930	2565.337328
968.982714	2565.498645
969.281462	2565.652400
969.580172	2565.087791
969.878844	2564.626525
970.177480	2565.932184
970.476078	2565.712894
970.774639	2569.745817
971.073162	2567.021073
971.371649	2563.663665
971.670098	2561.120403
971.968510	2564.187945
972.266885	2563.101576
972.565223	2566.368244
972.863524	2565.233984
973.161788	2564.744992
973.460014	2567.323543
973.758204	2565.634756
974.056356	2567.326063
974.354471	2567.421845
974.652550	2566.027966
974.950591	2567.827658
975.248595	2567.699109
975.546563	2565.271793
975.844493	2566.496793
976.142386	2569.145920
976.440243	2566.542164
976.738062	2566.756413
977.035845	2570.408729
977.333590	2568.919068
977.631299	2565.493604
977.928971	2566.927812
978.226606	2564.061916
978.524204	2568.477967
978.821765	2564.684499
979.119290	2565.881773
979.416777	2564.064437
979.714228	2563.688871
980.011642	2565.591906
980.309020	2568.283882
980.606360	2564.853377
980.903664	2569.287072
981.200931	2564.732390
981.498162	2563.116700
981.795356	2566.340518
982.092513	2563.472101
982.389633	2568.447720
982.686717	2567.187432
982.983764	2566.476629
983.280775	2568.888821
983.577749	2565.949828
983.874686	2569.937381
984.171587	2563.872873
984.468451	2566.539643
984.765279	2566.837071
985.062070	2567.777247
985.358824	2567.560477
985.655543	2566.153995
985.952224	2563.157029
986.248869	2566.186762
986.545478	2560.752399
986.842050	2564.268603
987.138586	2564.500497
987.435086	2562.110990
987.731549	2562.068140
988.027975	2563.973696
988.324366	2565.022256
988.620719	2566.824468
988.917037	2566.393450
989.213318	2565.075188
989.509563	2568.220868
989.805772	2564.755075
990.101944	2565.087791
990.398080	2564.755075
990.694180	2566.622822
990.990244	2563.814900
991.286271	2563.144426
991.582262	2565.309602
991.878217	2566.015363
992.174136	2566.211968
992.470019	2563.479663
992.765865	2565.410425
993.061676	2566.282544
993.357450	2564.946639
993.653188	2563.565362
993.948890	2566.242215
994.244556	2566.650549
994.540186	2567.079047
994.835780	2565.450754
995.131337	2563.484704
995.426859	2565.861608
995.722345	2562.506720
996.017795	2566.043090
996.313208	2563.920764
996.608586	2565.687688
996.903928	2566.317832
997.199234	2566.973182
997.494504	2565.526371
997.789738	2567.310940
998.084936	2564.800445
998.380099	2566.579973
998.675225	2564.008984
998.970316	2566.022925
999.265371	2567.177349
999.560390	2564.515620
999.855373	2567.741958
1000.150320	2566.239695
1000.445232	2565.796073
1000.740108	2566.738769
1001.034948	2564.979406
1001.329752	2567.459654
1001.624521	2563.613253
1001.919254	2561.009498
1002.213951	2561.067471
1002.508613	2562.305074
1002.803239	2562.448747
1003.097829	2562.272307
1003.392384	2565.894376
1003.686903	2564.669375
1003.981386	2564.243398
1004.275834	2565.957390
1004.570246	2567.641135
1004.864623	2562.388253
1005.158964	2570.106260
1005.453270	2565.042421
1005.747540	2564.099725
1006.041775	2565.793552
1006.335974	2564.021587
1006.630138	2564.853377
1006.924266	2565.937225
1007.218359	2565.251628
1007.512416	2565.831361
1007.806438	2566.133830
1008.100425	2567.096691
1008.394376	2563.560321
1008.688292	2566.219530
1008.982172	2567.210117
1009.276017	2566.428738
1009.569827	2564.233315
1009.863602	2564.918912
1010.157341	2565.153326
1010.451045	2564.540826
1010.744714	2562.768860
1011.038347	2567.043759
1011.331945	2565.039900
1011.625508	2565.145764
1011.919036	2564.462688
1012.212528	2563.721638
1012.505986	2565.168449
1012.799408	2565.637277
1013.092795	2565.702812
1013.386147	2565.788511
1013.679464	2563.940928
1013.972745	2568.165415
1014.265992	2565.327246
1014.559204	2566.587534
1014.852380	2567.512586
1015.145521	2564.566032
1015.438628	2564.256001
1015.731699	2566.985785
1016.024736	2563.073850
1016.317737	2566.610219
1016.610703	2566.441341
1016.903635	2561.143088
1017.196531	2562.496638
1017.489393	2560.971689
1017.782219	2559.923129
1018.075011	2562.738613
1018.367768	2565.029818
1018.660490	2565.198696
1018.953177	2565.198696
1019.245829	2565.198696
