Dividing Wavelength (nm)	Counts (n)	Blue Motor Position (mm): 0.000000	Red Motor Position (mm): 9.200000	
326.493990	2129.680813
326.888308	2129.680813
327.282561	2129.680813
327.676750	2096.809969
328.070874	2093.427355
328.464933	2098.960021
328.858929	2106.279777
329.252859	2113.067690
329.646726	2127.308950
330.040528	2138.797739
330.434265	2154.717703
330.827938	2173.551454
331.221547	2189.912519
331.615091	2209.005889
332.008571	2230.642521
332.401986	2250.383680
332.795338	2268.433531
333.188625	2285.535646
333.581847	2305.496094
333.975006	2324.914619
334.368100	2343.196363
334.761129	2361.488190
335.154095	2377.458565
335.546996	2394.633777
335.939833	2409.142217
336.332606	2423.194434
336.725315	2433.773295
337.117960	2448.369956
337.510540	2454.958744
337.903056	2465.290589
338.295508	2471.307206
338.687896	2482.906901
339.080220	2487.143991
339.472480	2497.916937
339.864676	2497.924498
340.256807	2505.040087
340.648875	2508.200890
341.040879	2510.093844
341.432818	2512.347239
341.824694	2514.371263
342.216506	2511.258350
342.608253	2516.055008
342.999937	2512.778258
343.391557	2514.209946
343.783113	2510.837414
344.174605	2509.176354
344.566033	2508.694923
344.957397	2506.282731
345.348697	2506.769203
345.739934	2505.219048
346.131106	2503.381547
346.522215	2501.874242
346.913260	2498.794097
347.304241	2500.079592
347.695159	2496.676813
348.086012	2496.906185
348.476802	2493.213540
348.867528	2492.467449
349.258191	2487.295225
349.648789	2491.272696
350.039324	2485.346819
350.429796	2488.570637
350.820203	2486.670122
351.210548	2484.550317
351.600828	2482.884216
351.991045	2484.923363
352.381198	2485.268682
352.771288	2481.681901
353.161314	2481.351705
353.551276	2480.154431
353.941175	2481.364308
354.331010	2479.902373
354.720782	2479.206694
355.110490	2482.455718
355.500135	2483.411016
355.889717	2481.119812
356.279235	2483.005203
356.668689	2481.243320
357.058080	2480.882878
357.447408	2481.160141
357.836672	2480.865234
358.225873	2479.587301
358.615010	2482.019658
359.004084	2484.794813
359.393095	2485.142653
359.782043	2484.194916
360.170927	2482.853969
360.559748	2485.911429
360.948505	2486.692807
361.337199	2485.850935
361.725830	2487.998466
362.114398	2491.103817
362.502903	2489.357057
362.891344	2489.127685
363.279722	2488.883189
363.668037	2490.216574
364.056289	2489.049547
364.444478	2490.997953
364.832603	2488.610967
365.220665	2491.524753
365.608665	2492.195227
365.996601	2491.534836
366.384474	2494.564569
366.772284	2497.674961
367.160031	2496.548263
367.547715	2499.245281
367.935336	2500.558501
368.322893	2504.357011
368.710388	2507.419512
369.097820	2514.726664
369.485189	2514.167096
369.872495	2521.169259
370.259738	2525.789476
370.646918	2535.302133
371.034035	2540.522248
371.421090	2555.486913
371.808081	2564.281206
372.195010	2571.595921
372.581875	2584.506316
372.968678	2599.090374
373.355418	2605.906014
373.742096	2622.362860
374.128710	2639.263329
374.515262	2656.289826
374.901751	2671.584687
375.288177	2682.186233
375.674540	2706.154399
376.060841	2721.988663
376.447079	2740.850140
376.833254	2760.838315
377.219367	2771.502876
377.605417	2808.172229
377.991404	2813.311686
378.377329	2829.950014
378.763191	2842.915862
379.148991	2874.019781
379.534727	2891.691546
379.920402	2914.573343
380.306013	2915.059814
380.691563	2954.408541
381.077049	2966.212403
381.462474	2971.639205
381.847835	2995.680467
382.233134	3003.083402
382.618371	2990.256186
383.003545	3032.846374
383.388657	3025.907226
383.773706	3036.067671
384.158693	3032.337217
384.543618	3037.292672
384.928480	3045.396327
385.313280	3059.146074
385.698017	3041.469268
386.082692	3056.716238
386.467305	3035.334183
386.851856	3037.184287
387.236344	3029.698173
387.620770	3022.179293
388.005133	3013.236286
388.389435	3007.186901
388.773674	2984.206801
389.157851	2978.878302
389.541965	2960.561269
389.926018	2924.839653
390.310008	2928.673450
390.693936	2912.894639
391.077802	2899.943915
391.461606	2870.107846
391.845348	2867.632639
392.229027	2843.772858
392.612645	2823.983808
392.996200	2820.190340
393.379694	2809.755152
393.763125	2798.228553
394.146494	2767.853081
394.529801	2758.995774
394.913047	2742.526324
395.296230	2722.167624
395.679351	2710.298228
396.062410	2691.015814
396.445408	2674.440500
396.828343	2660.380722
397.211217	2643.734832
397.594028	2624.643983
397.976778	2614.221397
398.359466	2607.226796
398.742092	2592.851946
399.124656	2582.701582
399.507158	2578.396437
399.889598	2571.898390
400.271977	2564.997050
400.654294	2559.028324
401.036549	2549.107333
401.418742	2544.260264
401.800874	2542.410160
402.182944	2538.457896
402.564952	2535.740714
402.946898	2533.023532
403.328783	2529.300640
403.710606	2529.088911
404.092367	2528.405835
404.474067	2527.523633
404.855705	2523.523477
405.237282	2526.344003
405.618797	2520.697911
406.000250	2522.250586
406.381642	2521.275123
406.762972	2520.677746
407.144240	2522.303518
407.525447	2519.863600
407.906593	2520.274454
408.287677	2521.053312
408.668700	2518.121881
409.049661	2518.494927
409.430560	2519.730009
409.811399	2522.333765
410.192176	2520.786131
410.572891	2522.243024
410.953545	2520.526512
411.334138	2519.730009
411.714669	2520.861748
412.095139	2520.675226
412.475547	2521.287726
412.855894	2523.014321
413.236180	2517.431243
413.616405	2520.859228
413.996568	2519.583816
414.376670	2522.691687
414.756711	2518.593229
415.136691	2520.521470
415.516609	2518.179854
415.896466	2521.403672
416.276262	2521.771677
416.655997	2520.047602
417.035670	2519.994670
417.415283	2517.658095
417.794834	2515.815553
418.174324	2518.018537
418.553753	2520.211439
418.933121	2525.202182
419.312428	2521.290246
419.691674	2523.735206
420.070859	2521.832170
420.449983	2522.772346
420.829045	2523.016842
421.208047	2521.176820
421.586988	2524.239321
421.965867	2525.350896
422.344686	2523.417613
422.723444	2525.323169
423.102141	2524.390556
423.480777	2523.218488
423.859352	2526.142357
424.237866	2523.876358
424.616319	2524.181348
424.994712	2525.791997
425.373044	2525.222346
425.751314	2524.781245
426.129524	2528.040351
426.507673	2525.194620
426.885762	2523.145391
427.263789	2524.685463
427.641756	2526.495238
428.019662	2527.014477
428.397508	2526.517923
428.775292	2523.631862
429.153016	2523.856194
429.530679	2530.301309
429.908282	2525.189579
430.285824	2526.091945
430.663305	2524.657737
431.040726	2526.747295
431.418086	2525.454239
431.795385	2526.235618
432.172624	2525.665968
432.549802	2525.285361
432.926920	2530.472708
433.303977	2526.492717
433.680974	2527.654703
434.057910	2529.812317
434.434786	2526.923736
434.811601	2527.132944
435.188355	2527.662265
435.565050	2526.785104
435.941683	2529.761905
436.318257	2526.583458
436.694770	2522.253107
437.071222	2525.159332
437.447614	2523.710000
437.823946	2523.815864
438.200218	2527.468180
438.576429	2526.764939
438.952580	2531.538912
439.328670	2528.078160
439.704700	2526.754857
440.080670	2529.484642
440.456580	2528.443644
440.832429	2528.872142
441.208218	2530.560928
441.583947	2526.777542
441.959616	2530.437420
442.335224	2530.271062
442.710773	2528.554549
443.086261	2530.223171
443.461689	2530.621422
443.837057	2529.517409
444.212365	2531.352389
444.587612	2529.782070
444.962800	2529.570342
445.337927	2529.015815
445.712995	2528.667975
446.088002	2531.788449
446.462949	2530.618902
446.837837	2529.882893
447.212664	2532.030425
447.587431	2529.716535
447.962139	2533.497400
448.336786	2536.146527
448.711374	2534.729963
449.085901	2530.755013
449.460369	2531.564118
449.834776	2530.011442
450.209124	2532.078316
450.583412	2529.698891
450.957640	2532.330373
451.331808	2532.214427
451.705917	2531.548994
452.079965	2531.354910
452.453954	2535.367668
452.827883	2533.499921
453.201752	2531.130579
453.575562	2533.605785
453.949311	2533.346166
454.323001	2533.386495
454.696632	2530.533202
455.070202	2533.104190
455.443713	2531.964890
455.817164	2529.847605
456.190556	2530.381967
456.563888	2530.510517
456.937160	2527.833664
457.310373	2533.078985
457.683526	2533.981351
458.056619	2534.485467
458.429653	2532.209386
458.802628	2535.594520
459.175542	2532.070754
459.548398	2534.520755
459.921194	2535.347504
460.293930	2533.872966
460.666607	2531.574200
461.039224	2535.569315
461.411782	2535.965045
461.784280	2537.270704
462.156719	2536.201979
462.529099	2538.001671
462.901419	2534.296423
463.273680	2535.730632
463.645882	2535.125693
464.018024	2534.616537
464.390106	2536.491846
464.762130	2537.321116
465.134094	2533.071423
465.505999	2538.160468
465.877845	2539.972763
466.249631	2539.609799
466.621358	2542.205994
466.993026	2541.568288
467.364634	2544.850079
467.736184	2542.957126
468.107674	2537.026208
468.479105	2540.466796
468.850477	2536.171732
469.221790	2540.237423
469.593043	2538.624254
469.964238	2538.442772
470.335373	2537.653832
470.706449	2535.826413
471.077467	2538.483102
471.448425	2541.636343
471.819324	2540.436549
472.190164	2542.765562
472.560945	2540.272711
472.931667	2537.321116
473.302330	2538.793132
473.672934	2537.132072
474.043479	2538.533513
474.413965	2536.779192
474.784393	2536.514531
475.154761	2536.988399
475.525070	2534.397246
475.895321	2534.430014
476.265513	2532.469005
476.635645	2539.095602
477.005719	2537.701723
477.375734	2538.493184
477.745691	2537.094264
478.115588	2540.587783
478.485427	2538.934285
478.855207	2539.934954
479.224928	2540.272711
479.594591	2539.909748
479.964194	2541.172557
480.333739	2540.038298
480.703226	2541.837989
481.072653	2541.049049
481.442022	2541.477547
481.811333	2542.087527
482.180584	2540.658359
482.549777	2543.622558
482.918912	2540.945705
483.287988	2541.212886
483.657005	2542.397558
484.025964	2541.792619
484.394864	2541.343956
484.763706	2544.436704
485.132489	2542.778165
485.501213	2542.828576
485.869879	2541.583411
486.238487	2541.520397
486.607036	2541.626261
486.975527	2541.293545
487.343959	2540.854964
487.712333	2541.117104
488.080648	2541.807743
488.448905	2542.836138
488.817104	2542.024512
489.185244	2543.824204
489.553326	2540.703730
489.921350	2542.972249
490.289315	2542.609286
490.657222	2544.403937
491.025070	2546.753114
491.392861	2543.115922
491.760593	2544.275387
492.128267	2545.530635
492.495883	2541.366642
492.863440	2542.236241
493.230939	2543.486447
493.598380	2541.646426
493.965763	2539.330015
494.333088	2541.953936
494.700354	2539.715664
495.067563	2542.669780
495.434713	2538.462937
495.801805	2543.206663
496.168839	2544.224976
496.535815	2543.322609
496.902733	2540.373534
497.269593	2541.805222
497.636395	2544.759338
498.003139	2541.376724
498.369825	2541.038967
498.736453	2542.647095
499.103023	2542.727753
499.469535	2541.071734
499.835989	2545.205480
500.202385	2544.751776
500.568723	2540.933102
500.935003	2542.694986
501.301226	2542.326981
501.667390	2543.138607
502.033497	2542.236241
502.399546	2544.552651
502.765537	2543.892260
503.131470	2542.826056
503.497345	2542.982331
503.863163	2543.012578
504.228923	2544.535007
504.594625	2543.055428
504.960269	2545.283618
505.325856	2541.260777
505.691385	2545.328988
506.056856	2544.013247
506.422270	2544.174564
506.787625	2543.105840
507.152924	2544.093906
507.518164	2543.869574
507.883347	2543.531817
508.248472	2542.478216
508.613540	2545.402085
508.978550	2541.795140
509.343503	2542.581560
509.708398	2543.960315
510.073236	2545.147507
510.438016	2543.738504
510.802738	2543.678011
511.167403	2544.240099
511.532010	2542.659697
511.896561	2546.551468
512.261053	2547.078269
512.625488	2540.628112
512.989866	2541.928730
513.354186	2541.601055
513.718449	2544.078782
514.082655	2541.487629
514.446803	2544.477033
514.810894	2544.436704
515.174927	2546.962322
515.538904	2544.580377
515.902822	2542.528627
516.266684	2545.049204
516.630488	2545.696993
516.994235	2546.748073
517.357925	2545.220604
517.721558	2545.717157
518.085133	2544.955943
518.448651	2545.623896
518.812112	2546.841335
519.175516	2545.414688
519.538863	2545.757487
519.902152	2545.752445
520.265385	2545.011396
520.628560	2546.604400
520.991678	2545.460058
521.354739	2546.853938
521.717743	2544.822352
522.080690	2546.233876
522.443580	2544.872764
522.806413	2545.172713
523.169189	2546.881664
523.531908	2547.408464
523.894569	2544.136756
524.257174	2545.381921
524.619722	2544.570295
524.982213	2547.259750
525.344647	2543.746066
525.707025	2546.251520
526.069345	2545.361756
526.431608	2544.235058
526.793815	2545.071890
527.155964	2543.695655
527.518057	2545.573484
527.880093	2548.152035
528.242072	2545.248330
528.603995	2548.787220
528.965860	2545.046684
529.327669	2543.214224
529.689421	2543.723381
530.051117	2548.083979
530.412755	2544.804708
530.774337	2543.798998
531.135862	2545.200439
531.497331	2541.417053
531.858743	2540.975952
532.220098	2543.355377
532.581396	2540.721374
532.942638	2544.247661
533.303824	2542.831097
533.664953	2545.049204
534.026025	2544.333361
534.387040	2544.703885
534.747999	2545.036602
535.108902	2545.255892
535.469748	2544.570295
535.830537	2545.475182
536.191270	2546.604400
536.551947	2545.966694
536.912567	2546.054915
537.273131	2548.149514
537.633638	2545.618855
537.994089	2547.847045
538.354483	2545.200439
538.714821	2547.174051
539.075103	2548.202446
539.435328	2546.760676
539.795497	2546.528783
540.155609	2547.557178
540.515665	2546.347302
540.875665	2547.950388
541.235609	2545.918803
541.595496	2546.743032
541.955328	2546.700182
542.315102	2546.077600
542.674821	2547.968033
543.034483	2547.627755
543.394090	2547.035419
543.753640	2546.508618
544.113134	2548.048691
544.472571	2546.054915
544.831953	2545.949050
545.191278	2546.128011
545.550548	2547.143804
545.909761	2545.926365
546.268918	2546.921993
546.628019	2549.671942
546.987064	2545.417209
547.346053	2546.243958
547.704986	2547.950388
548.063863	2546.488454
548.422684	2545.384441
548.781449	2544.507280
549.140158	2548.998948
549.498811	2546.768238
549.857408	2547.446273
550.215949	2545.674308
550.574434	2543.146169
550.932864	2543.272198
551.291237	2542.238761
551.649555	2545.835624
552.007817	2546.939637
552.366022	2547.105995
552.724173	2545.409647
553.082267	2546.463248
553.440305	2548.746891
553.798288	2547.131201
554.156215	2547.736139
554.514086	2546.748073
554.871902	2547.617672
555.229661	2546.248999
555.587365	2543.551982
555.945014	2548.003321
556.302606	2547.307641
556.660143	2547.264792
557.017625	2546.392672
557.375050	2546.869061
557.732421	2546.281767
558.089735	2547.665563
558.446994	2547.705893
558.804197	2546.135573
559.161345	2548.507436
559.518437	2544.827394
559.875474	2545.901159
560.232455	2545.749925
560.589381	2545.346632
560.946251	2548.673794
561.303065	2547.600028
561.659825	2547.589946
562.016528	2546.702703
562.373177	2547.105995
562.729770	2548.819987
563.086307	2550.723023
563.442789	2546.574153
563.799216	2545.860830
564.155587	2546.342260
564.511904	2547.020296
564.868164	2548.018444
565.224370	2547.748742
565.580520	2546.357384
565.936615	2544.998793
566.292654	2547.925183
566.648638	2545.475182
567.004567	2548.373845
567.360441	2549.039278
567.716260	2547.620193
568.072023	2547.905018
568.427732	2541.548123
568.783385	2544.764379
569.138982	2543.171375
569.494525	2543.030222
569.850013	2541.981662
570.205445	2548.857796
570.560823	2546.755635
570.916145	2549.424926
571.271412	2548.094061
571.626625	2547.587425
571.981782	2545.132383
572.336884	2546.924514
572.691931	2546.932075
573.046923	2545.031560
573.401860	2548.310831
573.756743	2547.360573
574.111570	2547.461397
574.466342	2546.382590
574.821059	2546.294369
575.175722	2544.613145
575.530330	2547.040460
575.884882	2547.960471
576.239380	2547.002652
576.593823	2549.621531
576.948211	2545.127342
577.302544	2547.673125
577.656823	2545.197918
578.011047	2547.915100
578.365216	2545.389482
578.719330	2548.008362
579.073389	2548.028526
579.427394	2547.405944
579.781344	2547.620193
580.135239	2545.717157
580.489080	2546.044832
580.842866	2546.674977
581.196597	2549.215718
581.550273	2547.395862
581.903895	2548.212528
582.257463	2546.375028
582.610975	2547.700851
582.964434	2548.136911
583.317837	2545.765048
583.671186	2544.716488
584.024481	2545.444935
584.377721	2547.446273
584.730906	2545.465100
585.084037	2548.711603
585.437113	2544.146838
585.790135	2548.358722
586.143103	2546.881664
586.496016	2547.358053
586.848874	2543.970397
587.201679	2540.086188
587.554428	2543.862013
587.907124	2544.136756
588.259765	2541.044008
588.612352	2545.210521
588.964884	2544.255223
589.317362	2546.775800
589.669786	2549.578681
590.022155	2547.292518
590.374470	2548.482230
590.726731	2546.080120
591.078937	2547.103475
591.431090	2548.883002
591.783188	2548.358722
592.135232	2546.667415
592.487222	2547.116078
592.839157	2546.357384
593.191038	2545.205480
593.542866	2545.586087
593.894639	2545.172713
594.246358	2548.101623
594.598022	2545.336550
594.949633	2545.938968
595.301190	2544.519883
595.652692	2549.251006
596.004141	2544.708927
596.355535	2545.941489
596.706876	2545.956612
597.058162	2547.042981
597.409395	2542.977290
597.760573	2547.161448
598.111698	2543.889739
598.462768	2546.392672
598.813785	2547.332847
599.164748	2544.887887
599.515657	2547.083310
599.866511	2543.985521
600.217312	2546.138094
600.568060	2544.663556
600.918753	2548.383928
601.269392	2544.565254
601.619978	2544.038453
601.970510	2545.901159
602.320988	2545.432332
602.671412	2545.243289
603.021783	2543.390665
603.372100	2547.005172
603.722363	2545.702034
604.072572	2543.549461
604.422728	2546.107847
604.772830	2541.497712
605.122878	2540.464275
605.472872	2545.717157
605.822813	2536.953111
606.172701	2545.155069
606.522534	2543.801519
606.872314	2546.306972
607.222041	2546.165820
607.571714	2548.716644
607.921333	2542.142979
608.270899	2545.510470
608.620411	2547.620193
608.969870	2545.631458
609.319276	2550.183620
609.668627	2549.883671
610.017926	2552.310987
610.367171	2552.885678
610.716362	2554.912222
611.065500	2552.053888
611.414585	2553.016748
611.763616	2548.890564
612.112594	2545.933927
612.461518	2549.981973
612.810389	2548.288146
613.159207	2548.653629
613.507971	2544.282949
613.856682	2549.303938
614.205340	2545.076931
614.553945	2548.729247
614.902496	2544.822352
615.250994	2545.323947
615.599439	2544.088865
615.947830	2545.399565
616.296169	2545.674307
616.644454	2545.349153
616.992686	2544.628268
617.340864	2543.423432
617.688990	2545.288659
618.037063	2546.538865
618.385082	2544.393854
618.733048	2547.365615
619.080961	2545.071890
619.428821	2545.805377
619.776628	2545.339071
620.124382	2545.858310
620.472083	2545.346632
620.819731	2545.891077
621.167326	2544.938299
621.514868	2544.419060
621.862357	2542.205994
622.209793	2544.779503
622.557176	2547.244627
622.904506	2542.193391
623.251783	2539.614841
623.599007	2542.039636
623.946179	2541.701878
624.293297	2544.038453
624.640363	2543.307486
624.987376	2545.906201
625.334336	2543.347815
625.681243	2543.257074
626.028097	2544.207332
626.374899	2544.003165
626.721647	2546.725388
627.068343	2542.344625
627.414987	2543.957795
627.761577	2543.862013
628.108115	2545.122301
628.454600	2543.451159
628.801032	2544.489636
629.147412	2545.394523
629.493739	2544.048535
629.840014	2545.623896
630.186236	2541.923689
630.532405	2544.691282
630.878521	2542.826056
631.224585	2543.793957
631.570597	2544.792106
631.916556	2543.914945
632.262462	2540.940664
632.608316	2543.821683
632.954117	2542.823535
633.299866	2544.507280
633.645562	2540.126518
633.991206	2545.308824
634.336797	2544.996272
634.682336	2545.245809
635.027823	2543.342774
635.373257	2542.732794
635.718639	2541.689275
636.063968	2542.710109
636.409245	2542.049718
636.754470	2543.231868
637.099642	2541.530479
637.444762	2545.313865
637.789829	2543.526776
638.134845	2544.419060
638.479808	2540.761703
638.824719	2541.180119
639.169577	2542.989893
639.514383	2542.294214
639.859137	2541.427135
640.203839	2542.508463
640.548489	2541.560726
640.893086	2539.554347
641.237632	2538.059645
641.582125	2539.042670
641.926566	2538.165509
642.270955	2540.960829
642.615292	2542.747918
642.959576	2543.317568
643.303809	2543.143648
643.647990	2541.434697
643.992118	2540.668442
644.336195	2542.949564
644.680219	2542.541230
645.024192	2542.553833
645.368112	2543.289842
645.711981	2541.870757
646.055797	2544.164482
646.399562	2540.340767
646.743274	2543.052908
647.086935	2545.908721
647.430544	2540.272711
647.774101	2540.391178
648.117606	2542.805891
648.461059	2542.765562
648.804460	2546.490974
649.147810	2539.463606
649.491108	2542.447969
649.834354	2542.266488
650.177548	2541.049049
650.520690	2540.161806
650.863781	2541.003678
651.206820	2546.148176
651.549807	2540.764224
651.892742	2541.187681
652.235626	2540.991076
652.578458	2542.783206
652.921238	2538.808256
653.263967	2542.687424
653.606644	2539.695499
653.949269	2541.401930
654.291843	2538.621733
654.634365	2541.427135
654.976836	2538.888914
655.319255	2538.639377
655.661622	2542.412681
656.003938	2539.761034
656.346203	2542.652136
656.688416	2540.665921
657.030577	2540.897814
657.372687	2540.590304
657.714746	2540.396219
658.056753	2537.900848
658.398708	2535.506300
658.740612	2537.280786
659.082465	2537.643749
659.424266	2538.793132
659.766016	2535.302133
660.107715	2540.386137
660.449362	2541.568288
660.790958	2542.301776
661.132503	2538.374717
661.473996	2541.429656
661.815438	2541.641384
662.156829	2542.705068
662.498168	2542.417722
662.839456	2542.241282
663.180693	2539.831610
663.521879	2541.769934
663.863013	2541.522917
664.204097	2541.298586
664.545129	2541.434697
664.886110	2540.141641
665.227040	2539.438400
665.567918	2541.908566
665.908746	2539.761034
666.249522	2541.139790
666.590248	2543.277239
666.930922	2540.726415
667.271545	2541.984183
667.612118	2541.270860
667.952639	2542.624409
668.293109	2538.838503
668.633528	2541.754810
668.973896	2541.560726
669.314213	2540.071065
669.654480	2540.827238
669.994695	2540.776827
670.334859	2540.040818
670.674973	2538.004192
671.015035	2542.236241
671.355047	2543.224307
671.695008	2537.142155
672.034918	2542.190870
672.374777	2540.212217
672.714585	2544.391334
673.054342	2540.514687
673.394049	2542.160623
673.733705	2543.521735
674.073310	2541.676673
674.412864	2537.951260
674.752368	2537.895807
675.091820	2540.116435
675.431223	2540.794471
675.770574	2541.114584
676.109875	2536.854809
676.449125	2538.432690
676.788324	2539.453524
677.127473	2538.810777
677.466571	2535.707946
677.805619	2540.126518
678.144616	2539.491332
678.483562	2542.684903
678.822458	2538.934285
679.161303	2542.591642
679.500098	2538.861188
679.838842	2539.398071
680.177535	2535.715508
680.516179	2541.969059
680.854771	2539.110725
681.193314	2540.623071
681.531805	2539.932433
681.870247	2542.984852
682.208638	2538.714995
682.546978	2541.001158
682.885268	2543.156251
683.223508	2540.502084
683.561697	2538.614172
683.899836	2539.438400
684.237925	2536.751465
684.575963	2542.384955
684.913951	2540.875129
685.251889	2542.049718
685.589776	2540.408822
685.927614	2537.308513
686.265401	2539.458565
686.603137	2540.912938
686.940824	2540.577701
687.278460	2541.432177
687.616046	2539.516538
687.953582	2540.945705
688.291068	2540.252547
688.628504	2543.078113
688.965889	2540.413863
689.303224	2539.448483
689.640510	2542.387475
689.977745	2541.008720
690.314930	2542.833617
690.652065	2540.849923
690.989150	2539.423277
691.326185	2539.181301
691.663170	2538.588966
692.000105	2540.555016
692.336990	2539.466127
692.673825	2540.202135
693.010610	2537.152237
693.347345	2536.801877
693.684030	2534.374561
694.020665	2538.160468
694.357251	2533.651156
694.693786	2537.880684
695.030272	2538.377237
695.366707	2540.479398
695.703093	2539.370345
696.039429	2539.443441
696.375716	2538.399922
696.711952	2538.082330
697.048139	2537.439583
697.384276	2538.346990
697.720363	2537.754655
698.056400	2539.551826
698.392388	2537.759696
698.728326	2539.443441
699.064214	2536.690971
699.400053	2539.181301
699.735842	2537.300951
700.071581	2540.726415
700.407270	2537.863040
700.742910	2536.716177
701.078501	2538.352032
701.414042	2537.540406
701.749533	2538.568801
702.084974	2536.771630
702.420366	2538.553678
702.755709	2539.035108
703.091002	2538.188194
703.426246	2540.446631
703.761440	2539.942516
704.096584	2537.583256
704.431679	2538.062165
704.766725	2539.151054
705.101721	2539.642567
705.436668	2537.797505
705.771565	2534.336752
706.106413	2538.911600
706.441212	2537.396733
706.775961	2537.817669
707.110661	2539.783719
707.445311	2537.905889
707.779913	2539.755993
708.114465	2538.341949
708.448967	2536.859850
708.783421	2538.150385
709.117825	2539.574511
709.452180	2540.068544
709.786485	2536.401105
710.120742	2539.715664
710.454949	2539.098122
710.789107	2536.696013
711.123216	2536.683410
711.457275	2537.984027
711.791286	2537.424459
712.125247	2537.757175
712.459159	2537.855478
712.793023	2537.800025
713.126837	2537.953780
713.460602	2537.182484
713.794318	2538.974614
714.127985	2538.475540
714.461602	2540.343287
714.795171	2540.076106
715.128691	2538.546116
715.462162	2541.946374
715.795584	2534.104859
716.128957	2537.638708
716.462281	2535.481094
716.795556	2539.080478
717.128782	2539.128369
717.461960	2536.940508
717.795088	2537.532844
718.128167	2538.072248
718.461198	2539.816487
718.794180	2538.256250
719.127113	2538.379758
719.459997	2538.765406
719.792833	2539.070396
720.125619	2538.420087
720.458357	2534.127545
720.791046	2537.432021
721.123686	2539.960160
721.456278	2538.440252
721.788821	2536.920344
722.121315	2539.725746
722.453761	2534.888759
722.786158	2536.209541
723.118506	2534.830786
723.450805	2537.343801
723.783056	2535.864222
724.115259	2538.094933
724.447412	2537.487474
724.779518	2537.704243
725.111574	2537.646270
725.443582	2537.563091
725.775542	2540.184491
726.107453	2538.551157
726.439315	2534.883718
726.771129	2543.793957
727.102895	2539.478729
727.434612	2540.076106
727.766281	2535.730632
728.097901	2537.167360
728.429473	2535.460930
728.760996	2535.607123
729.092471	2534.150230
729.423897	2536.368338
729.755276	2536.917823
730.086606	2534.228368
730.417887	2538.367155
730.749120	2535.292051
731.080305	2538.833462
731.411442	2537.830272
731.742530	2535.536547
732.073570	2540.071065
732.404562	2537.535365
732.735506	2536.305323
733.066401	2535.271887
733.397249	2537.991589
733.728048	2537.502597
734.058798	2535.952442
734.389501	2539.385468
734.720156	2540.549975
735.050762	2538.515869
735.381320	2538.248688
735.711831	2536.822041
736.042293	2538.919161
736.372707	2539.105684
736.703073	2537.752134
737.033391	2537.555529
737.363661	2537.457227
737.693883	2536.751465
738.024056	2540.048380
738.354182	2536.549819
738.684260	2538.173071
739.014290	2538.455375
739.344272	2536.917823
739.674207	2534.145189
740.004093	2540.476878
740.333931	2536.990920
740.663722	2537.174922
740.993464	2535.536547
741.323159	2536.350693
741.652806	2539.196425
741.982405	2539.503935
742.311956	2537.653832
742.641460	2539.947557
742.970915	2535.052596
743.300323	2539.274563
743.629683	2535.649973
743.958996	2538.944367
744.288260	2533.293234
744.617477	2538.745242
744.946647	2532.567308
745.275768	2534.180477
745.604842	2533.971269
745.933869	2533.855322
746.262847	2534.671989
746.591778	2536.133924
746.920662	2535.584438
747.249498	2539.299768
747.578286	2535.607123
747.907027	2536.834644
748.235720	2535.045035
748.564365	2537.111908
748.892963	2538.362114
749.221514	2535.806249
749.550017	2538.924202
749.878473	2537.379089
750.206881	2536.945550
750.535242	2536.842206
750.863555	2537.129552
751.191821	2537.777340
751.520039	2534.195600
751.848210	2535.992772
752.176334	2535.236598
752.504411	2537.343801
752.832440	2536.890097
753.160421	2536.353214
753.488356	2536.050745
753.816243	2535.463450
754.144082	2535.912113
754.471875	2535.680220
754.799620	2535.823893
755.127318	2536.522093
755.454969	2535.821372
755.782572	2537.921013
756.110129	2537.449665
756.437638	2537.207690
756.765100	2534.150230
757.092515	2537.101825
757.419882	2535.554191
757.747203	2536.028060
758.074477	2533.575538
758.401703	2538.896476
758.728882	2536.900179
759.056014	2537.250539
759.383099	2537.001002
759.710138	2534.251053
760.037129	2538.931764
760.364073	2535.728111
760.690970	2537.880684
761.017820	2535.977648
761.344623	2537.109387
761.671379	2536.459078
761.998088	2530.878521
762.324751	2536.723739
762.651366	2534.727442
762.977935	2538.382278
763.304456	2535.413039
763.630931	2539.551826
763.957359	2538.417567
764.283740	2536.486805
764.610074	2537.374048
764.936362	2535.934798
765.262602	2536.711136
765.588796	2534.974458
765.914943	2536.194418
766.241044	2535.629808
766.567097	2534.455220
766.893104	2535.491177
767.219064	2535.108049
767.544978	2537.921013
767.870845	2536.310364
768.196665	2537.716846
768.522438	2535.902031
768.848165	2537.963863
769.173846	2536.040662
769.499479	2533.555374
769.825066	2535.657535
770.150607	2535.808769
770.476101	2534.430014
770.801548	2535.992772
771.126949	2536.259953
771.452303	2534.268697
771.777611	2535.302133
772.102872	2537.023687
772.428087	2535.632329
772.753256	2534.046886
773.078378	2537.008564
773.403453	2535.803728
773.728482	2533.225178
774.053465	2534.608975
774.378401	2532.738707
774.703291	2537.628626
775.028135	2534.669469
775.352932	2539.201466
775.677683	2535.944881
776.002388	2536.905220
776.327046	2534.281300
776.651658	2535.748276
776.976224	2535.985210
777.300743	2532.237112
777.625216	2535.254242
777.949643	2533.923378
778.274024	2537.230375
778.598359	2532.272400
778.922647	2531.435568
779.246889	2531.009591
779.571086	2531.675023
779.895236	2532.842050
780.219339	2533.260466
780.543397	2535.781043
780.867409	2537.883204
781.191374	2531.874149
781.515294	2536.164171
781.839167	2531.559077
782.162995	2534.651825
782.486776	2534.198121
782.810511	2534.172915
783.134201	2534.750127
783.457844	2533.744417
783.781441	2534.097298
784.104993	2536.091074
784.428498	2534.533358
784.751958	2533.618388
785.075372	2532.101001
785.398739	2533.247863
785.722061	2535.148378
786.045337	2535.884387
786.368568	2532.221988
786.691752	2536.065868
787.014891	2534.364479
787.337983	2533.817514
787.661030	2535.092926
787.984031	2534.616537
788.306987	2533.537730
788.629897	2533.154602
788.952760	2534.079654
789.275579	2534.374561
789.598351	2535.271887
789.921078	2533.313398
790.243759	2531.271731
790.566395	2534.394726
790.888984	2533.048738
791.211529	2532.892462
791.534027	2536.020498
791.856480	2535.453368
792.178888	2534.331711
792.501249	2534.732483
792.823566	2538.520910
793.145836	2534.674510
793.468062	2533.923378
793.790241	2532.055630
794.112375	2533.414221
794.434464	2535.465971
794.756507	2535.201310
795.078505	2535.130734
795.400457	2535.103008
795.722364	2526.467511
796.044226	2531.675023
796.366042	2529.403983
796.687812	2531.738038
797.009538	2533.860363
797.331218	2534.745086
797.652852	2533.310878
797.974442	2532.310209
798.295986	2534.457740
798.617484	2537.139634
798.938938	2535.861702
799.260346	2534.402287
799.581709	2532.889941
799.903026	2536.857329
800.224299	2534.984541
800.545526	2535.118131
800.866708	2534.099818
801.187845	2535.019829
801.508936	2536.164171
801.829983	2532.655528
802.150984	2532.098480
802.471940	2536.567463
802.792851	2533.116793
803.113717	2535.229037
803.434538	2530.807945
803.755314	2534.397246
804.076045	2535.924716
804.396731	2532.189221
804.717372	2533.648635
805.037967	2532.143851
805.358518	2532.005219
805.679024	2535.476053
805.999485	2534.482946
806.319901	2535.685261
806.640272	2533.547812
806.960598	2535.324819
807.280879	2532.627801
807.601115	2533.285672
807.921306	2532.418593
808.241453	2533.381454
808.561554	2533.908254
808.881611	2534.220806
809.201623	2532.663089
809.521590	2535.211393
809.841513	2534.735004
810.161390	2533.199972
810.481223	2534.417411
810.801011	2533.860363
811.120755	2531.561597
811.440453	2532.584952
811.760107	2535.844058
812.079716	2532.993285
812.399281	2529.003212
812.718801	2531.569159
813.038276	2529.651000
813.357707	2533.880528
813.677093	2532.587472
813.996434	2533.008408
814.315731	2532.738707
814.634983	2532.191742
814.954191	2532.486649
815.273354	2533.283151
815.592473	2534.714839
815.911547	2533.252904
816.230577	2537.426980
816.549562	2535.410518
816.868502	2533.678882
817.187399	2532.763913
817.506250	2533.202493
817.825058	2535.682741
818.143821	2535.634850
818.462539	2532.728624
818.781213	2534.533357
819.099843	2533.326001
819.418429	2532.385826
819.736970	2531.788449
820.055466	2534.969417
820.373919	2535.541588
820.692327	2532.897503
821.010691	2535.836496
821.329011	2536.312885
821.647286	2542.200952
821.965517	2544.867723
822.283704	2548.565409
822.601847	2545.114739
822.919945	2545.202960
823.237999	2544.230017
823.556010	2538.856147
823.873976	2537.668955
824.191897	2537.474871
824.509775	2533.401618
824.827609	2539.932433
825.145398	2535.758358
825.463144	2539.476209
825.780845	2534.460261
826.098502	2535.760878
826.416116	2537.852957
826.733685	2539.831610
827.051210	2538.044521
827.368692	2538.871270
827.686129	2537.913451
828.003522	2536.295241
828.320872	2530.447502
828.638177	2534.664428
828.955439	2530.127389
829.272656	2527.011956
829.589830	2526.389373
829.906960	2531.090249
830.224046	2532.695857
830.541088	2533.268028
830.858086	2532.330373
831.175041	2533.890610
831.491952	2532.630322
831.808819	2535.574356
832.125642	2532.637884
832.442421	2534.934129
832.759157	2533.666279
833.075849	2536.171732
833.392497	2537.308513
833.709101	2538.006712
834.025662	2534.651825
834.342179	2535.287010
834.658653	2534.190559
834.975083	2534.762730
835.291469	2538.513348
835.607811	2534.714839
835.924110	2534.210724
836.240366	2533.888090
836.556578	2533.227699
836.872746	2533.739376
837.188871	2534.624098
837.504952	2532.824406
837.820990	2532.040507
838.136984	2530.669313
838.452935	2530.833151
838.768842	2535.677699
839.084706	2531.846422
839.400526	2533.562935
839.716303	2533.192411
840.032037	2532.897503
840.347727	2531.133099
840.663373	2536.759027
840.978977	2533.338604
841.294537	2535.634850
841.610054	2532.196783
841.925527	2531.818696
842.240957	2530.755013
842.556344	2533.099149
842.871687	2532.108562
843.186987	2532.995806
843.502244	2531.748120
843.817458	2531.317101
844.132629	2533.326001
844.447756	2532.060672
844.762840	2528.814168
845.077881	2528.272244
845.392879	2531.556556
845.707833	2530.979344
846.022745	2526.885927
846.337613	2532.153933
846.652438	2531.576721
846.967221	2530.752492
847.281960	2532.363141
847.596656	2533.338604
847.911309	2531.841381
848.225919	2532.978162
848.540485	2531.128058
848.855009	2531.901875
849.169490	2528.788963
849.483928	2532.191742
849.798323	2530.586134
850.112675	2533.968748
850.426984	2533.270548
850.741251	2527.780732
851.055474	2533.424304
851.369654	2531.964890
851.683792	2530.974303
851.997887	2530.248377
852.311938	2531.596885
852.625947	2531.312060
852.939914	2531.168387
853.253837	2532.310209
853.567718	2532.365661
853.881555	2529.777029
854.195350	2532.355579
854.509103	2530.787780
854.822812	2531.133099
855.136479	2533.885569
855.450103	2532.663089
855.763685	2529.923222
856.077224	2531.848943
856.390720	2532.111083
856.704173	2531.359951
857.017584	2528.010104
857.330953	2533.598223
857.644278	2531.009591
857.957561	2537.701723
858.270802	2530.432379
858.584000	2532.900024
858.897155	2531.899355
859.210268	2530.190403
859.523339	2532.428676
859.836367	2532.567307
860.149352	2534.866074
860.462295	2534.314067
860.775195	2528.370547
861.088054	2524.998015
861.400869	2528.577234
861.713642	2526.943900
862.026373	2530.691998
862.339062	2533.683923
862.651708	2532.186700
862.964312	2531.773326
863.276873	2532.602596
863.589392	2532.302647
863.901869	2531.891793
864.214303	2531.949766
864.526696	2531.690147
864.839045	2532.027904
865.151353	2533.628470
865.463619	2531.324663
865.775842	2532.862215
866.088023	2530.326515
866.400162	2530.354241
866.712258	2530.873480
867.024313	2532.718542
867.336325	2533.366330
867.648296	2531.160826
867.960224	2533.283151
868.272110	2530.931453
868.583954	2534.581248
868.895755	2531.957328
869.207515	2528.647810
869.519233	2529.701412
869.830909	2530.278624
870.142542	2533.797349
870.454134	2530.250897
870.765684	2532.587472
871.077191	2533.842719
871.388657	2533.837678
871.700081	2530.780218
872.011463	2530.054292
872.322803	2531.922040
872.634101	2529.739220
872.945357	2529.872811
873.256571	2530.399611
873.567744	2531.160826
873.878874	2531.201155
874.189963	2533.162164
874.501010	2532.973120
874.812015	2533.542771
875.122979	2532.610157
875.433900	2532.446320
875.744780	2530.966741
876.055618	2532.650487
876.366415	2532.060672
876.677169	2531.919519
876.987882	2530.036648
877.298554	2529.651000
877.609183	2531.228881
877.919771	2527.085053
878.230317	2527.077491
878.540822	2534.119983
878.851285	2530.213089
879.161707	2533.421783
879.472087	2530.228212
879.782425	2533.930940
880.092722	2533.371372
880.402977	2534.419932
880.713191	2533.943543
881.023363	2533.971269
881.333494	2537.840354
881.643583	2536.736342
881.953631	2539.645087
882.263637	2536.781712
882.573602	2534.707277
882.883526	2535.050076
883.193408	2535.793646
883.503248	2535.539068
883.813048	2532.300126
884.122806	2534.545960
884.432522	2534.157792
884.742197	2530.192924
885.051831	2533.958666
885.361424	2532.209386
885.670975	2533.484797
885.980485	2533.530168
886.289954	2530.180321
886.599382	2533.298275
886.908768	2531.480939
887.218113	2531.488501
887.527417	2530.903727
887.836680	2529.807276
888.145901	2531.382636
888.455082	2529.943387
888.764221	2532.693336
889.073319	2532.050589
889.382376	2530.913809
889.691392	2530.127389
890.000366	2530.649148
890.309300	2532.771474
890.618193	2530.893644
890.927044	2530.127389
891.235855	2532.216947
891.544625	2530.543284
891.853353	2531.100332
892.162041	2530.162677
892.470687	2531.833820
892.779293	2531.793490
893.087858	2531.811134
893.396381	2526.086904
893.704864	2529.703932
894.013306	2527.309384
894.321707	2532.907585
894.630068	2531.591844
894.938387	2536.632998
895.246665	2531.942204
895.554903	2533.913296
895.863100	2532.390867
896.171256	2533.671320
896.479371	2532.700898
896.787446	2530.003881
897.095480	2531.518748
897.403473	2534.283820
897.711425	2529.396422
898.019336	2530.805424
898.327207	2532.340456
898.635038	2532.766433
898.942827	2530.354241
899.250576	2531.425486
899.558284	2531.140661
899.865952	2530.679395
900.173579	2528.168901
900.481165	2529.340969
900.788711	2529.716535
901.096216	2529.424148
901.403681	2531.614529
901.711105	2531.569159
902.018489	2529.567821
902.325832	2533.348686
902.633135	2531.498583
902.940397	2531.188552
903.247619	2532.093439
903.554800	2530.626463
903.861941	2530.024045
904.169041	2534.334232
904.476101	2532.910106
904.783121	2535.460930
905.090100	2532.073274
905.397039	2532.622760
905.703938	2531.977493
906.010796	2532.758871
906.317614	2530.858356
906.624391	2531.342307
906.931129	2531.753161
907.237826	2531.717873
907.544483	2529.807276
907.851099	2533.885569
908.157675	2530.669313
908.464211	2528.801566
908.770707	2526.170083
909.077163	2525.970958
909.383578	2524.141019
909.689954	2528.771319
909.996289	2526.233098
910.302584	2532.635363
910.608839	2527.427851
910.915054	2530.409694
911.221229	2530.568490
911.527363	2531.266690
911.833458	2528.302491
912.139513	2530.533202
912.445527	2529.051103
912.751502	2528.657893
913.057436	2528.224353
913.363331	2529.898017
913.669186	2532.083357
913.975000	2532.340456
914.280775	2528.695701
914.586510	2531.904396
914.892205	2531.682585
915.197859	2532.451361
915.503475	2530.646628
915.809050	2535.912113
916.114585	2533.298275
916.420081	2530.896165
916.725536	2533.517565
917.030952	2534.162833
917.336328	2533.469674
917.641665	2532.022863
917.946961	2530.205527
918.252218	2528.352903
918.557435	2529.484642
918.862612	2533.941022
919.167750	2530.772657
919.472848	2531.806093
919.777906	2529.424148
920.082925	2531.475898
920.387904	2531.120496
920.692843	2530.399611
920.997743	2529.512368
921.302603	2531.312060
921.607423	2531.811134
921.912204	2531.813655
922.216946	2531.967410
922.521647	2530.321473
922.826310	2528.506658
923.130932	2530.656710
923.435516	2530.296268
923.740059	2529.653521
924.044564	2528.332738
924.349028	2529.330887
924.653454	2526.626308
924.957840	2527.856349
925.262186	2526.170083
925.566493	2529.222502
925.870761	2526.197810
926.174989	2530.812986
926.479178	2530.583613
926.783328	2531.644776
927.087438	2530.447502
927.391509	2532.748789
927.695541	2524.909795
927.999533	2531.274252
928.303486	2525.068591
928.607400	2529.688809
928.911275	2528.178983
929.215110	2531.034797
929.518906	2526.838036
929.822663	2527.629497
930.126381	2528.970444
930.430060	2529.900537
930.733699	2531.102852
931.037299	2528.685619
931.340861	2529.472039
931.644383	2528.851977
931.947866	2529.035979
932.251309	2530.876000
932.554714	2529.766947
932.858080	2532.620240
933.161407	2529.918181
933.464694	2527.001874
933.767943	2528.262162
934.071153	2530.258459
934.374323	2529.565300
934.677455	2529.519930
934.980548	2529.855167
935.283602	2527.301822
935.586617	2528.894827
935.889593	2528.569673
936.192530	2530.631504
936.495428	2529.696370
936.798287	2529.870290
937.101108	2529.184693
937.403890	2526.732172
937.706632	2534.064530
938.009336	2526.717048
938.312002	2529.603109
938.614628	2528.499096
938.917216	2532.723583
939.219765	2528.670496
939.522275	2527.569003
939.824747	2531.032276
940.127179	2525.968437
940.429573	2525.686132
940.731929	2526.991791
941.034246	2525.348375
941.336524	2528.564631
941.638763	2529.429189
941.940964	2531.657379
942.243126	2529.348531
942.545250	2529.943387
942.847335	2528.010104
943.149381	2529.368695
943.451389	2528.698222
943.753359	2528.184024
944.055290	2528.531864
944.357182	2529.978675
944.659036	2526.381812
944.960851	2530.374406
945.262628	2528.345341
945.564367	2528.983047
945.866067	2527.150588
946.167729	2530.455064
946.469352	2529.829961
946.770937	2526.359127
947.072484	2530.757533
947.373992	2530.152595
947.675462	2524.004908
947.976893	2528.627646
948.278286	2529.784591
948.579641	2529.991278
948.880958	2528.574714
949.182236	2529.903058
949.483476	2529.431710
949.784678	2528.592358
950.085841	2528.133613
950.386967	2528.337779
950.688054	2526.953983
950.989103	2528.657893
951.290114	2530.772657
951.591087	2526.245701
951.892021	2528.743592
952.192917	2528.809127
952.493776	2528.897347
952.794596	2529.270393
953.095378	2528.461288
953.396122	2530.069416
953.696828	2526.964065
953.997496	2529.575383
954.298126	2526.969106
954.598718	2531.191073
954.899272	2528.763757
955.199788	2529.623274
955.500266	2528.746113
955.800706	2527.385001
956.101108	2525.149250
956.401472	2524.985412
956.701798	2526.071781
957.002087	2527.720238
957.302337	2529.398942
957.602550	2526.787625
957.902724	2527.695032
958.202861	2527.732841
958.502960	2529.162008
958.803022	2528.186545
959.103045	2530.487832
959.403031	2527.823582
959.702979	2530.578572
960.002889	2527.984899
960.302762	2528.045392
960.602596	2526.964065
960.902393	2528.057995
961.202153	2528.821730
961.501875	2527.337110
961.801559	2529.461957
962.101205	2529.701412
962.400814	2530.651669
962.700385	2526.659075
962.999918	2527.246370
963.299414	2529.809796
963.598873	2527.488345
963.898293	2528.867101
964.197677	2529.126720
964.497022	2528.335259
964.796331	2529.487163
965.095601	2528.274765
965.394835	2530.676875
965.694030	2529.225022
965.993189	2529.784591
966.292309	2529.804755
966.591393	2529.421627
966.890439	2526.727131
967.189447	2530.271062
967.488419	2524.062881
967.787353	2529.177132
968.086249	2528.788963
968.385108	2529.492204
968.683930	2527.112779
968.982714	2529.013294
969.281462	2527.826102
969.580172	2528.400794
969.878844	2527.049765
970.177480	2529.477080
970.476078	2527.944569
970.774639	2527.899199
971.073162	2528.163860
971.371649	2525.471883
971.670098	2525.476925
971.968510	2524.345186
972.266885	2523.203364
972.565223	2526.371729
972.863524	2525.426513
973.161788	2527.221164
973.460014	2527.909281
973.758204	2529.734179
974.056356	2527.034641
974.354471	2526.303674
974.652550	2527.720238
974.950591	2529.318284
975.248595	2528.000022
975.546563	2529.235105
975.844493	2528.564631
976.142386	2530.192924
976.440243	2528.902389
976.738062	2527.677388
977.035845	2526.664116
977.333590	2527.576565
977.631299	2525.368540
977.928971	2527.969775
978.226606	2528.841895
978.524204	2526.512882
978.821765	2527.493386
979.119290	2529.351051
979.416777	2526.346524
979.714228	2529.640918
980.011642	2529.116638
980.309020	2532.249715
980.606360	2529.862728
980.903664	2530.213089
981.200931	2527.561442
981.498162	2526.500279
981.795356	2528.312574
982.092513	2527.687471
982.389633	2524.970289
982.686717	2530.205527
982.983764	2527.387522
983.280775	2526.712007
983.577749	2530.039169
983.874686	2528.083201
984.171587	2527.639580
984.468451	2526.898530
984.765279	2528.557070
985.062070	2527.715197
985.358824	2526.734693
985.655543	2525.960875
985.952224	2524.831657
986.248869	2526.732172
986.545478	2523.790659
986.842050	2523.924249
987.138586	2523.969620
987.435086	2524.446009
987.731549	2523.682274
988.027975	2529.827440
988.324366	2532.705939
988.620719	2526.485155
988.917037	2525.343334
989.213318	2528.650331
989.509563	2527.243849
989.805772	2528.887265
990.101944	2527.664785
990.398080	2527.715197
990.694180	2527.100176
990.990244	2528.874662
991.286271	2527.765608
991.582262	2528.350382
991.878217	2525.912984
992.174136	2527.251411
992.470019	2525.300484
992.765865	2528.584796
993.061676	2526.805269
993.357450	2526.686802
993.653188	2527.110258
993.948890	2529.847605
994.244556	2527.422810
994.540186	2528.451205
994.835780	2528.413397
995.131337	2528.652852
995.426859	2527.319466
995.722345	2524.088087
996.017795	2527.783252
996.313208	2527.508510
996.608586	2525.822244
996.903928	2528.741072
997.199234	2526.911133
997.494504	2528.370547
997.789738	2526.969106
998.084936	2526.459950
998.380099	2530.697039
998.675225	2525.708818
998.970316	2527.705115
999.265371	2524.937521
999.560390	2525.756709
999.855373	2528.269724
1000.150320	2527.687471
1000.445232	2529.179652
1000.740108	2527.659744
1001.034948	2526.414579
1001.329752	2525.333252
1001.624521	2527.574045
1001.919254	2525.202182
1002.213951	2526.520443
1002.508613	2522.298477
1002.803239	2522.691687
1003.097829	2526.454908
1003.392384	2528.657893
1003.686903	2526.815351
1003.981386	2528.085722
1004.275834	2528.221833
1004.570246	2528.650331
1004.864623	2527.208561
1005.158964	2524.685463
1005.453270	2527.463139
1005.747540	2528.796524
1006.041775	2523.720083
1006.335974	2526.953983
1006.630138	2527.425331
1006.924266	2529.126720
1007.218359	2525.653365
1007.512416	2527.213602
1007.806438	2529.081350
1008.100425	2528.310053
1008.394376	2525.030782
1008.688292	2528.700743
1008.982172	2527.833664
1009.276017	2529.837523
1009.569827	2528.678057
1009.863602	2529.764426
1010.157341	2527.790814
1010.451045	2527.107738
1010.744714	2525.111441
1011.038347	2527.090094
1011.331945	2525.718900
1011.625508	2525.781914
1011.919036	2526.890968
1012.212528	2526.535567
1012.505986	2525.781914
1012.799408	2525.255114
1013.092795	2525.224867
1013.386147	2529.572862
1013.679464	2528.804086
1013.972745	2529.388860
1014.265992	2526.439785
1014.559204	2529.474560
1014.852380	2524.256965
1015.145521	2526.608664
1015.438628	2526.356606
1015.731699	2528.544467
1016.024736	2524.682943
1016.317737	2524.458612
1016.610703	2525.537418
1016.903635	2524.516585
1017.196531	2519.956861
1017.489393	2526.969106
1017.782219	2523.639424
1018.075011	2523.934332
1018.367768	2525.524816
1018.660490	2527.039682
1018.953177	2527.039682
1019.245829	2527.039682
