Dividing Wavelength (nm)	Counts (n)	Blue Motor Position (mm): 1.300000	Red Motor Position (mm): 0.000000	
326.493990	2167.098777
326.888308	2167.098777
327.282561	2167.098777
327.676750	2126.456995
328.070874	2122.741664
328.464933	2120.074894
328.858929	2122.615636
329.252859	2131.440175
329.646726	2136.027625
330.040528	2149.464821
330.434265	2166.385454
330.827938	2180.820798
331.221547	2200.201514
331.615091	2216.837322
332.008571	2232.873232
332.401986	2254.222518
332.795338	2272.963008
333.188625	2290.975051
333.581847	2308.793009
333.975006	2328.640032
334.368100	2345.704337
334.761129	2362.965248
335.154095	2380.357229
335.546996	2399.652245
335.939833	2414.253947
336.332606	2430.501586
336.725315	2441.219079
337.117960	2453.015379
337.510540	2466.389560
337.903056	2476.681076
338.295508	2484.898157
338.687896	2494.872080
339.080220	2500.472802
339.472480	2509.438494
339.864676	2514.656088
340.256807	2520.067767
340.648875	2524.254445
341.040879	2526.001205
341.432818	2528.559590
341.824694	2531.871628
342.216506	2531.349869
342.608253	2531.241484
342.999937	2536.126362
343.391557	2533.749458
343.783113	2535.891948
344.174605	2533.363810
344.566033	2533.028573
344.957397	2530.245856
345.348697	2527.904240
345.739934	2528.496576
346.131106	2526.076822
346.522215	2522.474918
346.913260	2519.530884
347.304241	2518.454597
347.695159	2516.617097
348.086012	2516.342354
348.476802	2514.459483
348.867528	2509.572084
349.258191	2506.083606
349.648789	2504.210817
350.039324	2502.824500
350.429796	2510.711385
350.820203	2505.019922
351.210548	2503.668893
351.600828	2502.670745
351.991045	2502.222082
352.381198	2502.194356
352.771288	2497.826196
353.161314	2500.114880
353.551276	2500.271155
353.941175	2497.241422
354.331010	2498.567245
354.720782	2499.898110
355.110490	2495.658500
355.500135	2499.008346
355.889717	2498.158912
356.279235	2495.356030
356.668689	2500.702174
357.058080	2498.433655
357.447408	2496.402070
357.836672	2498.930208
358.225873	2502.650580
358.615010	2500.626557
359.004084	2501.365086
359.393095	2499.759478
359.782043	2499.840137
360.170927	2500.437513
360.559748	2503.578152
360.948505	2503.333656
361.337199	2503.003461
361.725830	2503.381547
362.114398	2502.239726
362.502903	2507.328771
362.891344	2507.752228
363.279722	2507.595952
363.668037	2505.977742
364.056289	2505.879439
364.444478	2508.684841
364.832603	2507.575787
365.220665	2507.686693
365.608665	2508.127794
365.996601	2508.430263
366.384474	2507.452279
366.772284	2510.250119
367.160031	2510.030829
367.547715	2509.703154
367.935336	2511.001251
368.322893	2509.854389
368.710388	2505.806342
369.097820	2506.726353
369.485189	2508.064779
369.872495	2513.075686
370.259738	2510.852537
370.646918	2512.571571
371.034035	2511.674245
371.421090	2514.774555
371.808081	2513.733557
372.195010	2516.523835
372.581875	2513.935203
372.968678	2516.256654
373.355418	2515.056860
373.742096	2515.205574
374.128710	2516.733043
374.515262	2514.030985
374.901751	2515.291273
375.288177	2518.116840
375.674540	2517.398476
376.060841	2516.027282
376.447079	2513.937723
376.833254	2518.257992
377.219367	2518.812519
377.605417	2517.269926
377.991404	2516.715399
378.377329	2516.201202
378.763191	2518.436953
379.148991	2515.152642
379.534727	2518.721778
379.920402	2519.634227
380.306013	2517.161541
380.691563	2517.516943
381.077049	2517.680780
381.462474	2518.673887
381.847835	2519.356964
382.233134	2521.343178
382.618371	2518.149608
383.003545	2517.045595
383.388657	2519.674557
383.773706	2521.179341
384.158693	2519.800585
384.543618	2523.203364
384.928480	2520.067767
385.313280	2519.803106
385.698017	2517.307735
386.082692	2518.172293
386.467305	2522.013652
386.851856	2524.196472
387.236344	2523.382325
387.620770	2519.634227
388.005133	2521.348220
388.389435	2518.482324
388.773674	2517.685821
389.157851	2522.608508
389.541965	2522.323683
389.926018	2524.564476
390.310008	2522.169928
390.693936	2525.539939
391.077802	2522.462315
391.461606	2525.494569
391.845348	2523.939373
392.229027	2527.634538
392.612645	2524.471214
392.996200	2526.288550
393.379694	2522.938704
393.763125	2526.165042
394.146494	2523.004239
394.529801	2526.843077
394.913047	2525.005577
395.296230	2528.005063
395.679351	2525.055988
396.062410	2526.394415
396.445408	2525.522295
396.828343	2527.080012
397.211217	2528.867101
397.594028	2526.202851
397.976778	2528.501617
398.359466	2525.786956
398.742092	2528.088242
399.124656	2529.121679
399.507158	2527.558921
399.889598	2527.037162
400.271977	2530.162677
400.654294	2527.448016
401.036549	2529.242667
401.418742	2528.355423
401.800874	2528.257121
402.182944	2530.623943
402.564952	2528.544467
402.946898	2532.224509
403.328783	2530.099663
403.710606	2529.993798
404.092367	2526.991791
404.474067	2531.448171
404.855705	2533.005888
405.237282	2532.400949
405.618797	2529.547656
406.000250	2530.316432
406.381642	2530.523120
406.762972	2528.390712
407.144240	2527.629497
407.525447	2529.605630
407.906593	2528.100845
408.287677	2531.916999
408.668700	2531.695188
409.049661	2532.978162
409.430560	2531.841381
409.811399	2531.609488
410.192176	2533.893131
410.572891	2533.502442
410.953545	2533.525127
411.334138	2532.564787
411.714669	2533.124355
412.095139	2534.533358
412.475547	2534.742565
412.855894	2532.889941
413.236180	2534.382123
413.616405	2535.907072
413.996568	2532.963038
414.376670	2534.377082
414.756711	2534.553522
415.136691	2537.179963
415.516609	2536.320447
415.896466	2537.883204
416.276262	2536.080992
416.655997	2537.724408
417.035670	2533.414221
417.415283	2535.415559
417.794834	2534.132586
418.174324	2536.910262
418.553753	2537.754655
418.933121	2535.586959
419.312428	2536.990920
419.691674	2535.803728
420.070859	2535.483615
420.449983	2535.206352
420.829045	2534.687113
421.208047	2537.174922
421.586988	2535.045035
421.965867	2538.694830
422.344686	2538.344470
422.723444	2538.704912
423.102141	2535.980169
423.480777	2538.460416
423.859352	2539.070396
424.237866	2539.317413
424.616319	2537.908410
424.994712	2538.868750
425.373044	2535.304654
425.751314	2535.387833
426.129524	2532.481608
426.507673	2535.486136
426.885762	2533.860363
427.263789	2539.181301
427.641756	2540.842362
428.019662	2539.062834
428.397508	2540.325643
428.775292	2540.696168
429.153016	2540.502084
429.530679	2540.537372
429.908282	2540.655839
430.285824	2540.333205
430.663305	2540.590304
431.040726	2539.254398
431.418086	2541.449821
431.795385	2541.462423
432.172624	2540.048380
432.549802	2541.467465
432.926920	2540.391178
433.303977	2539.536703
433.680974	2541.311189
434.057910	2540.136600
434.434786	2541.669111
434.811601	2540.423946
435.188355	2542.359749
435.565050	2541.800181
435.941683	2541.439738
436.318257	2541.780016
436.694770	2542.611807
437.071222	2540.635674
437.447614	2544.711447
437.823946	2543.075593
438.200218	2541.064172
438.576429	2542.306817
438.952580	2540.522248
439.328670	2540.902855
439.704700	2545.144986
440.080670	2543.569626
440.456580	2543.597352
440.832429	2540.260108
441.208218	2544.025850
441.583947	2543.531817
441.959616	2539.808925
442.335224	2543.738504
442.710773	2544.653474
443.086261	2544.325799
443.461689	2544.960984
443.837057	2543.851930
444.212365	2542.523586
444.587612	2541.321271
444.962800	2540.318082
445.337927	2544.439225
445.712995	2541.575849
446.088002	2544.774462
446.462949	2542.662218
446.837837	2546.367466
447.212664	2545.664225
447.587431	2542.778165
447.962139	2545.959133
448.336786	2545.235727
448.711374	2544.308155
449.085901	2546.866540
449.460369	2543.819163
449.834776	2546.916952
450.209124	2545.407126
450.583412	2542.712630
450.957640	2544.625748
451.331808	2545.601211
451.705917	2545.150028
452.079965	2544.870243
452.453954	2545.523073
452.827883	2546.155738
453.201752	2545.389482
453.575562	2547.355532
453.949311	2545.780172
454.323001	2548.081458
454.696632	2546.511139
455.070202	2543.980480
455.443713	2546.082641
455.817164	2545.797816
456.190556	2547.688248
456.563888	2547.254709
456.937160	2548.572971
457.310373	2547.305121
457.683526	2546.957281
458.056619	2546.027188
458.429653	2548.275543
458.802628	2546.889226
459.175542	2547.494164
459.548398	2545.911242
459.921194	2548.613300
460.293930	2546.319575
460.666607	2548.320913
461.039224	2548.981304
461.411782	2546.589277
461.784280	2549.152704
462.156719	2548.527601
462.529099	2549.271171
462.901419	2548.567930
463.273680	2545.434853
463.645882	2542.810932
464.018024	2545.492826
464.390106	2544.005686
464.762130	2549.228321
465.134094	2549.485420
465.505999	2548.071376
465.877845	2547.612631
466.249631	2547.723537
466.621358	2547.312682
466.993026	2549.107333
467.364634	2550.128167
467.736184	2549.145142
468.107674	2548.711603
468.479105	2549.634134
468.850477	2547.557178
469.221790	2548.212528
469.593043	2548.406613
469.964238	2550.728064
470.335373	2545.944009
470.706449	2548.262940
471.077467	2548.741850
471.448425	2549.636654
471.819324	2552.177396
472.190164	2550.355019
472.560945	2549.787889
472.931667	2546.906870
473.302330	2549.009031
473.672934	2545.815460
474.043479	2549.016593
474.413965	2549.389638
474.784393	2549.440049
475.154761	2550.367622
475.525070	2550.975081
475.895321	2551.461552
476.265513	2551.476676
476.635645	2551.408620
477.005719	2549.739998
477.375734	2550.652447
477.745691	2550.090358
478.115588	2550.400389
478.485427	2552.280740
478.855207	2552.913404
479.224928	2552.376522
479.594591	2552.081614
479.964194	2550.654967
480.333739	2549.639175
480.703226	2551.650595
481.072653	2551.557334
481.442022	2549.245965
481.811333	2548.504915
482.180584	2547.060625
482.549777	2547.146324
482.918912	2544.169523
483.287988	2552.885678
483.657005	2551.138918
484.025964	2549.140101
484.394864	2551.574978
484.763706	2551.171686
485.132489	2551.335523
485.501213	2551.940462
485.869879	2548.729247
486.238487	2550.753270
486.607036	2550.148332
486.975527	2552.114382
487.343959	2550.476007
487.712333	2549.939124
488.080648	2551.141439
488.448905	2551.469114
488.817104	2549.792930
489.185244	2551.020451
489.553326	2551.544731
489.921350	2549.734957
490.289315	2551.096068
490.657222	2553.543549
491.025070	2553.591440
491.392861	2553.175544
491.760593	2553.591440
492.128267	2552.285781
492.495883	2552.351316
492.863440	2550.039947
493.230939	2551.113712
493.598380	2553.785524
493.965763	2550.791079
494.333088	2550.412992
494.700354	2550.649926
495.067563	2551.834597
495.434713	2553.162942
495.801805	2553.341902
496.168839	2552.220246
496.535815	2553.914073
496.902733	2552.316028
497.269593	2553.198230
497.636395	2552.941131
498.003139	2553.377191
498.369825	2550.118085
498.736453	2551.769062
499.103023	2552.784855
499.469535	2554.067829
499.835989	2553.941800
500.202385	2551.322920
500.568723	2548.230173
500.935003	2551.033054
501.301226	2547.398382
501.667390	2552.227807
502.033497	2556.283416
502.399546	2553.288970
502.765537	2552.305945
503.131470	2551.423743
503.497345	2554.113199
503.863163	2554.282078
504.228923	2550.382745
504.594625	2553.772921
504.960269	2551.164124
505.325856	2553.530946
505.691385	2552.169834
506.056856	2552.454659
506.422270	2552.265616
506.787625	2554.138405
507.152924	2553.896429
507.518164	2553.094886
507.883347	2552.900802
508.248472	2555.244938
508.613540	2554.196378
508.978550	2554.887016
509.343503	2552.222766
509.708398	2553.021789
510.073236	2554.970195
510.438016	2552.384083
510.802738	2552.363919
511.167403	2555.461708
511.532010	2553.765359
511.896561	2556.389280
512.261053	2554.536656
512.625488	2553.840977
512.989866	2554.042623
513.354186	2554.118240
513.718449	2554.806358
514.082655	2553.525905
514.446803	2552.305945
514.810894	2556.679146
515.174927	2554.231666
515.538904	2551.895091
515.902822	2555.832233
516.266684	2554.647561
516.630488	2552.928528
516.994235	2554.050185
517.357925	2555.302911
517.721558	2555.260062
518.085133	2554.642520
518.448651	2551.237221
518.812112	2552.242931
519.175516	2555.393652
519.538863	2549.538352
519.902152	2552.615976
520.265385	2554.087993
520.628560	2554.110678
520.991678	2554.904660
521.354739	2554.176213
521.717743	2554.501368
522.080690	2553.170503
522.443580	2552.429454
522.806413	2556.336348
523.169189	2557.286605
523.531908	2554.783672
523.894569	2554.307283
524.257174	2556.543035
524.619722	2552.492468
524.982213	2554.536656
525.344647	2556.480021
525.707025	2556.709393
526.069345	2554.062787
526.431608	2553.009186
526.793815	2553.866182
527.155964	2555.209650
527.518057	2554.120761
527.880093	2553.732592
528.242072	2554.357695
528.603995	2555.431461
528.965860	2556.842984
529.327669	2555.454146
529.689421	2554.829043
530.051117	2555.491955
530.412755	2553.901471
530.774337	2555.623025
531.135862	2553.629248
531.497331	2556.984136
531.858743	2555.040771
532.220098	2556.477500
532.581396	2553.604042
532.942638	2554.975236
533.303824	2553.861141
533.664953	2555.071018
534.026025	2556.253169
534.387040	2555.665874
534.747999	2553.530946
535.108902	2558.277192
535.469748	2556.240566
535.830537	2555.207129
536.191270	2558.158725
536.551947	2551.206974
536.912567	2551.716130
537.273131	2555.499516
537.633638	2552.742005
537.994089	2556.626214
538.354483	2556.036399
538.714821	2554.587068
539.075103	2555.857438
539.435328	2554.642520
539.795497	2553.790565
540.155609	2555.280226
540.515665	2555.418858
540.875665	2557.412634
541.235609	2556.071687
541.595496	2555.708724
541.955328	2554.647561
542.315102	2555.058415
542.674821	2555.192006
543.034483	2558.282233
543.394090	2556.157387
543.753640	2556.719476
544.113134	2557.551266
544.472571	2554.682849
544.831953	2557.299208
545.191278	2558.186451
545.550548	2556.447253
545.909761	2555.219732
546.268918	2555.247459
546.628019	2555.607901
546.987064	2556.724517
547.346053	2553.125133
547.704986	2554.685370
548.063863	2557.425237
548.422684	2555.416337
548.781449	2555.197047
549.140158	2555.980947
549.498811	2557.006821
549.857408	2550.816284
550.215949	2557.024465
550.574434	2554.652602
550.932864	2556.056564
551.291237	2554.755946
551.649555	2556.863148
552.007817	2555.809547
552.366022	2556.885834
552.724173	2557.074877
553.082267	2556.081770
553.440305	2554.987839
553.798288	2557.188303
554.156215	2555.985988
554.514086	2556.094372
554.871902	2551.648075
555.229661	2552.184958
555.587365	2551.378373
555.945014	2557.518498
556.302606	2556.598488
556.660143	2556.598488
557.017625	2556.820299
557.375050	2556.774928
557.732421	2555.295350
558.089735	2557.110165
558.446994	2558.607388
558.804197	2557.984805
559.161345	2556.984136
559.518437	2554.783672
559.875474	2555.381049
560.232455	2555.933056
560.589381	2555.461708
560.946251	2555.396173
561.303065	2555.433981
561.659825	2557.294167
562.016528	2556.369115
562.373177	2556.961451
562.729770	2554.473642
563.086307	2558.814075
563.442789	2557.904147
563.799216	2559.643345
564.155587	2553.896429
564.511904	2559.199723
564.868164	2557.026986
565.224370	2555.985988
565.580520	2557.778118
565.936615	2555.983467
566.292654	2556.527912
566.648638	2554.975236
567.004567	2554.574465
567.360441	2560.233160
567.716260	2556.190154
568.072023	2557.198385
568.427732	2557.319373
568.783385	2557.125288
569.138982	2556.706873
569.494525	2557.364743
569.850013	2554.488765
570.205445	2555.643189
570.560823	2557.818447
570.916145	2556.601008
571.271412	2556.112017
571.626625	2558.408262
571.981782	2557.778118
572.336884	2553.878785
572.691931	2553.006666
573.046923	2555.706204
573.401860	2550.344937
573.756743	2555.784342
574.111570	2556.548076
574.466342	2557.281564
574.821059	2557.037068
575.175722	2556.565720
575.530330	2555.365926
575.884882	2556.855587
576.239380	2555.885165
576.593823	2558.267110
576.948211	2554.299722
577.302544	2559.378684
577.656823	2555.290308
578.011047	2559.045968
578.365216	2556.540515
578.719330	2557.488252
579.073389	2556.721996
579.427394	2559.071174
579.781344	2559.628221
580.135239	2557.710062
580.489080	2556.588406
580.842866	2555.668395
581.196597	2562.242060
581.550273	2556.817778
581.903895	2555.985988
582.257463	2557.120247
582.610975	2560.303736
582.964434	2555.751574
583.317837	2554.443395
583.671186	2555.134033
584.024481	2556.550597
584.377721	2557.999929
584.730906	2552.900802
585.084037	2556.308622
585.437113	2556.568241
585.790135	2555.711245
586.143103	2559.187120
586.496016	2560.346586
586.848874	2558.103272
587.201679	2557.916750
587.554428	2556.664023
587.907124	2557.246276
588.259765	2559.769374
588.612352	2557.954558
588.964884	2559.978582
589.317362	2559.124106
589.669786	2557.941955
590.022155	2557.014383
590.374470	2550.851572
590.726731	2558.146122
591.078937	2550.833928
591.431090	2556.018755
591.783188	2558.715773
592.135232	2562.436144
592.487222	2556.071687
592.839157	2558.914898
593.191038	2556.384239
593.542866	2559.295505
593.894639	2554.604712
594.246358	2559.209806
594.598022	2558.156204
594.949633	2557.246276
595.301190	2556.820299
595.652692	2556.948848
596.004141	2556.220401
596.355535	2558.924980
596.706876	2558.194013
597.058162	2552.996583
597.409395	2556.301060
597.760573	2556.293498
598.111698	2557.568910
598.462768	2556.492624
598.813785	2558.551935
599.164748	2555.900288
599.515657	2554.952551
599.866511	2556.139743
600.217312	2558.307439
600.568060	2560.974209
600.918753	2559.562686
601.269392	2559.371123
601.619978	2556.545556
601.970510	2557.813406
602.320988	2555.491955
602.671412	2558.022614
603.021783	2556.732078
603.372100	2556.149825
603.722363	2557.546225
604.072572	2557.263920
604.422728	2556.858107
604.772830	2557.954558
605.122878	2557.803324
605.472872	2554.866852
605.822813	2556.026317
606.172701	2557.266441
606.522534	2556.832902
606.872314	2558.047820
607.222041	2558.856925
607.571714	2553.437684
607.921333	2555.590257
608.270899	2556.069167
608.620411	2555.577654
608.969870	2558.582182
609.319276	2559.255176
609.668627	2563.341031
610.017926	2570.275138
610.367171	2572.833524
610.716362	2569.912175
611.065500	2566.353121
611.414585	2570.325550
611.763616	2565.274314
612.112594	2562.471432
612.461518	2560.780125
612.810389	2560.966648
613.159207	2562.882286
613.507971	2561.286761
613.856682	2562.789025
614.205340	2560.875907
614.553945	2560.644014
614.902496	2562.708366
615.250994	2557.793241
615.599439	2559.245094
615.947830	2558.541853
616.296169	2558.408262
616.644454	2557.636966
616.992686	2559.822306
617.340864	2557.589075
617.688990	2558.045299
618.037063	2558.564538
618.385082	2559.517316
618.733048	2560.437327
619.080961	2559.108983
619.428821	2557.130330
619.776628	2557.619322
620.124382	2557.420196
620.472083	2557.828529
620.819731	2557.097562
621.167326	2558.982954
621.514868	2557.455484
621.862357	2557.911708
622.209793	2559.043447
622.557176	2557.407593
622.904506	2557.289126
623.251783	2556.638817
623.599007	2558.015052
623.946179	2557.221070
624.293297	2557.795762
624.640363	2557.064795
624.987376	2554.904660
625.334336	2553.319217
625.681243	2556.003632
626.028097	2551.753939
626.374899	2558.851884
626.721647	2558.118396
627.068343	2557.153015
627.414987	2559.025803
627.761577	2558.259548
628.108115	2556.785011
628.454600	2559.693756
628.801032	2556.711914
629.147412	2557.256358
629.493739	2557.420196
629.840014	2559.509754
630.186236	2558.861966
630.532405	2559.537481
630.878521	2560.084446
631.224585	2557.309291
631.570597	2557.551266
631.916556	2559.361040
632.262462	2558.201575
632.608316	2559.466904
632.954117	2556.505227
633.299866	2560.051678
633.645562	2556.338868
633.991206	2557.173179
634.336797	2556.537994
634.682336	2555.189485
635.027823	2557.263920
635.373257	2554.201419
635.718639	2557.876420
636.063968	2556.311142
636.409245	2556.233004
636.754470	2556.432130
637.099642	2555.880123
637.444762	2559.020762
637.789829	2553.780483
638.134845	2559.575289
638.479808	2555.280226
638.824719	2556.963972
639.169577	2557.210988
639.514383	2557.823488
639.859137	2556.333827
640.203839	2558.884651
640.548489	2556.820299
640.893086	2558.516647
641.237632	2554.224104
641.582125	2557.934394
641.926566	2555.854918
642.270955	2552.326110
642.615292	2553.243600
642.959576	2553.528425
643.303809	2549.281253
643.647990	2557.145453
643.992118	2557.755433
644.336195	2558.655279
644.680219	2555.030689
645.024192	2556.626214
645.368112	2557.276523
645.711981	2557.054712
646.055797	2556.858107
646.399562	2556.507747
646.743274	2557.452963
647.086935	2557.757953
647.430544	2557.246276
647.774101	2557.795762
648.117606	2554.932387
648.461059	2555.068498
648.804460	2560.218036
649.147810	2555.764177
649.491108	2556.323745
649.834354	2556.351471
650.177548	2558.100752
650.520690	2558.115875
650.863781	2556.822819
651.206820	2557.296688
651.549807	2556.976574
651.892742	2557.178221
652.235626	2555.519681
652.578458	2555.738971
652.921238	2555.433981
653.263967	2557.526060
653.606644	2555.184444
653.949269	2555.212171
654.291843	2555.895247
654.634365	2556.578323
654.976836	2555.277706
655.319255	2555.970864
655.661622	2554.864331
656.003938	2553.651933
656.346203	2557.440361
656.688416	2559.580330
657.030577	2555.280226
657.372687	2556.636297
657.714746	2557.475649
658.056753	2555.292829
658.398708	2559.411452
658.740612	2557.223591
659.082465	2552.517674
659.424266	2553.039433
659.766016	2554.803837
660.107715	2555.156718
660.449362	2552.769732
660.790958	2557.841132
661.132503	2557.221070
661.473996	2555.713765
661.815438	2558.211657
662.156829	2556.018755
662.498168	2554.831563
662.839456	2558.123437
663.180693	2557.226112
663.521879	2558.826678
663.863013	2558.998077
664.204097	2558.488921
664.545129	2555.814588
664.886110	2555.565051
665.227040	2555.106306
665.567918	2554.057746
665.908746	2555.993549
666.249522	2554.801317
666.590248	2552.202602
666.930922	2554.851728
667.271545	2556.858107
667.612118	2556.734599
667.952639	2556.028838
668.293109	2557.011863
668.633528	2558.559497
668.973896	2555.290308
669.314213	2555.565051
669.654480	2559.013201
669.994695	2554.771070
670.334859	2556.013714
670.674973	2556.210319
671.015035	2555.736451
671.355047	2551.718651
671.695008	2556.860628
672.034918	2555.948179
672.374777	2555.769218
672.714585	2555.134033
673.054342	2556.966492
673.394049	2555.305432
673.733705	2554.370298
674.073310	2558.199054
674.412864	2555.560010
674.752368	2558.320042
675.091820	2557.130330
675.431223	2556.664023
675.770574	2555.338199
676.109875	2554.201419
676.449125	2555.000442
676.788324	2551.201933
677.127473	2552.346275
677.466571	2551.363250
677.805619	2556.459856
678.144616	2554.650082
678.483562	2558.156204
678.822458	2554.786193
679.161303	2554.372818
679.500098	2554.105637
679.838842	2556.684187
680.177535	2556.477500
680.516179	2554.529094
680.854771	2554.760987
681.193314	2555.272664
681.531805	2555.272664
681.870247	2555.055895
682.208638	2556.296019
682.546978	2554.685370
682.885268	2556.651420
683.223508	2555.459187
683.561697	2555.623025
683.899836	2556.056564
684.237925	2556.351471
684.575963	2554.801317
684.913951	2557.006821
685.251889	2553.178065
685.589776	2558.224260
685.927614	2556.225442
686.265401	2558.284754
686.603137	2556.878272
686.940824	2555.544887
687.278460	2556.961451
687.616046	2557.899106
687.953582	2555.300391
688.291068	2558.448591
688.628504	2556.011193
688.965889	2556.341389
689.303224	2557.021945
689.640510	2557.841132
689.977745	2555.837274
690.314930	2555.807027
690.652065	2554.629917
690.989150	2553.873744
691.326185	2554.680329
691.663170	2554.766028
692.000105	2555.426420
692.336990	2556.447253
692.673825	2555.877603
693.010610	2555.002963
693.347345	2550.662529
693.684030	2552.053888
694.020665	2552.487427
694.357251	2553.102448
694.693786	2554.491286
695.030272	2555.368446
695.366707	2554.445915
695.703093	2554.463559
696.039429	2557.102603
696.375716	2553.972047
696.711952	2554.650082
697.048139	2554.014897
697.384276	2557.221070
697.720363	2553.500699
698.056400	2556.051523
698.392388	2557.178221
698.728326	2556.638817
699.064214	2556.510268
699.400053	2552.099258
699.735842	2556.543035
700.071581	2556.154866
700.407270	2554.317366
700.742910	2558.241904
701.078501	2554.662685
701.414042	2556.157387
701.749533	2556.621173
702.084974	2557.334496
702.420366	2554.264434
702.755709	2556.149825
703.091002	2553.220915
703.426246	2553.621687
703.761440	2553.793086
704.096584	2558.748540
704.431679	2555.696121
704.766725	2553.755277
705.101721	2555.970864
705.436668	2554.730740
705.771565	2553.115051
706.106413	2555.232335
706.441212	2555.537325
706.775961	2556.543035
707.110661	2555.496996
707.445311	2556.543035
707.779913	2554.529094
708.114465	2553.646892
708.448967	2557.034548
708.783421	2552.638662
709.117825	2556.054043
709.452180	2555.648230
709.786485	2553.331820
710.120742	2552.792417
710.454949	2551.186809
710.789107	2551.728733
711.123216	2552.222766
711.457275	2557.223591
711.791286	2554.622356
712.125247	2554.299722
712.459159	2554.221584
712.793023	2554.849208
713.126837	2556.157387
713.460602	2555.983467
713.794318	2554.236707
714.127985	2556.837943
714.461602	2554.768549
714.795171	2554.360216
715.128691	2553.467931
715.462162	2556.570762
715.795584	2555.101265
716.128957	2555.002963
716.462281	2554.556821
716.795556	2554.307283
717.128782	2553.513302
717.461960	2555.678477
717.795088	2554.337530
718.128167	2555.179403
718.461198	2553.808209
718.794180	2555.943138
719.127113	2555.985988
719.459997	2557.084959
719.792833	2554.541697
720.125619	2554.387942
720.458357	2552.772252
720.791046	2555.575134
721.123686	2552.978939
721.456278	2555.179403
721.788821	2554.357695
722.121315	2554.662685
722.453761	2554.566903
722.786158	2554.153528
723.118506	2553.898950
723.450805	2556.931204
723.783056	2554.077911
724.115259	2554.617314
724.447412	2555.111347
724.779518	2554.178734
725.111574	2554.564382
725.443582	2556.568241
725.775542	2552.820143
726.107453	2556.633776
726.439315	2554.932387
726.771129	2556.001111
727.102895	2550.002138
727.434612	2552.689073
727.766281	2549.717313
728.097901	2555.718807
728.429473	2556.774928
728.760996	2555.378529
729.092471	2556.996739
729.423897	2554.095555
729.755276	2555.237376
730.086606	2556.543035
730.417887	2553.881306
730.749120	2553.551110
731.080305	2556.202757
731.411442	2553.311656
731.742530	2554.428271
732.073570	2556.293498
732.404562	2553.518343
732.735506	2554.266954
733.066401	2552.560524
733.397249	2554.138405
733.728048	2554.713096
734.058798	2555.542366
734.389501	2553.246121
734.720156	2554.922304
735.050762	2556.190154
735.381320	2554.342572
735.711831	2556.694270
736.042293	2552.603373
736.372707	2553.069680
736.703073	2552.237890
737.033391	2554.720658
737.363661	2556.575803
737.693883	2554.571944
738.024056	2554.002294
738.354182	2552.278219
738.684260	2556.364074
739.014290	2554.508930
739.344272	2554.766028
739.674207	2551.418702
740.004093	2553.727551
740.333931	2555.040771
740.663722	2554.735782
740.993464	2557.616801
741.323159	2552.121943
741.652806	2554.342572
741.982405	2554.798796
742.311956	2555.005483
742.641460	2554.551779
742.970915	2551.688404
743.300323	2551.204453
743.629683	2550.982642
743.958996	2553.309135
744.288260	2548.615821
744.617477	2554.168652
744.946647	2553.591440
745.275768	2554.783672
745.604842	2555.368446
745.933869	2552.137067
746.262847	2553.780483
746.591778	2554.813919
746.920662	2554.750905
747.249498	2553.626728
747.578286	2554.834084
747.907027	2554.019938
748.235720	2556.472459
748.564365	2553.727551
748.892963	2554.801317
749.221514	2553.354505
749.550017	2554.710576
749.878473	2555.423899
750.206881	2553.944320
750.535242	2556.969013
750.863555	2553.621687
751.191821	2552.893240
751.520039	2554.919784
751.848210	2557.760474
752.176334	2552.805020
752.504411	2555.217212
752.832440	2555.416337
753.160421	2553.195709
753.488356	2553.808209
753.816243	2555.058415
754.144082	2553.407437
754.471875	2552.938610
754.799620	2555.038251
755.127318	2551.146480
755.454969	2553.523384
755.782572	2553.296532
756.110129	2553.253682
756.437638	2553.079763
756.765100	2549.770245
757.092515	2556.200237
757.419882	2557.427758
757.747203	2552.724361
758.074477	2549.833259
758.401703	2550.342416
758.728882	2552.570606
759.056014	2553.919115
759.383099	2553.977088
759.710138	2550.556665
760.037129	2549.044319
760.364073	2551.950544
760.690970	2548.693959
761.017820	2554.443395
761.344623	2554.876934
761.671379	2554.188816
761.998088	2554.876934
762.324751	2554.889537
762.651366	2554.519012
762.977935	2552.600853
763.304456	2553.470452
763.630931	2555.068498
763.957359	2551.355688
764.283740	2553.059598
764.610074	2552.278219
764.936362	2552.265616
765.262602	2551.101110
765.588796	2551.537169
765.914943	2552.570606
766.241044	2555.973385
766.567097	2553.082283
766.893104	2553.180586
767.219064	2554.544218
767.544978	2553.788045
767.870845	2555.297870
768.196665	2551.262427
768.522438	2552.439536
768.848165	2553.591440
769.173846	2554.660164
769.499479	2552.782334
769.825066	2552.958775
770.150607	2553.619166
770.476101	2553.931718
770.801548	2554.040102
771.126949	2553.687222
771.452303	2552.026161
771.777611	2552.827705
772.102872	2551.885009
772.428087	2551.214536
772.753256	2553.384752
773.078378	2556.169990
773.403453	2554.269475
773.728482	2553.835936
774.053465	2555.164280
774.378401	2554.183775
774.703291	2554.821481
775.028135	2553.772921
775.352932	2556.812737
775.677683	2552.479865
776.002388	2552.096737
776.327046	2547.915100
776.651658	2551.121274
776.976224	2548.956099
777.300743	2552.212684
777.625216	2552.588250
777.949643	2555.776780
778.274024	2556.230484
778.598359	2552.583209
778.922647	2550.881819
779.246889	2553.190668
779.571086	2556.152346
779.895236	2552.731923
780.219339	2551.569937
780.543397	2552.452139
780.867409	2554.582026
781.191374	2556.049002
781.515294	2552.552962
781.839167	2552.752087
782.162995	2554.024979
782.486776	2553.236038
782.810511	2554.108158
783.134201	2552.953734
783.457844	2549.689587
783.781441	2553.110009
784.104993	2553.384752
784.428498	2551.673281
784.751958	2552.134546
785.075372	2552.225287
785.398739	2552.316028
785.722061	2551.998435
786.045337	2551.978270
786.368568	2555.088662
786.691752	2552.946172
787.014891	2554.014897
787.337983	2551.673281
787.661030	2552.048847
787.984031	2551.156562
788.306987	2552.318548
788.629897	2549.003990
788.952760	2552.951213
789.275579	2554.284598
789.598351	2554.103117
789.921078	2553.319217
790.243759	2551.733774
790.566395	2555.771739
790.888984	2553.324258
791.211529	2553.452808
791.534027	2555.454146
791.856480	2554.007335
792.178888	2550.234031
792.501249	2548.986346
792.823566	2549.442570
793.145836	2548.469627
793.468062	2551.665719
793.790241	2550.687735
794.112375	2553.067160
794.434464	2555.106306
794.756507	2554.277037
795.078505	2551.111192
795.400457	2549.936603
795.722364	2555.204609
796.044226	2551.630431
796.366042	2552.502550
796.687812	2555.050854
797.009538	2551.867365
797.331218	2553.631769
797.652852	2551.030533
797.974442	2553.445246
798.295986	2552.981460
798.617484	2551.806871
798.938938	2554.093034
799.260346	2554.506409
799.581709	2551.660678
799.903026	2553.402396
800.224299	2555.199568
800.545526	2553.719989
800.866708	2552.840308
801.187845	2552.905843
801.508936	2551.426264
801.829983	2551.489278
802.150984	2552.416851
802.471940	2551.411141
802.792851	2551.942982
803.113717	2553.354505
803.434538	2550.904505
803.755314	2552.812581
804.076045	2550.596994
804.396731	2551.877447
804.717372	2551.451470
805.037967	2553.263765
805.358518	2554.266954
805.679024	2550.748229
805.999485	2552.797458
806.319901	2551.269988
806.640272	2551.166645
806.960598	2553.808209
807.280879	2550.644885
807.601115	2552.318548
807.921306	2551.491799
808.241453	2549.619010
808.561554	2547.839483
808.881611	2549.513146
809.201623	2546.775800
809.521590	2549.613969
809.841513	2550.889381
810.161390	2552.028682
810.481223	2553.699824
810.801011	2552.474824
811.120755	2552.552962
811.440453	2551.968188
811.760107	2552.245452
812.079716	2552.890719
812.399281	2550.324772
812.718801	2550.826367
813.038276	2551.053219
813.357707	2553.029351
813.677093	2550.123126
813.996434	2551.779145
814.315731	2550.808723
814.634983	2552.005997
814.954191	2552.303425
815.273354	2552.958775
815.592473	2550.967519
815.911547	2551.214536
816.230577	2551.978270
816.549562	2552.497509
816.868502	2549.528270
817.187399	2550.380225
817.506250	2549.737478
817.825058	2552.752087
818.143821	2552.013558
818.462539	2553.387273
818.781213	2551.758980
819.099843	2550.783517
819.418429	2551.766542
819.736970	2550.806202
820.055466	2551.310317
820.373919	2551.249824
820.692327	2548.754452
821.010691	2554.065308
821.329011	2553.271326
821.647286	2550.569268
821.965517	2550.365101
822.283704	2552.298384
822.601847	2551.801830
822.919945	2552.462221
823.237999	2552.419371
823.556010	2551.310317
823.873976	2551.048178
824.191897	2549.039278
824.509775	2547.872251
824.827609	2545.029040
825.145398	2548.126829
825.463144	2551.882488
825.780845	2551.600184
826.098502	2553.309135
826.416116	2551.955585
826.733685	2550.455842
827.051210	2552.313507
827.368692	2552.918446
827.686129	2551.988353
828.003522	2550.554144
828.320872	2550.375183
828.638177	2549.538352
828.955439	2550.743188
829.272656	2552.492468
829.589830	2551.113713
829.906960	2551.529608
830.224046	2552.129505
830.541088	2549.792930
830.858086	2549.868547
831.175041	2553.155380
831.491952	2552.789896
831.808819	2550.259237
832.125642	2549.699669
832.442421	2550.780996
832.759157	2550.453321
833.075849	2551.993394
833.392497	2550.261758
833.709101	2551.549772
834.025662	2552.595812
834.342179	2551.262427
834.658653	2549.876109
834.975083	2549.593805
835.291469	2555.398693
835.607811	2552.028682
835.924110	2552.268137
836.240366	2552.512633
836.556578	2553.084804
836.872746	2551.186809
837.188871	2551.832077
837.504952	2551.529608
837.820990	2551.703528
838.136984	2553.619166
838.452935	2547.892415
838.768842	2549.263609
839.084706	2550.302087
839.400526	2552.021120
839.716303	2549.495502
840.032037	2549.119936
840.347727	2545.999462
840.663373	2547.927703
840.978977	2546.037271
841.294537	2551.874927
841.610054	2548.867878
841.925527	2552.444577
842.240957	2553.725030
842.556344	2551.091027
842.871687	2549.631613
843.186987	2553.488096
843.502244	2551.779145
843.817458	2554.501368
844.132629	2548.782179
844.447756	2551.713610
844.762840	2550.760832
845.077881	2550.544062
845.392879	2550.135729
845.707833	2551.665719
846.022745	2552.638662
846.337613	2552.008517
846.652438	2549.901315
846.967221	2549.959288
847.281960	2550.065152
847.596656	2551.852242
847.911309	2552.207643
848.225919	2551.073383
848.540485	2551.567416
848.855009	2551.927859
849.169490	2550.264278
849.483928	2551.857283
849.798323	2549.422405
850.112675	2551.791748
850.426984	2549.661860
850.741251	2551.796789
851.055474	2550.060111
851.369654	2549.745039
851.683792	2551.222097
851.997887	2552.837787
852.311938	2549.195553
852.625947	2550.155893
852.939914	2553.130174
853.253837	2552.454659
853.567718	2550.234031
853.881555	2551.738816
854.195350	2552.605894
854.509103	2549.301418
854.822812	2547.456355
855.136479	2550.077755
855.450103	2551.108671
855.763685	2548.673794
856.077224	2545.785213
856.390720	2550.095399
856.704173	2547.905018
857.017584	2551.111192
857.330953	2551.254865
857.644278	2552.915925
857.957561	2553.533466
858.270802	2547.973074
858.584000	2549.548434
858.897155	2550.516336
859.210268	2547.400903
859.523339	2549.072045
859.836367	2552.885678
860.149352	2548.734288
860.462295	2549.435008
860.775195	2549.649257
861.088054	2550.687735
861.400869	2553.213353
861.713642	2550.907025
862.026373	2549.354350
862.339062	2551.602704
862.651708	2551.910215
862.964312	2552.076573
863.276873	2554.221584
863.589392	2551.285112
863.901869	2550.044988
864.214303	2551.852242
864.526696	2551.459032
864.839045	2550.705379
865.151353	2553.016748
865.463619	2551.040616
865.775842	2551.678322
866.088023	2551.476676
866.400162	2549.944165
866.712258	2551.630431
867.024313	2550.337375
867.336325	2550.642365
867.648296	2549.971891
867.960224	2549.929041
868.272110	2552.147149
868.583954	2550.901984
868.895755	2550.891902
869.207515	2549.752601
869.519233	2549.583722
869.830909	2549.598846
870.142542	2549.213198
870.454134	2548.600697
870.765684	2549.306459
871.077191	2550.556665
871.388657	2546.586756
871.700081	2547.355532
872.011463	2546.821170
872.322803	2544.482075
872.634101	2548.197405
872.945357	2551.295194
873.256571	2547.489123
873.567744	2550.483568
873.878874	2550.329813
874.189963	2551.350647
874.501010	2549.518187
874.812015	2548.076417
875.122979	2553.432643
875.433900	2551.411141
875.744780	2547.950388
876.055618	2549.946685
876.366415	2549.419885
876.677169	2551.204453
876.987882	2551.353167
877.298554	2550.667570
877.609183	2549.866027
877.919771	2550.231511
878.230317	2549.898794
878.540822	2552.225287
878.851285	2550.980122
879.161707	2550.428116
879.472087	2549.976932
879.782425	2550.700338
880.092722	2552.202602
880.402977	2551.133877
880.713191	2548.971222
881.023363	2551.045657
881.333494	2550.438198
881.643583	2550.566747
881.953631	2550.339895
882.263637	2551.758980
882.573602	2548.877961
882.883526	2551.113712
883.193408	2549.371994
883.503248	2552.268137
883.813048	2550.723023
884.122806	2552.726882
884.432522	2547.801674
884.742197	2551.083466
885.051831	2548.300749
885.361424	2549.508105
885.670975	2549.883671
885.980485	2550.778476
886.289954	2549.437529
886.599382	2550.649926
886.908768	2547.950388
887.218113	2546.526263
887.527417	2544.809750
887.836680	2546.541386
888.145901	2550.123126
888.455082	2549.374514
888.764221	2551.327962
889.073319	2550.254196
889.382376	2548.267981
889.691392	2548.653629
890.000366	2547.710934
890.309300	2550.155893
890.618193	2548.109185
890.927044	2547.610111
891.235855	2549.155224
891.544625	2547.569781
891.853353	2548.772097
892.162041	2549.944165
892.470687	2547.930224
892.779293	2550.327292
893.087858	2552.870555
893.396381	2549.200595
893.704864	2550.758311
894.013306	2550.780996
894.321707	2547.625234
894.630068	2550.846531
894.938387	2547.594987
895.246665	2546.460728
895.554903	2550.700338
895.863100	2550.375183
896.171256	2547.201777
896.479371	2549.440049
896.787446	2547.635316
897.095480	2552.121943
897.403473	2552.058929
897.711425	2548.711603
898.019336	2553.140256
898.327207	2550.465924
898.635038	2549.152704
898.942827	2547.857127
899.250576	2551.587581
899.558284	2546.188505
899.865952	2548.572971
900.173579	2551.993394
900.481165	2548.699000
900.788711	2549.626572
901.096216	2548.371325
901.403681	2549.898794
901.711105	2549.528270
902.018489	2548.736808
902.325832	2545.651622
902.633135	2548.537683
902.940397	2544.860161
903.247619	2543.191539
903.554800	2546.914431
903.861941	2549.760163
904.169041	2549.384597
904.476101	2548.693959
904.783121	2548.116747
905.090100	2551.595143
905.397039	2545.996941
905.703938	2548.731767
906.010796	2546.289328
906.317614	2548.857796
906.624391	2551.232180
906.931129	2549.036757
907.237826	2550.108002
907.544483	2550.465924
907.851099	2550.554144
908.157675	2549.306459
908.464211	2549.984494
908.770707	2549.021634
909.077163	2552.646223
909.383578	2549.979453
909.689954	2548.928372
909.996289	2551.116233
910.302584	2550.692776
910.608839	2551.075904
910.915054	2547.968032
911.221229	2549.084648
911.527363	2551.459032
911.833458	2547.811757
912.139513	2551.534649
912.445527	2547.703372
912.751502	2547.504246
913.057436	2547.610111
913.363331	2549.568599
913.669186	2545.233207
913.975000	2549.472817
914.280775	2548.575492
914.586510	2551.126315
914.892205	2550.481048
915.197859	2549.566078
915.503475	2549.649257
915.809050	2547.912580
916.114585	2550.712941
916.420081	2549.626572
916.725536	2549.046839
917.030952	2548.915769
917.336328	2551.529608
917.641665	2547.539534
917.946961	2546.836293
918.252218	2546.594318
918.557435	2543.947712
918.862612	2547.163968
919.167750	2549.427447
919.472848	2550.425595
919.777906	2547.035419
920.082925	2551.443908
920.387904	2548.401572
920.692843	2547.584905
920.997743	2548.454504
921.302603	2548.449463
921.607423	2549.447611
921.912204	2550.780996
922.216946	2549.185471
922.521647	2548.421736
922.826310	2547.721016
923.130932	2550.775955
923.435516	2547.340409
923.740059	2549.162786
924.044564	2547.589946
924.349028	2549.472817
924.653454	2547.635316
924.957840	2550.717982
925.262186	2546.874102
925.566493	2549.946685
925.870761	2547.945347
926.174989	2549.054401
926.479178	2548.759494
926.783328	2549.346788
927.087438	2550.619679
927.391509	2549.437529
927.695541	2548.580533
927.999533	2549.843342
928.303486	2551.154042
928.607400	2548.542724
928.911275	2548.817467
929.215110	2552.086655
929.518906	2546.548948
929.822663	2546.879143
930.126381	2546.385110
930.430060	2544.895449
930.733699	2550.753270
931.037299	2547.965512
931.340861	2550.254196
931.644383	2550.226469
931.947866	2549.203115
932.251309	2549.540873
932.554714	2548.973743
932.858080	2544.792106
933.161407	2545.628937
933.464694	2546.942158
933.767943	2545.260933
934.071153	2547.645399
934.374323	2550.213867
934.677455	2547.567261
934.980548	2547.494164
935.283602	2548.875440
935.586617	2550.992725
935.889593	2549.961809
936.192530	2548.819987
936.495428	2549.424926
936.798287	2549.261088
937.101108	2548.419216
937.403890	2547.695810
937.706632	2548.991387
938.009336	2546.795964
938.312002	2547.080789
938.614628	2548.648588
938.917216	2547.791592
939.219765	2546.647250
939.522275	2546.281767
939.824747	2549.135060
940.127179	2547.784030
940.429573	2548.373845
940.731929	2546.750594
941.034246	2547.153886
941.336524	2546.818649
941.638763	2547.370656
941.940964	2548.194884
942.243126	2547.705892
942.545250	2551.784186
942.847335	2549.936603
943.149381	2545.787733
943.451389	2544.517363
943.753359	2547.463917
944.055290	2548.651109
944.357182	2547.842004
944.659036	2547.693290
944.960851	2549.084648
945.262628	2548.988866
945.564367	2549.495502
945.866067	2547.854607
946.167729	2547.710934
946.469352	2548.552806
946.770937	2547.292518
947.072484	2548.157076
947.373992	2548.872920
947.675462	2551.842159
947.976893	2547.731098
948.278286	2544.285470
948.579641	2546.017106
948.880958	2542.677342
949.182236	2547.968032
949.483476	2548.562889
949.784678	2550.634803
950.085841	2548.270502
950.386967	2548.744370
950.688054	2549.261088
950.989103	2547.857127
951.290114	2545.618855
951.591087	2549.266130
951.892021	2548.210008
952.192917	2548.366284
952.493776	2547.804195
952.794596	2548.693959
953.095378	2546.987528
953.396122	2549.041798
953.696828	2550.044988
953.997496	2546.667415
954.298126	2545.538196
954.598718	2550.407951
954.899272	2548.409133
955.199788	2549.460214
955.500266	2545.719678
955.800706	2548.053732
956.101108	2547.612631
956.401472	2549.112374
956.701798	2546.760676
957.002087	2546.972405
957.302337	2549.903836
957.602550	2549.437529
957.902724	2545.303783
958.202861	2547.446273
958.502960	2546.977446
958.803022	2548.600697
959.103045	2548.242775
959.403031	2547.143804
959.702979	2547.307641
960.002889	2549.218239
960.302762	2547.335368
960.602596	2548.794782
960.902393	2548.993907
961.202153	2548.802343
961.501875	2547.121119
961.801559	2548.489792
962.101205	2548.676315
962.400814	2549.924000
962.700385	2545.724719
962.999918	2548.953578
963.299414	2541.661549
963.598873	2545.737322
963.898293	2541.311189
964.197677	2547.022816
964.497022	2548.449463
964.796331	2549.072045
965.095601	2548.358722
965.394835	2547.965512
965.694030	2549.739998
965.993189	2547.668084
966.292309	2548.220090
966.591393	2548.850234
966.890439	2547.531973
967.189447	2546.004503
967.488419	2548.371325
967.787353	2548.560368
968.086249	2546.110367
968.385108	2547.763866
968.683930	2550.425595
968.982714	2546.962322
969.281462	2546.667415
969.580172	2545.424770
969.878844	2548.933413
970.177480	2546.480892
970.476078	2546.271684
970.774639	2547.640357
971.073162	2546.301931
971.371649	2547.423588
971.670098	2546.982487
971.968510	2545.303783
972.266885	2546.571633
972.565223	2546.538865
972.863524	2549.142621
973.161788	2545.129863
973.460014	2545.671787
973.758204	2550.589432
974.056356	2545.782692
974.354471	2546.538865
974.652550	2547.950388
974.950591	2549.959288
975.248595	2549.729916
975.546563	2545.989380
975.844493	2548.356201
976.142386	2547.405944
976.440243	2547.562220
976.738062	2549.195553
977.035845	2547.844524
977.333590	2546.198588
977.631299	2549.389638
977.928971	2543.990562
978.226606	2544.046015
978.524204	2543.741025
978.821765	2540.207176
979.119290	2547.048022
979.416777	2544.272867
979.714228	2547.884853
980.011642	2546.594318
980.309020	2546.417878
980.606360	2547.615152
980.903664	2545.318906
981.200931	2546.808567
981.498162	2545.760007
981.795356	2544.527445
982.092513	2545.918803
982.389633	2548.419216
982.686717	2547.622713
982.983764	2548.267981
983.280775	2548.159596
983.577749	2546.614483
983.874686	2547.373176
984.171587	2547.181612
984.468451	2547.015254
984.765279	2547.819318
985.062070	2548.502395
985.358824	2547.892415
985.655543	2545.477703
985.952224	2546.465769
986.248869	2547.017775
986.545478	2545.414688
986.842050	2545.583567
987.138586	2546.218752
987.435086	2548.091541
987.731549	2544.807229
988.027975	2546.690100
988.324366	2546.674977
988.620719	2545.981818
988.917037	2547.534493
989.213318	2545.853268
989.509563	2546.599359
989.805772	2548.305790
990.101944	2547.476520
990.398080	2546.788403
990.694180	2549.124977
990.990244	2549.001469
991.286271	2546.153217
991.582262	2544.915614
991.878217	2549.543393
992.174136	2547.544576
992.470019	2544.860161
992.765865	2545.709596
993.061676	2540.980993
993.357450	2546.155738
993.653188	2543.718340
993.948890	2546.059956
994.244556	2547.133722
994.540186	2546.470810
994.835780	2546.196067
995.131337	2548.338557
995.426859	2547.121119
995.722345	2545.424770
996.017795	2548.951057
996.313208	2544.325799
996.608586	2547.058104
996.903928	2547.438711
997.199234	2545.064328
997.494504	2546.133053
997.789738	2548.020965
998.084936	2546.216232
998.380099	2546.879143
998.675225	2548.535162
998.970316	2546.664894
999.265371	2546.133053
999.560390	2545.313865
999.855373	2546.165820
1000.150320	2544.356046
1000.445232	2547.111036
1000.740108	2544.981149
1001.034948	2545.873433
1001.329752	2547.960471
1001.624521	2545.208001
1001.919254	2548.192364
1002.213951	2547.002652
1002.508613	2548.225131
1002.803239	2547.166489
1003.097829	2545.288659
1003.392384	2545.581046
1003.686903	2547.272353
1003.981386	2547.317724
1004.275834	2543.854451
1004.570246	2547.383259
1004.864623	2545.964174
1005.158964	2546.175902
1005.453270	2545.646581
1005.747540	2544.487116
1006.041775	2545.016437
1006.335974	2544.053577
1006.630138	2544.449307
1006.924266	2549.687066
1007.218359	2547.582384
1007.512416	2546.054915
1007.806438	2544.605583
1008.100425	2544.482075
1008.394376	2540.428987
1008.688292	2547.078269
1008.982172	2545.356715
1009.276017	2548.204967
1009.569827	2544.814791
1009.863602	2547.489123
1010.157341	2545.142466
1010.451045	2546.737991
1010.744714	2545.618855
1011.038347	2546.735470
1011.331945	2545.265974
1011.625508	2546.717826
1011.919036	2546.097764
1012.212528	2548.026006
1012.505986	2546.906870
1012.799408	2546.619524
1013.092795	2544.630789
1013.386147	2546.601880
1013.679464	2544.658515
1013.972745	2546.561551
1014.265992	2547.864689
1014.559204	2547.158927
1014.852380	2544.471992
1015.145521	2546.541386
1015.438628	2545.235727
1015.731699	2548.089020
1016.024736	2545.414688
1016.317737	2549.371994
1016.610703	2544.509801
1016.903635	2547.831921
1017.196531	2546.075079
1017.489393	2545.656663
1017.782219	2546.806047
1018.075011	2545.071890
1018.367768	2543.098278
1018.660490	2543.551982
1018.953177	2543.551982
1019.245829	2543.551982
