Dividing Wavelength (nm)	Counts (n)	Blue Motor Position (mm): 0.000000	Red Motor Position (mm): 17.000000	
326.493990	2082.462845
326.888308	2082.462845
327.282561	2082.462845
327.676750	2057.758671
328.070874	2060.576676
328.464933	2068.042625
328.858929	2079.458318
329.252859	2090.465677
329.646726	2105.712647
330.040528	2117.813937
330.434265	2140.484005
330.827938	2158.488486
331.221547	2178.348112
331.615091	2199.006760
332.008571	2220.058619
332.401986	2241.959912
332.795338	2262.507655
333.188625	2279.766045
333.581847	2299.771864
333.975006	2316.009421
334.368100	2335.485918
334.761129	2353.417303
335.154095	2367.552698
335.546996	2383.097096
335.939833	2401.240209
336.332606	2413.439801
336.725315	2427.986050
337.117960	2433.405291
337.510540	2444.084975
337.903056	2452.566717
338.295508	2457.116358
338.687896	2463.579117
339.080220	2473.774851
339.472480	2477.868268
339.864676	2480.943372
340.256807	2483.443784
340.648875	2485.130050
341.040879	2488.033754
341.432818	2487.832108
341.824694	2491.933087
342.216506	2488.157263
342.608253	2488.918477
342.999937	2488.812613
343.391557	2486.491161
343.783113	2488.467294
344.174605	2482.821201
344.566033	2481.545789
344.957397	2482.463279
345.348697	2478.137969
345.739934	2478.153093
346.131106	2476.532362
346.522215	2475.841724
346.913260	2472.169243
347.304241	2471.249233
347.695159	2467.861577
348.086012	2468.559777
348.476802	2465.449385
348.867528	2464.247070
349.258191	2463.644652
349.648789	2462.107100
350.039324	2465.600620
350.429796	2464.778912
350.820203	2463.241360
351.210548	2460.564507
351.600828	2460.335135
351.991045	2459.853704
352.381198	2457.988478
352.771288	2457.227263
353.161314	2461.983592
353.551276	2459.699949
353.941175	2459.226081
354.331010	2460.582151
354.720782	2460.453602
355.110490	2461.189610
355.500135	2462.034003
355.889717	2461.000567
356.279235	2460.793880
356.668689	2464.292440
357.058080	2462.303705
357.447408	2461.434106
357.836672	2461.247583
358.225873	2464.126082
358.615010	2459.198354
359.004084	2468.693368
359.393095	2467.049952
359.782043	2467.170939
360.170927	2467.218830
360.559748	2469.827627
360.948505	2467.745631
361.337199	2470.213276
361.725830	2472.396095
362.114398	2471.080354
362.502903	2472.002885
362.891344	2472.101188
363.279722	2470.530868
363.668037	2475.229224
364.056289	2477.187712
364.444478	2478.526138
364.832603	2479.065542
365.220665	2476.915490
365.608665	2477.225521
365.996601	2479.047898
366.384474	2477.016313
366.772284	2479.352887
367.160031	2480.134266
367.547715	2480.197281
367.935336	2480.298104
368.322893	2482.468321
368.710388	2482.780872
369.097820	2486.987715
369.485189	2486.327324
369.872495	2486.029896
370.259738	2488.305977
370.646918	2490.246821
371.034035	2490.566934
371.421090	2493.654641
371.808081	2496.999447
372.195010	2502.832062
372.581875	2504.339367
372.968678	2512.208608
373.355418	2516.922087
373.742096	2525.678571
374.128710	2534.530837
374.515262	2545.422250
374.901751	2559.086297
375.288177	2570.776733
375.674540	2588.771132
376.060841	2608.746704
376.447079	2630.532050
376.833254	2654.328817
377.219367	2674.390089
377.605417	2705.798998
377.991404	2728.728686
378.377329	2769.355345
378.763191	2796.380971
379.148991	2841.458968
379.534727	2887.860269
379.920402	2933.260900
380.306013	2976.445945
380.691563	3036.816283
381.077049	3090.718820
381.462474	3141.929382
381.847835	3212.727346
382.233134	3276.346708
382.618371	3331.683453
383.003545	3416.412647
383.388657	3493.665809
383.773706	3578.236206
384.158693	3644.965959
384.543618	3732.495513
384.928480	3807.661638
385.313280	3905.288623
385.698017	4004.312008
386.082692	4116.946509
386.467305	4181.322043
386.851856	4299.620280
387.236344	4446.884987
387.620770	4508.439996
388.005133	4621.898725
388.389435	4755.680866
388.773674	4836.427547
389.157851	4961.448163
389.541965	5092.238379
389.926018	5118.633860
390.310008	5287.439417
390.693936	5404.522736
391.077802	5514.432493
391.461606	5637.600484
391.845348	5751.215489
392.229027	5869.319641
392.612645	6080.415438
392.996200	6195.114291
393.379694	6362.886411
393.763125	6575.870120
394.146494	6662.739283
394.529801	6802.492671
394.913047	7026.526589
395.296230	7024.931064
395.679351	7075.662715
396.062410	7327.112949
396.445408	7226.526806
396.828343	7381.186885
397.211217	7508.677666
397.594028	7398.263794
397.976778	7597.901048
398.359466	7760.107735
398.742092	7738.201401
399.124656	7882.650623
399.507158	8062.960093
399.889598	8086.633352
400.271977	8293.885269
400.654294	8327.078746
401.036549	8521.440433
401.418742	8550.059063
401.800874	8844.021347
402.182944	8929.249614
402.564952	9274.924054
402.946898	9119.444787
403.328783	9172.074433
403.710606	9359.799441
404.092367	9609.170198
404.474067	9962.658426
404.855705	9763.353888
405.237282	9720.957785
405.618797	10141.528647
406.000250	10367.722700
406.381642	10720.578263
406.762972	10669.433237
407.144240	10476.936777
407.525447	10717.377130
407.906593	10660.144911
408.287677	10913.127655
408.668700	11044.429548
409.049661	11026.689728
409.430560	11163.476396
409.811399	11126.328133
410.192176	11269.607808
410.572891	11328.687610
410.953545	11769.962492
411.334138	11248.986968
411.714669	11784.733073
412.095139	11129.488937
412.475547	11557.629092
412.855894	11397.630430
413.236180	11668.153869
413.616405	11331.677015
413.996568	11553.744883
414.376670	11479.221505
414.756711	11321.972793
415.136691	11526.341170
415.516609	11618.874070
415.896466	11629.820935
416.276262	11808.970940
416.655997	12137.288687
417.035670	12089.344794
417.415283	12556.775702
417.794834	12531.426260
418.174324	12205.707227
418.553753	12025.833817
418.933121	12335.963081
419.312428	12077.787948
419.691674	11892.548230
420.070859	12149.137919
420.449983	11757.684762
420.829045	12061.648694
421.208047	11743.370405
421.586988	11955.729011
421.965867	12001.290959
422.344686	11856.314937
422.723444	12118.580965
423.102141	11032.035871
423.480777	11720.919627
423.859352	11216.645446
424.237866	11802.409878
424.616319	11444.263624
424.994712	11698.872140
425.373044	11392.001982
425.751314	11635.340999
426.129524	10922.955384
426.507673	11373.909281
426.885762	11030.768021
427.263789	10930.101220
427.641756	10840.139309
428.019662	10678.033445
428.397508	10512.630667
428.775292	10453.200504
429.153016	10246.755172
429.530679	10083.820038
429.908282	9898.247604
430.285824	9581.166588
430.663305	9692.467704
431.040726	9336.148868
431.418086	9067.278927
431.795385	9133.108835
432.172624	9106.751162
432.549802	8745.736491
432.926920	8627.256772
433.303977	8398.038028
433.680974	8289.907798
434.057910	8207.308492
434.434786	8026.194958
434.811601	7814.040519
435.188355	7946.383411
435.565050	7656.769122
435.941683	7462.578835
436.318257	7525.898248
436.694770	7289.954604
437.071222	7260.254646
437.447614	6852.891606
437.823946	6681.111768
438.200218	6560.348408
438.576429	6348.824113
438.952580	6258.252222
439.328670	6094.361790
439.704700	6018.177352
440.080670	5797.974711
440.456580	5755.369400
440.832429	5642.697091
441.208218	5344.522923
441.583947	5277.828457
441.959616	5167.109596
442.335224	5070.392538
442.710773	4970.408814
443.086261	4913.952932
443.461689	4724.080393
443.837057	4624.910814
444.212365	4587.129887
444.587612	4484.663394
444.962800	4341.502186
445.337927	4283.022281
445.712995	4084.541972
446.088002	4139.132627
446.462949	4071.177873
446.837837	3994.834639
447.212664	3915.844799
447.587431	4010.305940
447.962139	4108.890745
448.336786	4167.184127
448.711374	3989.216273
449.085901	3717.477916
449.460369	3632.902478
449.834776	3565.086356
450.209124	3605.397943
450.583412	3530.498999
450.957640	3490.207577
451.331808	3385.144890
451.705917	3290.431692
452.079965	3241.807242
452.453954	3209.122921
452.827883	3168.650017
453.201752	3125.666619
453.575562	3095.439861
453.949311	3085.972574
454.323001	3060.633214
454.696632	3028.256403
455.070202	3034.018442
455.443713	3007.386027
455.817164	2994.979747
456.190556	2978.298569
456.563888	2951.255299
456.937160	2936.409101
457.310373	2898.943246
457.683526	2888.112327
458.056619	2875.325440
458.429653	2858.722400
458.802628	2855.831298
459.175542	2844.332426
459.548398	2847.470544
459.921194	2856.940352
460.293930	2857.555372
460.666607	2871.683206
461.039224	2879.867519
461.411782	2876.258053
461.784280	2856.882378
462.156719	2845.456603
462.529099	2834.083760
462.901419	2815.197077
463.273680	2797.074129
463.645882	2795.433234
464.018024	2788.751184
464.390106	2794.241001
464.762130	2814.145997
465.134094	2847.720081
465.505999	2891.048799
465.877845	2926.916608
466.249631	2930.437854
466.621358	2911.989752
466.993026	2891.593243
467.364634	2871.627753
467.736184	2851.745443
468.107674	2838.633402
468.479105	2829.140909
468.850477	2823.842656
469.221790	2809.102322
469.593043	2794.180507
469.964238	2787.279167
470.335373	2782.832870
470.706449	2797.280817
471.077467	2814.400575
471.448425	2850.180164
471.819324	2874.385265
472.190164	2859.670137
472.560945	2832.931857
472.931667	2806.228865
473.302330	2796.547329
473.672934	2791.652368
474.043479	2795.516413
474.413965	2786.001235
474.784393	2780.811367
475.154761	2792.668161
475.525070	2791.135650
475.895321	2787.997532
476.265513	2792.030455
476.635645	2803.683082
477.005719	2806.228865
477.375734	2809.102322
477.745691	2814.324958
478.115588	2825.324755
478.485427	2844.153465
478.855207	2872.454503
479.224928	2892.296484
479.594591	2909.272570
479.964194	2901.799059
480.333739	2905.544637
480.703226	2904.130593
481.072653	2913.217273
481.442022	2916.128539
481.811333	2921.411668
482.180584	2908.115625
482.549777	2904.304513
482.918912	2901.867115
483.287988	2899.026425
483.657005	2890.595095
484.025964	2885.604353
484.394864	2885.478324
484.763706	2883.766852
485.132489	2876.989021
485.501213	2872.588093
485.869879	2876.038763
486.238487	2869.001312
486.607036	2871.607589
486.975527	2867.569625
487.343959	2866.526106
487.712333	2864.365971
488.080648	2863.556866
488.448905	2866.818493
488.817104	2862.689788
489.185244	2869.253370
489.553326	2879.590256
489.921350	2901.506672
490.289315	2922.155238
490.657222	2926.967020
491.025070	2925.926022
491.392861	2916.373035
491.760593	2903.964235
492.128267	2887.567882
492.495883	2873.228320
492.863440	2858.956813
493.230939	2845.348218
493.598380	2838.063751
493.965763	2827.694098
494.333088	2820.432316
494.700354	2815.764207
495.067563	2812.928558
495.434713	2804.020839
495.801805	2810.894452
496.168839	2804.903041
496.535815	2802.059830
496.902733	2800.212247
497.269593	2797.648821
497.636395	2792.736216
498.003139	2795.481125
498.369825	2790.117337
498.736453	2791.039868
499.103023	2786.321348
499.469535	2786.028961
499.835989	2785.439146
500.202385	2781.633075
500.568723	2781.842283
500.935003	2782.732047
501.301226	2780.352622
501.667390	2781.680966
502.033497	2784.897222
502.399546	2779.326747
502.765537	2774.472116
503.131470	2777.040584
503.497345	2780.501336
503.863163	2769.907351
504.228923	2772.009512
504.594625	2776.717950
504.960269	2771.555808
505.325856	2774.172167
505.691385	2768.871394
506.056856	2769.466250
506.422270	2773.199225
506.787625	2770.610592
507.152924	2770.214862
507.518164	2770.179573
507.883347	2767.099428
508.248472	2767.079264
508.613540	2769.299892
508.978550	2768.823503
509.343503	2767.875766
509.708398	2768.808380
510.073236	2770.413987
510.438016	2768.276538
510.802738	2765.597165
511.167403	2769.683020
511.532010	2771.137393
511.896561	2770.625716
512.261053	2776.959925
512.625488	2768.639501
512.989866	2766.635642
513.354186	2766.262597
513.718449	2762.968203
514.082655	2769.365427
514.446803	2768.067330
514.810894	2770.149327
515.174927	2769.980448
515.538904	2767.175046
515.902822	2767.812752
516.266684	2765.864346
516.630488	2766.885179
516.994235	2765.531630
517.357925	2768.168153
517.721558	2766.612957
518.085133	2767.137237
518.448651	2766.738986
518.812112	2765.672782
519.175516	2765.244284
519.538863	2763.870569
519.902152	2763.124479
520.265385	2766.915426
520.628560	2763.013573
520.991678	2757.019641
521.354739	2763.026176
521.717743	2763.197575
522.080690	2759.988881
522.443580	2763.520209
522.806413	2761.208840
523.169189	2758.756319
523.531908	2757.122985
523.894569	2756.767584
524.257174	2757.523757
524.619722	2753.707603
524.982213	2753.662233
525.344647	2752.313724
525.707025	2752.485123
526.069345	2752.764907
526.431608	2747.890112
526.793815	2750.773652
527.155964	2746.140831
527.518057	2747.292735
527.880093	2745.571181
528.242072	2742.974987
528.603995	2742.609503
528.965860	2741.515573
529.327669	2737.948956
529.689421	2737.243195
530.051117	2736.570201
530.412755	2738.001888
530.774337	2733.855539
531.135862	2731.037534
531.497331	2729.477297
531.858743	2724.421020
532.220098	2727.796072
532.581396	2724.695763
532.942638	2722.883468
533.303824	2725.169631
533.664953	2724.065619
534.026025	2723.523695
534.387040	2722.946482
534.747999	2720.521687
535.108902	2721.850032
535.469748	2716.660164
535.830537	2717.610421
536.191270	2712.665049
536.551947	2715.185626
536.912567	2712.970039
537.273131	2712.216387
537.633638	2708.831252
537.994089	2711.026674
538.354483	2706.618185
538.714821	2706.676158
539.075103	2710.353680
539.435328	2707.669266
539.795497	2705.443596
540.155609	2704.044676
540.515665	2703.659028
540.875665	2704.074923
541.235609	2701.897145
541.595496	2701.014943
541.955328	2703.414532
542.315102	2697.279448
542.674821	2697.360106
543.034483	2699.573173
543.394090	2693.528829
543.753640	2693.460774
544.113134	2695.686443
544.472571	2693.027234
544.831953	2694.378264
545.191278	2692.137471
545.550548	2690.284847
545.909761	2690.945238
546.268918	2690.305011
546.628019	2691.741740
546.987064	2687.300484
547.346053	2685.883919
547.704986	2688.026410
548.063863	2683.504495
548.422684	2682.239165
548.781449	2683.938034
549.140158	2683.537262
549.498811	2684.860565
549.857408	2680.910821
550.215949	2681.924093
550.574434	2679.322858
550.932864	2680.936027
551.291237	2677.538289
551.649555	2679.128773
552.007817	2681.435101
552.366022	2674.788340
552.724173	2676.913186
553.082267	2677.281190
553.440305	2679.544668
553.798288	2675.804132
554.156215	2676.764472
554.514086	2676.338495
554.871902	2672.925633
555.229661	2672.431600
555.587365	2671.120900
555.945014	2675.264729
556.302606	2672.976045
556.660143	2672.300530
557.017625	2674.032167
557.375050	2670.173163
557.732421	2673.341529
558.089735	2669.583348
558.446994	2671.617454
558.804197	2671.085612
559.161345	2668.701147
559.518437	2667.090498
559.875474	2666.432627
560.232455	2665.195024
560.589381	2665.709222
560.946251	2669.356497
561.303065	2666.258707
561.659825	2664.552277
562.016528	2664.287616
562.373177	2661.880465
562.729770	2664.532112
563.086307	2663.728048
563.442789	2661.648572
563.799216	2663.987668
564.155587	2660.191679
564.511904	2661.517502
564.868164	2659.942142
565.224370	2660.650424
565.580520	2659.977430
565.936615	2661.479694
566.292654	2657.023314
566.648638	2657.910557
567.004567	2659.279230
567.360441	2658.487769
567.716260	2657.287974
568.072023	2657.527429
568.427732	2652.292191
568.783385	2653.965854
569.138982	2651.384783
569.494525	2653.408806
569.850013	2651.094917
570.205445	2653.368477
570.560823	2653.905360
570.916145	2650.447128
571.271412	2651.198260
571.626625	2652.433343
571.981782	2648.866727
572.336884	2650.845380
572.691931	2652.178765
573.046923	2650.205153
573.401860	2648.105512
573.756743	2649.075935
574.111570	2647.883702
574.466342	2648.536531
574.821059	2647.727426
575.175722	2645.978146
575.530330	2647.238434
575.884882	2643.336581
576.239380	2643.697023
576.593823	2642.517393
576.948211	2641.763741
577.302544	2639.984214
577.656823	2641.783906
578.011047	2642.081334
578.365216	2642.202321
578.719330	2640.437917
579.073389	2637.720736
579.427394	2636.770478
579.781344	2638.103863
580.135239	2636.654532
580.489080	2638.552526
580.842866	2635.386681
581.196597	2636.077319
581.550273	2636.147896
581.903895	2633.909623
582.257463	2637.972793
582.610975	2634.454068
582.964434	2634.481794
583.317837	2631.202524
583.671186	2631.537760
584.024481	2629.080198
584.377721	2632.654376
584.730906	2632.732514
585.084037	2630.249746
585.437113	2632.190590
585.790135	2630.126237
586.143103	2629.642287
586.496016	2626.809158
586.848874	2625.740433
587.201679	2628.838222
587.554428	2624.747326
587.907124	2625.551390
588.259765	2622.798920
588.612352	2624.772532
588.964884	2622.128447
589.317362	2625.120372
589.669786	2624.510392
590.022155	2626.325207
590.374470	2626.058026
590.726731	2624.462501
591.078937	2622.892182
591.431090	2623.282871
591.783188	2621.629372
592.135232	2620.190123
592.487222	2619.272633
592.839157	2622.564507
593.191038	2620.512757
593.542866	2620.603498
593.894639	2618.332458
594.246358	2616.815071
594.598022	2617.442694
594.949633	2616.104268
595.301190	2615.612755
595.652692	2617.288939
596.004141	2615.532097
596.355535	2615.965636
596.706876	2613.394648
597.058162	2610.281735
597.409395	2612.063783
597.760573	2612.827518
598.111698	2612.230141
598.462768	2613.573609
598.813785	2611.226952
599.164748	2608.603031
599.515657	2609.462548
599.866511	2608.998762
600.217312	2608.320726
600.568060	2607.519183
600.918753	2610.889194
601.269392	2605.525407
601.619978	2609.177723
601.970510	2608.804677
602.320988	2609.437342
602.671412	2608.333329
603.021783	2609.570933
603.372100	2608.683689
603.722363	2609.636467
604.072572	2607.315016
604.422728	2607.831734
604.772830	2604.252515
605.122878	2603.297217
605.472872	2603.077926
605.822813	2601.963831
606.172701	2602.987186
606.522534	2604.328132
606.872314	2604.282762
607.222041	2604.307968
607.571714	2605.162443
607.921333	2605.797629
608.270899	2606.631940
608.620411	2605.631271
608.969870	2605.124635
609.319276	2604.451641
609.668627	2603.269490
610.017926	2603.377875
610.367171	2606.173195
610.716362	2605.389295
611.065500	2606.082454
611.414585	2604.071034
611.763616	2602.835951
612.112594	2607.506580
612.461518	2606.674790
612.810389	2604.043307
613.159207	2601.779829
613.507971	2602.536002
613.856682	2604.590272
614.205340	2607.027670
614.553945	2606.185798
614.902496	2603.135900
615.250994	2605.694285
615.599439	2603.138420
615.947830	2607.955243
616.296169	2604.335694
616.644454	2605.764861
616.992686	2603.632453
617.340864	2605.285952
617.688990	2605.487598
618.037063	2605.411981
618.385082	2603.506424
618.733048	2607.811570
619.080961	2607.224275
619.428821	2604.736466
619.776628	2606.465582
620.124382	2602.790581
620.472083	2605.301075
620.819731	2603.816455
621.167326	2605.127155
621.514868	2604.968359
621.862357	2601.628595
622.209793	2602.586414
622.557176	2600.758996
622.904506	2598.682040
623.251783	2595.586772
623.599007	2597.257914
623.946179	2593.323294
624.293297	2595.191041
624.640363	2593.282964
624.987376	2594.170207
625.334336	2593.290526
625.681243	2594.444950
626.028097	2596.617688
626.374899	2593.708942
626.721647	2594.684405
627.068343	2593.219950
627.414987	2592.670464
627.761577	2592.501586
628.108115	2591.783221
628.454600	2594.361771
628.801032	2589.930597
629.147412	2590.981678
629.493739	2590.502768
629.840014	2591.193406
630.186236	2588.340113
630.532405	2588.236769
630.878521	2586.885740
631.224585	2589.139136
631.570597	2587.377253
631.916556	2585.837180
632.262462	2588.942531
632.608316	2590.044023
632.954117	2586.323652
633.299866	2585.791810
633.645562	2584.828949
633.991206	2582.603280
634.336797	2583.674525
634.682336	2583.228383
635.027823	2582.099165
635.373257	2581.716037
635.718639	2580.450707
636.063968	2581.562282
636.409245	2579.331571
636.754470	2577.975501
637.099642	2580.503639
637.444762	2579.641602
637.789829	2576.115315
638.134845	2577.796540
638.479808	2574.892835
638.824719	2575.412074
639.169577	2576.319482
639.514383	2576.337126
639.859137	2575.666652
640.203839	2575.127249
640.548489	2573.199007
640.893086	2570.842268
641.237632	2569.206414
641.582125	2571.164902
641.926566	2569.803790
642.270955	2573.057855
642.615292	2573.519121
642.959576	2573.637588
643.303809	2572.964594
643.647990	2572.019377
643.992118	2572.470561
644.336195	2572.536096
644.680219	2570.544840
645.024192	2574.353432
645.368112	2574.038360
645.711981	2575.444842
646.055797	2574.355952
646.399562	2577.322671
646.743274	2573.065417
647.086935	2574.035839
647.430544	2575.422156
647.774101	2575.729667
648.117606	2577.695717
648.461059	2578.575398
648.804460	2576.188412
649.147810	2577.131107
649.491108	2574.688668
649.834354	2572.954512
650.177548	2572.006775
650.520690	2569.171126
650.863781	2569.418142
651.206820	2574.156827
651.549807	2570.023081
651.892742	2571.053997
652.235626	2568.929150
652.578458	2566.978224
652.921238	2566.915209
653.263967	2567.242884
653.606644	2568.419994
653.949269	2570.300344
654.291843	2568.805642
654.634365	2564.326577
654.976836	2565.150805
655.319255	2568.863615
655.661622	2564.495455
656.003938	2567.416804
656.346203	2565.523851
656.688416	2567.520148
657.030577	2562.015208
657.372687	2565.546536
657.714746	2565.254149
658.056753	2565.223902
658.398708	2559.149312
658.740612	2561.095197
659.082465	2561.223747
659.424266	2558.362892
659.766016	2559.237532
660.107715	2565.256670
660.449362	2559.358520
660.790958	2563.887996
661.132503	2563.330949
661.473996	2563.232646
661.815438	2561.511092
662.156829	2563.714077
662.498168	2563.882955
662.839456	2563.666186
663.180693	2563.565362
663.521879	2563.409087
663.863013	2562.698284
664.204097	2563.411607
664.545129	2562.829354
664.886110	2564.069478
665.227040	2563.151988
665.567918	2565.007132
665.908746	2563.099056
666.249522	2563.598130
666.590248	2566.196845
666.930922	2564.813048
667.271545	2562.516802
667.612118	2564.873542
667.952639	2561.720300
668.293109	2564.568552
668.633528	2561.768191
668.973896	2564.014025
669.314213	2563.666186
669.654480	2563.835064
669.994695	2562.952862
670.334859	2565.627194
670.674973	2561.135526
671.015035	2563.527554
671.355047	2563.346072
671.695008	2565.914540
672.034918	2560.492779
672.374777	2561.813562
672.714585	2562.426062
673.054342	2563.310784
673.394049	2564.140054
673.733705	2562.708366
674.073310	2561.591751
674.412864	2563.104097
674.752368	2559.623180
675.091820	2559.764332
675.431223	2560.596123
675.770574	2562.594940
676.109875	2556.162428
676.449125	2558.269630
676.788324	2553.999773
677.127473	2556.656461
677.466571	2553.614125
677.805619	2556.520350
678.144616	2556.336348
678.483562	2559.711400
678.822458	2555.993549
679.161303	2556.979095
679.500098	2558.375495
679.838842	2556.469938
680.177535	2555.068498
680.516179	2558.592264
680.854771	2557.324414
681.193314	2559.051009
681.531805	2559.328273
681.870247	2560.434806
682.208638	2562.574776
682.546978	2560.449929
682.885268	2563.469581
683.223508	2561.730383
683.561697	2561.543860
683.899836	2559.487069
684.237925	2559.106462
684.575963	2559.237532
684.913951	2556.664023
685.251889	2559.978582
685.589776	2556.734599
685.927614	2559.240053
686.265401	2555.015566
686.603137	2562.718449
686.940824	2559.282902
687.278460	2560.923798
687.616046	2561.405228
687.953582	2561.329611
688.291068	2560.817934
688.628504	2560.205433
688.965889	2566.224571
689.303224	2561.032183
689.640510	2560.815413
689.977745	2560.066802
690.314930	2558.899775
690.652065	2558.151163
690.989150	2554.851728
691.326185	2555.406255
691.663170	2557.515978
692.000105	2555.625545
692.336990	2549.281253
692.673825	2549.492982
693.010610	2550.423074
693.347345	2548.953578
693.684030	2546.460727
694.020665	2547.663043
694.357251	2544.000644
694.693786	2548.988866
695.030272	2546.420398
695.366707	2547.461397
695.703093	2544.935778
696.039429	2549.099772
696.375716	2546.765717
696.711952	2547.065666
697.048139	2546.206149
697.384276	2546.077600
697.720363	2542.546272
698.056400	2541.989224
698.392388	2541.908566
698.728326	2543.347815
699.064214	2545.011396
699.400053	2543.128525
699.735842	2544.471992
700.071581	2543.325130
700.407270	2543.967877
700.742910	2541.351518
701.078501	2542.684903
701.414042	2540.466796
701.749533	2541.817825
702.084974	2539.508976
702.420366	2541.091899
702.755709	2539.503935
703.091002	2539.214069
703.426246	2540.623071
703.761440	2537.762217
704.096584	2541.258257
704.431679	2536.794315
704.766725	2538.359593
705.101721	2539.720705
705.436668	2539.861857
705.771565	2536.920344
706.106413	2539.259439
706.441212	2537.875643
706.775961	2540.161806
707.110661	2541.442259
707.445311	2538.818338
707.779913	2537.966383
708.114465	2539.561908
708.448967	2539.672814
708.783421	2542.810932
709.117825	2541.036446
709.452180	2542.319420
709.786485	2543.302445
710.120742	2544.582898
710.454949	2543.027702
710.789107	2543.988042
711.123216	2543.874616
711.457275	2541.888401
711.791286	2543.153731
712.125247	2543.930068
712.459159	2547.859648
712.793023	2548.446942
713.126837	2547.035419
713.460602	2545.825542
713.794318	2543.307486
714.127985	2545.792775
714.461602	2545.490305
714.795171	2545.984338
715.128691	2539.287166
715.462162	2542.495860
715.795584	2541.858154
716.128957	2541.689275
716.462281	2538.939326
716.795556	2539.708102
717.128782	2536.091074
717.461960	2537.048893
717.795088	2536.701054
718.128167	2535.851619
718.461198	2535.949922
718.794180	2536.179294
719.127113	2533.883049
719.459997	2535.317257
719.792833	2538.425128
720.125619	2533.084026
720.458357	2534.233409
720.791046	2536.963194
721.123686	2533.056299
721.456278	2531.841381
721.788821	2532.189221
722.121315	2534.863553
722.453761	2532.214427
722.786158	2533.361289
723.118506	2533.283151
723.450805	2531.745599
723.783056	2530.505476
724.115259	2534.866074
724.447412	2533.540250
724.779518	2537.540406
725.111574	2532.930271
725.443582	2535.375230
725.775542	2530.749972
726.107453	2534.109901
726.439315	2535.496218
726.771129	2540.592824
727.102895	2534.306506
727.434612	2536.060827
727.766281	2536.033101
728.097901	2534.036804
728.429473	2532.532019
728.760996	2534.548481
729.092471	2531.727955
729.423897	2538.097453
729.755276	2534.046886
730.086606	2537.200128
730.417887	2538.631816
730.749120	2535.166022
731.080305	2537.487474
731.411442	2539.229192
731.742530	2543.211704
732.073570	2537.220292
732.404562	2537.963863
732.735506	2539.642567
733.066401	2540.403781
733.397249	2539.587114
733.728048	2538.533513
734.058798	2537.432021
734.389501	2533.724252
734.720156	2534.626619
735.050762	2533.525127
735.381320	2532.597554
735.711831	2531.198634
736.042293	2530.460105
736.372707	2532.277441
736.703073	2529.232584
737.033391	2532.950435
737.363661	2531.604447
737.693883	2530.094622
738.024056	2533.633512
738.354182	2533.709129
738.684260	2532.738707
739.014290	2533.023532
739.344272	2532.504293
739.674207	2536.582587
740.004093	2534.747607
740.333931	2535.239119
740.663722	2536.028060
740.993464	2533.951104
741.323159	2536.217103
741.652806	2532.574869
741.982405	2535.095446
742.311956	2532.842050
742.641460	2536.645601
742.970915	2532.494211
743.300323	2533.310878
743.629683	2532.259797
743.958996	2531.985054
744.288260	2528.829292
744.617477	2531.019673
744.946647	2527.085053
745.275768	2529.824920
745.604842	2525.958355
745.933869	2528.035310
746.262847	2524.544311
746.591778	2529.056144
746.920662	2529.446833
747.249498	2529.227543
747.578286	2530.268541
747.907027	2530.291227
748.235720	2529.847605
748.564365	2529.832482
748.892963	2531.354910
749.221514	2531.390198
749.550017	2527.374919
749.878473	2531.387677
750.206881	2530.639066
750.535242	2528.199148
750.863555	2529.661082
751.191821	2528.758716
751.520039	2529.383819
751.848210	2528.436082
752.176334	2530.704601
752.504411	2527.773170
752.832440	2527.412728
753.160421	2531.276772
753.488356	2527.163191
753.816243	2529.416586
754.144082	2529.333407
754.471875	2527.745444
754.799620	2528.105886
755.127318	2526.517923
755.454969	2526.071781
755.782572	2526.008766
756.110129	2527.584127
756.437638	2525.270237
756.765100	2528.010104
757.092515	2526.875845
757.419882	2528.637728
757.747203	2526.205371
758.074477	2525.741585
758.401703	2527.155629
758.728882	2528.320135
759.056014	2528.471370
759.383099	2528.814168
759.710138	2529.683768
760.037129	2529.020856
760.364073	2529.129241
760.690970	2530.311391
761.017820	2528.741072
761.344623	2531.140661
761.671379	2528.650331
761.998088	2524.332583
762.324751	2532.254756
762.651366	2535.705426
762.977935	2550.682694
763.304456	2551.713610
763.630931	2556.469938
763.957359	2552.527756
764.283740	2550.549103
764.610074	2545.641540
764.936362	2539.723225
765.262602	2536.859850
765.588796	2536.864891
765.914943	2529.512368
766.241044	2529.961031
766.567097	2528.012625
766.893104	2525.141688
767.219064	2526.066740
767.544978	2524.017511
767.870845	2526.044054
768.196665	2524.163704
768.522438	2522.764784
768.848165	2523.427696
769.173846	2523.967099
769.499479	2521.801923
769.825066	2522.474917
770.150607	2522.910977
770.476101	2523.042047
770.801548	2522.805113
771.126949	2519.014165
771.452303	2520.733199
771.777611	2523.263858
772.102872	2523.430216
772.428087	2522.101872
772.753256	2520.294618
773.078378	2521.512057
773.403453	2516.344874
773.728482	2522.064063
774.053465	2520.516429
774.378401	2522.187572
774.703291	2519.399814
775.028135	2518.222704
775.352932	2519.293949
775.677683	2518.749505
776.002388	2518.933507
776.327046	2518.535256
776.651658	2519.477952
776.976224	2518.963754
777.300743	2520.443332
777.625216	2517.244720
777.949643	2520.221522
778.274024	2519.170441
778.598359	2517.774042
778.922647	2513.287415
779.246889	2516.115502
779.571086	2513.108454
779.895236	2514.830008
780.219339	2517.131294
780.543397	2517.315297
780.867409	2517.355626
781.191374	2515.497961
781.515294	2519.296470
781.839167	2517.922756
782.162995	2519.306552
782.486776	2520.103055
782.810511	2517.153980
783.134201	2514.890502
783.457844	2518.245389
783.781441	2517.423681
784.104993	2515.359329
784.428498	2515.639113
784.751958	2516.478465
785.075372	2514.913187
785.398739	2518.704134
785.722061	2516.186078
786.045337	2520.256810
786.368568	2517.637930
786.691752	2516.622138
787.014891	2516.412930
787.337983	2519.087262
787.661030	2524.037675
787.984031	2520.627335
788.306987	2522.885772
788.629897	2521.413755
788.952760	2524.647655
789.275579	2522.182531
789.598351	2522.537932
789.921078	2518.154649
790.243759	2519.155318
790.566395	2517.337982
790.888984	2517.947961
791.211529	2517.290091
791.534027	2516.559123
791.856480	2517.237159
792.178888	2519.319155
792.501249	2513.282373
792.823566	2516.906963
793.145836	2515.439987
793.468062	2517.569875
793.790241	2517.892509
794.112375	2518.356295
794.434464	2515.896212
794.756507	2516.236490
795.078505	2516.917045
795.400457	2514.101561
795.722364	2515.790347
796.044226	2516.909484
796.366042	2514.373783
796.687812	2517.925276
797.009538	2519.367046
797.331218	2517.116171
797.652852	2518.391583
797.974442	2519.750174
798.295986	2518.424350
798.617484	2518.119361
798.938938	2516.881757
799.260346	2518.265554
799.581709	2517.743795
799.903026	2521.628004
800.224299	2516.405368
800.545526	2516.107940
800.866708	2516.581809
801.187845	2517.343023
801.508936	2513.983094
801.829983	2514.046108
802.150984	2518.552900
802.471940	2515.782786
802.792851	2512.533762
803.113717	2515.407220
803.434538	2515.772703
803.755314	2517.756398
804.076045	2516.102899
804.396731	2514.996366
804.717372	2513.733557
805.037967	2513.433608
805.358518	2515.694566
805.679024	2515.162724
805.999485	2515.641633
806.319901	2513.340347
806.640272	2517.872344
806.960598	2516.062570
807.280879	2515.082065
807.601115	2515.230779
807.921306	2518.026099
808.241453	2515.203053
808.561554	2514.877899
808.881611	2518.918383
809.201623	2515.908815
809.521590	2516.891840
809.841513	2514.603156
810.161390	2518.278157
810.481223	2514.698938
810.801011	2514.663650
811.120755	2514.819925
811.440453	2515.621469
811.760107	2512.294307
812.079716	2513.148783
812.399281	2511.822959
812.718801	2512.760614
813.038276	2508.135355
813.357707	2514.835049
813.677093	2516.390245
813.996434	2512.785820
814.315731	2514.323372
814.634983	2514.522497
814.954191	2513.718433
815.273354	2515.898732
815.592473	2512.874040
815.911547	2520.602129
816.230577	2516.392765
816.549562	2518.376459
816.868502	2515.253465
817.187399	2519.362005
817.506250	2518.736902
817.825058	2517.879906
818.143821	2520.677746
818.462539	2518.464680
818.781213	2519.931655
819.099843	2522.888292
819.418429	2526.659075
819.736970	2526.775022
820.055466	2528.594878
820.373919	2534.140147
820.692327	2540.489481
821.010691	2552.837787
821.329011	2575.356621
821.647286	2612.913217
821.965517	2652.130874
822.283704	2672.620644
822.601847	2678.491067
822.919945	2662.311484
823.237999	2644.175933
823.556010	2624.346554
823.873976	2605.722012
824.191897	2591.153077
824.509775	2577.922569
824.827609	2568.205745
825.145398	2560.628890
825.463144	2554.760987
825.780845	2557.054712
826.098502	2563.509910
826.416116	2570.648184
826.733685	2581.607652
827.051210	2583.702252
827.368692	2575.822928
827.686129	2565.516289
828.003522	2557.069836
828.320872	2546.115408
828.638177	2539.972763
828.955439	2534.493028
829.272656	2530.311391
829.589830	2526.044054
829.906960	2526.729651
830.224046	2522.424506
830.541088	2524.335103
830.858086	2521.683456
831.175041	2520.556758
831.491952	2520.455935
831.808819	2518.399145
832.125642	2521.292767
832.442421	2522.197654
832.759157	2528.935156
833.075849	2534.664428
833.392497	2544.751776
833.709101	2552.227807
834.025662	2544.903011
834.342179	2544.494678
834.658653	2537.676517
834.975083	2532.353058
835.291469	2530.906247
835.607811	2525.774353
835.924110	2527.763088
836.240366	2522.311080
836.556578	2520.128260
836.872746	2518.308404
837.188871	2517.494257
837.504952	2514.421674
837.820990	2512.904287
838.136984	2512.281704
838.452935	2511.036539
838.768842	2516.072652
839.084706	2515.006448
839.400526	2517.721109
839.716303	2524.725793
840.032037	2527.067409
840.347727	2525.567665
840.663373	2523.674712
840.978977	2519.694721
841.294537	2518.323527
841.610054	2517.418640
841.925527	2516.072652
842.240957	2515.518125
842.556344	2515.787827
842.871687	2514.010820
843.186987	2512.717764
843.502244	2511.467558
843.817458	2512.619462
844.132629	2509.609893
844.447756	2510.136693
844.762840	2504.762823
845.077881	2507.762310
845.392879	2506.847341
845.707833	2509.105778
846.022745	2503.363903
846.337613	2507.565705
846.652438	2509.977897
846.967221	2507.003616
847.281960	2511.379338
847.596656	2508.959584
847.911309	2507.038904
848.225919	2509.713237
848.540485	2506.980931
848.855009	2509.009996
849.169490	2505.662669
849.483928	2507.447238
849.798323	2509.652743
850.112675	2508.364728
850.426984	2507.263236
850.741251	2507.157372
851.055474	2508.158041
851.369654	2506.723832
851.683792	2508.299193
851.997887	2506.701147
852.311938	2506.701147
852.625947	2507.437156
852.939914	2509.604852
853.253837	2512.180881
853.567718	2507.953874
853.881555	2508.881446
854.195350	2508.163082
854.509103	2508.649553
854.822812	2504.127638
855.136479	2504.941784
855.450103	2507.290962
855.763685	2506.572598
856.077224	2507.754748
856.390720	2507.608555
856.704173	2508.026971
857.017584	2506.567557
857.330953	2510.184584
857.644278	2507.222907
857.957561	2511.069307
858.270802	2509.259533
858.584000	2509.957732
858.897155	2505.816425
859.210268	2508.480674
859.523339	2508.321878
859.836367	2506.194511
860.149352	2508.931858
860.462295	2507.744666
860.775195	2506.191991
861.088054	2502.690909
861.400869	2505.680313
861.713642	2502.963132
862.026373	2505.866836
862.339062	2505.057731
862.651708	2507.606034
862.964312	2509.183915
863.276873	2509.017557
863.589392	2508.379851
863.901869	2507.588390
864.214303	2507.348935
864.526696	2509.125942
864.839045	2507.863133
865.151353	2508.445386
865.463619	2505.062772
865.775842	2508.594100
866.088023	2507.013699
866.400162	2507.643843
866.712258	2510.050994
867.024313	2508.026971
867.336325	2506.565036
867.648296	2508.490757
867.960224	2509.199039
868.272110	2506.701147
868.583954	2509.816580
868.895755	2508.523524
869.207515	2511.575943
869.519233	2508.407578
869.830909	2508.079903
870.142542	2510.502177
870.454134	2509.821621
870.765684	2507.764831
871.077191	2508.851199
871.388657	2506.169305
871.700081	2510.250119
872.011463	2508.712567
872.322803	2508.745335
872.634101	2510.096364
872.945357	2509.728360
873.256571	2512.934534
873.567744	2510.514780
873.878874	2511.462517
874.189963	2509.446055
874.501010	2509.378000
874.812015	2512.064935
875.122979	2513.534431
875.433900	2511.255830
875.744780	2510.282887
876.055618	2509.022598
876.366415	2509.504029
876.677169	2512.289266
876.987882	2511.412105
877.298554	2509.619975
877.609183	2508.702485
877.919771	2507.946312
878.230317	2511.505367
878.540822	2515.228259
878.851285	2516.672549
879.161707	2517.829494
879.472087	2521.491893
879.782425	2526.981709
880.092722	2534.419932
880.402977	2549.412323
880.713191	2566.537123
881.023363	2578.530028
881.333494	2587.783066
881.643583	2592.259610
881.953631	2586.464804
882.263637	2585.549834
882.573602	2579.727302
882.883526	2574.250088
883.193408	2566.716084
883.503248	2560.659137
883.813048	2554.342572
884.122806	2548.121788
884.432522	2540.880170
884.742197	2537.613503
885.051831	2535.776002
885.361424	2528.156298
885.670975	2527.357275
885.980485	2524.249404
886.289954	2520.604649
886.599382	2520.904598
886.908768	2518.384021
887.218113	2519.813188
887.527417	2515.548372
887.836680	2514.976201
888.145901	2514.676253
888.455082	2516.733043
888.764221	2510.993690
889.073319	2510.313134
889.382376	2512.062414
889.691392	2510.262722
890.000366	2509.168792
890.309300	2513.214318
890.618193	2511.704492
890.927044	2513.274812
891.235855	2511.701972
891.544625	2512.342198
891.853353	2509.809018
892.162041	2510.434122
892.470687	2514.363701
892.779293	2515.578619
893.087858	2514.492250
893.396381	2515.092148
893.704864	2518.270595
894.013306	2521.186903
894.321707	2529.804755
894.630068	2531.586803
894.938387	2535.488656
895.246665	2534.621578
895.554903	2530.966741
895.863100	2528.161339
896.171256	2524.743437
896.479371	2522.351409
896.787446	2516.382683
897.095480	2521.476769
897.403473	2519.982067
897.711425	2519.485513
898.019336	2517.199350
898.327207	2514.217507
898.635038	2513.017713
898.942827	2515.739936
899.250576	2513.756242
899.558284	2511.969153
899.865952	2511.931344
900.173579	2510.446724
900.481165	2512.132990
900.788711	2510.025788
901.096216	2509.630058
901.403681	2508.510921
901.711105	2508.654594
902.018489	2509.347753
902.325832	2511.618793
902.633135	2511.580984
902.940397	2512.684997
903.247619	2517.022910
903.554800	2520.957530
903.861941	2530.714683
904.169041	2536.693492
904.476101	2538.904038
904.783121	2536.519572
905.090100	2534.815662
905.397039	2531.042358
905.703938	2527.011956
906.010796	2523.246214
906.317614	2519.931655
906.624391	2519.208250
906.931129	2520.130781
907.237826	2517.590039
907.544483	2515.112312
907.851099	2515.253465
908.157675	2511.076869
908.464211	2510.650891
908.770707	2504.833400
909.077163	2505.274501
909.383578	2505.990344
909.689954	2505.468585
909.996289	2500.508090
910.302584	2509.390603
910.608839	2507.502691
910.915054	2504.611589
911.221229	2505.322392
911.527363	2508.641991
911.833458	2508.904131
912.139513	2508.032012
912.445527	2505.912207
912.751502	2509.325068
913.057436	2509.138545
913.363331	2507.474964
913.669186	2510.812208
913.975000	2512.281704
914.280775	2509.569564
914.586510	2514.651047
914.892205	2519.200688
915.197859	2523.178158
915.503475	2528.375588
915.809050	2533.341125
916.114585	2537.633667
916.420081	2541.064172
916.725536	2538.959491
917.030952	2536.166691
917.336328	2530.747451
917.641665	2528.683098
917.946961	2528.088242
918.252218	2523.460463
918.557435	2524.642614
918.862612	2525.247552
919.167750	2520.498785
919.472848	2521.048271
919.777906	2516.586850
920.082925	2517.753877
920.387904	2514.225069
920.692843	2514.550224
920.997743	2513.063083
921.302603	2513.789009
921.607423	2511.586025
921.912204	2508.732732
922.216946	2509.957732
922.521647	2510.358504
922.826310	2506.559995
923.130932	2511.391941
923.435516	2506.933040
923.740059	2505.508914
924.044564	2506.217196
924.349028	2507.180057
924.653454	2506.716271
924.957840	2502.582524
925.262186	2503.142093
925.566493	2505.345077
925.870761	2500.167812
926.174989	2505.503873
926.479178	2509.042763
926.783328	2504.563698
927.087438	2503.494973
927.391509	2506.023112
927.695541	2503.283245
927.999533	2503.994048
928.303486	2501.768378
928.607400	2504.188132
928.911275	2502.055724
929.215110	2506.136538
929.518906	2503.144613
929.822663	2506.015550
930.126381	2504.543533
930.430060	2504.120076
930.733699	2503.873060
931.037299	2504.883811
931.340861	2502.522031
931.644383	2501.012205
931.947866	2502.585045
932.251309	2504.107473
932.554714	2503.119407
932.858080	2503.419356
933.161407	2504.956908
933.464694	2505.508914
933.767943	2502.411125
934.071153	2504.808194
934.374323	2501.239057
934.677455	2503.820128
934.980548	2504.621671
935.283602	2505.758451
935.586617	2502.335508
935.889593	2501.428100
936.192530	2502.388440
936.495428	2504.029336
936.798287	2502.060765
937.101108	2504.735097
937.403890	2504.162926
937.706632	2505.319871
938.009336	2505.710560
938.312002	2505.289624
938.614628	2504.929182
938.917216	2506.630571
939.219765	2506.098729
939.522275	2504.175529
939.824747	2506.963287
940.127179	2501.637308
940.429573	2500.452637
940.731929	2502.819459
941.034246	2499.363748
941.336524	2505.471106
941.638763	2505.004799
941.940964	2506.514624
942.243126	2504.493122
942.545250	2504.654439
942.847335	2503.414315
943.149381	2504.944305
943.451389	2507.250633
943.753359	2502.426249
944.055290	2504.714933
944.357182	2504.467916
944.659036	2505.229130
944.960851	2504.523369
945.262628	2504.341887
945.564367	2504.115035
945.866067	2506.272649
946.167729	2502.164109
946.469352	2504.304078
946.770937	2503.376506
947.072484	2506.106291
947.373992	2499.867863
947.675462	2503.789881
947.976893	2505.622340
948.278286	2503.641167
948.579641	2504.230982
948.880958	2499.867863
949.182236	2503.847854
949.483476	2502.549757
949.784678	2506.373472
950.085841	2505.488750
950.386967	2501.420538
950.688054	2504.271311
950.989103	2505.100581
951.290114	2504.495642
951.591087	2504.354490
951.892021	2502.887514
952.192917	2502.146465
952.493776	2506.446569
952.794596	2503.210148
953.095378	2502.945487
953.396122	2506.922958
953.696828	2505.019922
953.997496	2507.454800
954.298126	2504.556136
954.598718	2504.319202
954.899272	2502.214520
955.199788	2505.829028
955.500266	2505.143431
955.800706	2504.117556
956.101108	2499.557832
956.401472	2499.426762
956.701798	2499.038593
957.002087	2503.815087
957.302337	2503.981445
957.602550	2503.225272
957.902724	2502.766527
958.202861	2500.344252
958.502960	2502.151506
958.803022	2501.571773
959.103045	2499.671258
959.403031	2503.048831
959.702979	2501.917092
960.002889	2502.103615
960.302762	2501.324757
960.602596	2501.705364
960.902393	2501.115549
961.202153	2497.962307
961.501875	2503.293327
961.801559	2503.459685
962.101205	2500.500528
962.400814	2500.828203
962.700385	2500.124962
962.999918	2500.624036
963.299414	2499.058758
963.598873	2501.932216
963.898293	2501.412977
964.197677	2504.185611
964.497022	2500.780312
964.796331	2502.330467
965.095601	2497.760661
965.394835	2499.464571
965.694030	2501.539006
965.993189	2501.470950
966.292309	2499.986330
966.591393	2501.226454
966.890439	2498.214365
967.189447	2501.435662
967.488419	2502.645539
967.787353	2500.029180
968.086249	2500.024139
968.385108	2502.857267
968.683930	2499.819972
968.982714	2503.346259
969.281462	2500.903820
969.580172	2503.888183
969.878844	2499.696464
970.177480	2502.002792
970.476078	2499.759478
970.774639	2500.124962
971.073162	2501.165960
971.371649	2497.256545
971.670098	2499.209993
971.968510	2496.661689
972.266885	2496.999447
972.565223	2502.353152
972.863524	2498.589931
973.161788	2501.249139
973.460014	2501.738131
973.758204	2501.468429
974.056356	2502.320384
974.354471	2498.743686
974.652550	2500.498007
974.950591	2500.205620
975.248595	2500.545898
975.546563	2502.514469
975.844493	2500.687051
976.142386	2501.919613
976.440243	2498.244612
976.738062	2501.208810
977.035845	2500.926505
977.333590	2501.859119
977.631299	2499.202431
977.928971	2502.491784
978.226606	2498.973058
978.524204	2502.027998
978.821765	2500.608913
979.119290	2501.468429
979.416777	2499.678820
979.714228	2499.933398
980.011642	2498.053048
980.309020	2503.053872
980.606360	2502.703512
980.903664	2499.832575
981.200931	2500.929026
981.498162	2499.774602
981.795356	2503.439521
982.092513	2501.380209
982.389633	2504.230982
982.686717	2505.370283
982.983764	2502.378358
983.280775	2505.032525
983.577749	2505.418173
983.874686	2505.045128
984.171587	2505.130828
984.468451	2502.824500
984.765279	2502.900117
985.062070	2506.141579
985.358824	2500.697133
985.655543	2500.200579
985.952224	2501.365086
986.248869	2503.492453
986.545478	2498.479025
986.842050	2498.897441
987.138586	2497.571617
987.435086	2497.085146
987.731549	2495.862666
988.027975	2500.291320
988.324366	2499.562873
988.620719	2502.960611
988.917037	2500.871053
989.213318	2501.697802
989.509563	2497.352327
989.805772	2498.022801
990.101944	2496.906185
990.398080	2499.318377
990.694180	2498.902482
990.990244	2500.026659
991.286271	2499.744355
991.582262	2500.777791
991.878217	2498.975579
992.174136	2501.609582
992.470019	2498.710918
992.765865	2498.211844
993.061676	2499.467091
993.357450	2496.840650
993.653188	2500.278717
993.948890	2499.114211
994.244556	2500.160250
994.540186	2499.330980
994.835780	2499.643532
995.131337	2502.605210
995.426859	2503.043790
995.722345	2502.275014
996.017795	2503.252998
996.313208	2500.855929
996.608586	2501.428100
996.903928	2500.104797
997.199234	2500.283758
997.494504	2502.252329
997.789738	2501.720487
998.084936	2499.681340
998.380099	2501.402894
998.675225	2501.435662
998.970316	2499.988851
999.265371	2500.515651
999.560390	2501.763337
999.855373	2498.375682
1000.150320	2497.836278
1000.445232	2502.151506
1000.740108	2498.383243
1001.034948	2498.506752
1001.329752	2496.565907
1001.624521	2498.965497
1001.919254	2496.291164
1002.213951	2497.085146
1002.508613	2496.603716
1002.803239	2496.908706
1003.097829	2494.060454
1003.392384	2496.986844
1003.686903	2500.868532
1003.981386	2499.023470
1004.275834	2498.534478
1004.570246	2498.484066
1004.864623	2499.290651
1005.158964	2497.939622
1005.453270	2501.632267
1005.747540	2500.331649
1006.041775	2499.484735
1006.335974	2499.570435
1006.630138	2499.925836
1006.924266	2499.857781
1007.218359	2498.463902
1007.512416	2499.141937
1007.806438	2500.608913
1008.100425	2499.749396
1008.394376	2500.177894
1008.688292	2496.797800
1008.982172	2500.177894
1009.276017	2500.107318
1009.569827	2500.795435
1009.863602	2501.027328
1010.157341	2500.550939
1010.451045	2501.831393
1010.744714	2496.696977
1011.038347	2498.536998
1011.331945	2493.516009
1011.625508	2498.723521
1011.919036	2499.623367
1012.212528	2497.622029
1012.505986	2499.532626
1012.799408	2497.730414
1013.092795	2498.347955
1013.386147	2498.753768
1013.679464	2499.930878
1013.972745	2497.390136
1014.265992	2498.199241
1014.559204	2499.293172
1014.852380	2497.687564
1015.145521	2499.978768
1015.438628	2497.422903
1015.731699	2501.153357
1016.024736	2499.031032
1016.317737	2496.901144
1016.610703	2500.427431
1016.903635	2496.502893
1017.196531	2496.167656
1017.489393	2497.526247
1017.782219	2493.785711
1018.075011	2497.891731
1018.367768	2497.369971
1018.660490	2499.361227
1018.953177	2499.361227
1019.245829	2499.361227
