Dividing Wavelength (nm)	Counts (n)	Blue Motor Position (mm): 0.000000	Red Motor Position (mm): 49.200000	
326.493990	2127.150153
326.888308	2127.150153
327.282561	2127.150153
327.676750	2095.254773
328.070874	2093.775194
328.464933	2098.904568
328.858929	2104.114601
329.252859	2113.317227
329.646726	2124.755605
330.040528	2137.630712
330.434265	2152.986067
330.827938	2172.835610
331.221547	2189.756243
331.615091	2209.928420
332.008571	2228.920967
332.401986	2248.442836
332.795338	2265.837337
333.188625	2286.256531
333.581847	2303.242698
333.975006	2322.187355
334.368100	2341.484892
334.761129	2359.539784
335.154095	2375.638709
335.546996	2396.388098
335.939833	2423.073446
336.332606	2440.135231
336.725315	2449.494133
337.117960	2461.497121
337.510540	2469.038687
337.903056	2477.795171
338.295508	2487.748929
338.687896	2495.751761
339.080220	2502.620333
339.472480	2510.567712
339.864676	2518.338651
340.256807	2518.991480
340.648875	2522.626152
341.040879	2527.662265
341.432818	2528.186545
341.824694	2527.264014
342.216506	2526.754857
342.608253	2526.338962
342.999937	2527.747964
343.391557	2527.904240
343.783113	2528.567152
344.174605	2525.749147
344.566033	2527.760567
344.957397	2521.398631
345.348697	2522.026255
345.739934	2522.053981
346.131106	2516.944772
346.522215	2515.646675
346.913260	2512.896725
347.304241	2511.200377
347.695159	2512.463186
348.086012	2509.539317
348.476802	2508.803308
348.867528	2509.856909
349.258191	2500.195538
349.648789	2506.247443
350.039324	2500.331649
350.429796	2502.186794
350.820203	2499.232678
351.210548	2496.921309
351.600828	2497.780825
351.991045	2496.943994
352.381198	2497.463233
352.771288	2498.186638
353.161314	2496.129848
353.551276	2498.133706
353.941175	2497.102790
354.331010	2496.036586
354.720782	2495.318222
355.110490	2498.030363
355.500135	2496.795280
355.889717	2494.778818
356.279235	2498.448778
356.668689	2500.361896
357.058080	2496.770074
357.447408	2495.971051
357.836672	2495.877790
358.225873	2499.635970
358.615010	2496.155053
359.004084	2501.355003
359.393095	2497.939622
359.782043	2502.295179
360.170927	2500.941629
360.559748	2503.603358
360.948505	2502.486743
361.337199	2504.447751
361.725830	2504.780468
362.114398	2504.525889
362.502903	2507.842968
362.891344	2505.702999
363.279722	2508.102588
363.668037	2507.711898
364.056289	2508.576456
364.444478	2511.538134
364.832603	2510.182064
365.220665	2510.169461
365.608665	2511.810357
365.996601	2512.659791
366.384474	2512.977384
366.772284	2515.412261
367.160031	2516.985101
367.547715	2519.178003
367.935336	2519.369567
368.322893	2524.100690
368.710388	2524.377953
369.097820	2534.205682
369.485189	2535.120652
369.872495	2544.343443
370.259738	2548.320913
370.646918	2559.088818
371.034035	2562.562173
371.421090	2572.349573
371.808081	2582.610842
372.195010	2593.784559
372.581875	2606.553802
372.968678	2619.542335
373.355418	2626.904940
373.742096	2646.212559
374.128710	2663.251659
374.515262	2676.915707
374.901751	2689.284178
375.288177	2702.519727
375.674540	2727.969992
376.060841	2746.254257
376.447079	2765.970210
376.833254	2786.560803
377.219367	2796.854839
377.605417	2835.366734
377.991404	2845.847293
378.377329	2870.148175
378.763191	2885.369939
379.148991	2921.517533
379.534727	2946.504012
379.920402	2976.698003
380.306013	2987.206288
380.691563	3037.212013
381.077049	3060.807134
381.462474	3075.194587
381.847835	3115.554065
382.233134	3141.052221
382.618371	3137.757827
383.003545	3204.729556
383.388657	3215.555433
383.773706	3243.743045
384.158693	3261.916405
384.543618	3289.791465
384.928480	3324.275478
385.313280	3367.906664
385.698017	3369.797097
386.082692	3420.745518
386.467305	3429.716252
386.851856	3459.426292
387.236344	3484.294304
387.620770	3515.471320
388.005133	3539.865463
388.389435	3568.368147
388.773674	3578.485743
389.157851	3622.691621
389.541965	3634.674444
389.926018	3596.606170
390.310008	3670.562418
390.693936	3693.068649
391.077802	3732.301429
391.461606	3716.502453
391.845348	3781.490488
392.229027	3784.444604
392.612645	3796.351809
392.996200	3878.663769
393.379694	3911.239705
393.763125	3979.552381
394.146494	3942.169705
394.529801	4004.196062
394.913047	4056.026685
395.296230	4020.050491
395.679351	4074.089139
396.062410	4097.404476
396.445408	4080.942588
396.828343	4113.967187
397.211217	4134.814878
397.594028	4058.617838
397.976778	4122.766521
398.359466	4152.658043
398.742092	4179.993699
399.124656	4100.426648
399.507158	4187.053835
399.889598	4209.434038
400.271977	4270.900827
400.654294	4243.751693
401.036549	4247.724122
401.418742	4217.368814
401.800874	4322.028209
402.182944	4339.778112
402.564952	4401.766660
402.946898	4392.304414
403.328783	4391.989342
403.710606	4304.001043
404.092367	4497.034385
404.474067	4456.727840
404.855705	4463.377122
405.237282	4395.964292
405.618797	4506.922608
406.000250	4540.282444
406.381642	4618.677428
406.762972	4585.834310
407.144240	4594.416875
407.525447	4592.488633
407.906593	4652.581708
408.287677	4696.843038
408.668700	4626.496257
409.049661	4672.438813
409.430560	4717.922623
409.811399	4643.840347
410.192176	4803.733144
410.572891	4746.687447
410.953545	4848.241491
411.334138	4728.458635
411.714669	4790.840393
412.095139	4688.905742
412.475547	4835.010983
412.855894	4813.137417
413.236180	4823.789375
413.616405	4774.365902
413.996568	4861.204818
414.376670	4806.157939
414.756711	4756.464765
415.136691	4793.141680
415.516609	4869.888206
415.896466	4909.851953
416.276262	4940.227426
416.655997	4921.895270
417.035670	5102.287919
417.415283	5194.777968
417.794834	5141.233353
418.174324	5090.327781
418.553753	4998.442670
418.933121	5183.798335
419.312428	5251.730404
419.691674	5192.539696
420.070859	5315.833716
420.449983	5225.019850
420.829045	5346.448644
421.208047	5251.939612
421.586988	5324.534748
421.965867	5330.616900
422.344686	5461.601200
422.723444	5319.377648
423.102141	5138.916943
423.480777	5438.227891
423.859352	5207.829516
424.237866	5463.224452
424.616319	5453.661383
424.994712	5571.626904
425.373044	5442.984219
425.751314	5587.834213
426.129524	5392.484461
426.507673	5585.646352
426.885762	5669.667264
427.263789	5599.938024
427.641756	5479.976206
428.019662	5600.684114
428.397508	5611.310867
428.775292	5552.636877
429.153016	5653.096991
429.530679	5580.141412
429.908282	5666.219114
430.285824	5533.999731
430.663305	5810.872503
431.040726	5548.591351
431.418086	5545.128078
431.795385	5653.696888
432.172624	5666.294732
432.549802	5657.318957
432.926920	5666.309855
433.303977	5683.026321
433.680974	5717.253235
434.057910	5735.797120
434.434786	5741.289457
434.811601	5706.830650
435.188355	5947.497855
435.565050	5817.113452
435.941683	5800.868334
436.318257	6015.795407
436.694770	5996.674311
437.071222	6024.735894
437.447614	5962.807839
437.823946	5877.224170
438.200218	6029.799733
438.576429	5900.095885
438.952580	5998.042984
439.328670	6039.612339
439.704700	5945.362926
440.080670	5937.554179
440.456580	6202.678542
440.832429	6085.852322
441.208218	5933.367501
441.583947	6092.446152
441.959616	6094.593683
442.335224	6023.160533
442.710773	6161.361245
443.086261	6184.943763
443.461689	5978.478266
443.837057	6125.959742
444.212365	6281.176869
444.587612	6175.680643
444.962800	6326.340567
445.337927	6309.603936
445.712995	5920.315953
446.088002	6495.672924
446.462949	6331.696792
446.837837	6253.768116
447.212664	6430.896618
447.587431	6571.328041
447.962139	7114.502285
448.336786	8043.791106
448.711374	7787.292157
449.085901	6856.879159
449.460369	6776.336644
449.834776	6714.093518
450.209124	7102.098526
450.583412	7258.505365
450.957640	7398.228506
451.331808	7168.740059
451.705917	6718.867490
452.079965	6644.530636
452.453954	6856.001998
452.827883	6732.070272
453.201752	6819.657800
453.575562	6622.110104
453.949311	6830.929820
454.323001	6714.469083
454.696632	6789.403315
455.070202	6928.329953
455.443713	7081.044147
455.817164	7187.142792
456.190556	7266.145234
456.563888	7340.930751
456.937160	7390.288689
457.310373	7042.532252
457.683526	7061.106384
458.056619	6955.020342
458.429653	6945.386697
458.802628	6881.500154
459.175542	6990.235322
459.548398	7347.706062
459.921194	7503.109712
460.293930	7505.970567
460.666607	8042.233389
461.039224	8343.084410
461.411782	8469.937484
461.784280	8489.219898
462.156719	8380.981284
462.529099	8262.950228
462.901419	7853.863114
463.273680	7743.892863
463.645882	7752.500634
464.018024	7624.319215
464.390106	7787.183772
464.762130	8176.902773
465.134094	8643.045666
465.505999	9661.963682
465.877845	10891.065045
466.249631	11537.472038
466.621358	11155.471044
466.993026	10523.665753
467.364634	10272.487742
467.736184	9907.384695
468.107674	9575.817924
468.479105	9606.175753
468.850477	9371.976348
469.221790	9147.680290
469.593043	8813.724012
469.964238	8682.149897
470.335373	8689.308335
470.706449	8749.217407
471.077467	8722.577430
471.448425	10038.426969
471.819324	11107.267531
472.190164	11143.500824
472.560945	9884.787723
472.931667	9102.924926
473.302330	8963.801683
473.672934	8607.326571
474.043479	8967.617836
474.413965	8900.270541
474.784393	8787.144528
475.154761	8937.638094
475.525070	9030.624698
475.895321	8858.237401
476.265513	9031.721148
476.635645	9203.248929
477.005719	9203.334628
477.375734	9323.702259
477.745691	9551.189367
478.115588	9687.192136
478.485427	9932.328324
478.855207	10466.816661
479.224928	11281.837647
479.594591	11914.010942
479.964194	11724.866850
480.333739	11670.543376
480.703226	11585.655387
481.072653	11677.550580
481.442022	11910.623287
481.811333	12107.427413
482.180584	11905.206567
482.549777	11615.178904
482.918912	11438.509147
483.287988	11458.507404
483.657005	11476.166566
484.025964	11156.040694
484.394864	11286.851075
484.763706	11253.730694
485.132489	11008.498724
485.501213	10976.862963
485.869879	11057.781044
486.238487	10893.189891
486.607036	11004.614515
486.975527	10781.059506
487.343959	10976.066461
487.712333	11020.592452
488.080648	10949.239960
488.448905	10992.016671
488.817104	10934.650861
489.185244	11197.668022
489.553326	11354.528565
489.921350	11886.826520
490.289315	12956.876959
490.657222	13292.456488
491.025070	13210.683932
491.392861	13076.387593
491.760593	12700.735932
492.128267	12354.131399
492.495883	12021.558918
492.863440	11685.475274
493.230939	11346.954231
493.598380	11283.395364
493.965763	11149.464509
494.333088	11054.713502
494.700354	10975.257355
495.067563	11029.437156
495.434713	10861.917093
495.801805	10989.097843
496.168839	10911.428786
496.535815	10848.033756
496.902733	10850.882008
497.269593	10784.026225
497.636395	10882.880732
498.003139	10869.118382
498.369825	10731.918339
498.736453	10898.185675
499.103023	10818.825310
499.469535	10848.190032
499.835989	10837.059164
500.202385	10796.724892
500.568723	10654.657615
500.935003	10873.826819
501.301226	10685.234733
501.667390	10933.675398
502.033497	11035.242045
502.399546	10891.644778
502.765537	10805.408279
503.131470	10880.904599
503.497345	11053.680065
503.863163	10658.246916
504.228923	10973.951697
504.594625	11037.732375
504.960269	10785.601586
505.325856	11009.564928
505.691385	10797.024841
506.056856	10954.344129
506.422270	10979.907820
506.787625	10873.915040
507.152924	10990.398461
507.518164	10962.717485
507.883347	10881.731349
508.248472	10804.992384
508.613540	11034.100224
508.978550	10918.178891
509.343503	10895.223997
509.708398	11013.464260
510.073236	11128.279060
510.438016	11128.397527
510.802738	11077.340721
511.167403	11126.146652
511.532010	11027.385407
511.896561	11260.803433
512.261053	11335.057108
512.625488	11202.893178
512.989866	11190.927999
513.354186	11173.241111
513.718449	11080.720814
514.082655	11264.740574
514.446803	11164.688793
514.810894	11284.126331
515.174927	11155.523976
515.538904	11178.945177
515.902822	11332.476037
516.266684	11213.756864
516.630488	11164.724082
516.994235	11221.996630
517.357925	11275.760536
517.721558	11365.248579
518.085133	11381.362627
518.448651	11389.670448
518.812112	11275.579055
519.175516	11295.395830
519.538863	11406.404559
519.902152	11327.407157
520.265385	11486.783236
520.628560	11402.106975
520.991678	11376.099662
521.354739	11443.872935
521.717743	11373.347192
522.080690	11353.656445
522.443580	11488.434214
522.806413	11443.101638
523.169189	11467.626852
523.531908	11527.475430
523.894569	11354.135355
524.257174	11351.138389
524.619722	11473.887965
524.982213	11413.920919
525.344647	11472.065588
525.707025	11426.004565
526.069345	11516.415138
526.431608	11434.813981
526.793815	11543.357585
527.155964	11339.873931
527.518057	11391.356714
527.880093	11332.468476
528.242072	11403.609239
528.603995	11306.372943
528.965860	11232.683877
529.327669	11285.626074
529.689421	11233.969371
530.051117	11198.772035
530.412755	11309.836216
530.774337	11196.710203
531.135862	11182.670589
531.497331	11202.631038
531.858743	11052.376927
532.220098	11216.721063
532.581396	11093.921076
532.942638	11075.029352
533.303824	11037.288753
533.664953	11051.905579
534.026025	10966.962137
534.387040	11064.644575
534.747999	11068.674977
535.108902	11123.835283
535.469748	10882.457275
535.830537	10987.313275
536.191270	10958.591301
536.551947	10984.003757
536.912567	10980.066616
537.273131	10910.730586
537.633638	10885.507173
537.994089	10880.518951
538.354483	10829.404172
538.714821	10976.396656
539.075103	10978.342542
539.435328	10943.120000
539.795497	10772.280337
540.155609	10927.399161
540.515665	11018.714622
540.875665	10760.053018
541.235609	10820.430918
541.595496	10823.183388
541.955328	10976.951183
542.315102	10861.516322
542.674821	10805.993053
543.034483	10806.724021
543.394090	10809.327777
543.753640	10740.155584
544.113134	10963.496343
544.472571	10817.134003
544.831953	10963.791251
545.191278	10765.187433
545.550548	10795.946034
545.909761	10932.160531
546.268918	10908.197406
546.628019	10985.841258
546.987064	10855.242606
547.346053	10775.020204
547.704986	10870.663495
548.063863	10862.519511
548.422684	10852.850578
548.781449	10766.808164
549.140158	10871.006294
549.498811	10746.560370
549.857408	10603.051323
550.215949	10830.581281
550.574434	10680.969917
550.932864	10778.856522
551.291237	10843.070740
551.649555	10791.855137
552.007817	10804.047168
552.366022	10761.469583
552.724173	10760.453790
553.082267	10742.038455
553.440305	10882.989117
553.798288	10685.716164
554.156215	10833.855511
554.514086	10811.460185
554.871902	10663.623307
555.229661	10702.283916
555.587365	10676.546305
555.945014	10570.490510
556.302606	10701.784842
556.660143	10589.581360
557.017625	10737.146015
557.375050	10641.142281
557.732421	10774.332087
558.089735	10689.731443
558.446994	10693.356032
558.804197	10728.129912
559.161345	10731.585623
559.518437	10577.283465
559.875474	10665.019707
560.232455	10699.859121
560.589381	10645.787705
560.946251	10635.581889
561.303065	10750.026163
561.659825	10680.972438
562.016528	10617.927768
562.373177	10493.842287
562.729770	10607.583320
563.086307	10524.580722
563.442789	10621.068407
563.799216	10492.095527
564.155587	10546.386233
564.511904	10497.048460
564.868164	10487.692079
565.224370	10504.431230
565.580520	10430.069170
565.936615	10436.027814
566.292654	10300.738368
566.648638	10432.052864
567.004567	10388.570391
567.360441	10372.214368
567.716260	10283.646336
568.072023	10376.199400
568.427732	10330.932359
568.783385	10235.440302
569.138982	10310.931581
569.494525	10325.802985
569.850013	10201.924191
570.205445	10281.743300
570.560823	10181.643629
570.916145	10100.571793
571.271412	10171.321866
571.626625	10114.142579
571.981782	10084.578732
572.336884	10062.412779
572.691931	10068.663809
573.046923	10014.814204
573.401860	9966.782090
573.756743	9907.225899
574.111570	9946.030180
574.466342	9933.127347
574.821059	9962.015679
575.175722	9851.611889
575.530330	9864.464311
575.884882	9855.617086
576.239380	9786.946488
576.593823	9757.518753
576.948211	9770.245146
577.302544	9655.637034
577.656823	9668.255042
578.011047	9674.029683
578.365216	9644.622112
578.719330	9571.427079
579.073389	9573.625022
579.427394	9528.703300
579.781344	9503.051389
580.135239	9456.675294
580.489080	9469.391605
580.842866	9365.485862
581.196597	9364.603660
581.550273	9410.331967
581.903895	9375.384168
582.257463	9446.663563
582.610975	9317.370569
582.964434	9344.330660
583.317837	9271.208724
583.671186	9254.908153
584.024481	9241.602027
584.377721	9163.464143
584.730906	9140.857088
585.084037	9167.310543
585.437113	9113.276935
585.790135	9126.862845
586.143103	9024.638327
586.496016	8997.852156
586.848874	9057.123523
587.201679	9049.191267
587.554428	8933.476622
587.907124	8982.826997
588.259765	8950.273746
588.612352	8954.331875
588.964884	8831.179007
589.317362	8843.280297
589.669786	8842.539247
590.022155	8894.384994
590.374470	8908.366634
590.726731	8844.926234
591.078937	8698.064819
591.431090	8813.149321
591.783188	8680.892129
592.135232	8678.986573
592.487222	8677.524638
592.839157	8726.973316
593.191038	8663.381681
593.542866	8605.854554
593.894639	8511.385851
594.246358	8556.484014
594.598022	8572.225017
594.949633	8476.027198
595.301190	8445.505532
595.652692	8473.055438
596.004141	8585.291687
596.355535	8362.855815
596.706876	8341.874533
597.058162	8274.701158
597.409395	8351.286367
597.760573	8416.256758
598.111698	8323.494486
598.462768	8313.127353
598.813785	8272.374665
599.164748	8242.654543
599.515657	8230.238181
599.866511	8143.250551
600.217312	8272.087319
600.568060	8126.234136
600.918753	8235.791012
601.269392	8200.949077
601.619978	8114.067311
601.970510	8176.907814
602.320988	8176.307917
602.671412	8228.705670
603.021783	8170.175353
603.372100	8140.717371
603.722363	8141.511352
604.072572	8123.310267
604.422728	8130.352758
604.772830	8060.653765
605.122878	8064.933705
605.472872	8063.638128
605.822813	8084.735357
606.172701	8037.421608
606.522534	8108.738811
606.872314	8110.304090
607.222041	8078.053308
607.571714	8137.112946
607.921333	8095.324301
608.270899	8100.478881
608.620411	8190.725617
608.969870	8094.719363
609.319276	8087.313907
609.668627	8104.085826
610.017926	8136.891135
610.367171	8179.814039
610.716362	8163.536154
611.065500	8150.693814
611.414585	8175.856734
611.763616	8167.024632
612.112594	8147.583422
612.461518	8164.952718
612.810389	8223.135195
613.159207	8163.296699
613.507971	8114.286601
613.856682	8227.352120
614.205340	8182.022065
614.553945	8263.116586
614.902496	8163.392481
615.250994	8212.964667
615.599439	8199.151906
615.947830	8216.488434
616.296169	8183.002569
616.644454	8196.497738
616.992686	8200.684416
617.340864	8249.603773
617.688990	8155.056933
618.037063	8250.604442
618.385082	8193.725103
618.733048	8285.912684
619.080961	8222.323569
619.428821	8240.975838
619.776628	8244.262671
620.124382	8197.143006
620.472083	8185.460132
620.819731	8207.437042
621.167326	8097.335721
621.514868	8111.350129
621.862357	7994.778487
622.209793	8012.248606
622.557176	7945.183616
622.904506	7920.333248
623.251783	7856.242539
623.599007	7805.503325
623.946179	7809.541289
624.293297	7767.861029
624.640363	7685.511261
624.987376	7665.329001
625.334336	7613.279088
625.681243	7563.321253
626.028097	7553.218781
626.374899	7531.158692
626.721647	7519.576641
627.068343	7453.663554
627.414987	7427.283196
627.761577	7376.932152
628.108115	7415.902791
628.454600	7310.519991
628.801032	7362.244750
629.147412	7320.284706
629.493739	7307.563354
629.840014	7246.842656
630.186236	7300.946840
630.532405	7188.410642
630.878521	7234.023002
631.224585	7191.841147
631.570597	7113.635207
631.916556	7148.028479
632.262462	7146.392624
632.608316	7107.104392
632.954117	7083.093376
633.299866	7068.602579
633.645562	7061.184522
633.991206	6984.100238
634.336797	6920.296874
634.682336	6884.625670
635.027823	6850.093766
635.373257	6840.069432
635.718639	6776.568537
636.063968	6785.020032
636.409245	6679.138157
636.754470	6680.050606
637.099642	6633.787937
637.444762	6579.305667
637.789829	6591.439724
638.134845	6529.524272
638.479808	6517.097828
638.824719	6525.461102
639.169577	6450.095852
639.514383	6470.021013
639.859137	6396.727677
640.203839	6409.285191
640.548489	6391.436986
640.893086	6370.390169
641.237632	6342.835222
641.582125	6363.508994
641.926566	6334.678635
642.270955	6345.837229
642.615292	6344.738257
642.959576	6354.482808
643.303809	6345.184400
643.647990	6350.434761
643.992118	6343.004101
644.336195	6290.437469
644.680219	6313.654503
645.024192	6299.977852
645.368112	6402.101547
645.711981	6420.632829
646.055797	6500.033522
646.399562	6455.505010
646.743274	6584.508137
647.086935	6634.528986
647.430544	6626.034642
647.774101	6651.497510
648.117606	6655.308623
648.461059	6654.376009
648.804460	6611.329596
649.147810	6519.139495
649.491108	6492.305433
649.834354	6464.400126
650.177548	6383.686212
650.520690	6296.086082
650.863781	6270.048522
651.206820	6294.828314
651.549807	6215.455347
651.892742	6157.713970
652.235626	6157.446789
652.578458	6145.337938
652.921238	6051.297733
653.263967	6093.282983
653.606644	6032.307707
653.949269	6035.710486
654.291843	5976.325693
654.634365	6025.381161
654.976836	5980.898020
655.319255	5978.412731
655.661622	5955.140244
656.003938	5954.217713
656.346203	5913.258338
656.688416	5941.324962
657.030577	5899.932048
657.372687	5867.898036
657.714746	5854.334811
658.056753	5900.078241
658.398708	5834.727243
658.740612	5831.412685
659.082465	5878.739037
659.424266	5870.411051
659.766016	5869.879209
660.107715	5845.616136
660.449362	5856.452096
660.790958	5852.658628
661.132503	5840.285116
661.473996	5878.983533
661.815438	5863.943251
662.156829	5858.491243
662.498168	5854.801118
662.839456	5828.264484
663.180693	5864.240679
663.521879	5867.829980
663.863013	5851.294996
664.204097	5875.432040
664.545129	5913.926291
664.886110	5907.808851
665.227040	5940.364622
665.567918	5910.752885
665.908746	5938.363284
666.249522	5941.619870
666.590248	5925.478095
666.930922	5953.625378
667.271545	5970.296473
667.612118	5975.544314
667.952639	5944.059788
668.293109	5965.731708
668.633528	5921.301499
668.973896	5926.428353
669.314213	5918.856539
669.654480	5899.281739
669.994695	5891.641870
670.334859	5882.726590
670.674973	5880.896651
671.015035	5881.536878
671.355047	5876.410024
671.695008	5862.715730
672.034918	5837.867882
672.374777	5850.347259
672.714585	5832.128529
673.054342	5836.151369
673.394049	5831.682387
673.733705	5861.949474
674.073310	5849.850705
674.412864	5810.507020
674.752368	5797.531090
675.091820	5803.953520
675.431223	5736.679322
675.770574	5740.334158
676.109875	5693.640471
676.449125	5696.612231
676.788324	5663.496891
677.127473	5605.788283
677.466571	5602.403148
677.805619	5586.571404
678.144616	5575.803500
678.483562	5554.648297
678.822458	5526.057393
679.161303	5516.340569
679.500098	5508.627604
679.838842	5487.366538
680.177535	5496.337271
680.516179	5511.526267
680.854771	5517.812586
681.193314	5600.991625
681.531805	5706.321493
681.870247	5857.102405
682.208638	5965.683818
682.546978	5978.372402
682.885268	5957.252488
683.223508	5872.939190
683.561697	5815.603626
683.899836	5783.650273
684.237925	5743.144602
684.575963	5705.542635
684.913951	5665.924207
685.251889	5725.427466
685.589776	5693.922775
685.927614	5663.993445
686.265401	5740.034210
686.603137	5718.374892
686.940824	5790.944822
687.278460	5820.138144
687.616046	5829.953271
687.953582	5900.206791
688.291068	5882.131734
688.628504	5944.291681
688.965889	5904.204426
689.303224	5851.857084
689.640510	5798.995545
689.977745	5727.920317
690.314930	5630.038753
690.652065	5567.533487
690.989150	5474.622501
691.326185	5401.268671
691.663170	5347.081308
692.000105	5271.048106
692.336990	5194.460376
692.673825	5172.483466
693.010610	5098.144090
693.347345	5030.355695
693.684030	5014.014794
694.020665	4970.035768
694.357251	4880.320874
694.693786	4892.570878
695.030272	4861.197257
695.366707	4821.490608
695.703093	4788.801246
696.039429	4813.409639
696.375716	4794.651505
696.711952	4769.513792
697.048139	4755.118777
697.384276	4736.345520
697.720363	4746.248867
698.056400	4759.769241
698.392388	4707.076581
698.728326	4685.865926
699.064214	4666.649048
699.400053	4658.764683
699.735842	4627.159169
700.071581	4602.853246
700.407270	4572.445006
700.742910	4556.482192
701.078501	4505.248945
701.414042	4504.964120
701.749533	4469.487000
702.084974	4404.897216
702.420366	4465.040702
702.755709	4403.694901
703.091002	4349.978886
703.426246	4399.261206
703.761440	4356.111450
704.096584	4319.805060
704.431679	4337.872555
704.766725	4322.476872
705.101721	4308.896003
705.436668	4342.286086
705.771565	4287.773568
706.106413	4315.757013
706.441212	4347.370089
706.775961	4355.337633
707.110661	4339.407587
707.445311	4361.712172
707.779913	4388.142942
708.114465	4402.913522
708.448967	4421.366666
708.783421	4482.901510
709.117825	4525.731153
709.452180	4531.031927
709.786485	4576.039348
710.120742	4660.753418
710.454949	4645.569463
710.789107	4709.050192
711.123216	4788.017347
711.457275	4780.201038
711.791286	4854.210217
712.125247	4871.236715
712.459159	4773.468577
712.793023	4848.387685
713.126837	4806.720028
713.460602	4797.807268
713.794318	4721.295155
714.127985	4723.871185
714.461602	4642.305316
714.795171	4609.424390
715.128691	4545.747055
715.462162	4488.414012
715.795584	4442.499183
716.128957	4420.648302
716.462281	4368.663923
716.795556	4345.086447
717.128782	4302.345024
717.461960	4238.365220
717.795088	4244.825458
718.128167	4208.692988
718.461198	4142.432062
718.794180	4140.513903
719.127113	4121.153352
719.459997	4096.497068
719.792833	4056.619021
720.125619	4047.532341
720.458357	4011.684696
720.791046	4018.238196
721.123686	3992.200636
721.456278	3949.363431
721.788821	3958.230821
722.121315	3938.439251
722.453761	3912.358842
722.786158	3925.415430
723.118506	3950.729584
723.450805	3902.621853
723.783056	3921.949637
724.115259	3937.920012
724.447412	3944.241619
724.779518	3935.497738
725.111574	3941.564766
725.443582	3967.980413
725.775542	3955.682518
726.107453	4005.141278
726.439315	4007.132534
726.771129	4019.725336
727.102895	4057.191192
727.434612	4101.497893
727.766281	4116.812918
728.097901	4115.756796
728.429473	4124.319196
728.760996	4129.524188
729.092471	4121.922128
729.423897	4111.895273
729.755276	4114.778813
730.086606	4116.664204
730.417887	4153.820028
730.749120	4220.542220
731.080305	4281.141931
731.411442	4309.122855
731.742530	4277.494656
732.073570	4284.206952
732.404562	4338.381712
732.735506	4330.467100
733.066401	4290.994866
733.397249	4232.071339
733.728048	4149.320799
734.058798	4064.929363
734.389501	3994.625431
734.720156	3930.249897
735.050762	3890.606263
735.381320	3880.692834
735.711831	3831.337417
736.042293	3800.488076
736.372707	3823.236283
736.703073	3795.769556
737.033391	3786.294707
737.363661	3804.397491
737.693883	3828.416068
738.024056	3838.334538
738.354182	3833.772294
738.684260	3896.927870
739.014290	3918.556940
739.344272	3912.999068
739.674207	3952.557002
740.004093	3960.360708
740.333931	3955.261581
740.663722	3954.838124
740.993464	3952.131025
741.323159	3929.639917
741.652806	3900.872572
741.982405	3875.702091
742.311956	3839.841843
742.641460	3830.140143
742.970915	3810.124242
743.300323	3766.414917
743.629683	3732.160277
743.958996	3720.777351
744.288260	3693.484544
744.617477	3665.685102
744.946647	3648.434273
745.275768	3621.675828
745.604842	3622.598360
745.933869	3574.604054
746.262847	3566.316397
746.591778	3602.297633
746.920662	3574.243612
747.249498	3543.187584
747.578286	3586.042432
747.907027	3604.956842
748.235720	3606.307871
748.564365	3628.040285
748.892963	3631.521202
749.221514	3613.574694
749.550017	3586.634768
749.878473	3584.809870
750.206881	3557.882547
750.535242	3550.396434
750.863555	3554.678894
751.191821	3550.340981
751.520039	3532.260883
751.848210	3508.605268
752.176334	3542.960732
752.504411	3552.347360
752.832440	3511.072913
753.160421	3490.401662
753.488356	3500.468846
753.816243	3516.376207
754.144082	3470.423569
754.471875	3455.282463
754.799620	3476.362048
755.127318	3467.655976
755.454969	3467.426603
755.782572	3474.700988
756.110129	3448.418933
756.437638	3436.239505
756.765100	3451.796506
757.092515	3460.248000
757.419882	3468.099597
757.747203	3444.088581
758.074477	3442.447686
758.401703	3458.463432
758.728882	3478.257522
759.056014	3486.313286
759.383099	3487.767659
759.710138	3482.860096
760.037129	3505.036131
760.364073	3537.115514
760.690970	3520.101620
761.017820	3497.703773
761.344623	3516.366125
761.671379	3562.036458
761.998088	3612.357256
762.324751	3742.174529
762.651366	3988.107219
762.977935	4456.216163
763.304456	4905.738372
763.630931	5003.171273
763.957359	4651.006347
764.283740	4302.516423
764.610074	4106.317236
764.936362	3910.554108
765.262602	3748.632247
765.588796	3639.115700
765.914943	3549.088254
766.241044	3458.017289
766.567097	3428.987805
766.893104	3381.515259
767.219064	3349.730784
767.544978	3321.202895
767.870845	3270.506531
768.196665	3252.106319
768.522438	3257.195364
768.848165	3252.116402
769.173846	3213.899414
769.499479	3197.377033
769.825066	3184.761545
770.150607	3165.814368
770.476101	3182.334230
770.801548	3177.663601
771.126949	3132.693988
771.452303	3115.657408
771.777611	3120.078500
772.102872	3127.408338
772.428087	3099.898761
772.753256	3092.170673
773.078378	3085.377718
773.403453	3050.460166
773.728482	3036.632281
774.053465	3059.677915
774.378401	3048.836914
774.703291	3014.156296
775.028135	3018.458921
775.352932	3009.571367
775.677683	2997.333966
776.002388	2996.320694
776.327046	2997.707011
776.651658	2990.503202
776.976224	2974.704226
777.300743	2974.832776
777.625216	2968.811117
777.949643	2961.501444
778.274024	2964.243832
778.598359	2953.256637
778.922647	2957.806278
779.246889	2956.856021
779.571086	2942.506377
779.895236	2934.052362
780.219339	2946.945113
780.543397	2959.676547
780.867409	2963.381795
781.191374	2956.147739
781.515294	2948.475103
781.839167	2951.199846
782.162995	2942.725667
782.486776	2953.390228
782.810511	2950.899898
783.134201	2938.722991
783.457844	2941.414967
783.781441	2935.156374
784.104993	2914.911100
784.428498	2915.105185
784.751958	2928.633121
785.075372	2923.723037
785.398739	2908.511356
785.722061	2924.083480
786.045337	2936.880449
786.368568	2921.421751
786.691752	2913.270205
787.014891	2958.743933
787.337983	2990.785507
787.661030	3016.248375
787.984031	3084.626586
788.306987	3134.123155
788.629897	3125.394397
788.952760	3105.428907
789.275579	3092.200919
789.598351	3031.699512
789.921078	2991.246773
790.243759	2979.548775
790.566395	2961.302319
790.888984	2938.337342
791.211529	2920.766401
791.534027	2913.272725
791.856480	2902.353586
792.178888	2885.158210
792.501249	2878.932385
792.823566	2876.162271
793.145836	2873.780326
793.468062	2866.510982
793.790241	2862.609129
794.112375	2876.069010
794.434464	2883.361039
794.756507	2887.646020
795.078505	2894.015518
795.400457	2909.549833
795.722364	2945.576439
796.044226	2971.429997
796.366042	2972.299596
796.687812	2961.839202
797.009538	2979.659680
797.331218	2969.393371
797.652852	2955.429374
797.974442	2937.624019
798.295986	2935.778957
798.617484	2930.062288
798.938938	2914.633837
799.260346	2895.938718
799.581709	2893.556773
799.903026	2888.326576
800.224299	2879.794423
800.545526	2869.369317
800.866708	2853.446832
801.187845	2844.324864
801.508936	2847.110102
801.829983	2851.309383
802.150984	2839.293793
802.471940	2826.736278
802.792851	2827.696618
803.113717	2827.106803
803.434538	2829.647545
803.755314	2824.457677
804.076045	2817.720175
804.396731	2816.510298
804.717372	2819.419044
805.037967	2813.394865
805.358518	2820.273519
805.679024	2832.195848
805.999485	2828.533450
806.319901	2834.040910
806.640272	2823.295691
806.960598	2827.706701
807.280879	2837.738597
807.601115	2846.890812
807.921306	2830.345745
808.241453	2828.057061
808.561554	2833.977896
808.881611	2836.087619
809.201623	2829.418172
809.521590	2831.250632
809.841513	2824.074549
810.161390	2829.652586
810.481223	2824.893737
810.801011	2813.606593
811.120755	2810.937302
811.440453	2814.909732
811.760107	2811.917807
812.079716	2812.348825
812.399281	2799.466157
812.718801	2795.055147
813.038276	2790.525670
813.357707	2795.148408
813.677093	2802.879018
813.996434	2797.724438
814.315731	2793.310908
814.634983	2786.611214
814.954191	2789.852676
815.273354	2804.033442
815.592473	2809.089719
815.911547	2813.493167
816.230577	2820.918787
816.549562	2833.254490
816.868502	2829.645024
817.187399	2839.901252
817.506250	2857.199971
817.825058	2849.131604
818.143821	2862.919160
818.462539	2879.575133
818.781213	2906.189904
819.099843	2941.049483
819.418429	2999.272289
819.736970	3062.692525
820.055466	3134.796149
820.373919	3240.662900
820.692327	3385.064232
821.010691	3552.037329
821.329011	3997.682891
821.647286	4901.241662
821.965517	6294.614065
822.283704	7062.152423
822.601847	7048.581637
822.919945	6407.999697
823.237999	5899.211163
823.556010	5305.670750
823.873976	4745.550667
824.191897	4327.797809
824.509775	4031.380484
824.827609	3756.932507
825.145398	3632.015235
825.463144	3618.446969
825.780845	3708.754199
826.098502	3818.026250
826.416116	4095.695525
826.733685	4420.179474
827.051210	4488.895442
827.368692	4373.997464
827.686129	4103.045527
828.003522	3775.642749
828.320872	3512.650794
828.638177	3316.605362
828.955439	3174.553209
829.272656	3091.268306
829.589830	3023.971423
829.906960	2972.072744
830.224046	2925.787390
830.541088	2891.074004
830.858086	2879.933054
831.175041	2856.690815
831.491952	2861.941176
831.808819	2872.900645
832.125642	2898.313101
832.442421	2940.270625
832.759157	3023.900847
833.075849	3208.606203
833.392497	3483.984273
833.709101	3692.214174
834.025662	3646.455620
834.342179	3487.848317
834.658653	3306.215544
834.975083	3156.432781
835.291469	3058.195816
835.607811	2972.208855
835.924110	2911.843558
836.240366	2860.131402
836.556578	2818.428457
836.872746	2794.692184
837.188871	2769.453647
837.504952	2753.707603
837.820990	2744.562950
838.136984	2732.312946
838.452935	2726.659292
838.768842	2723.080073
839.084706	2740.182187
839.400526	2818.378045
839.716303	2951.966102
840.032037	3035.374513
840.347727	3020.099817
840.663373	2960.465487
840.978977	2883.030843
841.294537	2811.443938
841.610054	2762.237236
841.925527	2740.071282
842.240957	2716.455997
842.556344	2699.300950
842.871687	2679.582477
843.186987	2668.365910
843.502244	2665.923471
843.817458	2660.111020
844.132629	2647.293887
844.447756	2641.294914
844.762840	2633.856691
845.077881	2634.927936
845.392879	2633.723101
845.707833	2630.411062
846.022745	2623.799589
846.337613	2627.237656
846.652438	2624.346554
846.967221	2625.022069
847.281960	2623.481997
847.596656	2620.568210
847.911309	2622.730865
848.225919	2618.508898
848.540485	2613.903804
848.855009	2614.748197
849.169490	2614.173506
849.483928	2614.652416
849.798323	2613.046808
850.112675	2611.259719
850.426984	2614.145780
850.741251	2611.899946
851.055474	2610.576643
851.369654	2615.630399
851.683792	2614.609566
851.997887	2613.540841
852.311938	2611.978083
852.625947	2615.267436
852.939914	2617.777931
853.253837	2611.980604
853.567718	2609.180243
853.881555	2611.093361
854.195350	2614.412961
854.509103	2610.866509
854.822812	2611.824328
855.136479	2608.406426
855.450103	2611.655450
855.763685	2616.507560
856.077224	2611.771396
856.390720	2609.051694
856.704173	2610.876591
857.017584	2617.740122
857.330953	2617.127622
857.644278	2618.150976
857.957561	2616.487396
858.270802	2613.034205
858.584000	2616.139556
858.897155	2619.373456
859.210268	2618.403034
859.523339	2612.933382
859.836367	2610.216200
860.149352	2608.542537
860.462295	2608.224944
860.775195	2608.383741
861.088054	2608.114039
861.400869	2606.868874
861.713642	2606.831065
862.026373	2607.090685
862.339062	2606.631940
862.651708	2616.908332
862.964312	2616.240379
863.276873	2613.533279
863.589392	2614.670060
863.901869	2621.727675
864.214303	2625.816051
864.526696	2628.876031
864.839045	2629.095321
865.151353	2633.418111
865.463619	2634.053296
865.775842	2631.842750
866.088023	2629.712863
866.400162	2632.727473
866.712258	2631.706639
867.024313	2630.438789
867.336325	2628.069447
867.648296	2626.836884
867.960224	2634.275107
868.272110	2633.690333
868.583954	2626.219343
868.895755	2628.336628
869.207515	2632.243522
869.519233	2640.455562
869.830909	2636.326857
870.142542	2631.310908
870.454134	2631.991464
870.765684	2638.623102
871.077191	2640.321971
871.388657	2645.007723
871.700081	2642.156951
872.011463	2643.586118
872.322803	2644.201139
872.634101	2650.179947
872.945357	2656.068015
873.256571	2659.475835
873.567744	2656.204126
873.878874	2654.762356
874.189963	2658.618839
874.501010	2662.117400
874.812015	2666.170487
875.122979	2665.298368
875.433900	2660.007677
875.744780	2657.988695
876.055618	2663.095383
876.366415	2669.341373
876.677169	2668.212155
876.987882	2660.988181
877.298554	2659.969868
877.609183	2672.272804
877.919771	2677.339164
878.230317	2683.305369
878.540822	2697.269365
878.851285	2712.082796
879.161707	2735.637587
879.472087	2774.094029
879.782425	2826.892554
880.092722	2938.412960
880.402977	3128.267855
880.713191	3395.973288
881.023363	3699.954865
881.333494	3894.835791
881.643583	4073.731217
881.953631	4071.659303
882.263637	3890.770100
882.573602	3670.585103
882.883526	3532.331459
883.193408	3419.210487
883.503248	3310.913900
883.813048	3193.485262
884.122806	3075.728949
884.432522	2989.845332
884.742197	2920.252203
885.051831	2884.754918
885.361424	2847.094978
885.670975	2807.937816
885.980485	2775.992024
886.289954	2758.496699
886.599382	2743.040522
886.908768	2733.137175
887.218113	2712.385265
887.527417	2697.818851
887.836680	2693.654858
888.145901	2686.698066
888.455082	2678.743125
888.764221	2667.002278
889.073319	2659.024652
889.382376	2659.511123
889.691392	2658.270999
890.000366	2660.947852
890.309300	2658.835608
890.618193	2658.442398
890.927044	2661.918274
891.235855	2663.894406
891.544625	2660.516833
891.853353	2663.211330
892.162041	2669.971517
892.470687	2691.393901
892.779293	2699.094263
893.087858	2712.463403
893.396381	2734.566342
893.704864	2778.694082
894.013306	2851.997500
894.321707	2946.103240
894.630068	3001.190448
894.938387	3017.662419
895.246665	3012.170082
895.554903	2967.671817
895.863100	2921.487286
896.171256	2863.274562
896.479371	2802.140489
896.787446	2760.644231
897.095480	2741.354256
897.403473	2733.479973
897.711425	2716.266954
898.019336	2699.580734
898.327207	2684.144721
898.635038	2683.423836
898.942827	2679.779082
899.250576	2671.771209
899.558284	2657.832419
899.865952	2654.394352
900.173579	2649.600215
900.481165	2654.273364
900.788711	2641.872126
901.096216	2634.728811
901.403681	2632.334263
901.711105	2633.682771
902.018489	2632.215796
902.325832	2635.248050
902.633135	2634.723770
902.940397	2650.905873
903.247619	2688.840556
903.554800	2760.636669
903.861941	2890.864797
904.169041	3023.255579
904.476101	3088.427616
904.783121	3083.404106
905.090100	3022.678367
905.397039	2945.394958
905.703938	2869.883514
906.010796	2804.275417
906.317614	2749.402458
906.624391	2711.114894
906.931129	2684.797551
907.237826	2661.804848
907.544483	2643.470172
907.851099	2628.780249
908.157675	2619.000411
908.464211	2611.143772
908.770707	2600.527103
909.077163	2593.608119
909.383578	2591.901688
909.689954	2593.822368
909.996289	2587.019331
910.302584	2590.860690
910.608839	2585.703590
910.915054	2586.172417
911.221229	2587.457911
911.527363	2591.548807
911.833458	2589.653334
912.139513	2591.672316
912.445527	2592.360433
912.751502	2596.451330
913.057436	2604.580190
913.363331	2609.812908
913.669186	2621.568879
913.975000	2633.808800
914.280775	2653.181954
914.586510	2673.056703
914.892205	2709.358052
915.197859	2779.241047
915.503475	2864.234901
915.809050	2932.988678
916.114585	2953.022223
916.420081	2965.781384
916.725536	2976.377889
917.030952	2947.494598
917.336328	2898.479459
917.641665	2851.619414
917.946961	2798.591517
918.252218	2764.808224
918.557435	2734.551219
918.862612	2710.562888
919.167750	2692.913808
919.472848	2676.971159
919.777906	2658.142450
920.082925	2646.509987
920.387904	2633.037504
920.692843	2632.102370
920.997743	2624.399487
921.302603	2617.661984
921.607423	2611.738629
921.912204	2607.970366
922.216946	2602.588934
922.521647	2600.539705
922.826310	2598.228336
923.130932	2592.577203
923.435516	2585.748960
923.740059	2584.718044
924.044564	2584.017324
924.349028	2582.981367
924.653454	2570.940571
924.957840	2570.554922
925.262186	2564.956721
925.566493	2567.832699
925.870761	2563.116700
926.174989	2566.834551
926.479178	2565.465878
926.783328	2558.138560
927.087438	2559.177038
927.391509	2561.382543
927.695541	2557.846173
927.999533	2554.947510
928.303486	2553.478014
928.607400	2553.783003
928.911275	2554.307283
929.215110	2552.353836
929.518906	2556.079249
929.822663	2556.439692
930.126381	2554.337530
930.430060	2555.552448
930.733699	2552.139587
931.037299	2553.183106
931.340861	2558.688046
931.644383	2554.703014
931.947866	2555.882644
932.251309	2554.072870
932.554714	2554.234187
932.858080	2556.996739
933.161407	2553.165462
933.464694	2552.767211
933.767943	2552.578168
934.071153	2553.253682
934.374323	2552.926007
934.677455	2549.619010
934.980548	2552.356357
935.283602	2553.898950
935.586617	2553.591440
935.889593	2552.573127
936.192530	2552.928528
936.495428	2553.142777
936.798287	2550.589432
937.101108	2554.385421
937.403890	2555.718807
937.706632	2561.793397
938.009336	2565.029818
938.312002	2567.371434
938.614628	2572.941909
938.917216	2576.465675
939.219765	2575.616241
939.522275	2576.659760
939.824747	2577.173957
940.127179	2571.890828
940.429573	2566.499314
940.731929	2568.157854
941.034246	2566.600137
941.336524	2565.569221
941.638763	2566.073337
941.940964	2563.885476
942.243126	2563.774570
942.545250	2563.199879
942.847335	2560.364230
943.149381	2560.034034
943.451389	2558.347768
943.753359	2557.785680
944.055290	2557.352140
944.357182	2556.321224
944.659036	2555.988508
944.960851	2555.050854
945.262628	2556.099414
945.564367	2556.452294
945.866067	2556.371636
946.167729	2556.764846
946.469352	2555.736451
946.770937	2554.211502
947.072484	2553.357026
947.373992	2555.489434
947.675462	2552.636141
947.976893	2554.052705
948.278286	2552.676470
948.579641	2553.548590
948.880958	2551.554813
949.182236	2552.179917
949.483476	2554.299722
949.784678	2551.539690
950.085841	2549.435008
950.386967	2552.268137
950.688054	2552.265616
950.989103	2552.613456
951.290114	2552.656306
951.591087	2557.843653
951.892021	2555.038251
952.192917	2560.049158
952.493776	2562.549570
952.794596	2559.474466
953.095378	2558.935063
953.396122	2560.233160
953.696828	2557.362223
953.997496	2556.434650
954.298126	2555.796944
954.598718	2553.742674
954.899272	2552.270657
955.199788	2550.188661
955.500266	2550.856614
955.800706	2546.117929
956.101108	2542.894111
956.401472	2542.021992
956.701798	2541.989224
957.002087	2543.226827
957.302337	2542.495860
957.602550	2542.674821
957.902724	2539.188863
958.202861	2543.052908
958.502960	2541.119625
958.803022	2539.982845
959.103045	2540.300438
959.403031	2540.121477
959.702979	2539.824048
960.002889	2535.602082
960.302762	2538.291538
960.602596	2537.444624
960.902393	2538.982176
961.202153	2535.362627
961.501875	2537.258101
961.801559	2537.376568
962.101205	2536.943029
962.400814	2536.479243
962.700385	2536.703574
962.999918	2535.032432
963.299414	2536.159130
963.598873	2536.310364
963.898293	2537.026208
964.197677	2537.414377
964.497022	2537.817669
964.796331	2535.677699
965.095601	2536.393543
965.394835	2536.524613
965.694030	2537.116949
965.993189	2537.676517
966.292309	2533.867925
966.591393	2535.327339
966.890439	2536.320447
967.189447	2535.675179
967.488419	2534.472864
967.787353	2536.562422
968.086249	2536.214582
968.385108	2536.156609
968.683930	2536.287679
968.982714	2535.602082
969.281462	2534.271218
969.580172	2535.634850
969.878844	2533.484798
970.177480	2534.656866
970.476078	2535.733152
970.774639	2540.136600
971.073162	2535.660055
971.371649	2537.023688
971.670098	2531.619571
971.968510	2533.872966
972.266885	2529.441792
972.565223	2535.924716
972.863524	2536.012936
973.161788	2537.716846
973.460014	2536.774150
973.758204	2537.578214
974.056356	2535.113090
974.354471	2539.894625
974.652550	2537.303472
974.950591	2537.590817
975.248595	2535.168543
975.546563	2534.361958
975.844493	2534.873635
976.142386	2534.835827
976.440243	2537.091743
976.738062	2535.380271
977.035845	2534.004036
977.333590	2533.666279
977.631299	2532.862215
977.928971	2534.762730
978.226606	2535.919675
978.524204	2536.328008
978.821765	2534.404808
979.119290	2535.508821
979.416777	2531.286854
979.714228	2536.080992
980.011642	2535.970086
980.309020	2539.524100
980.606360	2532.779036
980.903664	2533.557894
981.200931	2536.106198
981.498162	2534.906403
981.795356	2538.268852
982.092513	2540.557536
982.389633	2544.230017
982.686717	2546.085162
982.983764	2551.269988
983.280775	2552.071532
983.577749	2552.189999
983.874686	2550.418033
984.171587	2547.262271
984.468451	2544.519883
984.765279	2541.729605
985.062070	2540.285314
985.358824	2539.148534
985.655543	2537.588297
985.952224	2537.409336
986.248869	2533.106711
986.545478	2530.984385
986.842050	2533.210055
987.138586	2532.796680
987.435086	2529.013294
987.731549	2531.178470
988.027975	2534.273738
988.324366	2530.787780
988.620719	2535.655014
988.917037	2531.307019
989.213318	2531.216278
989.509563	2529.504807
989.805772	2533.630991
990.101944	2528.844415
990.398080	2530.467667
990.694180	2533.638553
990.990244	2531.483459
991.286271	2530.107224
991.582262	2528.940197
991.878217	2529.078829
992.174136	2530.550846
992.470019	2533.126876
992.765865	2530.873480
993.061676	2533.502442
993.357450	2533.159643
993.653188	2531.745599
993.948890	2528.773839
994.244556	2534.051927
994.540186	2531.249046
994.835780	2531.470857
995.131337	2532.121165
995.426859	2533.792308
995.722345	2534.450178
996.017795	2535.851619
996.313208	2535.518903
996.608586	2535.597041
996.903928	2535.050076
997.199234	2534.553522
997.494504	2535.445806
997.789738	2535.833975
998.084936	2535.171063
998.380099	2536.300282
998.675225	2535.055117
998.970316	2533.353728
999.265371	2532.015301
999.560390	2532.411032
999.855373	2533.983872
1000.150320	2532.968079
1000.445232	2530.845753
1000.740108	2529.353572
1001.034948	2530.197965
1001.329752	2530.316432
1001.624521	2529.167049
1001.919254	2526.538088
1002.213951	2529.651000
1002.508613	2525.381143
1002.803239	2528.181504
1003.097829	2527.148067
1003.392384	2529.731658
1003.686903	2530.576052
1003.981386	2528.451205
1004.275834	2530.520599
1004.570246	2529.537574
1004.864623	2529.361134
1005.158964	2528.000022
1005.453270	2530.485311
1005.747540	2528.249559
1006.041775	2529.477080
1006.335974	2528.536905
1006.630138	2528.315094
1006.924266	2530.767616
1007.218359	2531.029756
1007.512416	2527.576565
1007.806438	2530.003881
1008.100425	2531.057482
1008.394376	2527.165711
1008.688292	2528.516740
1008.982172	2529.489683
1009.276017	2531.380116
1009.569827	2527.374919
1009.863602	2534.193080
1010.157341	2528.390712
1010.451045	2531.120496
1010.744714	2527.309384
1011.038347	2529.615712
1011.331945	2529.104035
1011.625508	2527.715197
1011.919036	2527.286699
1012.212528	2529.361134
1012.505986	2529.328366
1012.799408	2529.804755
1013.092795	2527.448016
1013.386147	2526.041534
1013.679464	2531.322143
1013.972745	2531.508665
1014.265992	2527.657224
1014.559204	2527.576565
1014.852380	2528.000022
1015.145521	2529.857687
1015.438628	2525.754188
1015.731699	2531.233922
1016.024736	2526.896009
1016.317737	2529.282996
1016.610703	2529.560259
1016.903635	2526.051616
1017.196531	2527.158149
1017.489393	2527.513551
1017.782219	2525.088756
1018.075011	2529.502286
1018.367768	2527.705115
1018.660490	2525.829805
1018.953177	2525.829805
1019.245829	2525.829805
