Dividing Wavelength (nm)	Counts (n)	Blue Motor Position (mm): 0.000000	Red Motor Position (mm): 20.000000	
326.493990	2129.121245
326.888308	2129.121245
327.282561	2129.121245
327.676750	2097.147726
328.070874	2093.631522
328.464933	2096.991451
328.858929	2104.187698
329.252859	2115.429471
329.646726	2127.709722
330.040528	2135.654580
330.434265	2152.865079
330.827938	2174.048008
331.221547	2188.657272
331.615091	2208.993286
332.008571	2228.742006
332.401986	2249.440984
332.795338	2265.171905
333.188625	2286.044802
333.581847	2305.959880
333.975006	2321.993270
334.368100	2339.544047
334.761129	2360.222860
335.154095	2376.594008
335.546996	2392.982799
335.939833	2410.672207
336.332606	2421.798034
336.725315	2436.540888
337.117960	2445.932558
337.510540	2453.779114
337.903056	2465.134313
338.295508	2471.307206
338.687896	2483.085862
339.080220	2491.862511
339.472480	2495.789570
339.864676	2502.257370
340.256807	2504.838441
340.648875	2509.055366
341.040879	2510.814729
341.432818	2513.796571
341.824694	2512.017044
342.216506	2515.145080
342.608253	2514.267919
342.999937	2516.531397
343.391557	2512.722805
343.783113	2513.841942
344.174605	2512.574091
344.566033	2509.317506
344.957397	2509.753566
345.348697	2510.179543
345.739934	2505.622340
346.131106	2502.847185
346.522215	2501.455827
346.913260	2500.802997
347.304241	2498.242091
347.695159	2498.042965
348.086012	2494.441061
348.476802	2494.282265
348.867528	2494.105824
349.258191	2490.443426
349.648789	2488.089207
350.039324	2487.985863
350.429796	2485.982005
350.820203	2486.155925
351.210548	2486.420585
351.600828	2483.552169
351.991045	2484.298259
352.381198	2482.433032
352.771288	2483.121150
353.161314	2481.611324
353.551276	2484.956130
353.941175	2482.974957
354.331010	2481.886067
354.720782	2485.566110
355.110490	2480.174596
355.500135	2483.937817
355.889717	2483.990749
356.279235	2481.447487
356.668689	2481.608804
357.058080	2484.207519
357.447408	2483.932776
357.836672	2480.424133
358.225873	2483.637868
358.615010	2482.697693
359.004084	2485.616521
359.393095	2487.675832
359.782043	2485.840852
360.170927	2489.357057
360.559748	2488.225318
360.948505	2488.802530
361.337199	2494.047851
361.725830	2491.655823
362.114398	2492.853098
362.502903	2493.218581
362.891344	2495.383757
363.279722	2488.837818
363.668037	2495.414004
364.056289	2494.524240
364.444478	2491.799496
364.832603	2494.012563
365.220665	2498.022801
365.608665	2496.071874
365.996601	2497.811072
366.384474	2495.996257
366.772284	2496.722183
367.160031	2500.498007
367.547715	2503.195025
367.935336	2504.485560
368.322893	2510.144255
368.710388	2509.410767
369.097820	2518.036182
369.485189	2520.544156
369.872495	2526.134795
370.259738	2532.058151
370.646918	2543.012578
371.034035	2546.793444
371.421090	2557.188303
371.808081	2569.488718
372.195010	2581.400965
372.581875	2590.263313
372.968678	2605.149841
373.355418	2612.986314
373.742096	2631.557925
374.128710	2645.831952
374.515262	2662.281237
374.901751	2675.894873
375.288177	2690.115968
375.674540	2714.394165
376.060841	2730.888820
376.447079	2748.865575
376.833254	2771.346601
377.219367	2781.875050
377.605417	2822.305104
377.991404	2830.688543
378.377329	2852.715865
378.763191	2868.827393
379.148991	2907.374575
379.534727	2928.678492
379.920402	2960.624283
380.306013	2972.728094
380.691563	3022.423788
381.077049	3044.640153
381.462474	3061.356620
381.847835	3101.411108
382.233134	3121.167389
382.618371	3120.927935
383.003545	3191.960313
383.388657	3196.288143
383.773706	3228.932135
384.158693	3249.147162
384.543618	3274.652880
384.928480	3307.264104
385.313280	3353.408306
385.698017	3353.562061
386.082692	3409.191194
386.467305	3409.017274
386.851856	3443.584466
387.236344	3464.243114
387.620770	3497.880213
388.005133	3522.846528
388.389435	3550.225034
388.773674	3561.519740
389.157851	3606.663272
389.541965	3619.170375
389.926018	3584.497319
390.310008	3656.795027
390.693936	3673.536699
391.077802	3714.125549
391.461606	3702.601471
391.845348	3769.157305
392.229027	3764.615225
392.612645	3777.724746
392.996200	3855.469420
393.379694	3893.028537
393.763125	3958.661840
394.146494	3928.712345
394.529801	3989.417919
394.913047	4035.433572
395.296230	4002.955938
395.679351	4056.165317
396.062410	4077.675920
396.445408	4058.774114
396.828343	4097.545628
397.211217	4121.344915
397.594028	4037.140002
397.976778	4103.234570
398.359466	4134.038541
398.742092	4158.747756
399.124656	4080.856888
399.507158	4160.812109
399.889598	4186.892518
400.271977	4249.168412
400.654294	4216.932754
401.036549	4227.113364
401.418742	4198.643448
401.800874	4299.887461
402.182944	4319.215245
402.564952	4385.143455
402.946898	4370.970251
403.328783	4366.445815
403.710606	4283.213845
404.092367	4477.973782
404.474067	4435.986012
404.855705	4446.718629
405.237282	4375.305643
405.618797	4482.072241
406.000250	4515.974000
406.381642	4596.889561
406.762972	4555.710895
407.144240	4565.677257
407.525447	4564.477462
407.906593	4627.486844
408.287677	4667.332124
408.668700	4595.352009
409.049661	4645.713136
409.430560	4682.962221
409.811399	4605.610757
410.192176	4767.063791
410.572891	4701.737999
410.953545	4802.518226
411.334138	4678.757899
411.714669	4744.668465
412.095139	4632.555724
412.475547	4767.378863
412.855894	4743.551849
413.236180	4742.974637
413.616405	4690.536555
413.996568	4762.725878
414.376670	4700.704562
414.756711	4643.482425
415.136691	4662.767359
415.516609	4721.496801
415.896466	4747.247015
416.276262	4767.877937
416.655997	4729.363522
417.035670	4883.000247
417.415283	4944.966110
417.794834	4879.753744
418.174324	4814.382582
418.553753	4714.381213
418.933121	4856.292214
419.312428	4892.344026
419.691674	4809.109535
420.070859	4898.080859
420.449983	4795.669818
420.829045	4863.581722
421.208047	4757.561216
421.586988	4782.630874
421.965867	4760.835445
422.344686	4829.911856
422.723444	4683.771327
423.102141	4512.094832
423.480777	4702.189182
423.859352	4489.220597
424.237866	4636.417248
424.616319	4591.399744
424.994712	4631.224859
425.373044	4501.190817
425.751314	4550.510945
426.129524	4376.893607
426.507673	4453.897232
426.885762	4469.741578
427.263789	4370.251887
427.641756	4260.717696
428.019662	4276.234367
428.397508	4235.544694
428.775292	4149.091426
429.153016	4152.133763
429.530679	4068.460691
429.908282	4062.854928
430.285824	3954.530614
430.663305	4029.525339
431.040726	3858.133670
431.418086	3815.805622
431.795385	3812.962411
432.172624	3764.736213
432.549802	3714.289386
432.926920	3671.492511
433.303977	3631.823671
433.680974	3596.326386
434.057910	3554.114285
434.434786	3511.778675
434.811601	3462.145994
435.188355	3483.250785
435.565050	3405.901841
435.941683	3359.427444
436.318257	3367.064792
436.694770	3319.914880
437.071222	3285.642595
437.447614	3228.533884
437.823946	3175.498425
438.200218	3169.910306
438.576429	3109.968466
438.952580	3088.016762
439.328670	3063.786456
439.704700	3020.026720
440.080670	2988.658140
440.456580	2988.844663
440.832429	2946.839248
441.208218	2901.693195
441.583947	2894.683471
441.959616	2869.510469
442.335224	2842.323526
442.710773	2827.996567
443.086261	2806.596869
443.461689	2770.794594
443.837057	2762.529622
444.212365	2753.700042
444.587612	2735.695561
444.962800	2723.039744
445.337927	2706.618185
445.712995	2675.179029
446.088002	2686.256965
446.462949	2670.069820
446.837837	2657.618170
447.212664	2649.663229
447.587431	2644.934627
447.962139	2650.610966
448.336786	2666.828358
448.711374	2646.434370
449.085901	2618.990328
449.460369	2609.185284
449.834776	2603.481219
450.209124	2605.018771
450.583412	2600.106166
450.957640	2598.182966
451.331808	2592.080649
451.705917	2580.586818
452.079965	2578.900552
452.453954	2577.572208
452.827883	2574.660942
453.201752	2570.481826
453.575562	2568.908986
453.949311	2568.062072
454.323001	2566.514437
454.696632	2566.153995
455.070202	2566.393450
455.443713	2563.335990
455.817164	2562.468912
456.190556	2559.968499
456.563888	2560.502862
456.937160	2557.314332
457.310373	2559.204764
457.683526	2557.611760
458.056619	2557.314332
458.429653	2557.364743
458.802628	2555.496996
459.175542	2556.091852
459.548398	2558.478838
459.921194	2560.129816
460.293930	2558.163766
460.666607	2560.134857
461.039224	2563.071329
461.411782	2563.169632
461.784280	2563.706515
462.156719	2559.287943
462.529099	2561.778273
462.901419	2556.956410
463.273680	2555.370967
463.645882	2557.052192
464.018024	2555.048333
464.390106	2560.303736
464.762130	2562.741134
465.134094	2562.632749
465.505999	2570.018039
465.877845	2572.886456
466.249631	2580.012127
466.621358	2576.271591
466.993026	2574.570201
467.364634	2572.704974
467.736184	2569.445868
468.107674	2569.561815
468.479105	2568.160374
468.850477	2567.522668
469.221790	2566.141392
469.593043	2565.281875
469.964238	2564.583676
470.335373	2562.763819
470.706449	2564.777760
471.077467	2564.117369
471.448425	2571.195149
471.819324	2577.332754
472.190164	2578.703947
472.560945	2572.447876
472.931667	2566.196845
473.302330	2565.410425
473.672934	2564.077040
474.043479	2564.109807
474.413965	2564.679457
474.784393	2561.342214
475.154761	2566.617781
475.525070	2564.739951
475.895321	2563.088973
476.265513	2563.368758
476.635645	2569.231619
477.005719	2568.798080
477.375734	2570.169274
477.745691	2571.663976
478.115588	2574.164388
478.485427	2573.463668
478.855207	2574.350911
479.224928	2579.908783
479.594591	2584.052612
479.964194	2584.319793
480.333739	2583.987077
480.703226	2582.021027
481.072653	2584.594536
481.442022	2582.421798
481.811333	2584.632344
482.180584	2582.310893
482.549777	2584.821388
482.918912	2581.501788
483.287988	2581.799216
483.657005	2580.410378
484.025964	2580.019689
484.394864	2581.632858
484.763706	2580.869123
485.132489	2581.300142
485.501213	2580.228897
485.869879	2581.506829
486.238487	2577.181519
486.607036	2577.554564
486.975527	2575.787640
487.343959	2576.430387
487.712333	2581.022878
488.080648	2576.495922
488.448905	2576.720253
488.817104	2580.173444
489.185244	2579.424832
489.553326	2579.873495
489.921350	2582.870461
490.289315	2585.658219
490.657222	2588.894640
491.025070	2587.830957
491.392861	2588.020000
491.760593	2584.886923
492.128267	2580.551530
492.495883	2582.174782
492.863440	2581.050605
493.230939	2576.095150
493.598380	2578.240161
493.965763	2573.844275
494.333088	2572.707495
494.700354	2573.153637
495.067563	2571.364027
495.434713	2569.828996
495.801805	2572.369738
496.168839	2575.815366
496.535815	2574.171950
496.902733	2573.319995
497.269593	2573.458627
497.636395	2570.809501
498.003139	2573.393092
498.369825	2573.461147
498.736453	2575.769996
499.103023	2573.347722
499.469535	2573.037691
499.835989	2571.916034
500.202385	2574.275294
500.568723	2570.975859
500.935003	2576.427867
501.301226	2570.721280
501.667390	2574.812177
502.033497	2576.692527
502.399546	2574.991138
502.765537	2573.584656
503.131470	2573.554409
503.497345	2574.058524
503.863163	2574.116497
504.228923	2573.216652
504.594625	2577.005079
504.960269	2573.168761
505.325856	2575.618761
505.691385	2574.794533
506.056856	2576.148082
506.422270	2576.339646
506.787625	2574.234965
507.152924	2573.292269
507.518164	2573.665314
507.883347	2574.424008
508.248472	2576.584142
508.613540	2574.633216
508.978550	2576.135480
509.343503	2574.471899
509.708398	2576.059862
510.073236	2575.346539
510.438016	2575.863257
510.802738	2575.160016
511.167403	2577.060531
511.532010	2575.580953
511.896561	2579.036664
512.261053	2580.843917
512.625488	2574.358473
512.989866	2572.435273
513.354186	2575.517938
513.718449	2573.405695
514.082655	2575.858216
514.446803	2578.192270
514.810894	2578.782085
515.174927	2580.987590
515.538904	2580.816191
515.902822	2578.109091
516.266684	2576.891653
516.630488	2578.519945
516.994235	2579.591191
517.357925	2578.887950
517.721558	2580.672518
518.085133	2577.559606
518.448651	2578.388875
518.812112	2574.792012
519.175516	2577.365521
519.538863	2577.824266
519.902152	2580.818712
520.265385	2580.559092
520.628560	2580.851479
520.991678	2577.741087
521.354739	2578.688824
521.717743	2580.914493
522.080690	2582.295770
522.443580	2578.396437
522.806413	2579.777713
523.169189	2578.588001
523.531908	2580.095306
523.894569	2579.802919
524.257174	2580.765779
524.619722	2581.022878
524.982213	2583.213260
525.344647	2581.489185
525.707025	2580.027250
526.069345	2583.571182
526.431608	2580.445666
526.793815	2582.288208
527.155964	2581.128742
527.518057	2579.583629
527.880093	2578.396437
528.242072	2580.584298
528.603995	2583.447673
528.965860	2577.720923
529.327669	2580.617065
529.689421	2578.522466
530.051117	2581.012796
530.412755	2581.121181
530.774337	2580.680080
531.135862	2579.545820
531.497331	2575.263360
531.858743	2573.262022
532.220098	2576.881570
532.581396	2576.004410
532.942638	2574.918041
533.303824	2577.564647
533.664953	2581.491706
534.026025	2578.403999
534.387040	2582.179823
534.747999	2580.483475
535.108902	2581.894998
535.469748	2577.622620
535.830537	2580.375090
536.191270	2579.427353
536.551947	2578.729153
536.912567	2579.381983
537.273131	2578.729153
537.633638	2576.962229
537.994089	2577.506673
538.354483	2576.170768
538.714821	2581.378280
539.075103	2580.758218
539.435328	2580.385172
539.795497	2579.596232
540.155609	2579.742425
540.515665	2583.354412
540.875665	2576.294276
541.235609	2576.959708
541.595496	2579.258474
541.955328	2581.995821
542.315102	2578.527507
542.674821	2582.971284
543.034483	2581.335430
543.394090	2579.024061
543.753640	2580.241499
544.113134	2576.178329
544.472571	2580.236458
544.831953	2581.736202
545.191278	2579.172775
545.550548	2578.441808
545.909761	2580.017168
546.268918	2578.638412
546.628019	2581.383321
546.987064	2579.341653
547.346053	2578.701427
547.704986	2578.260326
548.063863	2579.752507
548.422684	2576.085068
548.781449	2579.271077
549.140158	2579.941551
549.498811	2579.797878
549.857408	2577.622620
550.215949	2576.659760
550.574434	2574.751683
550.932864	2574.542475
551.291237	2573.597259
551.649555	2577.983062
552.007817	2578.721592
552.366022	2579.833166
552.724173	2580.004565
553.082267	2578.333423
553.440305	2580.304514
553.798288	2577.375603
554.156215	2578.565316
554.514086	2578.547672
554.871902	2576.710171
555.229661	2580.231417
555.587365	2578.996334
555.945014	2577.690676
556.302606	2578.439287
556.660143	2579.772672
557.017625	2579.031623
557.375050	2579.248392
557.732421	2579.860892
558.089735	2577.642785
558.446994	2580.657395
558.804197	2577.713361
559.161345	2575.845613
559.518437	2582.729309
559.875474	2578.943402
560.232455	2579.931468
560.589381	2577.799060
560.946251	2580.833835
561.303065	2578.300655
561.659825	2577.574729
562.016528	2580.813670
562.373177	2579.908783
562.729770	2579.835687
563.086307	2579.681931
563.442789	2578.136818
563.799216	2578.900553
564.155587	2577.766293
564.511904	2577.143710
564.868164	2579.870975
565.224370	2581.451376
565.580520	2579.132446
565.936615	2579.349215
566.292654	2577.736046
566.648638	2576.201015
567.004567	2578.678742
567.360441	2576.982393
567.716260	2575.021385
568.072023	2577.110943
568.427732	2573.488874
568.783385	2574.275294
569.138982	2573.052814
569.494525	2575.331416
569.850013	2570.978379
570.205445	2576.120356
570.560823	2576.042218
570.916145	2577.126066
571.271412	2575.533062
571.626625	2574.872671
571.981782	2577.153793
572.336884	2577.753690
572.691931	2577.796540
573.046923	2576.886612
573.401860	2574.978535
573.756743	2578.255285
574.111570	2577.632702
574.466342	2576.264029
574.821059	2573.569532
575.175722	2576.097671
575.530330	2574.784450
575.884882	2576.639595
576.239380	2576.029615
576.593823	2574.108936
576.948211	2573.267063
577.302544	2574.827300
577.656823	2575.258319
578.011047	2575.850654
578.365216	2576.684965
578.719330	2576.742939
579.073389	2571.429562
579.427394	2573.922413
579.781344	2570.305385
580.135239	2571.847978
580.489080	2573.655232
580.842866	2574.769327
581.196597	2576.349729
581.550273	2571.275807
581.903895	2574.038360
582.257463	2574.386199
582.610975	2571.520303
582.964434	2574.786971
583.317837	2571.994172
583.671186	2572.929306
584.024481	2569.685323
584.377721	2570.197000
584.730906	2570.625498
585.084037	2573.032649
585.437113	2572.707495
585.790135	2572.694892
586.143103	2572.135324
586.496016	2572.901579
586.848874	2565.196176
587.201679	2569.314798
587.554428	2565.942267
587.907124	2568.609037
588.259765	2568.452761
588.612352	2569.392936
588.964884	2570.050807
589.317362	2572.052145
589.669786	2571.346383
590.022155	2570.844789
590.374470	2568.868656
590.726731	2572.452917
591.078937	2568.813204
591.431090	2567.598286
591.783188	2567.711712
592.135232	2567.169788
592.487222	2567.923440
592.839157	2568.800601
593.191038	2568.533420
593.542866	2570.300344
593.894639	2569.506362
594.246358	2570.169274
594.598022	2567.920919
594.949633	2565.430589
595.301190	2569.019891
595.652692	2567.857905
596.004141	2567.636094
596.355535	2569.428224
596.706876	2567.953687
597.058162	2565.004612
597.409395	2565.662482
597.760573	2568.001578
598.111698	2569.256825
598.462768	2565.228943
598.813785	2567.731876
599.164748	2568.795560
599.515657	2567.779767
599.866511	2566.703481
600.217312	2568.374623
600.568060	2563.885476
600.918753	2568.152812
601.269392	2567.220199
601.619978	2567.545353
601.970510	2567.568039
602.320988	2569.062741
602.671412	2565.571742
603.021783	2564.606361
603.372100	2566.337997
603.722363	2566.872359
604.072572	2567.510065
604.422728	2567.535271
604.772830	2560.215516
605.122878	2564.939077
605.472872	2566.247256
605.822813	2561.387584
606.172701	2565.831361
606.522534	2565.440672
606.872314	2565.798594
607.222041	2564.843295
607.571714	2566.486711
607.921333	2563.751885
608.270899	2566.625343
608.620411	2567.638615
608.969870	2567.701629
609.319276	2568.296485
609.668627	2571.447207
610.017926	2572.377299
610.367171	2575.341498
610.716362	2572.831003
611.065500	2568.959397
611.414585	2571.361507
611.763616	2570.912844
612.112594	2567.210117
612.461518	2569.730694
612.810389	2566.622822
613.159207	2567.139541
613.507971	2567.099211
613.856682	2566.814386
614.205340	2568.235992
614.553945	2569.970148
614.902496	2565.468398
615.250994	2568.354459
615.599439	2568.639284
615.947830	2565.864129
616.296169	2568.188101
616.644454	2568.672051
616.992686	2567.764644
617.340864	2569.342525
617.688990	2562.920095
618.037063	2564.513099
618.385082	2564.981927
618.733048	2566.184242
619.080961	2565.622153
619.428821	2568.067113
619.776628	2566.053172
620.124382	2568.672051
620.472083	2565.785991
620.819731	2567.207596
621.167326	2565.417987
621.514868	2564.293809
621.862357	2564.129972
622.209793	2565.465878
622.557176	2566.017884
622.904506	2562.300033
623.251783	2559.988664
623.599007	2563.151988
623.946179	2560.830537
624.293297	2558.962789
624.640363	2565.060065
624.987376	2564.359344
625.334336	2562.358006
625.681243	2564.994530
626.028097	2559.645865
626.374899	2563.872873
626.721647	2562.700805
627.068343	2563.764488
627.414987	2560.946483
627.761577	2562.756257
628.108115	2564.044272
628.454600	2561.062430
628.801032	2561.155691
629.147412	2559.671071
629.493739	2561.160732
629.840014	2562.289951
630.186236	2562.347924
630.532405	2561.440516
630.878521	2563.051165
631.224585	2562.310115
631.570597	2560.001267
631.916556	2561.926987
632.262462	2559.471946
632.608316	2558.113355
632.954117	2560.727193
633.299866	2558.481359
633.645562	2559.988664
633.991206	2560.056719
634.336797	2560.018911
634.682336	2560.139898
635.027823	2556.185113
635.373257	2555.083621
635.718639	2555.403734
636.063968	2561.369940
636.409245	2559.174518
636.754470	2556.023796
637.099642	2554.662685
637.444762	2560.588561
637.789829	2558.320042
638.134845	2556.507747
638.479808	2556.480021
638.824719	2556.916081
639.169577	2554.718137
639.514383	2554.191337
639.859137	2558.562017
640.203839	2555.257541
640.548489	2556.595967
640.893086	2555.111348
641.237632	2552.583209
641.582125	2554.816440
641.926566	2551.509443
642.270955	2557.946997
642.615292	2557.422717
642.959576	2554.519012
643.303809	2554.939948
643.647990	2555.408776
643.992118	2554.546738
644.336195	2555.708724
644.680219	2554.516491
645.024192	2556.462377
645.368112	2556.356513
645.711981	2554.181255
646.055797	2554.297201
646.399562	2556.880792
646.743274	2557.331976
647.086935	2557.427758
647.430544	2556.336348
647.774101	2557.699980
648.117606	2557.856256
648.461059	2557.440361
648.804460	2560.162584
649.147810	2554.710576
649.491108	2556.033879
649.834354	2556.046482
650.177548	2555.764177
650.520690	2554.287119
650.863781	2554.818961
651.206820	2557.168138
651.549807	2554.082952
651.892742	2551.022972
652.235626	2551.388455
652.578458	2555.723848
652.921238	2551.290153
653.263967	2555.610422
653.606644	2552.237890
653.949269	2554.040102
654.291843	2554.513971
654.634365	2551.262427
654.976836	2551.479196
655.319255	2552.421892
655.661622	2552.144628
656.003938	2554.619835
656.346203	2554.178734
656.688416	2554.050185
657.030577	2554.766028
657.372687	2553.740154
657.714746	2554.332489
658.056753	2551.511964
658.398708	2547.821839
658.740612	2552.913404
659.082465	2548.709082
659.424266	2546.932075
659.766016	2547.458876
660.107715	2551.653116
660.449362	2553.420040
660.790958	2552.071532
661.132503	2553.442726
661.473996	2552.258054
661.815438	2551.532128
662.156829	2553.034392
662.498168	2553.087324
662.839456	2553.409958
663.180693	2553.243600
663.521879	2554.196378
663.863013	2554.077911
664.204097	2552.931048
664.545129	2554.055226
664.886110	2551.247303
665.227040	2552.280740
665.567918	2553.291491
665.908746	2552.820143
666.249522	2550.836449
666.590248	2552.996583
666.930922	2552.374001
667.271545	2553.767880
667.612118	2552.225287
667.952639	2552.396686
668.293109	2553.909032
668.633528	2550.097920
668.973896	2550.115564
669.314213	2550.738147
669.654480	2552.825184
669.994695	2549.984494
670.334859	2554.960113
670.674973	2553.916594
671.015035	2555.461708
671.355047	2550.675132
671.695008	2553.535987
672.034918	2552.310987
672.374777	2553.871224
672.714585	2552.341233
673.054342	2551.698486
673.394049	2553.016748
673.733705	2552.968857
674.073310	2554.249310
674.412864	2551.360729
674.752368	2553.508261
675.091820	2552.754608
675.431223	2555.307952
675.770574	2550.531459
676.109875	2546.705223
676.449125	2551.834597
676.788324	2546.185985
677.127473	2552.527756
677.466571	2544.910573
677.805619	2552.278219
678.144616	2550.932231
678.483562	2552.041285
678.822458	2548.313352
679.161303	2554.440874
679.500098	2549.276212
679.838842	2549.518187
680.177535	2552.305945
680.516179	2553.498178
680.854771	2550.977601
681.193314	2551.683363
681.531805	2551.907694
681.870247	2549.994576
682.208638	2552.336192
682.546978	2554.703014
682.885268	2552.462221
683.223508	2554.259392
683.561697	2551.958106
683.899836	2553.404917
684.237925	2551.322920
684.575963	2551.832077
684.913951	2552.626059
685.251889	2553.941800
685.589776	2552.474824
685.927614	2553.397355
686.265401	2550.937272
686.603137	2553.188147
686.940824	2551.053219
687.278460	2552.880637
687.616046	2554.410627
687.953582	2553.427602
688.291068	2550.654968
688.628504	2553.659495
688.965889	2551.169165
689.303224	2550.884340
689.640510	2554.531615
689.977745	2551.275029
690.314930	2549.949206
690.652065	2552.862993
690.989150	2552.883158
691.326185	2548.671273
691.663170	2549.112374
692.000105	2551.428785
692.336990	2548.270502
692.673825	2550.670091
693.010610	2551.607746
693.347345	2545.989380
693.684030	2544.814791
694.020665	2546.400234
694.357251	2545.802857
694.693786	2548.593136
695.030272	2547.105995
695.366707	2548.298228
695.703093	2548.255378
696.039429	2546.261602
696.375716	2549.140101
696.711952	2547.615152
697.048139	2549.185471
697.384276	2549.044319
697.720363	2549.187992
698.056400	2545.475182
698.392388	2545.298742
698.728326	2549.500543
699.064214	2546.064997
699.400053	2550.584391
699.735842	2546.087682
700.071581	2548.061294
700.407270	2547.332847
700.742910	2546.823691
701.078501	2545.452497
701.414042	2547.088351
701.749533	2546.513660
702.084974	2547.569781
702.420366	2543.080634
702.755709	2546.690100
703.091002	2547.073228
703.426246	2545.805378
703.761440	2546.105326
704.096584	2543.720860
704.431679	2545.142466
704.766725	2545.500388
705.101721	2543.927548
705.436668	2544.779503
705.771565	2544.179605
706.106413	2546.735470
706.441212	2545.238248
706.775961	2545.351674
707.110661	2544.310675
707.445311	2547.602549
707.779913	2544.920655
708.114465	2545.339071
708.448967	2547.317724
708.783421	2545.770089
709.117825	2543.935109
709.452180	2545.369318
709.786485	2547.834442
710.120742	2547.471479
710.454949	2547.731098
710.789107	2544.474513
711.123216	2545.606252
711.457275	2544.960984
711.791286	2543.133566
712.125247	2543.126004
712.459159	2548.807385
712.793023	2548.666232
713.126837	2547.380738
713.460602	2544.250182
713.794318	2548.394010
714.127985	2547.594987
714.461602	2546.806047
714.795171	2549.180430
715.128691	2544.282949
715.462162	2548.943496
715.795584	2544.136756
716.128957	2545.064328
716.462281	2545.855789
716.795556	2547.347971
717.128782	2546.380069
717.461960	2545.336550
717.795088	2544.066179
718.128167	2545.084493
718.461198	2545.208001
718.794180	2545.296221
719.127113	2539.849254
719.459997	2545.681869
719.792833	2542.667259
720.125619	2543.688093
720.458357	2544.451828
720.791046	2543.831766
721.123686	2541.800181
721.456278	2544.771941
721.788821	2542.400078
722.121315	2543.252033
722.453761	2542.430325
722.786158	2545.268495
723.118506	2542.311858
723.450805	2547.370656
723.783056	2542.795809
724.115259	2543.917465
724.447412	2544.230017
724.779518	2545.424770
725.111574	2543.373021
725.443582	2542.389996
725.775542	2544.842517
726.107453	2544.749256
726.439315	2544.368649
726.771129	2545.696993
727.102895	2543.219266
727.434612	2544.484595
727.766281	2545.702034
728.097901	2543.367980
728.429473	2541.354039
728.760996	2542.105171
729.092471	2539.410674
729.423897	2544.078782
729.755276	2543.229348
730.086606	2543.584749
730.417887	2543.315048
730.749120	2546.266643
731.080305	2545.432332
731.411442	2546.627086
731.742530	2544.063659
732.073570	2546.697662
732.404562	2544.850079
732.735506	2547.279915
733.066401	2544.847558
733.397249	2546.942158
733.728048	2544.751776
734.058798	2548.381407
734.389501	2546.022147
734.720156	2542.082485
735.050762	2543.907383
735.381320	2545.734801
735.711831	2543.771272
736.042293	2544.338402
736.372707	2541.225489
736.703073	2542.095088
737.033391	2544.199770
737.363661	2542.243802
737.693883	2541.313709
738.024056	2546.153217
738.354182	2544.277908
738.684260	2542.117773
739.014290	2544.114070
739.344272	2544.613145
739.674207	2544.973587
740.004093	2544.824873
740.333931	2543.131045
740.663722	2545.540717
740.993464	2544.953422
741.323159	2543.947712
741.652806	2541.737166
741.982405	2543.577187
742.311956	2541.459903
742.641460	2546.412837
742.970915	2542.526107
743.300323	2542.821014
743.629683	2543.330171
743.958996	2541.722043
744.288260	2540.209697
744.617477	2539.687937
744.946647	2539.224151
745.275768	2540.234903
745.604842	2539.166178
745.933869	2540.376055
746.262847	2536.237267
746.591778	2543.153731
746.920662	2540.189532
747.249498	2538.457896
747.578286	2541.200283
747.907027	2543.914945
748.235720	2542.190870
748.564365	2539.965201
748.892963	2540.391178
749.221514	2542.758000
749.550017	2542.029553
749.878473	2543.708257
750.206881	2541.832948
750.535242	2538.326826
750.863555	2541.958977
751.191821	2540.174409
751.520039	2540.348328
751.848210	2542.372352
752.176334	2544.000644
752.504411	2540.681045
752.832440	2540.693647
753.160421	2542.296734
753.488356	2540.212217
753.816243	2543.529297
754.144082	2540.383617
754.471875	2541.333874
754.799620	2539.801363
755.127318	2540.071065
755.454969	2540.108874
755.782572	2541.790098
756.110129	2540.726415
756.437638	2541.948895
756.765100	2539.372865
757.092515	2542.062321
757.419882	2537.971424
757.747203	2539.640046
758.074477	2541.845551
758.401703	2541.235572
758.728882	2541.603576
759.056014	2541.054090
759.383099	2542.122815
759.710138	2542.127856
760.037129	2542.279090
760.364073	2541.517876
760.690970	2539.587114
761.017820	2542.311858
761.344623	2540.502084
761.671379	2541.590973
761.998088	2537.724408
762.324751	2541.679193
762.651366	2542.687424
762.977935	2549.808054
763.304456	2546.770758
763.630931	2552.603373
763.957359	2549.233362
764.283740	2549.240924
764.610074	2544.698844
764.936362	2546.609442
765.262602	2542.929399
765.588796	2542.992414
765.914943	2540.648277
766.241044	2542.682383
766.567097	2540.802032
766.893104	2542.253885
767.219064	2539.148534
767.544978	2539.214069
767.870845	2538.256250
768.196665	2540.718853
768.522438	2540.164326
768.848165	2538.788091
769.173846	2538.004192
769.499479	2541.238092
769.825066	2537.270704
770.150607	2538.599048
770.476101	2541.159954
770.801548	2539.516538
771.126949	2537.873122
771.452303	2537.600900
771.777611	2537.737011
772.102872	2538.067206
772.428087	2540.449152
772.753256	2540.633154
773.078378	2535.763399
773.403453	2537.147196
773.728482	2535.133255
774.053465	2537.810108
774.378401	2537.706764
774.703291	2539.224151
775.028135	2537.449665
775.352932	2537.563091
775.677683	2539.156096
776.002388	2539.277083
776.327046	2538.188194
776.651658	2539.642567
776.976224	2537.273225
777.300743	2536.456558
777.625216	2536.554860
777.949643	2540.194573
778.274024	2533.966228
778.598359	2536.466640
778.922647	2534.964376
779.246889	2535.375230
779.571086	2534.530837
779.895236	2534.074613
780.219339	2535.649973
780.543397	2538.341949
780.867409	2536.093595
781.191374	2537.459747
781.515294	2535.579397
781.839167	2535.339942
782.162995	2539.080478
782.486776	2536.267514
782.810511	2535.823893
783.134201	2533.535209
783.457844	2537.303472
783.781441	2536.822041
784.104993	2535.924716
784.428498	2536.953111
784.751958	2536.030580
785.075372	2537.880684
785.398739	2536.607792
785.722061	2538.359593
786.045337	2538.460416
786.368568	2538.057124
786.691752	2537.479912
787.014891	2535.244160
787.337983	2538.021836
787.661030	2540.791950
787.984031	2538.208359
788.306987	2541.512835
788.629897	2538.024357
788.952760	2537.815149
789.275579	2538.848585
789.598351	2538.082330
789.921078	2537.026208
790.243759	2537.958822
790.566395	2534.835827
790.888984	2537.479912
791.211529	2537.545447
791.534027	2537.275745
791.856480	2538.604089
792.178888	2538.261291
792.501249	2538.581404
792.823566	2536.980838
793.145836	2537.873122
793.468062	2533.434386
793.790241	2538.425128
794.112375	2536.708615
794.434464	2536.627957
794.756507	2538.452855
795.078505	2540.434028
795.400457	2535.647452
795.722364	2532.267359
796.044226	2533.759540
796.366042	2534.750127
796.687812	2533.600744
797.009538	2537.114428
797.331218	2537.114428
797.652852	2538.649460
797.974442	2536.622916
798.295986	2538.336908
798.617484	2538.357073
798.938938	2537.868081
799.260346	2539.133410
799.581709	2535.060158
799.903026	2537.414377
800.224299	2536.592669
800.545526	2536.804397
800.866708	2538.651980
801.187845	2536.426311
801.508936	2537.401774
801.829983	2536.010416
802.150984	2533.895652
802.471940	2535.203831
802.792851	2535.675179
803.113717	2538.538554
803.434538	2535.750796
803.755314	2533.116793
804.076045	2535.818852
804.396731	2537.560570
804.717372	2536.035621
805.037967	2535.586959
805.358518	2534.382123
805.679024	2535.523944
805.999485	2534.742565
806.319901	2539.249357
806.640272	2537.318595
806.960598	2536.466640
807.280879	2537.610982
807.601115	2535.352545
807.921306	2537.316074
808.241453	2535.927237
808.561554	2535.702905
808.881611	2536.764068
809.201623	2536.335570
809.521590	2535.523944
809.841513	2537.124511
810.161390	2535.402957
810.481223	2535.153419
810.801011	2536.126362
811.120755	2533.671320
811.440453	2536.743903
811.760107	2534.056968
812.079716	2531.657379
812.399281	2531.039838
812.718801	2533.131917
813.038276	2532.688295
813.357707	2533.278110
813.677093	2537.303472
813.996434	2536.184335
814.315731	2535.176105
814.634983	2533.245343
814.954191	2534.472864
815.273354	2536.506969
815.592473	2535.465971
815.911547	2536.075951
816.230577	2537.268183
816.549562	2537.966383
816.868502	2535.728111
817.187399	2537.545447
817.506250	2535.617206
817.825058	2537.631147
818.143821	2536.882535
818.462539	2536.665766
818.781213	2537.739531
819.099843	2538.737680
819.418429	2537.185004
819.736970	2540.083668
820.055466	2539.100643
820.373919	2541.230530
820.692327	2541.666590
821.010691	2548.240255
821.329011	2556.467418
821.647286	2569.511403
821.965517	2584.123188
822.283704	2593.779518
822.601847	2602.346959
822.919945	2595.090218
823.237999	2580.934658
823.556010	2571.275807
823.873976	2566.285065
824.191897	2557.674774
824.509775	2554.483724
824.827609	2550.523897
825.145398	2551.048177
825.463144	2551.569937
825.780845	2547.962991
826.098502	2552.008517
826.416116	2554.282078
826.733685	2557.468087
827.051210	2563.628377
827.368692	2563.106617
827.686129	2555.456667
828.003522	2550.334854
828.320872	2543.763710
828.638177	2543.557023
828.955439	2537.495035
829.272656	2538.662063
829.589830	2534.195600
829.906960	2539.761034
830.224046	2540.106353
830.541088	2538.132741
830.858086	2535.952442
831.175041	2538.029398
831.491952	2538.951929
831.808819	2536.847247
832.125642	2537.381609
832.442421	2538.231044
832.759157	2541.391847
833.075849	2543.950233
833.392497	2543.478885
833.709101	2548.643547
834.025662	2551.136398
834.342179	2546.017106
834.658653	2541.936292
834.975083	2541.653987
835.291469	2544.003165
835.607811	2536.801877
835.924110	2537.686599
836.240366	2538.306661
836.556578	2537.056455
836.872746	2536.126362
837.188871	2535.103008
837.504952	2536.622916
837.820990	2535.339942
838.136984	2533.144520
838.452935	2536.912782
838.768842	2534.044366
839.084706	2534.503111
839.400526	2535.806249
839.716303	2535.944881
840.032037	2538.669624
840.347727	2542.188350
840.663373	2540.376055
840.978977	2535.254242
841.294537	2538.571322
841.610054	2536.186856
841.925527	2535.539068
842.240957	2534.039324
842.556344	2536.005374
842.871687	2532.700898
843.186987	2535.559232
843.502244	2531.554036
843.817458	2534.366999
844.132629	2532.249715
844.447756	2534.182997
844.762840	2528.940197
845.077881	2531.175949
845.392879	2528.746113
845.707833	2531.405322
846.022745	2526.810310
846.337613	2533.656197
846.652438	2531.833820
846.967221	2534.366999
847.281960	2534.722401
847.596656	2534.505631
847.911309	2533.535209
848.225919	2530.878521
848.540485	2531.627132
848.855009	2532.093439
849.169490	2532.388347
849.483928	2534.510672
849.798323	2532.040507
850.112675	2532.194262
850.426984	2532.469005
850.741251	2533.247863
851.055474	2534.432534
851.369654	2534.457740
851.683792	2531.463295
851.997887	2531.511186
852.311938	2532.496731
852.625947	2532.932791
852.939914	2529.550177
853.253837	2534.293903
853.567718	2531.072605
853.881555	2533.830117
854.195350	2532.864736
854.509103	2531.632173
854.822812	2532.418593
855.136479	2531.533871
855.450103	2531.763243
855.763685	2532.514375
856.077224	2535.082843
856.390720	2532.463964
856.704173	2528.645290
857.017584	2535.158461
857.330953	2530.029087
857.644278	2532.799201
857.957561	2531.874149
858.270802	2533.570497
858.584000	2531.748120
858.897155	2532.607637
859.210268	2531.904396
859.523339	2534.729963
859.836367	2531.334745
860.149352	2534.644263
860.462295	2531.057482
860.775195	2528.143695
861.088054	2529.603109
861.400869	2529.051103
861.713642	2528.788963
862.026373	2533.351207
862.339062	2534.460261
862.651708	2532.015301
862.964312	2533.890610
863.276873	2531.501103
863.589392	2532.607637
863.901869	2530.744930
864.214303	2531.909437
864.526696	2530.447502
864.839045	2532.632842
865.151353	2534.866074
865.463619	2529.512368
865.775842	2534.699716
866.088023	2530.933974
866.400162	2534.261135
866.712258	2533.076464
867.024313	2533.015970
867.336325	2531.075126
867.648296	2533.411701
867.960224	2533.199972
868.272110	2534.389685
868.583954	2531.722914
868.895755	2534.760209
869.207515	2534.228368
869.519233	2533.068902
869.830909	2531.672503
870.142542	2536.174253
870.454134	2535.476053
870.765684	2532.645445
871.077191	2533.552853
871.388657	2532.975641
871.700081	2531.271731
872.011463	2537.149716
872.322803	2533.383974
872.634101	2531.959848
872.945357	2530.901206
873.256571	2534.722401
873.567744	2530.507996
873.878874	2533.215096
874.189963	2530.215609
874.501010	2534.850950
874.812015	2533.278110
875.122979	2533.520086
875.433900	2530.961700
875.744780	2532.471526
876.055618	2531.889272
876.366415	2534.742565
876.677169	2532.582431
876.987882	2532.080836
877.298554	2530.102183
877.609183	2533.366330
877.919771	2529.257790
878.230317	2527.780732
878.540822	2537.134593
878.851285	2537.295910
879.161707	2537.772299
879.472087	2536.877494
879.782425	2538.339429
880.092722	2543.239430
880.402977	2546.216232
880.713191	2555.562531
881.023363	2560.936401
881.333494	2572.664645
881.643583	2571.016188
881.953631	2574.459296
882.263637	2565.097873
882.573602	2565.261711
882.883526	2560.258366
883.193408	2555.280226
883.503248	2552.764690
883.813048	2549.377035
884.122806	2549.641696
884.432522	2546.279246
884.742197	2542.087527
885.051831	2541.802701
885.361424	2540.648277
885.670975	2537.356404
885.980485	2538.326826
886.289954	2536.572504
886.599382	2536.537216
886.908768	2537.789943
887.218113	2537.311033
887.527417	2535.239119
887.836680	2532.244674
888.145901	2535.077802
888.455082	2534.467823
888.764221	2535.360107
889.073319	2532.690816
889.382376	2536.322967
889.691392	2535.110570
890.000366	2533.303316
890.309300	2535.836496
890.618193	2532.809283
890.927044	2534.311547
891.235855	2532.844571
891.544625	2534.989582
891.853353	2536.506969
892.162041	2532.847092
892.470687	2534.276259
892.779293	2534.094777
893.087858	2534.790456
893.396381	2531.634694
893.704864	2535.934798
894.013306	2531.997657
894.321707	2542.412681
894.630068	2545.117260
894.938387	2545.480223
895.246665	2544.134235
895.554903	2545.434853
895.863100	2542.271529
896.171256	2542.435366
896.479371	2539.151054
896.787446	2540.285314
897.095480	2536.776671
897.403473	2537.547968
897.711425	2537.429500
898.019336	2536.272556
898.327207	2532.849612
898.635038	2533.308357
898.942827	2535.208872
899.250576	2534.341794
899.558284	2533.746937
899.865952	2534.331711
900.173579	2533.628470
900.481165	2532.201824
900.788711	2533.431865
901.096216	2533.265507
901.403681	2533.464633
901.711105	2533.278110
902.018489	2532.421114
902.325832	2533.406660
902.633135	2533.026052
902.940397	2532.912627
903.247619	2535.844058
903.554800	2537.963863
903.861941	2542.326981
904.169041	2549.775286
904.476101	2552.258054
904.783121	2549.639175
905.090100	2546.937117
905.397039	2546.344781
905.703938	2539.924872
906.010796	2541.371683
906.317614	2538.074768
906.624391	2536.930426
906.931129	2536.171732
907.237826	2533.394057
907.544483	2532.980682
907.851099	2534.732483
908.157675	2531.750641
908.464211	2533.499921
908.770707	2527.208561
909.077163	2532.491690
909.383578	2528.123530
909.689954	2527.143026
909.996289	2526.674199
910.302584	2531.589324
910.608839	2531.866587
910.915054	2531.488501
911.221229	2530.152595
911.527363	2533.762061
911.833458	2532.186700
912.139513	2531.390198
912.445527	2531.884231
912.751502	2531.460774
913.057436	2533.646114
913.363331	2535.448327
913.669186	2530.278624
913.975000	2531.619571
914.280775	2532.582431
914.586510	2535.168543
914.892205	2536.370858
915.197859	2540.277752
915.503475	2543.461241
915.809050	2546.438042
916.114585	2548.683876
916.420081	2547.607590
916.725536	2549.452652
917.030952	2546.233876
917.336328	2544.688762
917.641665	2543.418391
917.946961	2541.013761
918.252218	2538.427649
918.557435	2537.966383
918.862612	2536.277597
919.167750	2536.867412
919.472848	2534.263656
919.777906	2534.114942
920.082925	2533.976310
920.387904	2531.599406
920.692843	2532.589993
920.997743	2534.135106
921.302603	2531.859025
921.607423	2530.147554
921.912204	2531.896834
922.216946	2530.911288
922.521647	2532.186700
922.826310	2528.494055
923.130932	2533.792308
923.435516	2534.535878
923.740059	2530.054292
924.044564	2532.186700
924.349028	2530.921371
924.653454	2529.461957
924.957840	2527.145547
925.262186	2527.591689
925.566493	2530.490352
925.870761	2525.066071
926.174989	2531.211237
926.479178	2525.461801
926.783328	2529.784591
927.087438	2531.070085
927.391509	2531.836340
927.695541	2529.023376
927.999533	2530.833151
928.303486	2527.763088
928.607400	2530.024045
928.911275	2528.920033
929.215110	2530.142513
929.518906	2529.696370
929.822663	2526.412059
930.126381	2528.849457
930.430060	2528.383150
930.733699	2529.955990
931.037299	2530.109745
931.340861	2528.196627
931.644383	2528.904909
931.947866	2528.937677
932.251309	2529.721576
932.554714	2529.502286
932.858080	2531.112935
933.161407	2531.458254
933.464694	2528.345341
933.767943	2526.893489
934.071153	2530.565969
934.374323	2531.178470
934.677455	2529.782070
934.980548	2530.054292
935.283602	2531.750641
935.586617	2526.689322
935.889593	2530.059333
936.192530	2528.073119
936.495428	2530.601258
936.798287	2528.725948
937.101108	2527.485824
937.403890	2530.376926
937.706632	2530.946577
938.009336	2530.729807
938.312002	2532.350538
938.614628	2529.043541
938.917216	2529.255269
939.219765	2530.334076
939.522275	2533.036135
939.824747	2529.729138
940.127179	2528.252080
940.429573	2527.654703
940.731929	2526.843077
941.034246	2527.422810
941.336524	2532.534540
941.638763	2528.378109
941.940964	2528.660413
942.243126	2529.225022
942.545250	2530.513037
942.847335	2531.720394
943.149381	2530.240815
943.451389	2527.233767
943.753359	2527.894158
944.055290	2530.939015
944.357182	2530.560928
944.659036	2527.611853
944.960851	2528.892306
945.262628	2528.796524
945.564367	2529.285516
945.866067	2529.706453
946.167729	2530.810465
946.469352	2529.439272
946.770937	2530.346679
947.072484	2529.683768
947.373992	2530.177801
947.675462	2528.730989
947.976893	2529.862728
948.278286	2526.598581
948.579641	2529.618232
948.880958	2528.438602
949.182236	2529.411545
949.483476	2529.545136
949.784678	2528.368026
950.085841	2529.472039
950.386967	2530.266021
950.688054	2527.516071
950.989103	2529.298119
951.290114	2527.311905
951.591087	2530.044210
951.892021	2526.086904
952.192917	2531.072605
952.493776	2529.013294
952.794596	2530.137471
953.095378	2529.492204
953.396122	2530.089580
953.696828	2529.819879
953.997496	2528.241998
954.298126	2529.260311
954.598718	2529.507327
954.899272	2529.474560
955.199788	2530.644107
955.500266	2526.482635
955.800706	2525.209743
956.101108	2525.943231
956.401472	2526.666637
956.701798	2523.520957
957.002087	2527.059847
957.302337	2530.603778
957.602550	2528.972965
957.902724	2529.867770
958.202861	2529.466998
958.502960	2525.255114
958.803022	2531.087729
959.103045	2526.306194
959.403031	2530.394570
959.702979	2526.780063
960.002889	2528.337779
960.302762	2525.532377
960.602596	2530.729807
960.902393	2527.163191
961.202153	2527.891637
961.501875	2527.092614
961.801559	2527.455577
962.101205	2528.143695
962.400814	2527.931967
962.700385	2530.313912
962.999918	2529.739220
963.299414	2528.960362
963.598873	2530.722245
963.898293	2526.742254
964.197677	2527.994981
964.497022	2528.446164
964.796331	2527.561442
965.095601	2528.680578
965.394835	2528.431041
965.694030	2525.093797
965.993189	2530.197965
966.292309	2527.052285
966.591393	2528.143695
966.890439	2527.153108
967.189447	2527.102697
967.488419	2526.399456
967.787353	2528.143695
968.086249	2526.316277
968.385108	2528.995650
968.683930	2524.251924
968.982714	2528.347862
969.281462	2527.947090
969.580172	2526.255783
969.878844	2525.799558
970.177480	2527.206040
970.476078	2527.349713
970.774639	2528.549508
971.073162	2525.756709
971.371649	2523.321831
971.670098	2524.498941
971.968510	2525.129085
972.266885	2523.800741
972.565223	2527.871473
972.863524	2526.482635
973.161788	2527.584127
973.460014	2526.223015
973.758204	2529.812317
974.056356	2528.415917
974.354471	2528.247039
974.652550	2528.476411
974.950591	2529.424148
975.248595	2527.689991
975.546563	2526.853160
975.844493	2528.153777
976.142386	2528.161339
976.440243	2526.598581
976.738062	2527.448016
977.035845	2527.125382
977.333590	2525.025741
977.631299	2526.129754
977.928971	2528.022707
978.226606	2529.497245
978.524204	2528.670496
978.821765	2526.530526
979.119290	2528.037831
979.416777	2527.334590
979.714228	2527.269055
980.011642	2528.184024
980.309020	2529.199817
980.606360	2525.698735
980.903664	2529.461957
981.200931	2526.898530
981.498162	2528.688140
981.795356	2526.810310
982.092513	2531.264169
982.389633	2529.167049
982.686717	2530.056813
982.983764	2527.319466
983.280775	2528.678057
983.577749	2529.512368
983.874686	2529.449354
984.171587	2530.203006
984.468451	2526.444826
984.765279	2529.782070
985.062070	2527.352234
985.358824	2530.598737
985.655543	2525.781914
985.952224	2526.913653
986.248869	2529.119158
986.545478	2522.593385
986.842050	2527.448016
987.138586	2523.306708
987.435086	2525.504651
987.731549	2522.116996
988.027975	2524.468694
988.324366	2527.891637
988.620719	2526.253262
988.917037	2525.310567
989.213318	2527.538757
989.509563	2527.652183
989.805772	2525.975999
990.101944	2524.322500
990.398080	2527.102697
990.694180	2528.000022
990.990244	2527.984899
991.286271	2526.520443
991.582262	2526.099507
991.878217	2526.732172
992.174136	2527.773170
992.470019	2527.100176
992.765865	2526.346524
993.061676	2527.022038
993.357450	2527.664785
993.653188	2526.959024
993.948890	2526.507841
994.244556	2527.495907
994.540186	2527.379960
994.835780	2525.802079
995.131337	2528.201668
995.426859	2526.419620
995.722345	2524.428365
996.017795	2525.101359
996.313208	2527.720238
996.608586	2529.227543
996.903928	2526.596061
997.199234	2526.714528
997.494504	2528.085722
997.789738	2524.526667
998.084936	2528.012625
998.380099	2524.012469
998.675225	2526.109589
998.970316	2527.879034
999.265371	2527.914322
999.560390	2526.485155
999.855373	2527.710156
1000.150320	2526.840557
1000.445232	2525.113962
1000.740108	2525.575227
1001.034948	2528.438603
1001.329752	2527.831143
1001.624521	2530.124868
1001.919254	2520.962571
1002.213951	2524.698066
1002.508613	2522.593385
1002.803239	2527.664785
1003.097829	2522.941224
1003.392384	2526.729651
1003.686903	2527.435413
1003.981386	2525.766791
1004.275834	2527.909281
1004.570246	2527.879034
1004.864623	2528.662934
1005.158964	2527.805938
1005.453270	2524.546832
1005.747540	2525.320649
1006.041775	2526.260824
1006.335974	2528.136133
1006.630138	2525.466842
1006.924266	2527.579086
1007.218359	2524.572038
1007.512416	2527.584127
1007.806438	2524.912315
1008.100425	2526.719569
1008.394376	2524.967768
1008.688292	2525.474404
1008.982172	2528.340300
1009.276017	2525.655886
1009.569827	2525.151770
1009.863602	2527.163191
1010.157341	2525.918026
1010.451045	2523.730165
1010.744714	2525.421472
1011.038347	2525.371060
1011.331945	2525.101359
1011.625508	2526.986750
1011.919036	2525.734023
1012.212528	2527.387522
1012.505986	2526.351565
1012.799408	2525.708818
1013.092795	2526.379291
1013.386147	2523.906605
1013.679464	2527.916843
1013.972745	2525.582789
1014.265992	2524.302336
1014.559204	2528.360465
1014.852380	2525.335772
1015.145521	2526.966586
1015.438628	2525.605474
1015.731699	2523.362161
1016.024736	2525.366019
1016.317737	2526.381812
1016.610703	2524.524147
1016.903635	2523.470545
1017.196531	2520.579444
1017.489393	2523.215967
1017.782219	2523.037006
1018.075011	2524.168745
1018.367768	2526.444826
1018.660490	2526.119672
1018.953177	2526.119672
1019.245829	2526.119672
