Dividing Wavelength (nm)	Counts (n)	Blue Motor Position (mm): 0.000000	Red Motor Position (mm): 7.500000	
326.493990	2148.701086
326.888308	2148.701086
327.282561	2148.701086
327.676750	2122.179576
328.070874	2125.229474
328.464933	2130.338683
328.858929	2139.314458
329.252859	2153.464977
329.646726	2164.290854
330.040528	2180.374656
330.434265	2197.471729
330.827938	2218.702548
331.221547	2235.839951
331.615091	2255.923908
332.008571	2277.437032
332.401986	2296.295988
332.795338	2314.819708
333.188625	2336.710919
333.581847	2354.125585
333.975006	2374.880015
334.368100	2393.716287
334.761129	2410.836045
335.154095	2426.231729
335.546996	2445.224276
335.939833	2455.336831
336.332606	2472.605303
336.725315	2481.162662
337.117960	2489.987202
337.510540	2499.041114
337.903056	2510.418998
338.295508	2515.061901
338.687896	2521.670853
339.080220	2528.680578
339.472480	2535.773481
339.864676	2537.800025
340.256807	2539.178781
340.648875	2543.776313
341.040879	2544.630789
341.432818	2546.407795
341.824694	2546.589277
342.216506	2547.489123
342.608253	2548.056253
342.999937	2543.574667
343.391557	2546.894267
343.783113	2546.541386
344.174605	2544.262784
344.566033	2542.095088
344.957397	2539.577032
345.348697	2539.108205
345.739934	2537.527803
346.131106	2536.582587
346.522215	2535.728111
346.913260	2533.305837
347.304241	2529.388860
347.695159	2526.780063
348.086012	2527.203520
348.476802	2524.834178
348.867528	2525.771832
349.258191	2524.002387
349.648789	2522.316121
350.039324	2517.703465
350.429796	2522.245545
350.820203	2518.595750
351.210548	2515.500481
351.600828	2514.572909
351.991045	2515.939062
352.381198	2515.079545
352.771288	2513.763804
353.161314	2514.169617
353.551276	2515.971829
353.941175	2515.901253
354.331010	2517.532066
354.720782	2515.031654
355.110490	2516.435615
355.500135	2515.129956
355.889717	2517.169103
356.279235	2515.722292
356.668689	2517.438805
357.058080	2515.734895
357.447408	2514.648526
357.836672	2514.492250
358.225873	2515.412261
358.615010	2515.099709
359.004084	2520.292098
359.393095	2519.286388
359.782043	2520.032478
360.170927	2518.696573
360.559748	2524.750998
360.948505	2521.880061
361.337199	2521.229753
361.725830	2518.484844
362.114398	2523.541122
362.502903	2523.742768
362.891344	2524.463653
363.279722	2523.830988
363.668037	2524.503982
364.056289	2524.864424
364.444478	2526.827954
364.832603	2523.347037
365.220665	2528.002543
365.608665	2525.771832
365.996601	2529.151926
366.384474	2526.709487
366.772284	2527.760567
367.160031	2529.678726
367.547715	2529.028418
367.935336	2526.583458
368.322893	2531.579241
368.710388	2528.776360
369.097820	2534.228368
369.485189	2532.093439
369.872495	2532.395908
370.259738	2530.371885
370.646918	2530.923891
371.034035	2532.068233
371.421090	2530.785260
371.808081	2533.479756
372.195010	2533.668800
372.581875	2533.086546
372.968678	2532.602596
373.355418	2536.590148
373.742096	2535.960004
374.128710	2536.080992
374.515262	2537.719367
374.901751	2539.579552
375.288177	2541.701878
375.674540	2539.831610
376.060841	2544.305634
376.447079	2543.410829
376.833254	2546.483413
377.219367	2544.885367
377.605417	2548.003321
377.991404	2547.264792
378.377329	2552.497509
378.763191	2553.868703
379.148991	2560.981771
379.534727	2563.129303
379.920402	2568.130127
380.306013	2571.744635
380.691563	2574.333267
381.077049	2582.202508
381.462474	2584.801223
381.847835	2586.411872
382.233134	2593.492172
382.618371	2596.138778
383.003545	2605.086826
383.388657	2606.437855
383.773706	2612.396499
384.158693	2617.074690
384.543618	2620.177520
384.928480	2626.224384
385.313280	2633.143368
385.698017	2639.527989
386.082692	2647.074597
386.467305	2647.896305
386.851856	2654.298570
387.236344	2662.014056
387.620770	2667.813903
388.005133	2670.742814
388.389435	2679.469051
388.773674	2680.724298
389.157851	2687.194619
389.541965	2690.264682
389.926018	2693.412883
390.310008	2696.765250
390.693936	2699.999150
391.077802	2702.633153
391.461606	2707.051724
391.845348	2710.688917
392.229027	2708.748073
392.612645	2713.209494
392.996200	2717.234855
393.379694	2721.335834
393.763125	2725.441854
394.146494	2722.049157
394.529801	2721.376163
394.913047	2726.354302
395.296230	2720.730895
395.679351	2714.764690
396.062410	2719.258878
396.445408	2711.238403
396.828343	2709.794112
397.211217	2707.911241
397.594028	2694.665609
397.976778	2696.525795
398.359466	2696.009077
398.742092	2685.525997
399.124656	2685.946934
399.507158	2682.836542
399.889598	2678.498629
400.271977	2672.429080
400.654294	2671.856909
401.036549	2664.050682
401.418742	2661.454488
401.800874	2656.446102
402.182944	2653.852428
402.564952	2653.078611
402.946898	2641.630150
403.328783	2638.423977
403.710606	2633.939870
404.092367	2630.945425
404.474067	2630.300157
404.855705	2624.127264
405.237282	2613.540841
405.618797	2615.728702
406.000250	2611.007661
406.381642	2609.729729
406.762972	2604.270159
407.144240	2597.474684
407.525447	2595.601895
407.906593	2591.354723
408.287677	2586.676532
408.668700	2587.828436
409.049661	2582.462128
409.430560	2575.086920
409.811399	2577.708320
410.192176	2574.240006
410.572891	2569.692885
410.953545	2570.023081
411.334138	2570.010478
411.714669	2566.161557
412.095139	2567.653738
412.475547	2563.872873
412.855894	2560.752399
413.236180	2561.997564
413.616405	2564.099725
413.996568	2559.512275
414.376670	2561.286761
414.756711	2557.473128
415.136691	2559.111503
415.516609	2555.081101
415.896466	2562.239539
416.276262	2561.324570
416.655997	2553.601522
417.035670	2556.147305
417.415283	2554.030020
417.794834	2553.319217
418.174324	2556.482541
418.553753	2559.212326
418.933121	2555.401214
419.312428	2555.580175
419.691674	2556.268292
420.070859	2556.840463
420.449983	2557.316852
420.829045	2554.697973
421.208047	2554.932387
421.586988	2556.706873
421.965867	2558.380536
422.344686	2556.253169
422.723444	2558.209137
423.102141	2557.294167
423.480777	2559.058571
423.859352	2557.886503
424.237866	2560.253324
424.616319	2559.131668
424.994712	2559.819785
425.373044	2559.260217
425.751314	2561.990002
426.129524	2556.963972
426.507673	2562.466391
426.885762	2560.941442
427.263789	2558.289795
427.641756	2559.580330
428.019662	2560.754919
428.397508	2557.485731
428.775292	2561.569066
429.153016	2561.372461
429.530679	2559.633262
429.908282	2561.269117
430.285824	2561.841288
430.663305	2558.073025
431.040726	2559.469425
431.418086	2560.787687
431.795385	2563.015877
432.172624	2561.238870
432.549802	2561.667368
432.926920	2560.404559
433.303977	2565.244067
433.680974	2560.664178
434.057910	2561.621998
434.434786	2562.930177
434.811601	2563.945970
435.188355	2562.342883
435.565050	2560.810372
435.941683	2565.143244
436.318257	2558.965310
436.694770	2559.592933
437.071222	2560.293654
437.447614	2560.086966
437.823946	2561.813562
438.200218	2563.096535
438.576429	2562.478994
438.952580	2563.514951
439.328670	2564.117369
439.704700	2563.204920
440.080670	2563.595609
440.456580	2563.996381
440.832429	2562.531926
441.208218	2564.752554
441.583947	2567.104252
441.959616	2563.436813
442.335224	2564.775239
442.710773	2563.930846
443.086261	2562.126113
443.461689	2566.153995
443.837057	2564.739951
444.212365	2564.906309
444.587612	2564.001422
444.962800	2565.758264
445.337927	2565.528892
445.712995	2566.711042
446.088002	2564.356824
446.462949	2564.268603
446.837837	2566.932853
447.212664	2567.341187
447.587431	2567.063923
447.962139	2567.938563
448.336786	2570.096177
448.711374	2566.199365
449.085901	2568.772874
449.460369	2567.184911
449.834776	2568.818245
450.209124	2565.939746
450.583412	2567.326063
450.957640	2567.210117
451.331808	2567.873028
451.705917	2565.491083
452.079965	2567.804973
452.453954	2568.188101
452.827883	2569.269428
453.201752	2567.741958
453.575562	2567.275652
453.949311	2567.381516
454.323001	2567.575600
454.696632	2566.965621
455.070202	2566.849674
455.443713	2567.041238
455.817164	2563.721638
456.190556	2564.014025
456.563888	2563.963614
456.937160	2565.496124
457.310373	2570.355797
457.683526	2567.905796
458.056619	2571.253122
458.429653	2569.103070
458.802628	2569.834037
459.175542	2570.539799
459.548398	2570.093657
459.921194	2567.948646
460.293930	2568.704819
460.666607	2572.654563
461.039224	2570.970818
461.411782	2571.595921
461.784280	2569.581980
462.156719	2571.106929
462.529099	2570.222206
462.901419	2569.700447
463.273680	2572.644481
463.645882	2570.207083
464.018024	2569.524006
464.390106	2571.147258
464.762130	2570.159192
465.134094	2572.798236
465.505999	2574.976014
465.877845	2574.426528
466.249631	2575.217990
466.621358	2572.281517
466.993026	2575.533062
467.364634	2577.282342
467.736184	2573.098184
468.107674	2573.287228
468.479105	2571.391754
468.850477	2574.784450
469.221790	2573.854358
469.593043	2572.271435
469.964238	2574.182032
470.335373	2572.576425
470.706449	2573.259501
471.077467	2574.913000
471.448425	2573.751014
471.819324	2576.357290
472.190164	2576.044739
472.560945	2572.662125
472.931667	2575.674214
473.302330	2573.919892
473.672934	2577.720922
474.043479	2574.126580
474.413965	2575.827969
474.784393	2567.447051
475.154761	2567.981413
475.525070	2569.478636
475.895321	2570.423852
476.265513	2570.007957
476.635645	2575.422156
477.005719	2571.842937
477.375734	2574.761765
477.745691	2574.847465
478.115588	2573.632547
478.485427	2576.667321
478.855207	2575.288566
479.224928	2574.446693
479.594591	2576.468196
479.964194	2574.913000
480.333739	2577.408371
480.703226	2577.743608
481.072653	2574.418967
481.442022	2575.764955
481.811333	2576.586663
482.180584	2574.073648
482.549777	2574.232444
482.918912	2572.263873
483.287988	2575.172619
483.657005	2575.482650
484.025964	2575.064234
484.394864	2577.234451
484.763706	2575.500294
485.132489	2573.940057
485.501213	2577.783937
485.869879	2573.529203
486.238487	2573.635067
486.607036	2574.552557
486.975527	2575.578432
487.343959	2572.856209
487.712333	2575.689337
488.080648	2574.126580
488.448905	2575.301169
488.817104	2574.436611
489.185244	2572.863771
489.553326	2575.328895
489.921350	2575.154975
490.289315	2575.517938
490.657222	2575.812846
491.025070	2576.500963
491.392861	2578.898032
491.760593	2578.761921
492.128267	2577.378124
492.495883	2574.507187
492.863440	2573.037691
493.230939	2576.453072
493.598380	2574.562640
493.965763	2570.595252
494.333088	2573.859399
494.700354	2573.851837
495.067563	2573.572053
495.434713	2572.518452
495.801805	2574.943247
496.168839	2571.916034
496.535815	2576.427867
496.902733	2573.899728
497.269593	2577.055490
497.636395	2574.776889
498.003139	2575.593556
498.369825	2573.768658
498.736453	2575.999368
499.103023	2573.942578
499.469535	2575.502815
499.835989	2575.349060
500.202385	2577.017682
500.568723	2574.804615
500.935003	2576.077506
501.301226	2575.623802
501.667390	2574.098853
502.033497	2581.083372
502.399546	2575.810325
502.765537	2575.207907
503.131470	2576.047259
503.497345	2576.916858
503.863163	2575.462486
504.228923	2574.111456
504.594625	2575.936354
504.960269	2575.404512
505.325856	2574.550037
505.691385	2577.862075
506.056856	2577.224369
506.422270	2578.928279
506.787625	2575.553226
507.152924	2577.247054
507.518164	2576.069945
507.883347	2575.449883
508.248472	2577.456262
508.613540	2575.709502
508.978550	2574.222362
509.343503	2577.050449
509.708398	2579.341653
510.073236	2574.119018
510.438016	2577.763772
510.802738	2578.247723
511.167403	2577.446180
511.532010	2574.731518
511.896561	2580.044894
512.261053	2574.461817
512.625488	2569.962587
512.989866	2572.412587
513.354186	2574.159347
513.718449	2574.305541
514.082655	2571.779923
514.446803	2579.082034
514.810894	2575.485171
515.174927	2579.127404
515.538904	2575.399471
515.902822	2579.465162
516.266684	2576.868967
516.630488	2577.458783
516.994235	2576.858885
517.357925	2575.074317
517.721558	2575.901066
518.085133	2575.664132
518.448651	2575.548185
518.812112	2577.965418
519.175516	2576.251426
519.538863	2578.426684
519.902152	2577.075655
520.265385	2574.517269
520.628560	2577.693196
520.991678	2575.792681
521.354739	2579.472723
521.717743	2576.753021
522.080690	2578.638413
522.443580	2575.497774
522.806413	2577.819225
523.169189	2577.186560
523.531908	2578.068762
523.894569	2575.018864
524.257174	2578.131777
524.619722	2577.912486
524.982213	2579.276118
525.344647	2575.747311
525.707025	2577.874678
526.069345	2576.937023
526.431608	2579.104719
526.793815	2577.796540
527.155964	2579.500450
527.518057	2577.224369
527.880093	2576.148082
528.242072	2576.584142
528.603995	2578.416602
528.965860	2577.791499
529.327669	2577.945254
529.689421	2577.357959
530.051117	2577.287383
530.412755	2576.853844
530.774337	2577.363001
531.135862	2577.264698
531.497331	2573.438462
531.858743	2572.916703
532.220098	2570.824624
532.581396	2577.481468
532.942638	2573.148596
533.303824	2577.410892
533.664953	2578.043556
534.026025	2580.218814
534.387040	2578.903073
534.747999	2576.939544
535.108902	2578.678742
535.469748	2577.607497
535.830537	2577.511715
536.191270	2579.152610
536.551947	2580.286870
536.912567	2578.560275
537.273131	2579.583629
537.633638	2577.420974
537.994089	2578.651015
538.354483	2575.139852
538.714821	2576.881570
539.075103	2576.647157
539.435328	2576.440469
539.795497	2578.464493
540.155609	2579.455079
540.515665	2577.355439
540.875665	2578.711509
541.235609	2574.388720
541.595496	2579.853331
541.955328	2576.768144
542.315102	2579.427353
542.674821	2579.296283
543.034483	2579.429874
543.394090	2574.870150
543.753640	2578.845100
544.113134	2576.765624
544.472571	2578.482137
544.831953	2578.398958
545.191278	2578.865264
545.550548	2575.659091
545.909761	2578.373752
546.268918	2575.512897
546.628019	2577.965418
546.987064	2578.835017
547.346053	2578.010789
547.704986	2578.590522
548.063863	2576.760583
548.422684	2576.521128
548.781449	2576.195973
549.140158	2579.019020
549.498811	2579.470203
549.857408	2580.004565
550.215949	2573.980386
550.574434	2576.546334
550.932864	2574.270253
551.291237	2573.851837
551.649555	2573.879563
552.007817	2579.268557
552.366022	2578.527507
552.724173	2577.257136
553.082267	2579.697055
553.440305	2577.471385
553.798288	2577.788978
554.156215	2578.232600
554.514086	2577.191601
554.871902	2579.082034
555.229661	2579.621437
555.587365	2578.151941
555.945014	2577.302507
556.302606	2579.414750
556.660143	2579.366859
557.017625	2579.603793
557.375050	2578.948443
557.732421	2579.369380
558.089735	2578.582960
558.446994	2575.424677
558.804197	2578.613207
559.161345	2578.401478
559.518437	2580.617065
559.875474	2579.414750
560.232455	2577.725964
560.589381	2577.713361
560.946251	2582.250399
561.303065	2580.135635
561.659825	2579.172775
562.016528	2575.936354
562.373177	2576.899214
562.729770	2578.492219
563.086307	2579.263516
563.442789	2577.060531
563.799216	2579.800398
564.155587	2581.272415
564.511904	2577.985583
564.868164	2577.836869
565.224370	2581.975656
565.580520	2578.905594
565.936615	2581.647981
566.292654	2578.398958
566.648638	2578.015830
567.004567	2577.335274
567.360441	2578.051118
567.716260	2576.206056
568.072023	2576.831159
568.427732	2571.815211
568.783385	2577.040367
569.138982	2576.553895
569.494525	2574.121539
569.850013	2576.919379
570.205445	2579.422312
570.560823	2578.938361
570.916145	2579.008937
571.271412	2578.464493
571.626625	2580.952302
571.981782	2580.155800
572.336884	2578.280491
572.691931	2579.001376
573.046923	2577.786458
573.401860	2578.845100
573.756743	2578.711509
574.111570	2577.725964
574.466342	2579.969277
574.821059	2578.779565
575.175722	2577.098340
575.530330	2577.244533
575.884882	2576.437949
576.239380	2578.303176
576.593823	2579.187898
576.948211	2578.726633
577.302544	2577.695717
577.656823	2578.540110
578.011047	2577.456262
578.365216	2580.478434
578.719330	2581.905080
579.073389	2576.816035
579.427394	2573.778740
579.781344	2579.918866
580.135239	2579.979359
580.489080	2577.688155
580.842866	2581.075810
581.196597	2582.502457
581.550273	2577.070614
581.903895	2579.548341
582.257463	2580.617065
582.610975	2578.784606
582.964434	2579.480285
583.317837	2577.020202
583.671186	2578.189750
584.024481	2577.375603
584.377721	2581.673187
584.730906	2575.439800
585.084037	2581.169072
585.437113	2578.315779
585.790135	2580.798547
586.143103	2580.002045
586.496016	2580.029771
586.848874	2573.992989
587.201679	2575.923751
587.554428	2575.611200
587.907124	2575.467527
588.259765	2575.275963
588.612352	2579.898701
588.964884	2576.732856
589.317362	2579.344174
589.669786	2579.387024
590.022155	2579.699575
590.374470	2577.133628
590.726731	2579.878536
591.078937	2578.885429
591.431090	2578.756880
591.783188	2577.226889
592.135232	2578.308217
592.487222	2578.320820
592.839157	2579.767631
593.191038	2577.753690
593.542866	2578.872826
593.894639	2578.119174
594.246358	2577.889801
594.598022	2578.403999
594.949633	2578.091447
595.301190	2581.763928
595.652692	2575.815366
596.004141	2578.295614
596.355535	2579.399627
596.706876	2578.409040
597.058162	2579.770152
597.409395	2578.340984
597.760573	2581.753846
598.111698	2578.643454
598.462768	2578.013309
598.813785	2577.927610
599.164748	2577.884760
599.515657	2579.266036
599.866511	2577.030284
600.217312	2577.408371
600.568060	2576.810994
600.918753	2581.579926
601.269392	2577.615058
601.619978	2579.870975
601.970510	2578.761921
602.320988	2578.348546
602.671412	2579.228228
603.021783	2578.265367
603.372100	2575.714543
603.722363	2579.969277
604.072572	2581.983218
604.422728	2580.765779
604.772830	2575.134811
605.122878	2574.310582
605.472872	2574.721436
605.822813	2572.523493
606.172701	2576.558937
606.522534	2576.286714
606.872314	2578.714030
607.222041	2577.060531
607.571714	2578.686303
607.921333	2578.033474
608.270899	2579.926427
608.620411	2576.279152
608.969870	2578.494740
609.319276	2579.220666
609.668627	2579.513053
610.017926	2576.430387
610.367171	2581.068249
610.716362	2576.758062
611.065500	2579.838207
611.414585	2575.969122
611.763616	2578.008268
612.112594	2578.882908
612.461518	2581.786613
612.810389	2578.061200
613.159207	2579.477765
613.507971	2577.698237
613.856682	2577.718402
614.205340	2580.065059
614.553945	2578.348546
614.902496	2578.588001
615.250994	2575.953998
615.599439	2580.238979
615.947830	2579.389544
616.296169	2577.771334
616.644454	2578.134297
616.992686	2581.000193
617.340864	2580.422981
617.688990	2576.818556
618.037063	2577.736046
618.385082	2577.680593
618.733048	2581.912642
619.080961	2577.388206
619.428821	2577.516756
619.776628	2577.216807
620.124382	2577.516756
620.472083	2578.053639
620.819731	2579.170254
621.167326	2579.119843
621.514868	2578.403999
621.862357	2578.855182
622.209793	2577.592373
622.557176	2577.625141
622.904506	2576.561457
623.251783	2576.710171
623.599007	2573.352763
623.946179	2572.740262
624.293297	2573.072979
624.640363	2574.998699
624.987376	2578.096488
625.334336	2576.281673
625.681243	2578.582960
626.028097	2577.163875
626.374899	2578.431725
626.721647	2577.819225
627.068343	2575.084399
627.414987	2577.978021
627.761577	2579.233269
628.108115	2577.791499
628.454600	2577.998186
628.801032	2575.631364
629.147412	2580.438104
629.493739	2578.643454
629.840014	2576.241344
630.186236	2577.242013
630.532405	2578.434246
630.878521	2577.723443
631.224585	2580.327199
631.570597	2579.674370
631.916556	2578.572877
632.262462	2576.702609
632.608316	2576.934502
632.954117	2577.680593
633.299866	2581.015317
633.645562	2579.724781
633.991206	2577.937692
634.336797	2579.117322
634.682336	2577.378124
635.027823	2577.431056
635.373257	2576.364852
635.718639	2576.821077
636.063968	2578.792168
636.409245	2576.798391
636.754470	2579.366859
637.099642	2577.431056
637.444762	2577.930130
637.789829	2577.763772
638.134845	2577.176478
638.479808	2580.894329
638.824719	2577.299986
639.169577	2577.375603
639.514383	2575.039029
639.859137	2576.851323
640.203839	2577.610017
640.548489	2576.064903
640.893086	2577.998186
641.237632	2575.643967
641.582125	2575.041549
641.926566	2572.694892
642.270955	2576.349729
642.615292	2575.492732
642.959576	2577.995665
643.303809	2578.088927
643.647990	2576.896694
643.992118	2576.795871
644.336195	2577.446180
644.680219	2575.192784
645.024192	2577.252095
645.368112	2578.162023
645.711981	2574.403843
646.055797	2578.141859
646.399562	2576.538772
646.743274	2575.386868
647.086935	2574.907959
647.430544	2575.399471
647.774101	2575.371745
648.117606	2577.801581
648.461059	2574.701271
648.804460	2580.249061
649.147810	2575.530541
649.491108	2579.059349
649.834354	2576.614389
650.177548	2576.475758
650.520690	2574.842424
650.863781	2577.607497
651.206820	2578.532548
651.549807	2576.301838
651.892742	2578.391396
652.235626	2576.498443
652.578458	2574.711354
652.921238	2573.619944
653.263967	2576.203535
653.606644	2578.093968
653.949269	2575.233113
654.291843	2577.178998
654.634365	2577.368042
654.976836	2575.833010
655.319255	2580.334761
655.661622	2574.350911
656.003938	2577.993145
656.346203	2576.203535
656.688416	2576.349729
657.030577	2575.719584
657.372687	2579.835687
657.714746	2575.976683
658.056753	2574.867629
658.398708	2572.697413
658.740612	2574.391240
659.082465	2573.204049
659.424266	2571.258163
659.766016	2572.301682
660.107715	2575.870819
660.449362	2575.190263
660.790958	2578.245202
661.132503	2576.669842
661.473996	2577.400809
661.815438	2574.171950
662.156829	2576.558937
662.498168	2576.523648
662.839456	2573.902248
663.180693	2575.568350
663.521879	2578.260326
663.863013	2576.914338
664.204097	2578.547672
664.545129	2576.216138
664.886110	2573.884604
665.227040	2575.701940
665.567918	2576.236303
665.908746	2576.553895
666.249522	2575.563309
666.590248	2574.799574
666.930922	2573.798905
667.271545	2576.168247
667.612118	2576.291755
667.952639	2576.579101
668.293109	2578.756880
668.633528	2576.470716
668.973896	2572.977197
669.314213	2577.486509
669.654480	2573.877043
669.994695	2574.965932
670.334859	2576.001889
670.674973	2577.020202
671.015035	2574.086251
671.355047	2575.134811
671.695008	2574.789492
672.034918	2576.238823
672.374777	2576.795871
672.714585	2575.119687
673.054342	2573.897207
673.394049	2577.267219
673.733705	2576.939544
674.073310	2577.491550
674.412864	2576.042218
674.752368	2572.924265
675.091820	2574.360993
675.431223	2572.644481
675.770574	2577.478947
676.109875	2571.595921
676.449125	2572.629357
676.788324	2572.188256
677.127473	2575.275963
677.466571	2571.409398
677.805619	2577.675552
678.144616	2576.702609
678.483562	2575.321333
678.822458	2575.409553
679.161303	2575.255798
679.500098	2574.648339
679.838842	2576.707651
680.177535	2575.200346
680.516179	2574.933164
680.854771	2573.587176
681.193314	2575.233113
681.531805	2575.480130
681.870247	2575.480130
682.208638	2576.309399
682.546978	2577.733525
682.885268	2573.650191
683.223508	2577.211766
683.561697	2575.069276
683.899836	2577.199163
684.237925	2577.146231
684.575963	2575.747311
684.913951	2577.330233
685.251889	2577.236972
685.589776	2575.727146
685.927614	2575.969122
686.265401	2576.253947
686.603137	2575.606158
686.940824	2573.839234
687.278460	2576.642116
687.616046	2575.611200
687.953582	2577.857034
688.291068	2575.102043
688.628504	2574.797053
688.965889	2577.584811
689.303224	2575.533062
689.640510	2574.454255
689.977745	2574.154306
690.314930	2576.009451
690.652065	2576.362332
690.989150	2577.892322
691.326185	2575.449883
691.663170	2572.057186
692.000105	2576.793350
692.336990	2573.493915
692.673825	2576.891653
693.010610	2577.284863
693.347345	2570.812021
693.684030	2574.159347
694.020665	2572.158009
694.357251	2570.350756
694.693786	2574.179512
695.030272	2572.042063
695.366707	2572.989800
695.703093	2574.706312
696.039429	2573.572053
696.375716	2575.394430
696.711952	2573.330078
697.048139	2573.236816
697.384276	2574.388720
697.720363	2575.205387
698.056400	2574.807136
698.392388	2574.222362
698.728326	2574.774368
699.064214	2577.108422
699.400053	2574.265212
699.735842	2576.826118
700.071581	2574.728998
700.407270	2577.882239
700.742910	2574.502146
701.078501	2574.103895
701.414042	2573.377968
701.749533	2574.504666
702.084974	2573.781261
702.420366	2573.383010
702.755709	2574.792012
703.091002	2575.306210
703.426246	2574.161868
703.761440	2574.053483
704.096584	2574.673545
704.431679	2573.083061
704.766725	2576.264029
705.101721	2572.163050
705.436668	2574.056004
705.771565	2571.840417
706.106413	2574.655901
706.441212	2572.639439
706.775961	2578.159503
707.110661	2572.667166
707.445311	2573.776220
707.779913	2573.844275
708.114465	2575.323854
708.448967	2573.045252
708.783421	2573.199007
709.117825	2574.963411
709.452180	2575.792681
709.786485	2575.989286
710.120742	2575.772517
710.454949	2573.466189
710.789107	2572.402505
711.123216	2570.592731
711.457275	2569.554253
711.791286	2573.297310
712.125247	2570.628019
712.459159	2572.379820
712.793023	2575.253278
713.126837	2573.854357
713.460602	2576.546334
713.794318	2574.487022
714.127985	2574.519790
714.461602	2572.659604
714.795171	2572.614234
715.128691	2574.643298
715.462162	2576.362332
715.795584	2573.826631
716.128957	2576.231262
716.462281	2576.521128
716.795556	2575.706982
717.128782	2572.664645
717.461960	2573.017526
717.795088	2573.264542
718.128167	2572.619275
718.461198	2571.812690
718.794180	2573.695561
719.127113	2574.227403
719.459997	2573.100705
719.792833	2573.940057
720.125619	2573.357804
720.458357	2574.028277
720.791046	2575.039029
721.123686	2573.559450
721.456278	2573.191446
721.788821	2573.665314
722.121315	2575.674214
722.453761	2575.185222
722.786158	2573.909810
723.118506	2571.485015
723.450805	2574.658422
723.783056	2572.624316
724.115259	2571.563153
724.447412	2573.476271
724.779518	2574.703792
725.111574	2574.368555
725.443582	2572.551219
725.775542	2573.660273
726.107453	2574.484502
726.439315	2570.302865
726.771129	2577.433577
727.102895	2572.367217
727.434612	2573.138514
727.766281	2572.722618
728.097901	2569.566856
728.429473	2570.837227
728.760996	2568.140210
729.092471	2569.080385
729.423897	2573.168761
729.755276	2575.260839
730.086606	2575.487691
730.417887	2573.776220
730.749120	2572.276476
731.080305	2572.636919
731.411442	2572.654563
731.742530	2572.125242
732.073570	2572.795715
732.404562	2574.015674
732.735506	2572.422670
733.066401	2572.198338
733.397249	2572.077351
733.728048	2571.240519
734.058798	2572.331929
734.389501	2570.423852
734.720156	2574.126580
735.050762	2574.585325
735.381320	2573.264543
735.711831	2572.039542
736.042293	2575.071796
736.372707	2573.602300
736.703073	2570.849830
737.033391	2575.351580
737.363661	2573.317475
737.693883	2572.276476
738.024056	2575.414595
738.354182	2572.674728
738.684260	2570.955694
739.014290	2571.754717
739.344272	2570.572566
739.674207	2574.789492
740.004093	2573.025088
740.333931	2571.883266
740.663722	2572.437793
740.993464	2571.898390
741.323159	2572.326888
741.652806	2572.853688
741.982405	2572.619275
742.311956	2573.630026
742.641460	2571.449727
742.970915	2570.524675
743.300323	2570.370920
743.629683	2573.151117
743.958996	2574.769327
744.288260	2574.353432
744.617477	2569.024932
744.946647	2568.200703
745.275768	2568.243553
745.604842	2572.261353
745.933869	2568.362020
746.262847	2568.921588
746.591778	2570.912844
746.920662	2570.754048
747.249498	2571.270766
747.578286	2572.888977
747.907027	2572.311764
748.235720	2571.883266
748.564365	2572.258832
748.892963	2573.335119
749.221514	2570.791857
749.550017	2573.995510
749.878473	2571.177505
750.206881	2572.417629
750.535242	2570.007957
750.863555	2574.534913
751.191821	2571.910993
751.520039	2570.277659
751.848210	2573.002402
752.176334	2570.489387
752.504411	2572.737742
752.832440	2574.734039
753.160421	2572.813359
753.488356	2572.079871
753.816243	2573.350242
754.144082	2573.587176
754.471875	2573.408215
754.799620	2573.201528
755.127318	2571.180025
755.454969	2571.101888
755.782572	2569.168605
756.110129	2571.497618
756.437638	2572.226065
756.765100	2572.286559
757.092515	2571.800087
757.419882	2572.432752
757.747203	2573.342680
758.074477	2571.351425
758.401703	2572.004254
758.728882	2571.938719
759.056014	2571.835375
759.383099	2572.808318
759.710138	2571.048955
760.037129	2571.248081
760.364073	2571.472412
760.690970	2569.902093
761.017820	2573.037691
761.344623	2571.101887
761.671379	2571.878225
761.998088	2570.219686
762.324751	2569.745817
762.651366	2565.465877
762.977935	2570.529717
763.304456	2568.402350
763.630931	2573.745973
763.957359	2575.225551
764.283740	2574.875191
764.610074	2573.761096
764.936362	2576.006930
765.262602	2571.416960
765.588796	2572.722618
765.914943	2572.130283
766.241044	2569.753379
766.567097	2573.249419
766.893104	2574.812177
767.219064	2570.033163
767.544978	2571.326219
767.870845	2571.545509
768.196665	2573.367886
768.522438	2568.903944
768.848165	2571.880746
769.173846	2570.917885
769.499479	2570.181877
769.825066	2568.609037
770.150607	2572.634398
770.476101	2571.560633
770.801548	2572.422670
771.126949	2571.338822
771.452303	2572.571384
771.777611	2570.615416
772.102872	2572.016857
772.428087	2571.542988
772.753256	2574.179512
773.078378	2570.882597
773.403453	2571.104408
773.728482	2571.883266
774.053465	2572.132803
774.378401	2571.792526
774.703291	2572.105077
775.028135	2570.645663
775.352932	2572.074830
775.677683	2573.183884
776.002388	2574.156827
776.327046	2570.474264
776.651658	2573.193966
776.976224	2573.564491
777.300743	2571.827814
777.625216	2570.935529
777.949643	2570.058369
778.274024	2573.050293
778.598359	2567.951166
778.922647	2566.282544
779.246889	2567.164746
779.571086	2565.967472
779.895236	2568.185580
780.219339	2570.696075
780.543397	2572.904100
780.867409	2569.680282
781.191374	2570.338153
781.515294	2570.224727
781.839167	2569.526527
782.162995	2571.144737
782.486776	2569.617268
782.810511	2571.910993
783.134201	2569.236661
783.457844	2570.194480
783.781441	2569.385375
784.104993	2569.453430
784.428498	2572.084912
784.751958	2571.306054
785.075372	2571.807649
785.398739	2570.582649
785.722061	2571.578277
786.045337	2571.416960
786.368568	2569.397977
786.691752	2570.668348
787.014891	2571.943760
787.337983	2568.858574
787.661030	2571.936198
787.984031	2571.026270
788.306987	2569.980231
788.629897	2567.734397
788.952760	2570.607854
789.275579	2573.735890
789.598351	2572.568863
789.921078	2572.158009
790.243759	2572.256312
790.566395	2569.922257
790.888984	2572.268915
791.211529	2571.245560
791.534027	2571.905952
791.856480	2569.723132
792.178888	2571.280848
792.501249	2571.195149
792.823566	2569.723132
793.145836	2569.579459
793.468062	2569.410580
793.790241	2570.703636
794.112375	2573.199007
794.434464	2568.815724
794.756507	2570.668348
795.078505	2572.042063
795.400457	2570.285221
795.722364	2566.690878
796.044226	2568.553584
796.366042	2566.819427
796.687812	2565.609550
797.009538	2570.219686
797.331218	2568.188101
797.652852	2571.936198
797.974442	2567.888152
798.295986	2570.224727
798.617484	2569.090467
798.938938	2571.663976
799.260346	2569.839078
799.581709	2571.134655
799.903026	2571.860581
800.224299	2571.600962
800.545526	2572.067268
800.866708	2568.591393
801.187845	2570.610375
801.508936	2569.460992
801.829983	2570.499470
802.150984	2571.278328
802.471940	2571.016188
802.792851	2567.827658
803.113717	2569.985272
803.434538	2569.599624
803.755314	2570.335632
804.076045	2571.580797
804.396731	2572.841086
804.717372	2567.797411
805.037967	2569.584500
805.358518	2569.440827
805.679024	2573.642629
805.999485	2570.212124
806.319901	2570.108780
806.640272	2570.990982
806.960598	2570.207083
807.280879	2568.152812
807.601115	2572.410067
807.921306	2569.362689
808.241453	2569.438307
808.561554	2570.998544
808.881611	2569.982751
809.201623	2570.587690
809.521590	2569.534089
809.841513	2568.432597
810.161390	2568.243553
810.481223	2568.467885
810.801011	2569.266907
811.120755	2570.149109
811.440453	2571.311095
811.760107	2570.214644
812.079716	2565.246587
812.399281	2565.662482
812.718801	2568.530899
813.038276	2565.395301
813.357707	2568.757751
813.677093	2570.459140
813.996434	2568.195662
814.315731	2570.413770
814.634983	2570.174315
814.954191	2570.365879
815.273354	2567.595765
815.592473	2568.815724
815.911547	2569.612227
816.230577	2570.963256
816.549562	2571.777402
816.868502	2567.351269
817.187399	2569.652556
817.506250	2570.532237
817.825058	2571.606003
818.143821	2566.315312
818.462539	2570.922927
818.781213	2570.575087
819.099843	2568.707339
819.418429	2572.473081
819.736970	2569.632391
820.055466	2569.428224
820.373919	2572.042063
820.692327	2570.638101
821.010691	2570.461661
821.329011	2570.920406
821.647286	2577.867116
821.965517	2572.674727
822.283704	2578.136818
822.601847	2576.753021
822.919945	2576.793350
823.237999	2573.992989
823.556010	2574.776889
823.873976	2573.909810
824.191897	2573.015005
824.509775	2571.038873
824.827609	2571.830334
825.145398	2572.949470
825.463144	2571.464851
825.780845	2574.660942
826.098502	2574.489543
826.416116	2573.264542
826.733685	2574.587845
827.051210	2573.861919
827.368692	2572.800756
827.686129	2571.096846
828.003522	2570.902762
828.320872	2568.551064
828.638177	2569.738255
828.955439	2566.038048
829.272656	2564.871021
829.589830	2566.456464
829.906960	2570.978379
830.224046	2567.631053
830.541088	2570.328070
830.858086	2567.620971
831.175041	2569.909655
831.491952	2569.236661
831.808819	2568.293965
832.125642	2569.607185
832.442421	2569.322360
832.759157	2568.939232
833.075849	2570.179356
833.392497	2572.389902
833.709101	2571.938719
834.025662	2571.893349
834.342179	2571.522824
834.658653	2569.458471
834.975083	2568.936712
835.291469	2573.892166
835.607811	2570.764130
835.924110	2567.731876
836.240366	2570.045766
836.556578	2568.770354
836.872746	2568.195662
837.188871	2567.300857
837.504952	2566.022925
837.820990	2570.887638
838.136984	2568.382185
838.452935	2569.186249
838.768842	2569.387895
839.084706	2569.491239
839.400526	2568.916547
839.716303	2568.306568
840.032037	2567.996537
840.347727	2565.042421
840.663373	2570.680951
840.978977	2567.197514
841.294537	2567.525189
841.610054	2569.798749
841.925527	2567.542833
842.240957	2569.188770
842.556344	2569.859243
842.871687	2566.214489
843.186987	2567.923440
843.502244	2568.898903
843.817458	2568.064592
844.132629	2568.576269
844.447756	2567.338666
844.762840	2564.878583
845.077881	2565.738100
845.392879	2564.553429
845.707833	2567.804973
846.022745	2564.026628
846.337613	2568.984603
846.652438	2566.161557
846.967221	2568.031825
847.281960	2570.401167
847.596656	2569.183728
847.911309	2566.585014
848.225919	2569.266907
848.540485	2568.341856
848.855009	2567.941084
849.169490	2568.659448
849.483928	2568.901424
849.798323	2568.868656
850.112675	2570.993503
850.426984	2566.907647
850.741251	2565.508727
851.055474	2568.062072
851.369654	2569.776064
851.683792	2568.160374
851.997887	2566.733728
852.311938	2570.486867
852.625947	2567.189952
852.939914	2569.811352
853.253837	2568.074675
853.567718	2569.365210
853.881555	2566.902606
854.195350	2569.561815
854.509103	2570.804459
854.822812	2567.565518
855.136479	2568.422514
855.450103	2568.341856
855.763685	2568.936712
856.077224	2567.633574
856.390720	2567.152143
856.704173	2570.534758
857.017584	2567.862946
857.330953	2565.843964
857.644278	2567.033676
857.957561	2569.352607
858.270802	2569.098029
858.584000	2568.896383
858.897155	2569.836558
859.210268	2568.241033
859.523339	2564.563511
859.836367	2569.070302
860.149352	2570.774212
860.462295	2570.648184
860.775195	2565.372616
861.088054	2564.359344
861.400869	2563.056206
861.713642	2565.123079
862.026373	2563.633418
862.339062	2568.172977
862.651708	2569.198852
862.964312	2568.944274
863.276873	2567.313460
863.589392	2567.772205
863.901869	2568.430076
864.214303	2566.937894
864.526696	2566.862277
864.839045	2568.404870
865.151353	2571.308575
865.463619	2567.744479
865.775842	2566.506876
866.088023	2568.543502
866.400162	2568.767833
866.712258	2568.573749
867.024313	2566.852195
867.336325	2569.980231
867.648296	2569.287072
867.960224	2567.144582
868.272110	2568.331773
868.583954	2567.976372
868.895755	2565.720456
869.207515	2567.066444
869.519233	2566.852195
869.830909	2565.949828
870.142542	2569.145920
870.454134	2568.009140
870.765684	2569.960066
871.077191	2567.018553
871.388657	2570.885118
871.700081	2566.416135
872.011463	2569.486198
872.322803	2566.930333
872.634101	2566.625343
872.945357	2570.149109
873.256571	2566.809345
873.567744	2566.965621
873.878874	2570.386044
874.189963	2564.003943
874.501010	2568.389747
874.812015	2567.812535
875.122979	2566.542164
875.433900	2567.973852
875.744780	2569.307237
876.055618	2568.614078
876.366415	2570.252453
876.677169	2567.734397
876.987882	2565.566701
877.298554	2564.538305
877.609183	2564.427400
877.919771	2565.438151
878.230317	2565.052503
878.540822	2568.225909
878.851285	2569.045097
879.161707	2566.171639
879.472087	2568.374623
879.782425	2566.559808
880.092722	2570.156671
880.402977	2569.246743
880.713191	2570.953173
881.023363	2569.105591
881.333494	2570.698595
881.643583	2572.397464
881.953631	2569.024932
882.263637	2570.527196
882.573602	2570.885118
882.883526	2570.721280
883.193408	2570.222206
883.503248	2570.776733
883.813048	2569.760941
884.122806	2572.135324
884.432522	2569.965107
884.742197	2567.588203
885.051831	2567.353790
885.361424	2567.618450
885.670975	2569.508883
885.980485	2565.533933
886.289954	2571.278328
886.599382	2565.952349
886.908768	2570.139027
887.218113	2567.424366
887.527417	2569.377813
887.836680	2566.942936
888.145901	2568.946794
888.455082	2566.005281
888.764221	2566.350600
889.073319	2567.565518
889.382376	2568.508214
889.691392	2564.603840
890.000366	2566.438820
890.309300	2567.981413
890.618193	2566.458985
890.927044	2565.773388
891.235855	2567.167267
891.544625	2566.224571
891.853353	2570.073492
892.162041	2564.200548
892.470687	2565.256670
892.779293	2568.578790
893.087858	2565.317163
893.396381	2564.669375
893.704864	2564.361865
894.013306	2564.891186
894.321707	2566.907647
894.630068	2569.264387
894.938387	2567.368913
895.246665	2565.886814
895.554903	2568.919068
895.863100	2567.973852
896.171256	2569.029973
896.479371	2568.480488
896.787446	2563.671227
897.095480	2569.246743
897.403473	2567.111814
897.711425	2570.025601
898.019336	2566.963100
898.327207	2566.791701
898.635038	2566.980744
898.942827	2569.095508
899.250576	2567.066444
899.558284	2568.157854
899.865952	2567.502504
900.173579	2567.905796
900.481165	2567.608368
900.788711	2565.652400
901.096216	2566.834551
901.403681	2566.045610
901.711105	2565.944787
902.018489	2567.875549
902.325832	2570.113821
902.633135	2564.399673
902.940397	2568.147771
903.247619	2568.740107
903.554800	2566.579972
903.861941	2565.483522
904.169041	2568.798080
904.476101	2567.502504
904.783121	2571.643812
905.090100	2569.705488
905.397039	2565.291958
905.703938	2569.395457
906.010796	2570.708677
906.317614	2568.097360
906.624391	2568.972000
906.931129	2566.141392
907.237826	2565.181052
907.544483	2567.439489
907.851099	2567.714232
908.157675	2564.006463
908.464211	2565.912020
908.770707	2562.421021
909.077163	2563.809858
909.383578	2561.342214
909.689954	2561.450598
909.996289	2562.274827
910.302584	2566.131310
910.608839	2565.329766
910.915054	2566.650549
911.221229	2567.147102
911.527363	2567.449572
911.833458	2567.812535
912.139513	2566.852195
912.445527	2567.721794
912.751502	2565.856567
913.057436	2567.230281
913.363331	2564.545867
913.669186	2565.634756
913.975000	2566.217009
914.280775	2567.469736
914.586510	2565.735579
914.892205	2565.876732
915.197859	2565.634756
915.503475	2568.316650
915.809050	2567.197514
916.114585	2566.736248
916.420081	2567.628532
916.725536	2565.334807
917.030952	2568.367062
917.336328	2567.840261
917.641665	2568.180539
917.946961	2569.518965
918.252218	2566.227092
918.557435	2567.356310
918.862612	2568.314129
919.167750	2565.871690
919.472848	2568.442679
919.777906	2568.961918
920.082925	2565.599468
920.387904	2565.241546
920.692843	2567.943605
920.997743	2564.152657
921.302603	2567.505024
921.607423	2566.373285
921.912204	2564.112328
922.216946	2567.308419
922.521647	2566.451423
922.826310	2564.825651
923.130932	2565.818758
923.435516	2568.172977
923.740059	2566.746331
924.044564	2565.801114
924.349028	2567.310940
924.653454	2560.918757
924.957840	2562.630228
925.262186	2562.451268
925.566493	2563.562842
925.870761	2562.053016
926.174989	2567.860426
926.479178	2566.358162
926.783328	2567.152143
927.087438	2563.456978
927.391509	2567.283213
927.695541	2565.972513
927.999533	2565.569221
928.303486	2566.257339
928.607400	2566.254818
928.911275	2564.419838
929.215110	2566.469067
929.518906	2565.768347
929.822663	2566.186762
930.126381	2565.758264
930.430060	2567.938563
930.733699	2564.941597
931.037299	2568.488049
931.340861	2566.431258
931.644383	2568.034345
931.947866	2565.987637
932.251309	2565.475960
932.554714	2562.738613
932.858080	2565.932184
933.161407	2565.138202
933.464694	2564.175342
933.767943	2564.467729
934.071153	2565.768347
934.374323	2566.395970
934.677455	2564.394632
934.980548	2565.158367
935.283602	2565.922102
935.586617	2565.196176
935.889593	2566.713563
936.192530	2565.178532
936.495428	2565.904458
936.798287	2564.883624
937.101108	2565.975034
937.403890	2563.698953
937.706632	2567.527709
938.009336	2565.619633
938.312002	2566.161557
938.614628	2564.087122
938.917216	2566.761454
939.219765	2564.689540
939.522275	2566.012843
939.824747	2568.190621
940.127179	2560.255845
940.429573	2561.669889
940.731929	2560.770043
941.034246	2563.126782
941.336524	2564.326577
941.638763	2565.912020
941.940964	2566.985785
942.243126	2564.666855
942.545250	2568.021742
942.847335	2566.322874
943.149381	2562.496638
943.451389	2564.853377
943.753359	2565.246587
944.055290	2566.206927
944.357182	2563.091494
944.659036	2564.366906
944.960851	2569.302196
945.262628	2565.929664
945.564367	2567.628532
945.866067	2562.766340
946.167729	2566.890003
946.469352	2563.656103
946.770937	2566.343038
947.072484	2562.733572
947.373992	2564.263562
947.675462	2565.118038
947.976893	2565.387740
948.278286	2565.291958
948.579641	2562.370609
948.880958	2565.052503
949.182236	2567.482339
949.483476	2566.398491
949.784678	2566.015363
950.085841	2565.939746
950.386967	2567.063923
950.688054	2565.533933
950.989103	2563.066288
951.290114	2566.786660
951.591087	2566.325394
951.892021	2563.623336
952.192917	2565.065106
952.493776	2565.753223
952.794596	2566.554767
953.095378	2566.184242
953.396122	2567.386557
953.696828	2565.637277
953.997496	2568.006619
954.298126	2565.120558
954.598718	2567.290775
954.899272	2564.056875
955.199788	2563.245249
955.500266	2564.750034
955.800706	2559.461863
956.101108	2560.200392
956.401472	2561.773232
956.701798	2558.647717
957.002087	2562.574776
957.302337	2565.158367
957.602550	2564.364385
957.902724	2564.369427
958.202861	2564.112328
958.502960	2563.691391
958.803022	2563.479663
959.103045	2565.128120
959.403031	2567.003429
959.702979	2565.014694
960.002889	2565.327246
960.302762	2564.848336
960.602596	2564.321536
960.902393	2565.833882
961.202153	2563.729200
961.501875	2567.830179
961.801559	2563.330949
962.101205	2562.282389
962.400814	2564.639128
962.700385	2567.494942
962.999918	2565.596948
963.299414	2563.338511
963.598873	2565.654921
963.898293	2566.267421
964.197677	2565.271793
964.497022	2564.964283
964.796331	2564.124931
965.095601	2564.190466
965.394835	2564.790363
965.694030	2566.232133
965.993189	2564.192986
966.292309	2567.744479
966.591393	2562.259704
966.890439	2565.859087
967.189447	2563.756926
967.488419	2565.914540
967.787353	2564.727348
968.086249	2567.878070
968.385108	2562.910013
968.683930	2563.114179
968.982714	2564.278686
969.281462	2563.608212
969.580172	2566.489232
969.878844	2564.324056
970.177480	2567.268090
970.476078	2564.560990
970.774639	2568.404870
971.073162	2562.922615
971.371649	2560.402038
971.670098	2564.608881
971.968510	2560.949004
972.266885	2560.155022
972.565223	2563.474622
972.863524	2563.230126
973.161788	2562.715928
973.460014	2566.075857
973.758204	2564.802966
974.056356	2566.249777
974.354471	2565.985116
974.652550	2565.773388
974.950591	2563.325908
975.248595	2567.167267
975.546563	2564.727348
975.844493	2565.349931
976.142386	2562.259704
976.440243	2562.811710
976.738062	2565.846485
977.035845	2561.679971
977.333590	2562.491597
977.631299	2563.068809
977.928971	2563.678788
978.226606	2563.235167
978.524204	2563.580486
978.821765	2562.736093
979.119290	2566.557287
979.416777	2565.118038
979.714228	2564.626525
980.011642	2563.956052
980.309020	2568.135168
980.606360	2562.332800
980.903664	2565.629715
981.200931	2565.178532
981.498162	2564.601320
981.795356	2564.830692
982.092513	2564.921433
982.389633	2563.444375
982.686717	2564.765157
982.983764	2567.026115
983.280775	2567.442010
983.577749	2563.426731
983.874686	2567.003429
984.171587	2565.004612
984.468451	2564.235836
984.765279	2562.904971
985.062070	2564.437482
985.358824	2566.668193
985.655543	2562.030331
985.952224	2560.432285
986.248869	2563.673747
986.545478	2562.484035
986.842050	2562.078222
987.138586	2559.736606
987.435086	2562.478994
987.731549	2560.354147
988.027975	2564.490414
988.324366	2562.975547
988.620719	2562.605023
988.917037	2564.477811
989.213318	2564.707184
989.509563	2562.703325
989.805772	2563.678788
990.101944	2563.509910
990.398080	2563.867832
990.694180	2562.920095
990.990244	2564.069478
991.286271	2563.925805
991.582262	2561.594271
991.878217	2563.121741
992.174136	2565.470919
992.470019	2564.185424
992.765865	2563.618295
993.061676	2565.987637
993.357450	2563.197358
993.653188	2563.638459
993.948890	2563.572924
994.244556	2563.653583
994.540186	2563.487225
994.835780	2562.678119
995.131337	2568.324212
995.426859	2559.003118
995.722345	2560.762481
996.017795	2564.467729
996.313208	2564.145095
996.608586	2562.461350
996.903928	2563.396484
997.199234	2563.792214
997.494504	2566.159036
997.789738	2564.412276
998.084936	2563.951011
998.380099	2564.621484
998.675225	2562.254662
998.970316	2565.901937
999.265371	2564.825651
999.560390	2563.832544
999.855373	2562.569735
1000.150320	2564.198027
1000.445232	2560.412121
1000.740108	2566.191804
1001.034948	2564.394632
1001.329752	2563.867832
1001.624521	2563.247770
1001.919254	2559.446740
1002.213951	2562.221895
1002.508613	2560.316339
1002.803239	2560.003787
1003.097829	2556.505227
1003.392384	2562.753737
1003.686903	2563.134344
1003.981386	2565.213820
1004.275834	2563.978737
1004.570246	2563.504869
1004.864623	2562.363047
1005.158964	2563.305743
1005.453270	2562.332800
1005.747540	2564.402194
1006.041775	2564.727348
1006.335974	2564.445044
1006.630138	2563.025959
1006.924266	2563.676268
1007.218359	2563.857749
1007.512416	2563.078891
1007.806438	2561.841288
1008.100425	2563.179714
1008.394376	2562.163922
1008.688292	2562.945301
1008.982172	2561.947152
1009.276017	2563.111659
1009.569827	2562.085784
1009.863602	2563.847667
1010.157341	2562.534447
1010.451045	2563.409087
1010.744714	2566.380847
1011.038347	2564.482852
1011.331945	2562.340362
1011.625508	2564.366906
1011.919036	2564.079560
1012.212528	2566.232133
1012.505986	2563.562842
1012.799408	2563.346072
1013.092795	2563.401525
1013.386147	2563.091494
1013.679464	2562.688202
1013.972745	2562.058057
1014.265992	2562.761298
1014.559204	2564.059396
1014.852380	2562.839436
1015.145521	2563.088973
1015.438628	2562.542008
1015.731699	2564.097204
1016.024736	2564.376988
1016.317737	2561.279199
1016.610703	2565.521330
1016.903635	2558.221739
1017.196531	2561.906823
1017.489393	2559.315670
1017.782219	2561.793397
1018.075011	2560.903633
1018.367768	2563.255332
1018.660490	2564.066957
1018.953177	2564.066957
1019.245829	2564.066957
