Dividing Wavelength (nm)	Counts (n)	Blue Motor Position (mm): 15.700000	Red Motor Position (mm): 0.000000	
326.493990	2175.242761
326.888308	2175.242761
327.282561	2175.242761
327.676750	2132.095525
328.070874	2131.596451
328.464933	2133.025618
328.858929	2133.272635
329.252859	2139.937040
329.646726	2147.682773
330.040528	2160.726759
330.434265	2173.914417
330.827938	2192.942252
331.221547	2209.288194
331.615091	2228.409290
332.008571	2245.095509
332.401986	2262.681575
332.795338	2279.690428
333.188625	2300.462502
333.581847	2317.993115
333.975006	2336.451299
334.368100	2356.595750
334.761129	2373.004706
335.154095	2391.029352
335.546996	2413.041550
335.939833	2438.179263
336.332606	2454.638631
336.725315	2467.584314
337.117960	2479.519246
337.510540	2494.042810
337.903056	2502.552277
338.295508	2511.681807
338.687896	2518.041223
339.080220	2527.362316
339.472480	2532.640404
339.864676	2540.272711
340.256807	2545.449976
340.648875	2549.737478
341.040879	2551.784186
341.432818	2554.869372
341.824694	2557.059753
342.216506	2558.753581
342.608253	2559.224929
342.999937	2557.014383
343.391557	2557.198385
343.783113	2559.250135
344.174605	2560.492779
344.566033	2559.587892
344.957397	2556.802655
345.348697	2555.902809
345.739934	2553.634289
346.131106	2549.833259
346.522215	2550.846531
346.913260	2548.187323
347.304241	2543.909904
347.695159	2543.446117
348.086012	2541.953936
348.476802	2540.121477
348.867528	2535.433203
349.258191	2530.293747
349.648789	2531.226361
350.039324	2527.742923
350.429796	2534.800539
350.820203	2530.197965
351.210548	2528.824251
351.600828	2529.671165
351.991045	2530.026566
352.381198	2525.013138
352.771288	2528.778880
353.161314	2524.181348
353.551276	2526.482635
353.941175	2522.197654
354.331010	2524.503982
354.720782	2524.088087
355.110490	2521.519619
355.500135	2523.311749
355.889717	2526.066740
356.279235	2521.973323
356.668689	2522.283354
357.058080	2522.973992
357.447408	2525.071112
357.836672	2523.747809
358.225873	2524.057840
358.615010	2526.729651
359.004084	2526.606143
359.393095	2524.645134
359.782043	2526.472553
360.170927	2526.870804
360.559748	2529.726617
360.948505	2527.175793
361.337199	2529.504807
361.725830	2527.687471
362.114398	2529.477080
362.502903	2527.873993
362.891344	2532.927750
363.279722	2531.738038
363.668037	2533.212575
364.056289	2531.246525
364.444478	2529.673685
364.832603	2532.882380
365.220665	2533.280631
365.608665	2533.691485
365.996601	2536.136444
366.384474	2536.005374
366.772284	2534.142668
367.160031	2536.325488
367.547715	2537.031249
367.935336	2536.252391
368.322893	2532.771474
368.710388	2534.840868
369.097820	2532.670651
369.485189	2533.414221
369.872495	2539.251877
370.259738	2537.341280
370.646918	2541.454862
371.034035	2538.601569
371.421090	2538.566281
371.808081	2540.078627
372.195010	2539.546785
372.581875	2538.571322
372.968678	2541.238092
373.355418	2538.324305
373.742096	2541.101981
374.128710	2538.533513
374.515262	2541.187681
374.901751	2542.851261
375.288177	2543.420912
375.674540	2541.636343
376.060841	2542.266488
376.447079	2542.720191
376.833254	2543.257074
377.219367	2542.765562
377.605417	2543.204142
377.991404	2542.140459
378.377329	2542.087527
378.763191	2543.773792
379.148991	2543.292362
379.534727	2545.334030
379.920402	2542.344625
380.306013	2544.633309
380.691563	2545.951571
381.077049	2547.708413
381.462474	2544.537527
381.847835	2543.501570
382.233134	2543.005017
382.618371	2543.990562
383.003545	2545.792775
383.388657	2545.843186
383.773706	2546.390151
384.158693	2544.819832
384.543618	2547.350491
384.928480	2546.967363
385.313280	2546.138094
385.698017	2547.365615
386.082692	2545.258412
386.467305	2546.133052
386.851856	2547.121119
387.236344	2549.745039
387.620770	2546.420398
388.005133	2542.793288
388.389435	2543.919986
388.773674	2542.773123
389.157851	2547.564740
389.541965	2546.387631
389.926018	2550.692776
390.310008	2550.108002
390.693936	2549.810574
391.077802	2550.387786
391.461606	2548.421736
391.845348	2554.453477
392.229027	2548.056253
392.612645	2550.395348
392.996200	2552.079093
393.379694	2550.155893
393.763125	2551.350647
394.146494	2552.694114
394.529801	2552.094217
394.913047	2552.547921
395.296230	2554.042623
395.679351	2552.583209
396.062410	2554.559341
396.445408	2553.568754
396.828343	2556.099414
397.211217	2552.182437
397.594028	2552.842828
397.976778	2555.232335
398.359466	2553.788045
398.742092	2554.123281
399.124656	2555.985988
399.507158	2554.773590
399.889598	2553.508261
400.271977	2555.365926
400.654294	2558.514126
401.036549	2552.227807
401.418742	2555.996070
401.800874	2555.262582
402.182944	2553.558672
402.564952	2553.001625
402.946898	2556.422047
403.328783	2555.111348
403.710606	2556.795093
404.092367	2556.389280
404.474067	2556.963972
404.855705	2556.036399
405.237282	2557.843653
405.618797	2553.568754
406.000250	2559.585372
406.381642	2558.249466
406.762972	2554.869372
407.144240	2552.628579
407.525447	2554.319886
407.906593	2555.973385
408.287677	2560.754919
408.668700	2559.711400
409.049661	2560.850701
409.430560	2560.452450
409.811399	2559.918088
410.192176	2561.213664
410.572891	2558.627552
410.953545	2559.499672
411.334138	2556.958930
411.714669	2558.733417
412.095139	2560.132337
412.475547	2560.686864
412.855894	2561.816082
413.236180	2561.402708
413.616405	2562.572255
413.996568	2558.544373
414.376670	2562.862122
414.756711	2562.395815
415.136691	2563.058727
415.516609	2559.923129
415.896466	2561.624518
416.276262	2563.351113
416.655997	2560.805331
417.035670	2562.431103
417.415283	2563.872873
417.794834	2561.531257
418.174324	2564.324056
418.553753	2563.446895
418.933121	2562.978068
419.312428	2563.335990
419.691674	2565.937225
420.070859	2563.915723
420.449983	2564.129972
420.829045	2565.052503
421.208047	2564.341700
421.586988	2566.108625
421.965867	2564.893707
422.344686	2564.288768
422.723444	2564.008984
423.102141	2563.971175
423.480777	2563.867832
423.859352	2566.874880
424.237866	2567.444530
424.616319	2565.302040
424.994712	2565.538974
425.373044	2565.478480
425.751314	2564.679458
426.129524	2560.381874
426.507673	2564.008984
426.885762	2561.639642
427.263789	2564.913871
427.641756	2567.510065
428.019662	2565.765826
428.397508	2565.695250
428.775292	2565.259190
429.153016	2567.310940
429.530679	2565.642318
429.908282	2562.698284
430.285824	2566.181721
430.663305	2564.976886
431.040726	2566.569890
431.418086	2564.510579
431.795385	2566.791701
432.172624	2567.638615
432.549802	2564.893707
432.926920	2565.148285
433.303977	2566.234653
433.680974	2571.744635
434.057910	2567.678944
434.434786	2567.459654
434.811601	2569.569377
435.188355	2566.184242
435.565050	2568.714901
435.941683	2565.859087
436.318257	2568.299006
436.694770	2570.257494
437.071222	2565.722976
437.447614	2567.628532
437.823946	2569.332443
438.200218	2567.494942
438.576429	2570.191959
438.952580	2569.113152
439.328670	2569.390416
439.704700	2570.507031
440.080670	2570.398647
440.456580	2566.577452
440.832429	2571.603482
441.208218	2569.012329
441.583947	2571.051476
441.959616	2569.647515
442.335224	2569.178687
442.710773	2571.003585
443.086261	2570.834706
443.461689	2570.365879
443.837057	2572.631878
444.212365	2573.796384
444.587612	2568.147771
444.962800	2566.733728
445.337927	2569.471074
445.712995	2569.758420
446.088002	2570.890159
446.462949	2571.248081
446.837837	2575.986766
447.212664	2570.547361
447.587431	2571.749676
447.962139	2571.293451
448.336786	2573.650191
448.711374	2575.908628
449.085901	2573.662794
449.460369	2574.940726
449.834776	2572.462999
450.209124	2576.054821
450.583412	2573.831672
450.957640	2573.778740
451.331808	2577.136149
451.705917	2573.703123
452.079965	2573.332598
452.453954	2574.030798
452.827883	2575.006261
453.201752	2573.957701
453.575562	2575.530541
453.949311	2574.353432
454.323001	2574.267732
454.696632	2575.744790
455.070202	2574.585325
455.443713	2575.782599
455.817164	2574.338308
456.190556	2575.414595
456.563888	2575.860737
456.937160	2576.629513
457.310373	2576.810994
457.683526	2576.261508
458.056619	2577.761252
458.429653	2577.443659
458.802628	2577.022723
459.175542	2575.676735
459.548398	2576.495922
459.921194	2577.499112
460.293930	2578.436766
460.666607	2581.191757
461.039224	2577.594894
461.411782	2579.684452
461.784280	2578.628330
462.156719	2577.957857
462.529099	2580.009606
462.901419	2580.901891
463.273680	2575.056673
463.645882	2575.522979
464.018024	2577.622620
464.390106	2573.647670
464.762130	2579.787796
465.134094	2578.174626
465.505999	2581.983218
465.877845	2582.459607
466.249631	2584.224011
466.621358	2588.035123
466.993026	2584.705441
467.364634	2587.707448
467.736184	2584.760894
468.107674	2583.311562
468.479105	2583.044381
468.850477	2583.790472
469.221790	2585.890112
469.593043	2585.010431
469.964238	2582.212591
470.335373	2583.551017
470.706449	2585.847262
471.077467	2584.196285
471.448425	2587.581419
471.819324	2583.979515
472.190164	2589.038313
472.560945	2587.813312
472.931667	2584.468507
473.302330	2586.290884
473.672934	2584.813826
474.043479	2584.831470
474.413965	2583.808116
474.784393	2587.052098
475.154761	2588.161152
475.525070	2586.827767
475.895321	2585.837180
476.265513	2586.447160
476.635645	2587.689804
477.005719	2586.295925
477.375734	2587.173086
477.745691	2587.009248
478.115588	2588.143508
478.485427	2589.060998
478.855207	2587.866245
479.224928	2591.891606
479.594591	2591.926894
479.964194	2593.378746
480.333739	2591.936976
480.703226	2590.059147
481.072653	2595.115424
481.442022	2594.444950
481.811333	2593.028386
482.180584	2590.689291
482.549777	2588.120823
482.918912	2587.513364
483.287988	2593.545104
483.657005	2591.667275
484.025964	2594.092070
484.394864	2593.381267
484.763706	2595.559045
485.132489	2595.548963
485.501213	2594.162646
485.869879	2595.140630
486.238487	2593.600557
486.607036	2596.242122
486.975527	2595.019642
487.343959	2595.677513
487.712333	2596.378233
488.080648	2597.426793
488.448905	2595.085177
488.817104	2596.766402
489.185244	2594.840681
489.553326	2598.051896
489.921350	2597.197420
490.289315	2598.971907
490.657222	2602.689757
491.025070	2602.087340
491.392861	2604.116404
491.760593	2602.528441
492.128267	2602.682196
492.495883	2601.121959
492.863440	2600.459047
493.230939	2599.496187
493.598380	2601.129520
493.965763	2599.869232
494.333088	2599.594489
494.700354	2598.803028
495.067563	2601.714294
495.434713	2599.173553
495.801805	2599.823862
496.168839	2600.239757
496.535815	2598.913933
496.902733	2600.252360
497.269593	2601.311002
497.636395	2600.874942
498.003139	2602.180601
498.369825	2599.856629
498.736453	2600.892586
499.103023	2601.890735
499.469535	2603.839141
499.835989	2600.232195
500.202385	2597.232708
500.568723	2601.200097
500.935003	2595.702718
501.301226	2597.318408
501.667390	2604.514655
502.033497	2605.303596
502.399546	2603.088009
502.765537	2605.411981
503.131470	2605.001127
503.497345	2608.280397
503.863163	2608.013216
504.228923	2606.687392
504.594625	2608.814759
504.960269	2607.355345
505.325856	2609.233175
505.691385	2609.376848
506.056856	2611.955398
506.422270	2610.246447
506.787625	2611.935234
507.152924	2610.407764
507.518164	2613.566047
507.883347	2610.727877
508.248472	2615.486727
508.613540	2615.353136
508.978550	2615.524535
509.343503	2614.745677
509.708398	2618.438322
510.073236	2619.612911
510.438016	2619.875051
510.802738	2620.613580
511.167403	2622.206585
511.532010	2622.317490
511.896561	2627.489714
512.261053	2625.606843
512.625488	2626.022738
512.989866	2628.747482
513.354186	2629.097842
513.718449	2629.317132
514.082655	2632.543471
514.446803	2632.692185
514.810894	2636.954480
515.174927	2636.518420
515.538904	2635.336270
515.902822	2637.135962
516.266684	2638.088740
516.630488	2640.876498
516.994235	2644.032260
517.357925	2645.305152
517.721558	2648.355050
518.085133	2648.929741
518.448651	2647.303969
518.812112	2647.702220
519.175516	2649.890081
519.538863	2652.551810
519.902152	2657.051040
520.265385	2663.571772
520.628560	2661.008346
520.991678	2664.317863
521.354739	2664.509427
521.717743	2669.721980
522.080690	2674.629543
522.443580	2673.853206
522.806413	2680.971315
523.169189	2682.743281
523.531908	2684.331244
523.894569	2684.742098
524.257174	2690.083201
524.619722	2691.855166
524.982213	2695.222657
525.344647	2698.345652
525.707025	2704.213555
526.069345	2709.466437
526.431608	2708.553988
526.793815	2717.255020
527.155964	2717.809547
527.518057	2722.202912
527.880093	2724.378170
528.242072	2731.841598
528.603995	2735.367886
528.965860	2741.331571
529.327669	2746.667632
529.689421	2753.858838
530.051117	2755.719024
530.412755	2763.799993
530.774337	2773.100922
531.135862	2774.633433
531.497331	2785.103909
531.858743	2789.688839
532.220098	2800.547484
532.581396	2805.112249
532.942638	2813.316727
533.303824	2823.202430
533.664953	2830.050837
534.026025	2837.794049
534.387040	2848.428363
534.747999	2863.511496
535.108902	2871.269832
535.469748	2875.864843
535.830537	2891.943603
536.191270	2909.801891
536.551947	2914.449835
536.912567	2920.799168
537.273131	2941.427570
537.633638	2949.110288
537.994089	2972.924699
538.354483	2976.526603
538.714821	3004.870491
539.075103	3024.757843
539.435328	3035.142620
539.795497	3044.894732
540.155609	3069.798032
540.515665	3092.783173
540.875665	3099.462702
541.235609	3117.625979
541.595496	3146.279897
541.955328	3173.131603
542.315102	3197.472815
542.674821	3207.522355
543.034483	3220.725137
543.394090	3252.444077
543.753640	3270.201541
544.113134	3313.956236
544.472571	3331.915347
544.831953	3379.055176
545.191278	3389.392062
545.550548	3415.772420
545.909761	3441.600772
546.268918	3488.158348
546.628019	3519.113553
546.987064	3554.925910
547.346053	3579.307451
547.704986	3612.412708
548.063863	3661.689987
548.422684	3677.960311
548.781449	3711.990620
549.140158	3765.265534
549.498811	3803.737100
549.857408	3810.101556
550.215949	3878.850292
550.574434	3901.366606
550.932864	3959.740647
551.291237	4000.969723
551.649555	4049.999986
552.007817	4100.535032
552.366022	4142.177484
552.724173	4180.563350
553.082267	4237.326742
553.440305	4314.403464
553.798288	4318.418743
554.156215	4403.841095
554.514086	4467.906598
554.871902	4464.909632
555.229661	4539.009553
555.587365	4600.004994
555.945014	4635.580416
556.302606	4733.938369
556.660143	4767.489768
557.017625	4870.092373
557.375050	4893.458121
557.732421	4974.030883
558.089735	5036.836098
558.446994	5089.748049
558.804197	5176.400442
559.161345	5245.565073
559.518437	5252.161423
559.875474	5365.138722
560.232455	5427.790182
560.589381	5504.075442
560.946251	5552.588986
561.303065	5672.175238
561.659825	5762.386686
562.016528	5784.587927
562.373177	5825.733825
562.729770	5921.641777
563.086307	6016.259193
563.442789	6113.785356
563.799216	6166.321741
564.155587	6222.596141
564.511904	6331.021278
564.868164	6371.859665
565.224370	6479.563917
565.580520	6513.826119
565.936615	6639.464276
566.292654	6644.994422
566.648638	6818.576472
567.004567	6845.518919
567.360441	6931.740294
567.716260	6950.155629
568.072023	7130.487784
568.427732	7168.876171
568.783385	7201.394133
569.138982	7330.856005
569.494525	7452.441074
569.850013	7496.422621
570.205445	7596.166891
570.560823	7616.225642
570.916145	7687.270623
571.271412	7781.842670
571.626625	7862.538940
571.981782	7946.574974
572.336884	7980.834656
572.691931	8118.178372
573.046923	8105.434335
573.401860	8210.882671
573.756743	8318.508785
574.111570	8363.551494
574.466342	8429.189838
574.821059	8554.780104
575.175722	8549.549907
575.530330	8674.903238
575.884882	8753.517512
576.239380	8843.842386
576.593823	8881.134321
576.948211	8948.685783
577.302544	8989.632555
577.656823	9045.423005
578.011047	9187.916259
578.365216	9226.473524
578.719330	9285.966702
579.073389	9327.369698
579.427394	9514.832566
579.781344	9474.730187
580.135239	9563.303260
580.489080	9618.907187
580.842866	9605.613664
581.196597	9815.660901
581.550273	9825.536521
581.903895	9946.161250
582.257463	10136.903388
582.610975	10062.659795
582.964434	10250.646943
583.317837	10238.243184
583.671186	10368.277227
584.024481	10455.332912
584.377721	10420.309496
584.730906	10543.633763
585.084037	10653.838427
585.437113	10696.695797
585.790135	10858.552123
586.143103	10733.380273
586.496016	10795.207505
586.848874	11044.437110
587.201679	11078.777450
587.554428	11003.329021
587.907124	11245.949673
588.259765	11228.439225
588.612352	11376.230732
588.964884	11254.988462
589.317362	11410.563511
589.669786	11513.398008
590.022155	11621.402208
590.374470	11807.403141
590.726731	11802.838377
591.078937	11751.174111
591.431090	11869.762214
591.783188	11817.457723
592.135232	11879.872248
592.487222	12045.282588
592.839157	12125.179836
593.191038	12164.314313
593.542866	12160.067141
593.894639	12123.609516
594.246358	12308.977784
594.598022	12323.128303
594.949633	12279.476952
595.301190	12312.456181
595.652692	12494.139365
596.004141	12726.453378
596.355535	12405.989749
596.706876	12495.850837
597.058162	12510.553362
597.409395	12695.422556
597.760573	12861.513452
598.111698	12804.445070
598.462768	12845.472500
598.813785	12868.969318
599.164748	12846.473169
599.515657	12925.977207
599.866511	12883.901216
600.217312	13171.110874
600.568060	12946.993777
600.918753	13226.520717
601.269392	13250.519129
601.619978	13147.866114
601.970510	13389.307136
602.320988	13387.424265
602.671412	13602.994086
603.021783	13604.435856
603.372100	13499.156399
603.722363	13661.887366
604.072572	13695.342983
604.422728	13819.453670
604.772830	13752.038320
605.122878	13740.506680
605.472872	13827.973220
605.822813	13886.072518
606.172701	13912.052105
606.522534	14124.098159
606.872314	14201.137072
607.222041	14121.907777
607.571714	14345.969422
607.921333	14292.026555
608.270899	14395.670158
608.620411	14625.887051
608.969870	14453.124188
609.319276	14528.955745
609.668627	14627.464932
610.017926	14777.393889
610.367171	14917.573254
610.716362	15025.090983
611.065500	14909.252829
611.414585	15072.603858
611.763616	15111.478716
612.112594	15129.221057
612.461518	15144.422656
612.810389	15356.231776
613.159207	15266.005205
613.507971	15252.686476
613.856682	15563.624845
614.205340	15537.796494
614.553945	15723.144597
614.902496	15528.006573
615.250994	15820.159082
615.599439	15794.809640
615.947830	15820.912735
616.296169	15884.189298
616.644454	15921.559371
616.992686	15907.807104
617.340864	16139.833771
617.688990	15992.533776
618.037063	16174.562280
618.385082	16087.002479
618.733048	16346.689958
619.080961	16271.110458
619.428821	16353.424939
619.776628	16317.794064
620.124382	16266.727175
620.472083	16343.859350
620.819731	16423.839776
621.167326	16191.172882
621.514868	16278.359638
621.862357	16115.371572
622.209793	16180.835996
622.557176	16086.873929
622.904506	15956.096316
623.251783	15925.549445
623.599007	15783.358659
623.946179	15776.848009
624.293297	15763.083138
624.640363	15580.250571
624.987376	15617.608041
625.334336	15472.148068
625.681243	15368.005391
626.028097	15384.295880
626.374899	15384.850407
626.721647	15273.415701
627.068343	15143.926103
627.414987	15122.594460
627.761577	15128.908505
628.108115	15207.268201
628.454600	14954.915601
628.801032	15050.105188
629.147412	15014.628068
629.493739	15062.201437
629.840014	14907.117901
630.186236	15011.888201
630.532405	14820.392410
630.878521	15020.967319
631.224585	14927.927784
631.570597	14799.264935
631.916556	14825.362988
632.262462	14823.769983
632.608316	14776.226862
632.954117	14733.472836
633.299866	14755.106948
633.645562	14708.622468
633.991206	14473.550943
634.336797	14372.947157
634.682336	14369.816600
635.027823	14286.695535
635.373257	14210.571591
635.718639	14115.225728
636.063968	14082.226335
636.409245	13878.195715
636.754470	13913.395572
637.099642	13787.938897
637.444762	13586.222167
637.789829	13647.746929
638.134845	13512.041588
638.479808	13528.364844
638.824719	13508.089323
639.169577	13365.580945
639.514383	13426.152929
639.859137	13255.398966
640.203839	13343.147811
640.548489	13201.577087
640.893086	13191.426724
641.237632	13070.267633
641.582125	13233.417015
641.926566	13077.292480
642.270955	13099.801232
642.615292	13071.686717
642.959576	13098.510697
643.303809	13134.013023
643.647990	13082.585692
643.992118	13137.516625
644.336195	12919.910178
644.680219	13110.049898
645.024192	13058.831775
645.368112	13296.623002
645.711981	13362.989792
646.055797	13538.381617
646.399562	13508.101926
646.743274	13770.168830
647.086935	14056.186255
647.430544	14019.814330
647.774101	14044.074883
648.117606	14202.636815
648.461059	14173.864430
648.804460	14192.524261
649.147810	13925.985854
649.491108	13826.450792
649.834354	13858.210061
650.177548	13564.726687
650.520690	13390.973237
650.863781	13308.371411
651.206820	13362.031973
651.549807	13189.465715
651.892742	13015.311494
652.235626	12948.238942
652.578458	12955.757823
652.921238	12641.179741
653.263967	12840.443949
653.606644	12671.892970
653.949269	12638.150007
654.291843	12466.309675
654.634365	12620.687450
654.976836	12467.333030
655.319255	12496.687668
655.661622	12452.562449
656.003938	12378.530584
656.346203	12311.609267
656.688416	12374.099410
657.030577	12342.758556
657.372687	12272.361363
657.714746	12233.368038
658.056753	12420.578848
658.398708	12258.528437
658.740612	12260.917944
659.082465	12355.411852
659.424266	12320.879949
659.766016	12339.993483
660.107715	12248.960327
660.449362	12322.528406
660.790958	12285.070112
661.132503	12235.906259
661.473996	12295.560753
661.815438	12317.343579
662.156829	12328.401350
662.498168	12313.862663
662.839456	12311.526088
663.180693	12334.475941
663.521879	12419.600864
663.863013	12410.642734
664.204097	12386.369578
664.545129	12500.881908
664.886110	12467.794295
665.227040	12541.995039
665.567918	12564.193760
665.908746	12599.194491
666.249522	12582.508272
666.590248	12618.996143
666.930922	12738.373187
667.271545	12727.385992
667.612118	12817.458808
667.952639	12719.748644
668.293109	12711.980226
668.633528	12679.558045
668.973896	12661.379644
669.314213	12750.383736
669.654480	12501.915345
669.994695	12550.121379
670.334859	12577.356212
670.674973	12520.411338
671.015035	12560.619582
671.355047	12497.582473
671.695008	12463.960498
672.034918	12470.410654
672.374777	12518.964527
672.714585	12434.177361
673.054342	12465.039305
673.394049	12416.147674
673.733705	12505.829801
674.073310	12431.248450
674.412864	12444.030296
674.752368	12318.971872
675.091820	12317.643528
675.431223	12321.036224
675.770574	12188.743745
676.109875	12115.692384
676.449125	12082.372878
676.788324	12016.406859
677.127473	11856.962725
677.466571	11843.964110
677.805619	11748.444327
678.144616	11670.044302
678.483562	11632.817901
678.822458	11506.920125
679.161303	11476.484159
679.500098	11476.285033
679.838842	11425.631519
680.177535	11448.813265
680.516179	11499.887716
680.854771	11455.303751
681.193314	11672.033037
681.531805	11810.153091
681.870247	12203.383255
682.208638	12606.279833
682.546978	12933.506170
682.885268	13008.208508
683.223508	12694.623533
683.561697	12525.772606
683.899836	12423.701843
684.237925	12243.425140
684.575963	12158.101091
684.913951	12089.571646
685.251889	12025.632171
685.589776	12119.611881
685.927614	12052.236860
686.265401	12010.642300
686.603137	12055.233826
686.940824	12207.572454
687.278460	12322.848519
687.616046	12376.405738
687.953582	12555.215465
688.291068	12471.502064
688.628504	12698.492619
688.965889	12698.180067
689.303224	12671.376252
689.640510	12580.885020
689.977745	12292.372224
690.314930	12050.434648
690.652065	11963.910804
690.989150	11678.881445
691.326185	11457.388268
691.663170	11254.113822
692.000105	11006.315904
692.336990	10903.917467
692.673825	10663.038533
693.010610	10531.419047
693.347345	10328.396658
693.684030	10129.611359
694.020665	10073.810828
694.357251	9874.700374
694.693786	9836.110341
695.030272	9662.772787
695.366707	9540.045897
695.703093	9470.014187
696.039429	9468.842119
696.375716	9399.501048
696.711952	9274.702243
697.048139	9308.427562
697.384276	9256.425540
697.720363	9273.991441
698.056400	9213.724446
698.392388	9168.026387
698.728326	9130.739492
699.064214	9064.445799
699.400053	9115.454714
699.735842	8922.693594
700.071581	8884.509374
700.407270	8815.203591
700.742910	8737.204338
701.078501	8650.365422
701.414042	8524.422275
701.749533	8456.376781
702.084974	8316.235224
702.420366	8426.306298
702.755709	8310.999986
703.091002	8182.989966
703.426246	8210.358391
703.761440	8162.658993
704.096584	8116.482024
704.431679	8044.854789
704.766725	8035.400105
705.101721	7979.677711
705.436668	8021.529370
705.771565	7923.768794
706.106413	8000.293510
706.441212	8048.877630
706.775961	8001.705033
707.110661	8028.992799
707.445311	8184.053650
707.779913	8082.471879
708.114465	8209.342598
708.448967	8256.857994
708.783421	8379.368114
709.117825	8561.729334
709.452180	8598.048327
709.786485	8684.415895
710.120742	8950.240979
710.454949	8957.170045
710.789107	9061.075787
711.123216	9265.615563
711.457275	9423.953165
711.791286	9588.433412
712.125247	9583.087268
712.459159	9572.301719
712.793023	9833.622532
713.126837	9407.866843
713.460602	9550.402947
713.794318	9375.618582
714.127985	9406.974558
714.461602	9104.268393
714.795171	9048.712358
715.128691	8812.877098
715.462162	8556.010145
715.795584	8503.544337
716.128957	8375.113381
716.462281	8194.546812
716.795556	8245.079338
717.128782	8045.386631
717.461960	7768.589476
717.795088	7842.447421
718.128167	7746.650375
718.461198	7586.981909
718.794180	7518.858276
719.127113	7517.456836
719.459997	7375.954168
719.792833	7143.272150
720.125619	7202.293979
720.458357	7064.920017
720.791046	7046.792027
721.123686	7053.355610
721.456278	6902.221817
721.788821	6918.073726
722.121315	6808.095913
722.453761	6866.911055
722.786158	6815.153529
723.118506	6830.191291
723.450805	6800.264481
723.783056	6870.520521
724.115259	6767.214676
724.447412	6759.748727
724.779518	6810.251007
725.111574	6814.041954
725.443582	6890.165898
725.775542	6874.656788
726.107453	7055.374592
726.439315	6974.176727
726.771129	7023.189345
727.102895	7187.349479
727.434612	7299.873074
727.766281	7326.999523
728.097901	7414.708038
728.429473	7393.943525
728.760996	7370.030812
729.092471	7350.387956
729.423897	7307.124774
729.755276	7320.398132
730.086606	7255.037052
730.417887	7349.311670
730.749120	7523.052516
731.080305	7717.371353
731.411442	7850.046961
731.742530	7849.429419
732.073570	7953.703166
732.404562	8035.538737
732.735506	7885.365284
733.066401	8028.385340
733.397249	7964.975186
733.728048	7727.131027
734.058798	7396.491828
734.389501	7178.121647
734.720156	7005.129411
735.050762	6765.636795
735.381320	6661.383213
735.711831	6621.512727
736.042293	6512.182703
736.372707	6532.538882
736.703073	6398.252626
737.033391	6427.887049
737.363661	6440.429440
737.693883	6464.742925
738.024056	6548.363064
738.354182	6597.917607
738.684260	6635.335571
739.014290	6740.977991
739.344272	6845.798703
739.674207	6870.933896
740.004093	6936.867147
740.333931	6962.269521
740.663722	6965.178267
740.993464	7044.415123
741.323159	7042.411265
741.652806	6791.608820
741.982405	6783.041379
742.311956	6854.477049
742.641460	6709.790893
742.970915	6512.162538
743.300323	6506.259347
743.629683	6446.176355
743.958996	6316.588454
744.288260	6230.349436
744.617477	6173.192833
744.946647	6185.231109
745.275768	6019.609040
745.604842	5975.478779
745.933869	5957.726356
746.262847	5910.876393
746.591778	5905.804992
746.920662	5864.122212
747.249498	5844.880127
747.578286	5900.231997
747.907027	5971.014838
748.235720	6027.637078
748.564365	6001.481051
748.892963	6017.476632
749.221514	6181.291447
749.550017	6030.182860
749.878473	5899.228807
750.206881	5945.630108
750.535242	5891.556171
750.863555	5824.954967
751.191821	5848.950859
751.520039	5850.977403
751.848210	5759.644298
752.176334	5773.068891
752.504411	5826.994113
752.832440	5751.482670
753.160421	5676.336710
753.488356	5725.490481
753.816243	5759.583804
754.144082	5608.833140
754.471875	5580.464046
754.799620	5628.102950
755.127318	5639.503520
755.454969	5585.618626
755.782572	5555.081837
756.110129	5597.452735
756.437638	5593.750007
756.765100	5526.755593
757.092515	5524.164440
757.419882	5566.550462
757.747203	5552.291558
758.074477	5614.779181
758.401703	5606.282316
758.728882	5558.353546
759.056014	5605.533704
759.383099	5739.961113
759.710138	5747.820272
760.037129	5728.368980
760.364073	5732.021296
760.690970	5818.434234
761.017820	5806.537111
761.344623	5756.365027
761.671379	5851.330284
761.998088	5960.224248
762.324751	6190.587335
762.651366	6750.798159
762.977935	8009.314655
763.304456	9600.174259
763.630931	10530.738492
763.957359	10199.761536
764.283740	9280.618037
764.610074	8467.931105
764.936362	7499.525451
765.262602	6900.840541
765.588796	6361.041349
765.914943	6014.018401
766.241044	5860.548033
766.567097	5676.462739
766.893104	5415.479684
767.219064	5234.177106
767.544978	5176.055123
767.870845	5102.487044
768.196665	4991.135518
768.522438	4921.023150
768.848165	4894.796547
769.173846	4827.023275
769.499479	4788.065238
769.825066	4728.435950
770.150607	4673.958721
770.476101	4644.599041
770.801548	4646.998630
771.126949	4574.584975
771.452303	4521.584804
771.777611	4476.582424
772.102872	4493.989528
772.428087	4456.813539
772.753256	4417.487498
773.078378	4374.718349
773.403453	4310.211744
773.728482	4292.461842
774.053465	4245.319491
774.378401	4233.417327
774.703291	4241.115169
775.028135	4174.193852
775.352932	4122.723671
775.677683	4110.456023
776.002388	4128.301708
776.327046	4139.682113
776.651658	4066.897933
776.976224	4000.647089
777.300743	4006.008357
777.625216	4027.413096
777.949643	4028.862427
778.274024	3979.020539
778.598359	3934.655865
778.922647	3954.744863
779.246889	3951.495839
779.571086	3947.760344
779.895236	3933.695525
780.219339	3915.446548
780.543397	3903.904827
780.867409	3957.653609
781.191374	3973.066937
781.515294	3916.444697
781.839167	3907.783994
782.162995	3929.019855
782.486776	3914.153492
782.810511	3918.561981
783.134201	3918.975356
783.457844	3881.491857
783.781441	3824.277281
784.104993	3828.970595
784.428498	3845.611444
784.751958	3846.796115
785.075372	3824.305007
785.398739	3788.384266
785.722061	3795.177220
786.045337	3839.360413
786.368568	3875.805435
786.691752	3787.779327
787.014891	3831.617201
787.337983	3950.061631
787.661030	4103.748768
787.984031	4266.472173
788.306987	4434.561886
788.629897	4516.931819
788.952760	4470.472546
789.275579	4402.825302
789.598351	4349.691541
789.921078	4216.118608
790.243759	4020.489071
790.566395	3991.998990
790.888984	3989.059997
791.211529	3883.830952
791.534027	3827.322138
791.856480	3820.665294
792.178888	3758.086931
792.501249	3704.441492
792.823566	3714.218810
793.145836	3748.367586
793.468062	3698.041748
793.790241	3651.400992
794.112375	3680.223789
794.434464	3738.781832
794.756507	3765.202520
795.078505	3750.683997
795.400457	3775.819190
795.722364	3908.230137
796.044226	4009.557329
796.366042	4083.165737
796.687812	4071.492945
797.009538	4079.934357
797.331218	4034.415258
797.652852	4003.913757
797.974442	3983.030777
798.295986	3989.102847
798.617484	3911.211979
798.938938	3820.745953
799.260346	3858.617621
799.581709	3858.718444
799.903026	3791.247641
800.224299	3752.997886
800.545526	3744.984972
800.866708	3712.769478
801.187845	3646.521155
801.508936	3679.303779
801.829983	3689.320551
802.150984	3608.785598
802.471940	3590.960078
802.792851	3604.959362
803.113717	3604.984568
803.434538	3608.092439
803.755314	3555.969429
804.076045	3527.605377
804.396731	3540.571225
804.717372	3570.994588
805.037967	3557.212074
805.358518	3548.470713
805.679024	3567.538877
805.999485	3580.081268
806.319901	3584.588060
806.640272	3601.904423
806.960598	3618.179788
807.280879	3593.165583
807.601115	3600.502982
807.921306	3615.129890
808.241453	3657.954492
808.561554	3637.126965
808.881611	3569.063826
809.201623	3601.614557
809.521590	3621.789254
809.841513	3587.811878
810.161390	3619.820684
810.481223	3603.111779
810.801011	3545.246895
811.120755	3531.764329
811.440453	3571.566759
811.760107	3576.479364
812.079716	3538.128786
812.399281	3500.234432
812.718801	3523.658154
813.038276	3496.919874
813.357707	3493.950634
813.677093	3513.573325
813.996434	3463.426448
814.315731	3469.405256
814.634983	3469.458188
814.954191	3479.984117
815.273354	3513.810260
815.592473	3514.682379
815.911547	3514.052235
816.230577	3549.350394
816.549562	3600.515585
816.868502	3647.904952
817.187399	3670.103673
817.506250	3667.086542
817.825058	3633.439361
818.143821	3720.762228
818.462539	3825.905574
818.781213	3871.381823
819.099843	3923.406530
819.418429	4147.185870
819.736970	4386.575143
820.055466	4616.832365
820.373919	4972.702539
820.692327	5377.033324
821.010691	5776.804386
821.329011	7050.809827
821.647286	9635.631215
821.965517	14010.599101
822.283704	18003.606321
822.601847	20288.647934
822.919945	18565.939471
823.237999	16092.925835
823.556010	13658.005677
823.873976	11634.297480
824.191897	9583.276311
824.509775	8236.874860
824.827609	7120.823892
825.145398	6567.262350
825.463144	6451.358661
825.780845	6571.663277
826.098502	6729.229582
826.416116	7527.347579
826.733685	8803.288824
827.051210	9921.757025
827.368692	10043.634481
827.686129	8854.113737
828.003522	7368.984772
828.320872	6358.424990
828.638177	5674.960475
828.955439	5133.424606
829.272656	4645.844206
829.589830	4363.506823
829.906960	4187.290769
830.224046	4013.330632
830.541088	3883.132752
830.858086	3840.053572
831.175041	3769.827778
831.491952	3747.190477
831.808819	3756.468721
832.125642	3821.529852
832.442421	3962.316676
832.759157	4214.265984
833.075849	4734.434923
833.392497	5564.400410
833.709101	6321.024670
834.025662	6676.846952
834.342179	6367.118460
834.658653	5717.303647
834.975083	5089.546403
835.291469	4529.597718
835.607811	4118.264770
835.924110	3982.955160
836.240366	3792.006335
836.556578	3586.859099
836.872746	3476.596462
837.188871	3446.152934
837.504952	3381.734549
837.820990	3300.919812
838.136984	3250.677152
838.452935	3276.223199
838.768842	3271.378651
839.084706	3291.359264
839.400526	3439.664969
839.716303	3752.826487
840.032037	4250.915172
840.347727	4530.011093
840.663373	4286.392292
840.978977	3917.072320
841.294537	3617.915128
841.610054	3388.141856
841.925527	3279.000875
842.240957	3211.366235
842.556344	3162.739265
842.871687	3104.022425
843.186987	3054.954354
843.502244	3019.547810
843.817458	2984.897439
844.132629	2952.618931
844.447756	2963.739717
844.762840	2951.638427
845.077881	2917.870258
845.392879	2898.461815
845.707833	2896.581465
846.022745	2892.125085
846.337613	2894.557442
846.652438	2882.488919
846.967221	2882.932541
847.281960	2869.323946
847.596656	2864.494521
847.911309	2866.558873
848.225919	2858.505630
848.540485	2853.875330
848.855009	2853.683766
849.169490	2845.000379
849.483928	2838.439317
849.798323	2831.994202
850.112675	2827.860456
850.426984	2841.101046
850.741251	2840.264215
851.055474	2831.545539
851.369654	2825.952379
851.683792	2824.848366
851.997887	2834.660972
852.311938	2836.117866
852.625947	2829.859273
852.939914	2830.013028
853.253837	2836.982424
853.567718	2820.800320
853.881555	2820.639003
854.195350	2833.277176
854.509103	2831.966476
854.822812	2827.628563
855.136479	2821.009528
855.450103	2821.677481
855.763685	2814.753456
856.077224	2806.692651
856.390720	2826.232163
856.704173	2835.747341
857.017584	2826.327945
857.330953	2822.778973
857.644278	2832.717607
857.957561	2840.780933
858.270802	2843.160358
858.584000	2843.866119
858.897155	2832.725169
859.210268	2829.793738
859.523339	2829.019921
859.836367	2828.606547
860.149352	2821.576657
860.462295	2820.086997
860.775195	2828.311639
861.088054	2828.631752
861.400869	2814.249340
861.713642	2806.916982
862.026373	2822.201761
862.339062	2824.840805
862.651708	2829.105621
862.964312	2832.407577
863.276873	2825.851556
863.589392	2833.786332
863.901869	2846.784947
864.214303	2866.722711
864.526696	2881.372304
864.839045	2878.972715
865.151353	2877.586397
865.463619	2875.844679
865.775842	2877.324257
866.088023	2892.364540
866.400162	2904.924575
866.712258	2875.378372
867.024313	2862.634335
867.336325	2872.429297
867.648296	2892.248593
867.960224	2884.686862
868.272110	2870.115407
868.583954	2875.973228
868.895755	2891.936042
869.207515	2877.183105
869.519233	2880.900956
869.830909	2890.418654
870.142542	2901.892321
870.454134	2900.692526
870.765684	2902.666138
871.077191	2901.206724
871.388657	2908.239133
871.700081	2921.883016
872.011463	2933.835592
872.322803	2934.075047
872.634101	2936.719132
872.945357	2949.274126
873.256571	2976.289669
873.567744	2970.993937
873.878874	2957.304684
874.189963	2983.667398
874.501010	2986.472800
874.812015	2973.723722
875.122979	2973.645584
875.433900	2974.192549
875.744780	2978.258240
876.055618	2984.655464
876.366415	2977.474340
876.677169	2992.882627
876.987882	2990.238542
877.298554	2979.180771
877.609183	3000.961076
877.919771	3025.231711
878.230317	3048.294990
878.540822	3099.230808
878.851285	3135.716159
879.161707	3171.667148
879.472087	3265.195675
879.782425	3470.952890
880.092722	3882.595869
880.402977	4388.425246
880.713191	4981.174198
881.023363	6075.328914
881.333494	7324.547001
881.643583	7887.243114
881.953631	7609.435208
882.263637	7027.630602
882.573602	6471.619059
882.883526	5911.246918
883.193408	5343.759188
883.503248	4887.186925
883.813048	4597.267647
884.122806	4317.806243
884.432522	4014.500180
884.742197	3784.467289
885.051831	3598.375615
885.361424	3460.321097
885.670975	3392.386508
885.980485	3311.165957
886.289954	3238.749782
886.599382	3198.289482
886.908768	3159.492762
887.218113	3116.743777
887.527417	3062.614388
887.836680	3011.386182
888.145901	3006.304699
888.455082	3001.311436
888.764221	2951.840073
889.073319	2923.226484
889.382376	2922.097265
889.691392	2924.973243
890.000366	2923.486103
890.309300	2910.018661
890.618193	2924.199426
890.927044	2941.621654
891.235855	2941.147786
891.544625	2924.060795
891.853353	2936.096549
892.162041	2953.395269
892.470687	2992.474293
892.779293	3040.269473
893.087858	3085.329827
893.396381	3148.994559
893.704864	3262.377670
894.013306	3484.369921
894.321707	3774.102677
894.630068	3980.185046
894.938387	3979.756548
895.246665	3937.562090
895.554903	3823.548834
895.863100	3635.080257
896.171256	3473.932212
896.479371	3340.034125
896.787446	3225.433574
897.095480	3123.690487
897.403473	3060.179510
897.711425	3024.175589
898.019336	3016.485309
898.327207	2991.730723
898.635038	2959.051443
898.942827	2941.949329
899.250576	2934.722835
899.558284	2900.561456
899.865952	2882.982953
900.173579	2863.927391
900.481165	2856.645444
900.788711	2845.370904
901.096216	2821.337203
901.403681	2810.017292
901.711105	2814.161120
902.018489	2811.698517
902.325832	2814.655153
902.633135	2821.737974
902.940397	2852.698221
903.247619	2926.447781
903.554800	3101.602671
903.861941	3421.630241
904.169041	3827.758198
904.476101	4128.861276
904.783121	4104.941001
905.090100	3874.136813
905.397039	3612.437914
905.703938	3369.454299
906.010796	3190.417720
906.317614	3083.701534
906.624391	2991.713079
906.931129	2924.794283
907.237826	2865.399408
907.544483	2820.817964
907.851099	2790.563479
908.157675	2769.672937
908.464211	2752.238107
908.770707	2737.291086
909.077163	2725.943448
909.383578	2714.414330
909.689954	2699.719366
909.996289	2698.917823
910.302584	2699.346321
910.608839	2703.623740
910.915054	2696.389684
911.221229	2691.691329
911.527363	2692.109744
911.833458	2700.969572
912.139513	2701.400591
912.445527	2701.793801
912.751502	2713.075903
913.057436	2720.055381
913.363331	2733.820251
913.669186	2750.836666
913.975000	2784.088117
914.280775	2840.332270
914.586510	2906.099163
914.892205	2981.600525
915.197859	3097.088318
915.503475	3274.206738
915.809050	3475.414311
916.114585	3618.721712
916.420081	3647.431083
916.725536	3594.090635
917.030952	3484.989983
917.336328	3360.677650
917.641665	3237.723907
917.946961	3139.880152
918.252218	3076.379258
918.557435	3001.545850
918.862612	2944.996707
919.167750	2901.229409
919.472848	2861.200127
919.777906	2835.086950
920.082925	2810.806232
920.387904	2781.423867
920.692843	2766.681013
920.997743	2755.416554
921.302603	2741.984400
921.607423	2732.607854
921.912204	2721.663509
922.216946	2711.538351
922.521647	2704.263966
922.826310	2695.051258
923.130932	2690.809127
923.435516	2683.378466
923.740059	2673.354132
924.044564	2667.786177
924.349028	2661.474652
924.653454	2655.153046
924.957840	2652.340082
925.262186	2642.910603
925.566493	2639.414563
925.870761	2635.953811
926.174989	2632.399798
926.479178	2627.366206
926.783328	2624.545680
927.087438	2623.658437
927.391509	2621.311780
927.695541	2617.717437
927.999533	2616.754577
928.303486	2610.117898
928.607400	2611.577312
928.911275	2611.799122
929.215110	2611.390789
929.518906	2609.860799
929.822663	2609.079420
930.126381	2610.501025
930.430060	2609.467589
930.733699	2608.570263
931.037299	2611.952878
931.340861	2613.019082
931.644383	2611.312651
931.947866	2612.590584
932.251309	2609.951540
932.554714	2611.274842
932.858080	2608.479523
933.161407	2604.547423
933.464694	2605.641353
933.767943	2600.610282
934.071153	2602.667072
934.374323	2603.123297
934.677455	2604.670931
934.980548	2602.609099
935.283602	2602.777978
935.586617	2602.636825
935.889593	2603.208996
936.192530	2601.263111
936.495428	2602.125148
936.798287	2603.103132
937.101108	2606.725201
937.403890	2609.356683
937.706632	2615.890019
938.009336	2620.762294
938.312002	2628.487862
938.614628	2639.757362
938.917216	2644.783392
939.219765	2644.112919
939.522275	2643.089564
939.824747	2640.440438
940.127179	2637.791312
940.429573	2635.394243
940.731929	2634.411218
941.034246	2632.669499
941.336524	2627.028448
941.638763	2623.988633
941.940964	2623.242542
942.243126	2621.856224
942.545250	2621.899074
942.847335	2617.062087
943.149381	2612.983794
943.451389	2609.638988
943.753359	2608.603031
944.055290	2607.776282
944.357182	2603.939964
944.659036	2607.004985
944.960851	2602.979624
945.262628	2603.118256
945.564367	2602.813266
945.866067	2604.328132
946.167729	2605.106991
946.469352	2606.168154
946.770937	2603.045159
947.072484	2602.674634
947.373992	2600.322936
947.675462	2598.992071
947.976893	2598.298912
948.278286	2594.467636
948.579641	2596.118613
948.880958	2590.744743
949.182236	2594.830599
949.483476	2593.366143
949.784678	2592.645258
950.085841	2592.902357
950.386967	2595.377564
950.688054	2596.390836
950.989103	2596.600044
951.290114	2598.220775
951.591087	2601.132041
951.892021	2601.179932
952.192917	2605.543051
952.493776	2606.440376
952.794596	2604.267639
953.095378	2606.959615
953.396122	2607.257043
953.696828	2602.992227
953.997496	2602.538523
954.298126	2602.818307
954.598718	2599.239088
954.899272	2597.063830
955.199788	2594.954107
955.500266	2591.574013
955.800706	2587.775504
956.101108	2586.348857
956.401472	2588.108220
956.701798	2584.753332
957.002087	2582.678897
957.302337	2582.381469
957.602550	2578.406519
957.902724	2577.834348
958.202861	2579.838207
958.502960	2575.780078
958.803022	2576.909297
959.103045	2573.877043
959.403031	2576.042218
959.702979	2572.435273
960.002889	2571.860581
960.302762	2572.546178
960.602596	2574.608010
960.902393	2572.009295
961.202153	2572.110118
961.501875	2570.595252
961.801559	2570.892680
962.101205	2569.962587
962.400814	2568.324212
962.700385	2571.240519
962.999918	2567.588203
963.299414	2564.659293
963.598873	2568.397308
963.898293	2564.712225
964.197677	2568.281362
964.497022	2568.856053
964.796331	2569.644994
965.095601	2568.094839
965.394835	2567.215158
965.694030	2567.164746
965.993189	2568.795560
966.292309	2566.902606
966.591393	2570.151630
966.890439	2568.828327
967.189447	2568.896383
967.488419	2568.364541
967.787353	2567.084088
968.086249	2569.662638
968.385108	2570.305385
968.683930	2570.070972
968.982714	2569.463512
969.281462	2569.370251
969.580172	2567.071485
969.878844	2568.568708
970.177480	2570.554922
970.476078	2566.801783
970.774639	2568.929150
971.073162	2570.212124
971.371649	2567.502504
971.670098	2568.931671
971.968510	2570.713719
972.266885	2568.140210
972.565223	2571.512742
972.863524	2567.464695
973.161788	2569.866805
973.460014	2568.253636
973.758204	2566.111145
974.056356	2566.408573
974.354471	2569.042576
974.652550	2568.649366
974.950591	2569.294634
975.248595	2568.843451
975.546563	2569.125755
975.844493	2568.278841
976.142386	2566.164077
976.440243	2568.954356
976.738062	2566.017884
977.035845	2568.334294
977.333590	2569.282031
977.631299	2566.784139
977.928971	2568.044428
978.226606	2563.041083
978.524204	2563.454457
978.821765	2562.708366
979.119290	2566.567370
979.416777	2564.724828
979.714228	2565.425548
980.011642	2565.274314
980.309020	2566.106104
980.606360	2567.323543
980.903664	2565.521330
981.200931	2568.626681
981.498162	2568.641804
981.795356	2569.392936
982.092513	2568.959397
982.389633	2572.165571
982.686717	2574.600448
982.983764	2578.656057
983.280775	2582.439442
983.577749	2582.706624
983.874686	2584.624783
984.171587	2583.319124
984.468451	2576.178329
984.765279	2575.979204
985.062070	2575.417115
985.358824	2574.081209
985.655543	2571.948801
985.952224	2568.785477
986.248869	2570.317988
986.545478	2567.527709
986.842050	2568.175498
987.138586	2566.146433
987.435086	2565.846485
987.731549	2564.243398
988.027975	2565.244067
988.324366	2563.315825
988.620719	2562.594940
988.917037	2559.514795
989.213318	2564.893707
989.509563	2565.264231
989.805772	2562.252142
990.101944	2563.356155
990.398080	2563.341031
990.694180	2563.217523
990.990244	2562.226936
991.286271	2565.453275
991.582262	2563.041083
991.878217	2562.584858
992.174136	2564.770198
992.470019	2561.800959
992.765865	2562.582337
993.061676	2563.028480
993.357450	2562.368088
993.653188	2559.532439
993.948890	2562.506720
994.244556	2562.141237
994.540186	2564.939077
994.835780	2562.610064
995.131337	2563.996381
995.426859	2565.995199
995.722345	2566.320353
996.017795	2565.077709
996.313208	2567.303378
996.608586	2568.377144
996.903928	2567.885631
997.199234	2569.811352
997.494504	2567.827658
997.789738	2568.412432
998.084936	2567.333625
998.380099	2567.010991
998.675225	2564.709704
998.970316	2563.497307
999.265371	2565.637277
999.560390	2566.499314
999.855373	2564.508058
1000.150320	2566.950497
1000.445232	2563.338511
1000.740108	2563.315825
1001.034948	2564.407235
1001.329752	2560.636452
1001.624521	2562.342883
1001.919254	2562.738613
1002.213951	2562.605023
1002.508613	2564.235836
1002.803239	2561.337172
1003.097829	2561.042265
1003.392384	2562.448747
1003.686903	2562.305074
1003.981386	2563.250290
1004.275834	2562.662996
1004.570246	2563.787173
1004.864623	2562.589899
1005.158964	2560.908674
1005.453270	2562.292471
1005.747540	2562.289951
1006.041775	2561.934549
1006.335974	2562.758778
1006.630138	2561.821123
1006.924266	2561.828685
1007.218359	2559.673592
1007.512416	2561.604354
1007.806438	2555.113868
1008.100425	2560.482697
1008.394376	2560.507903
1008.688292	2564.709704
1008.982172	2559.648386
1009.276017	2561.611915
1009.569827	2558.738458
1009.863602	2564.271124
1010.157341	2561.934549
1010.451045	2560.810372
1010.744714	2561.468242
1011.038347	2563.865311
1011.331945	2559.776935
1011.625508	2560.926318
1011.919036	2563.071329
1012.212528	2560.313818
1012.505986	2561.649724
1012.799408	2561.977399
1013.092795	2559.610577
1013.386147	2559.449260
1013.679464	2561.526216
1013.972745	2559.887841
1014.265992	2560.820454
1014.559204	2560.313818
1014.852380	2559.587892
1015.145521	2561.821123
1015.438628	2562.491597
1015.731699	2562.242060
1016.024736	2560.323901
1016.317737	2560.729713
1016.610703	2559.509754
1016.903635	2563.532595
1017.196531	2560.860783
1017.489393	2561.218705
1017.782219	2561.148129
1018.075011	2561.080074
1018.367768	2560.278530
1018.660490	2563.252811
1018.953177	2563.252811
1019.245829	2563.252811
