Dividing Wavelength (nm)	Counts (n)	Blue Motor Position (mm): 38.000000	Red Motor Position (mm): 0.000000	
326.493990	2239.479664
326.888308	2239.479664
327.282561	2239.479664
327.676750	2199.984744
328.070874	2197.174301
328.464933	2198.565659
328.858929	2200.551874
329.252859	2208.398430
329.646726	2215.783720
330.040528	2227.612788
330.434265	2239.189798
330.827938	2258.257962
331.221547	2278.036929
331.615091	2291.675771
332.008571	2310.600263
332.401986	2332.436020
332.795338	2347.461179
333.188625	2368.291227
333.581847	2388.712941
333.975006	2405.711712
334.368100	2428.578386
334.761129	2447.646550
335.154095	2460.418314
335.546996	2487.234732
335.939833	2528.766277
336.332606	2542.931920
336.725315	2556.895916
337.117960	2570.943091
337.510540	2578.678742
337.903056	2593.348499
338.295508	2597.295723
338.687896	2608.151848
339.080220	2614.231479
339.472480	2623.565176
339.864676	2629.443161
340.256807	2633.571866
340.648875	2635.979017
341.040879	2638.469347
341.432818	2640.490850
341.824694	2644.422950
342.216506	2645.998310
342.608253	2644.488485
342.999937	2645.411016
343.391557	2647.485451
343.783113	2645.537045
344.174605	2646.325985
344.566033	2646.850265
344.957397	2645.053094
345.348697	2640.735346
345.739934	2643.971766
346.131106	2640.773154
346.522215	2638.504635
346.913260	2635.084212
347.304241	2635.074130
347.695159	2634.297792
348.086012	2634.653193
348.476802	2627.734210
348.867528	2624.543159
349.258191	2621.901595
349.648789	2622.007459
350.039324	2616.134515
350.429796	2620.411934
350.820203	2621.825977
351.210548	2618.612242
351.600828	2616.605863
351.991045	2616.842797
352.381198	2613.611417
352.771288	2616.784824
353.161314	2613.989504
353.551276	2613.843310
353.941175	2614.619648
354.331010	2615.214504
354.720782	2610.576643
355.110490	2612.207456
355.500135	2613.495471
355.889717	2611.400871
356.279235	2612.227621
356.668689	2613.422374
357.058080	2613.863475
357.447408	2613.374483
357.836672	2613.588732
358.225873	2613.465224
358.615010	2615.511932
359.004084	2615.474124
359.393095	2618.153497
359.782043	2617.843466
360.170927	2618.113168
360.559748	2617.767849
360.948505	2620.714403
361.337199	2618.554269
361.725830	2619.171810
362.114398	2620.336317
362.502903	2622.632562
362.891344	2618.702983
363.279722	2621.707510
363.668037	2621.311780
364.056289	2621.591564
364.444478	2624.160032
364.832603	2625.075001
365.220665	2624.402007
365.608665	2623.550052
365.996601	2627.346041
366.384474	2624.752367
366.772284	2624.918725
367.160031	2626.995681
367.547715	2628.291257
367.935336	2626.426030
368.322893	2625.390073
368.710388	2623.373612
369.097820	2625.521143
369.485189	2622.864455
369.872495	2629.463326
370.259738	2628.077008
370.646918	2631.371402
371.034035	2630.000208
371.421090	2633.418111
371.808081	2632.979530
372.195010	2633.276958
372.581875	2631.588172
372.968678	2631.600775
373.355418	2633.178656
373.742096	2632.654376
374.128710	2631.578090
374.515262	2637.690489
374.901751	2636.536064
375.288177	2635.779891
375.674540	2637.579583
376.060841	2639.371713
376.447079	2638.182001
376.833254	2636.591517
377.219367	2638.870119
377.605417	2639.318781
377.991404	2641.488998
378.377329	2641.952784
378.763191	2639.699388
379.148991	2642.545120
379.534727	2642.010757
379.920402	2640.886580
380.306013	2642.986221
380.691563	2643.752476
381.077049	2642.618217
381.462474	2643.165182
381.847835	2642.409009
382.233134	2645.509318
382.618371	2645.252219
383.003545	2646.479740
383.388657	2646.520070
383.773706	2646.683907
384.158693	2648.435708
384.543618	2647.455204
384.928480	2648.377735
385.313280	2647.130049
385.698017	2652.259423
386.082692	2651.326810
386.467305	2651.674649
386.851856	2653.686070
387.236344	2653.212201
387.620770	2649.290184
388.005133	2650.792447
388.389435	2654.316214
388.773674	2651.215904
389.157851	2656.529281
389.541965	2657.703869
389.926018	2656.650268
390.310008	2658.424754
390.693936	2661.313336
391.077802	2659.329642
391.461606	2663.370126
391.845348	2663.445744
392.229027	2663.523882
392.612645	2666.357010
392.996200	2671.183915
393.379694	2669.699295
393.763125	2680.275636
394.146494	2682.912159
394.529801	2691.381298
394.913047	2703.845551
395.296230	2711.853423
395.679351	2726.311453
396.062410	2745.372055
396.445408	2761.080291
396.828343	2786.699435
397.211217	2817.717654
397.594028	2839.465192
397.976778	2883.943292
398.359466	2926.969540
398.742092	2971.861015
399.124656	3009.805780
399.507158	3077.500915
399.889598	3146.305103
400.271977	3229.877352
400.654294	3285.435908
401.036549	3361.025489
401.418742	3403.408990
401.800874	3528.253165
402.182944	3614.754324
402.564952	3731.394021
402.946898	3825.167045
403.328783	3842.995085
403.710606	3918.433432
404.092367	4135.082060
404.474067	4227.277202
404.855705	4258.807098
405.237282	4299.645486
405.618797	4512.467878
406.000250	4583.487653
406.381642	4775.464874
406.762972	4868.534656
407.144240	4981.990865
407.525447	5046.220206
407.906593	5152.051669
408.287677	5331.564637
408.668700	5343.376060
409.049661	5498.031099
409.430560	5590.606848
409.811399	5543.318304
410.192176	5826.101829
410.572891	5888.927209
410.953545	6125.417818
411.334138	5959.531089
411.714669	6157.535009
412.095139	6038.689808
412.475547	6297.419467
412.855894	6401.539458
413.236180	6598.280570
413.616405	6368.731629
413.996568	6601.257371
414.376670	6654.166801
414.756711	6601.385920
415.136691	6713.662499
415.516609	6931.742814
415.896466	6957.871115
416.276262	7159.313102
416.655997	7167.013464
417.035670	7371.896039
417.415283	7712.909932
417.794834	7772.508973
418.174324	7658.460429
418.553753	7592.474246
418.933121	7922.692508
419.312428	8028.423148
419.691674	7823.628794
420.070859	8295.969786
420.449983	7989.210533
420.829045	8348.972477
421.208047	8147.308679
421.586988	8438.959594
421.965867	8459.827450
422.344686	8575.534534
422.723444	8602.895397
423.102141	7998.022470
423.480777	8738.746931
423.859352	8264.941484
424.237866	8886.394765
424.616319	8758.034386
424.994712	9159.590016
425.373044	8732.760561
425.751314	9188.972381
426.129524	9057.645282
426.507673	9190.840128
426.885762	9341.305968
427.263789	9249.446063
427.641756	9173.969907
428.019662	9276.627964
428.397508	9513.635292
428.775292	9210.180515
429.153016	9584.191281
429.530679	9421.677084
429.908282	9467.516296
430.285824	9174.804218
430.663305	9852.511735
431.040726	9311.270773
431.418086	9295.595305
431.795385	9619.186971
432.172624	9706.666113
432.549802	9623.013207
432.926920	9705.849447
433.303977	9582.754552
433.680974	9789.184761
434.057910	9873.790446
434.434786	9934.201113
434.811601	9781.123956
435.188355	10351.233085
435.565050	10073.253780
435.941683	10006.904634
436.318257	10501.131795
436.694770	10625.565116
437.071222	10694.712103
437.447614	10538.267455
437.823946	10429.318038
438.200218	10574.228526
438.576429	10391.350588
438.952580	10629.910591
439.328670	10679.170225
439.704700	10471.429317
440.080670	10454.909455
440.456580	11017.005671
440.832429	10763.609552
441.208218	10363.538542
441.583947	10703.917250
441.959616	10847.665752
442.335224	10648.041100
442.710773	10795.189861
443.086261	10994.176806
443.461689	10280.253639
443.837057	10933.700604
444.212365	11208.060361
444.587612	10850.952584
444.962800	11076.355175
445.337927	10842.112921
445.712995	10438.442526
446.088002	11518.350942
446.462949	11183.547750
446.837837	11147.122893
447.212664	11130.540017
447.587431	11660.128352
447.962139	12381.184752
448.336786	14638.772240
448.711374	15184.431774
449.085901	13037.976522
449.460369	12652.681133
449.834776	12097.208994
450.209124	12976.439157
450.583412	13390.650603
450.957640	14328.600126
451.331808	13471.016678
451.705917	12463.567288
452.079965	11764.051739
452.453954	12673.251561
452.827883	12306.918473
453.201752	12592.802308
453.575562	12111.775408
453.949311	12536.616128
454.323001	12490.862615
454.696632	12723.809293
455.070202	13006.640709
455.443713	13235.846851
455.817164	13696.673848
456.190556	13690.914329
456.563888	14059.089959
456.937160	14225.175814
457.310373	13568.850351
457.683526	13654.708762
458.056619	13203.749825
458.429653	13351.238863
458.802628	12779.813992
459.175542	13156.378102
459.548398	14104.916568
459.921194	14439.064410
460.293930	14510.797509
460.666607	15390.720830
461.039224	16431.766990
461.411782	17136.313611
461.784280	16982.818038
462.156719	17045.872790
462.529099	16732.938124
462.901419	15664.526060
463.273680	15454.526714
463.645882	15326.340254
464.018024	15055.574840
464.390106	15275.202790
464.762130	16001.885117
465.134094	16772.944721
465.505999	18763.887939
465.877845	22028.450949
466.249631	24862.670821
466.621358	24534.947930
466.993026	23102.375515
467.364634	22531.391745
467.736184	21057.756612
468.107674	20259.903275
468.479105	20391.152236
468.850477	19859.784373
469.221790	19448.554769
469.593043	18765.143186
469.964238	18204.524028
470.335373	17859.252881
470.706449	18312.543352
471.077467	17871.661681
471.448425	19711.481189
471.819324	23764.246247
472.190164	25737.081640
472.560945	22162.606135
472.931667	19816.412806
473.302330	19183.495941
473.672934	18731.057424
474.043479	19039.588642
474.413965	18849.438840
474.784393	18463.248647
475.154761	19178.689201
475.525070	19162.794442
475.895321	18824.137289
476.265513	19424.324463
476.635645	19994.972996
477.005719	19785.452560
477.375734	19967.168512
477.745691	20447.121646
478.115588	20979.303655
478.485427	21509.733862
478.855207	22571.645358
479.224928	24343.953734
479.594591	26583.277122
479.964194	26579.778561
480.333739	26781.215507
480.703226	26355.742123
481.072653	26046.043877
481.442022	26630.152291
481.811333	27541.829841
482.180584	27467.989540
482.549777	26512.970670
482.918912	26167.694481
483.287988	26291.593440
483.657005	25948.706758
484.025964	25711.127260
484.394864	25609.767300
484.763706	25286.341993
485.132489	24733.113167
485.501213	24901.376800
485.869879	24811.230887
486.238487	24650.697863
486.607036	24781.341886
486.975527	24499.876622
487.343959	24810.641072
487.712333	24740.722788
488.080648	24412.384877
488.448905	24894.125100
488.817104	24647.781556
489.185244	25339.836197
489.553326	25307.474510
489.921350	26314.097151
490.289315	28598.523742
490.657222	30364.538237
491.025070	30874.337523
491.392861	30638.598046
491.760593	29801.504367
492.128267	28883.129645
492.495883	27836.026538
492.863440	26961.887941
493.230939	26085.919404
493.598380	25929.978872
493.965763	25548.746653
494.333088	25078.311218
494.700354	25027.040162
495.067563	24896.098712
495.434713	24645.397090
495.801805	24794.988289
496.168839	24598.811787
496.535815	24445.379229
496.902733	24667.295862
497.269593	24338.317724
497.636395	24513.709548
498.003139	24468.770183
498.369825	24216.740217
498.736453	24430.817856
499.103023	24286.179590
499.469535	24304.920080
499.835989	24521.430076
500.202385	24544.377408
500.568723	24061.460075
500.935003	24282.668427
501.301226	23928.930661
501.667390	24768.421408
502.033497	24985.324614
502.399546	24717.712442
502.765537	24280.488127
503.131470	24664.445090
503.497345	24796.266222
503.863163	24024.367265
504.228923	24610.998777
504.594625	24828.091026
504.960269	24366.185222
505.325856	24849.901578
505.691385	24259.108594
506.056856	24866.902869
506.422270	24833.747200
506.787625	24389.666917
507.152924	24813.829602
507.518164	24833.258208
507.883347	24652.984026
508.248472	24330.927392
508.613540	25117.208761
508.978550	24909.392234
509.343503	24902.657253
509.708398	25144.609952
510.073236	25307.358563
510.438016	25523.722366
510.802738	25187.474883
511.167403	25435.313130
511.532010	25154.901468
511.896561	25920.272130
512.261053	25890.882203
512.625488	25718.716717
512.989866	25625.175587
513.354186	25451.780059
513.718449	25576.125160
514.082655	25954.415865
514.446803	25675.879512
514.810894	26157.017317
515.174927	25648.024617
515.538904	25683.322776
515.902822	26164.851271
516.266684	25918.048981
516.630488	25822.703118
516.994235	25790.038962
517.357925	26104.473371
517.721558	26278.231862
518.085133	26377.492181
518.448651	26271.287672
518.812112	26031.706836
519.175516	26241.605358
519.538863	26390.495837
519.902152	26182.528077
520.265385	26452.804499
520.628560	26243.881439
520.991678	26252.587512
521.354739	26307.284031
521.717743	26380.204322
522.080690	26165.194069
522.443580	26492.710273
522.806413	26482.602759
523.169189	26592.056292
523.531908	26627.770346
523.894569	26244.680462
524.257174	26339.902817
524.619722	26488.306825
524.982213	26195.259511
525.344647	26235.508083
525.707025	26387.173717
526.069345	26355.825302
526.431608	26319.110578
526.793815	26508.098395
527.155964	25971.951519
527.518057	26159.298440
527.880093	26073.225779
528.242072	26304.231613
528.603995	26011.615317
528.965860	25804.746528
529.327669	25858.323911
529.689421	25833.357597
530.051117	25682.228845
530.412755	25857.845001
530.774337	25655.321687
531.135862	25529.892738
531.497331	25725.640742
531.858743	25293.944053
532.220098	25756.379177
532.581396	25446.277640
532.942638	25375.356167
533.303824	25476.461548
533.664953	25483.473793
534.026025	25149.051209
534.387040	25382.799430
534.747999	25446.300325
535.108902	25604.837052
535.469748	25101.157727
535.830537	25273.943275
536.191270	25409.227679
536.551947	25260.876604
536.912567	24876.952409
537.273131	25287.695542
537.633638	24973.798016
537.994089	25193.057961
538.354483	24706.826070
538.714821	25219.982764
539.075103	25256.687405
539.435328	25025.124524
539.795497	24605.501398
540.155609	24986.920139
540.515665	25293.714680
540.875665	24512.129147
541.235609	24814.008563
541.595496	24783.933039
541.955328	25134.968746
542.315102	25053.019749
542.674821	24581.734878
543.034483	24469.428053
543.394090	24633.923424
543.753640	24439.423105
544.113134	25063.288579
544.472571	24655.189531
544.831953	24955.919564
545.191278	24590.496404
545.550548	24500.194215
545.909761	24703.967736
546.268918	24921.339769
546.628019	24904.424177
546.987064	24594.640232
547.346053	24342.290153
547.704986	24454.970024
548.063863	24612.914415
548.422684	24621.350786
548.781449	24140.936386
549.140158	24554.563059
549.498811	24123.947698
549.857408	23885.037335
550.215949	24286.847543
550.574434	23973.527229
550.932864	24182.553632
551.291237	24368.418453
551.649555	24216.105031
552.007817	24278.723724
552.366022	24129.918944
552.724173	24156.473222
553.082267	24115.077788
553.440305	24593.914306
553.798288	23850.172715
554.156215	24358.918399
554.514086	24462.390602
554.871902	23846.306150
555.229661	24124.923161
555.587365	23973.625531
555.945014	23866.107802
556.302606	24094.252781
556.660143	24062.732967
557.017625	24307.415451
557.375050	23831.240661
557.732421	24221.695671
558.089735	24029.335322
558.446994	24083.187448
558.804197	24114.442602
559.161345	24042.265882
559.518437	23814.942611
559.875474	24001.487988
560.232455	24181.242932
560.589381	24000.373893
560.946251	23994.642102
561.303065	24300.516632
561.659825	24390.745724
562.016528	23997.147555
562.373177	23730.077307
562.729770	24106.525470
563.086307	23950.411018
563.442789	24114.263641
563.799216	23952.089722
564.155587	23960.654642
564.511904	23943.655872
564.868164	23885.859043
565.224370	23851.896789
565.580520	23771.707155
565.936615	23898.532503
566.292654	23581.277568
566.648638	23869.311455
567.004567	23702.804664
567.360441	23651.833558
567.716260	23383.112331
568.072023	23692.301420
568.427732	23467.319765
568.783385	23239.956165
569.138982	23471.370332
569.494525	23512.818699
569.850013	23256.733125
570.205445	23359.348332
570.560823	23178.070960
570.916145	22940.461215
571.271412	23121.912507
571.626625	22875.758005
571.981782	22983.981496
572.336884	22787.502525
572.691931	22930.646088
573.046923	22660.631806
573.401860	22535.248228
573.756743	22570.047313
574.111570	22458.778965
574.466342	22384.026215
574.821059	22470.096355
575.175722	22176.242457
575.530330	22148.395123
575.884882	22163.269047
576.239380	22080.831058
576.593823	21972.098411
576.948211	21942.965583
577.302544	21810.468936
577.656823	21667.000218
578.011047	21764.186103
578.365216	21637.111217
578.719330	21516.733505
579.073389	21394.094834
579.427394	21548.729708
579.781344	21314.885705
580.135239	21209.560877
580.489080	21164.467756
580.842866	20933.880338
581.196597	21136.065895
581.550273	21113.471444
581.903895	20991.909060
582.257463	21309.494191
582.610975	20843.250474
582.964434	21169.024959
583.317837	20844.044456
583.671186	20931.745409
584.024481	20913.698079
584.377721	20683.952533
584.730906	20752.247565
585.084037	20761.155284
585.437113	20676.758807
585.790135	20874.727439
586.143103	20335.588638
586.496016	20349.187150
586.848874	20596.939697
587.201679	20510.272180
587.554428	20205.433607
587.907124	20527.666682
588.259765	20299.188987
588.612352	20375.688496
588.964884	19940.571384
589.317362	20116.200143
589.669786	20172.933288
590.022155	20188.765032
590.374470	20421.991494
590.726731	20194.524550
591.078937	19964.582400
591.431090	20051.564989
591.783188	19814.968516
592.135232	19780.474420
592.487222	19886.633559
592.839157	19898.460106
593.191038	19769.358676
593.542866	19674.867288
593.894639	19376.196567
594.246358	19592.391491
594.598022	19491.893568
594.949633	19250.893647
595.301190	19222.978258
595.652692	19387.367764
596.004141	19618.023238
596.355535	18953.377350
596.706876	18966.436459
597.058162	18859.218678
597.409395	19096.646942
597.760573	19153.090221
598.111698	18923.352238
598.462768	18870.778044
598.813785	18839.202777
599.164748	18646.570206
599.515657	18693.004274
599.866511	18482.866297
600.217312	18839.618672
600.568060	18362.740642
600.918753	18675.594650
601.269392	18561.576353
601.619978	18358.158233
601.970510	18558.879335
602.320988	18506.423609
602.671412	18710.550010
603.021783	18636.276170
603.372100	18346.616511
603.722363	18496.091764
604.072572	18438.463814
604.422728	18588.740610
604.772830	18339.077466
605.122878	18294.337225
605.472872	18285.121996
605.822813	18264.533924
606.172701	18241.889061
606.522534	18428.406712
606.872314	18452.480742
607.222041	18294.743038
607.571714	18505.261623
607.921333	18332.284511
608.270899	18409.530111
608.620411	18584.773222
608.969870	18357.147482
609.319276	18356.378706
609.668627	18386.673520
610.017926	18524.029839
610.367171	18639.540317
610.716362	18687.108645
611.065500	18507.464607
611.414585	18643.343868
611.763616	18632.560840
612.112594	18560.114418
612.461518	18536.552065
612.810389	18719.185507
613.159207	18585.413448
613.507971	18503.756838
613.856682	18760.225540
614.205340	18691.459161
614.553945	18835.542899
614.902496	18580.319362
615.250994	18800.622827
615.599439	18738.533455
615.947830	18739.950020
616.296169	18807.715730
616.644454	18763.930788
616.992686	18734.281242
617.340864	18946.226473
617.688990	18700.140028
618.037063	18879.675681
618.385082	18727.717660
618.733048	19008.613273
619.080961	18887.073574
619.428821	18929.031098
619.776628	18792.937588
620.124382	18723.248677
620.472083	18780.634652
620.819731	18791.599161
621.167326	18492.502462
621.514868	18525.590076
621.862357	18298.581877
622.209793	18310.108475
622.557176	18131.691958
622.904506	17962.450341
623.251783	17886.580976
623.599007	17636.156617
623.946179	17573.336279
624.293297	17511.693050
624.640363	17252.076147
624.987376	17279.426927
625.334336	17084.157833
625.681243	16930.011951
626.028097	16943.539888
626.374899	16861.036364
626.721647	16728.396044
627.068343	16558.284828
627.414987	16499.182341
627.761577	16459.500898
628.108115	16489.921741
628.454600	16226.750825
628.801032	16326.046432
629.147412	16257.073366
629.493739	16279.713188
629.840014	16085.227993
630.186236	16189.768921
630.532405	15949.058866
630.878521	16146.472971
631.224585	16049.647529
631.570597	15866.167173
631.916556	15895.168931
632.262462	15872.612288
632.608316	15789.317303
632.954117	15733.158849
633.299866	15727.613580
633.645562	15641.682072
633.991206	15403.386729
634.336797	15274.993582
634.682336	15238.999743
635.027823	15120.562875
635.373257	14996.530326
635.718639	14904.519186
636.063968	14855.889695
636.409245	14602.100367
636.754470	14639.780471
637.099642	14479.252488
637.444762	14251.420061
637.789829	14298.890086
638.134845	14134.704747
638.479808	14159.184590
638.824719	14085.001490
639.169577	13949.744812
639.514383	13990.671419
639.859137	13812.786744
640.203839	13910.249892
640.548489	13754.584102
640.893086	13737.713881
641.237632	13615.717958
641.582125	13767.789405
641.926566	13585.405500
642.270955	13606.638840
642.615292	13554.790573
642.959576	13573.513418
643.303809	13599.208179
643.647990	13529.794011
643.992118	13596.758178
644.336195	13363.960214
644.680219	13586.950614
645.024192	13495.771264
645.368112	13736.672883
645.711981	13787.762457
646.055797	13972.815652
646.399562	13944.549903
646.743274	14213.205594
647.086935	14490.829498
647.430544	14449.103868
647.774101	14482.128467
648.117606	14638.341222
648.461059	14610.750987
648.804460	14581.655967
649.147810	14311.913907
649.491108	14217.661974
649.834354	14234.549840
650.177548	13915.873299
650.520690	13727.036717
650.863781	13646.937824
651.206820	13700.361452
651.549807	13535.094785
651.892742	13318.645282
652.235626	13263.951284
652.578458	13271.424794
652.921238	12962.097074
653.263967	13152.181341
653.606644	12993.095129
653.949269	12969.391623
654.291843	12767.241354
654.634365	12933.407867
654.976836	12783.120989
655.319255	12789.092236
655.661622	12741.080286
656.003938	12664.641271
656.346203	12587.967841
656.688416	12664.832834
657.030577	12623.195424
657.372687	12536.338864
657.714746	12514.828261
658.056753	12706.767673
658.398708	12513.605781
658.740612	12509.242662
659.082465	12624.254067
659.424266	12593.767689
659.766016	12617.138478
660.107715	12531.247299
660.449362	12602.630037
660.790958	12555.520454
661.132503	12499.951816
661.473996	12576.670615
661.815438	12584.360896
662.156829	12609.367539
662.498168	12582.881317
662.839456	12582.828385
663.180693	12599.983431
663.521879	12691.591279
663.863013	12662.982731
664.204097	12634.744708
664.545129	12766.845624
664.886110	12741.125657
665.227040	12833.552692
665.567918	12836.431191
665.908746	12862.400695
666.249522	12847.189013
666.590248	12901.426787
666.930922	13018.615970
667.271545	12987.958193
667.612118	13081.892533
667.952639	12978.843787
668.293109	12997.440603
668.633528	12946.903036
668.973896	12924.729521
669.314213	12994.657887
669.654480	12738.453845
669.994695	12809.647540
670.334859	12842.546110
670.674973	12790.075261
671.015035	12809.871872
671.355047	12763.727670
671.695008	12732.298596
672.034918	12740.951737
672.374777	12786.196093
672.714585	12698.066641
673.054342	12730.725756
673.394049	12681.728262
673.733705	12784.925722
674.073310	12692.869212
674.412864	12702.427239
674.752368	12560.417935
675.091820	12588.358531
675.431223	12573.320769
675.770574	12437.892691
676.109875	12357.453520
676.449125	12313.933239
676.788324	12267.108481
677.127473	12096.351997
677.466571	12082.645100
677.805619	11974.368677
678.144616	11909.801579
678.483562	11880.782177
678.822458	11747.859553
679.161303	11728.017571
679.500098	11715.734800
679.838842	11667.952223
680.177535	11694.304855
680.516179	11761.241296
680.854771	11699.207377
681.193314	11926.941502
681.531805	12085.659710
681.870247	12514.089732
682.208638	12929.647167
682.546978	13237.689393
682.885268	13267.467489
683.223508	12975.738436
683.561697	12815.555773
683.899836	12722.455743
684.237925	12505.061025
684.575963	12418.660689
684.913951	12350.085873
685.251889	12297.012606
685.589776	12405.389852
685.927614	12313.290492
686.265401	12281.097683
686.603137	12338.924759
686.940824	12489.196514
687.278460	12613.108075
687.616046	12655.138696
687.953582	12825.254953
688.291068	12755.374478
688.628504	12987.295281
688.965889	12995.272907
689.303224	12960.549440
689.640510	12845.177593
689.977745	12522.947039
690.314930	12309.643217
690.652065	12220.039228
690.989150	11922.250708
691.326185	11697.843745
691.663170	11491.587456
692.000105	11254.698595
692.336990	11130.212342
692.673825	10880.014836
693.010610	10768.829667
693.347345	10552.198683
693.684030	10357.731133
694.020665	10297.728799
694.357251	10103.858625
694.693786	10033.035455
695.030272	9880.109532
695.366707	9757.455738
695.703093	9696.039361
696.039429	9693.135657
696.375716	9600.983364
696.711952	9471.118200
697.048139	9526.165079
697.384276	9479.945260
697.720363	9497.294391
698.056400	9433.712838
698.392388	9383.192915
698.728326	9338.424948
699.064214	9283.955281
699.400053	9323.021703
699.735842	9138.888518
700.071581	9096.706663
700.407270	9024.111527
700.742910	8946.172768
701.078501	8845.022016
701.414042	8719.119198
701.749533	8660.384715
702.084974	8526.002677
702.420366	8640.764544
702.755709	8518.047736
703.091002	8385.929176
703.426246	8416.244155
703.761440	8359.382460
704.096584	8322.425761
704.431679	8250.485975
704.766725	8242.447855
705.101721	8190.213940
705.436668	8238.699758
705.771565	8129.382336
706.106413	8215.465079
706.441212	8249.571006
706.775961	8214.605563
707.110661	8253.944207
707.445311	8390.032675
707.779913	8289.643138
708.114465	8418.467304
708.448967	8458.098335
708.783421	8610.373948
709.117825	8779.976008
709.452180	8818.404723
709.786485	8911.756810
710.120742	9194.469759
710.454949	9195.679636
710.789107	9300.487745
711.123216	9527.629535
711.457275	9689.097692
711.791286	9845.015540
712.125247	9839.535805
712.459159	9824.571140
712.793023	10058.210977
713.126837	9642.802256
713.460602	9795.340010
713.794318	9624.013876
714.127985	9648.705447
714.461602	9311.933685
714.795171	9266.623794
715.128691	9012.433694
715.462162	8771.839585
715.795584	8718.983087
716.128957	8554.442346
716.462281	8390.836739
716.795556	8440.595448
717.128782	8228.183911
717.461960	7978.407340
717.795088	8046.810757
718.128167	7953.113351
718.461198	7788.849873
718.794180	7731.345432
719.127113	7716.960499
719.459997	7553.211219
719.792833	7334.488157
720.125619	7402.142962
720.458357	7248.959941
720.791046	7241.246975
721.123686	7235.832776
721.456278	7070.359422
721.788821	7099.895542
722.121315	6987.077039
722.453761	7058.852988
722.786158	6999.511045
723.118506	7013.590988
723.450805	6974.761501
723.783056	7035.870367
724.115259	6956.192410
724.447412	6954.070085
724.779518	7001.882908
725.111574	7000.433577
725.443582	7077.442243
725.775542	7060.771147
726.107453	7258.011332
726.439315	7166.171592
726.771129	7230.592497
727.102895	7406.778303
727.434612	7515.248810
727.766281	7549.800879
728.097901	7623.983978
728.429473	7633.675596
728.760996	7609.972091
729.092471	7584.473935
729.423897	7523.317177
729.755276	7528.960749
730.086606	7445.194416
730.417887	7555.804893
730.749120	7765.574866
731.080305	7952.205943
731.411442	8066.365393
731.742530	8051.068011
732.073570	8165.807193
732.404562	8252.615863
732.735506	8100.932585
733.066401	8243.786282
733.397249	8166.049169
733.728048	7922.233763
734.058798	7591.725635
734.389501	7361.493618
734.720156	7187.049530
735.050762	6957.213244
735.381320	6871.664863
735.711831	6809.232693
736.042293	6704.417023
736.372707	6716.115020
736.703073	6590.171874
737.033391	6622.906606
737.363661	6633.994624
737.693883	6666.091651
738.024056	6752.678509
738.354182	6791.863398
738.684260	6826.823800
739.014290	6942.488034
739.344272	7055.924077
739.674207	7084.141936
740.004093	7158.405694
740.333931	7175.197777
740.663722	7178.214908
740.993464	7254.316167
741.323159	7240.894094
741.652806	6993.186918
741.982405	7016.381267
742.311956	7064.131076
742.641460	6888.827472
742.970915	6693.908738
743.300323	6691.040321
743.629683	6642.698176
743.958996	6508.212794
744.288260	6420.650473
744.617477	6363.640064
744.946647	6358.966914
745.275768	6194.506832
745.604842	6154.069216
745.933869	6132.861082
746.262847	6094.906235
746.591778	6080.670016
746.920662	6039.148553
747.249498	6037.114447
747.578286	6086.164874
747.907027	6156.272200
748.235720	6216.703032
748.564365	6191.454413
748.892963	6227.798612
749.221514	6373.629110
749.550017	6192.825607
749.878473	6073.055353
750.206881	6135.139683
750.535242	6083.104893
750.863555	6011.328945
751.191821	6023.100039
751.520039	6022.628691
751.848210	5935.010917
752.176334	5954.689061
752.504411	6003.956258
752.832440	5922.332415
753.160421	5857.518300
753.488356	5909.127113
753.816243	5941.690446
754.144082	5785.013905
754.471875	5758.883084
754.799620	5805.266740
755.127318	5817.332742
755.454969	5772.365650
755.782572	5735.068673
756.110129	5785.936436
756.437638	5762.048928
756.765100	5701.025761
757.092515	5705.134302
757.419882	5758.946098
757.747203	5741.158387
758.074477	5791.254853
758.401703	5779.758502
758.728882	5736.316359
759.056014	5804.061905
759.383099	5921.377116
759.710138	5930.055463
760.037129	5919.332928
760.364073	5925.314258
760.690970	6006.605384
761.017820	5989.031922
761.344623	5948.064985
761.671379	6046.947218
761.998088	6167.745867
762.324751	6426.841010
762.651366	7048.080042
762.977935	8405.498935
763.304456	10050.180419
763.630931	10927.046281
763.957359	10498.036527
764.283740	9534.170432
764.610074	8685.028396
764.936362	7676.548089
765.262602	7083.741164
765.588796	6544.488938
765.914943	6217.222271
766.241044	6051.685902
766.567097	5839.574313
766.893104	5582.480508
767.219064	5400.915790
767.544978	5340.104352
767.870845	5256.799284
768.196665	5157.579294
768.522438	5079.945525
768.848165	5048.697933
769.173846	4983.578828
769.499479	4939.229277
769.825066	4887.953181
770.150607	4826.824149
770.476101	4797.726609
770.801548	4799.143173
771.126949	4714.930698
771.452303	4662.585878
771.777611	4624.018530
772.102872	4641.183659
772.428087	4602.759984
772.753256	4560.343716
773.078378	4516.523486
773.403453	4445.864153
773.728482	4431.668264
774.053465	4383.263105
774.378401	4375.174573
774.703291	4371.660889
775.028135	4295.363026
775.352932	4250.358125
775.677683	4234.912029
776.002388	4256.873816
776.327046	4261.695680
776.651658	4194.716389
776.976224	4130.270278
777.300743	4135.051813
777.625216	4156.958147
777.949643	4148.526817
778.274024	4108.192545
778.598359	4065.602357
778.922647	4090.498095
779.246889	4079.836055
779.571086	4073.784149
779.895236	4058.456521
780.219339	4043.310374
780.543397	4041.114952
780.867409	4093.532870
781.191374	4106.365127
781.515294	4040.905744
781.839167	4034.397614
782.162995	4060.888878
782.486776	4044.721897
782.810511	4054.617682
783.134201	4047.522258
783.457844	4002.484590
783.781441	3948.103143
784.104993	3953.403916
784.428498	3973.266062
784.751958	3966.652068
785.075372	3945.385961
785.398739	3908.789705
785.722061	3922.960388
786.045337	3968.018221
786.368568	3996.964527
786.691752	3906.783325
787.014891	3962.205771
787.337983	4093.172427
787.661030	4252.850975
787.984031	4413.993978
788.306987	4583.286007
788.629897	4666.195344
788.952760	4624.162203
789.275579	4554.213673
789.598351	4487.967870
789.921078	4339.929346
790.243759	4142.979027
790.566395	4127.643837
790.888984	4123.996562
791.211529	4012.380375
791.534027	3949.421405
791.856480	3935.868262
792.178888	3874.461967
792.501249	3829.346161
792.823566	3842.816124
793.145836	3867.132130
793.468062	3815.614058
793.790241	3774.967235
794.112375	3801.317346
794.434464	3869.935011
794.756507	3893.391500
795.078505	3867.331255
795.400457	3906.180907
795.722364	4047.703740
796.044226	4156.937982
796.366042	4227.007500
796.687812	4205.771639
797.009538	4207.712484
797.331218	4167.383253
797.652852	4142.212772
797.974442	4122.156541
798.295986	4120.500522
798.617484	4036.847615
798.938938	3946.968883
799.260346	3996.281450
799.581709	3988.177795
799.903026	3910.496135
800.224299	3878.976321
800.545526	3867.023745
800.866708	3832.789269
801.187845	3774.838685
801.508936	3805.841781
801.829983	3799.152170
802.150984	3722.725757
802.471940	3716.893142
802.792851	3723.000500
803.113717	3721.573854
803.434538	3722.698031
803.755314	3665.828774
804.076045	3643.181391
804.396731	3666.146367
804.717372	3690.245603
805.037967	3673.138448
805.358518	3663.315759
805.679024	3689.489430
805.999485	3704.917881
806.319901	3707.461143
806.640272	3721.891446
806.960598	3731.003332
807.280879	3707.347718
807.601115	3721.601580
807.921306	3740.493304
808.241453	3780.913276
808.561554	3752.279522
808.881611	3684.092875
809.201623	3730.284967
809.521590	3735.810072
809.841513	3711.292420
810.161390	3741.093201
810.481223	3714.541444
810.801011	3662.095800
811.120755	3658.282167
811.440453	3691.611756
811.760107	3691.861293
812.079716	3647.751197
812.399281	3619.495529
812.718801	3644.154333
813.038276	3614.295579
813.357707	3610.434055
813.677093	3629.053557
813.996434	3573.575659
814.315731	3586.985128
814.634983	3589.707351
814.954191	3605.213941
815.273354	3630.633959
815.592473	3625.570120
815.911547	3634.611429
816.230577	3681.645395
816.549562	3730.826892
816.868502	3771.420783
817.187399	3795.530101
817.506250	3792.661685
817.825058	3768.585134
818.143821	3864.603991
818.462539	3966.795741
818.781213	4007.296371
819.099843	4074.966300
819.418429	4326.300587
819.736970	4570.337803
820.055466	4823.318027
820.373919	5193.721847
820.692327	5606.012614
821.010691	6082.739410
821.329011	7519.392639
821.647286	10367.541218
821.965517	15053.782710
822.283704	19099.180122
822.601847	21157.248824
822.919945	19266.581718
823.237999	16625.180940
823.556010	14109.662815
823.873976	11967.459776
824.191897	9856.186737
824.509775	8514.387858
824.827609	7379.924076
825.145398	6846.128898
825.463144	6725.204221
825.780845	6833.594069
826.098502	7050.209930
826.416116	7973.734191
826.733685	9332.920008
827.051210	10435.226270
827.368692	10421.269836
827.686129	9110.660577
828.003522	7599.751152
828.320872	6573.367187
828.638177	5859.118866
828.955439	5293.879491
829.272656	4789.973315
829.589830	4510.965614
829.906960	4337.108821
830.224046	4147.672341
830.541088	4021.759442
830.858086	3973.074498
831.175041	3896.857293
831.491952	3881.403636
831.808819	3896.469125
832.125642	3972.842605
832.442421	4124.513281
832.759157	4412.763937
833.075849	4984.138396
833.392497	5865.702613
833.709101	6659.044118
834.025662	6977.997921
834.342179	6580.197951
834.658653	5901.305762
834.975083	5248.468778
835.291469	4658.358870
835.607811	4257.221656
835.924110	4117.727888
836.240366	3911.027977
836.556578	3709.228068
836.872746	3600.659258
837.188871	3560.806416
837.504952	3490.109275
837.820990	3409.249167
838.136984	3362.835264
838.452935	3387.736043
838.768842	3381.933675
839.084706	3407.981317
839.400526	3572.988365
839.716303	3927.608332
840.032037	4469.088749
840.347727	4715.954053
840.663373	4420.555040
840.978977	4028.539794
841.294537	3716.608317
841.610054	3491.878720
841.925527	3384.736557
842.240957	3315.839107
842.556344	3261.397166
842.871687	3199.816951
843.186987	3147.842655
843.502244	3111.863940
843.817458	3078.862026
844.132629	3047.314486
844.447756	3056.133984
844.762840	3038.951211
845.077881	3008.575739
845.392879	2991.730723
845.707833	2990.535970
846.022745	2988.292656
846.337613	2984.761328
846.652438	2973.529637
846.967221	2973.600213
847.281960	2956.097327
847.596656	2953.095320
847.911309	2955.131946
848.225919	2948.659105
848.540485	2943.025615
848.855009	2941.682148
849.169490	2930.238729
849.483928	2923.239087
849.798323	2926.112544
850.112675	2919.443098
850.426984	2929.885848
850.741251	2927.400559
851.055474	2914.958991
851.369654	2911.891449
851.683792	2915.631985
851.997887	2927.894592
852.311938	2926.840991
852.625947	2916.030237
852.939914	2917.267840
853.253837	2925.510126
853.567718	2909.670821
853.881555	2909.413722
854.195350	2924.892585
854.509103	2918.850762
854.822812	2913.315575
855.136479	2906.857857
855.450103	2911.389854
855.763685	2903.734862
856.077224	2901.163874
856.390720	2915.541245
856.704173	2920.786565
857.017584	2913.658374
857.330953	2915.200967
857.644278	2924.859818
857.957561	2934.337187
858.270802	2936.424224
858.584000	2932.996240
858.897155	2920.899991
859.210268	2923.125661
859.523339	2917.018303
859.836367	2918.414702
860.149352	2910.101840
860.462295	2908.869278
860.775195	2917.487130
861.088054	2916.471338
861.400869	2896.596588
861.713642	2899.071795
862.026373	2910.966398
862.339062	2911.220976
862.651708	2919.657347
862.964312	2925.540373
863.276873	2914.994279
863.589392	2924.582554
863.901869	2938.521344
864.214303	2960.888944
864.526696	2974.608444
864.839045	2971.921509
865.151353	2969.511838
865.463619	2969.300109
865.775842	2972.438228
866.088023	2990.977071
866.400162	2995.844305
866.712258	2963.628811
867.024313	2954.269909
867.336325	2967.160139
867.648296	2987.750732
867.960224	2979.833600
868.272110	2967.331539
868.583954	2967.949080
868.895755	2984.005155
869.207515	2968.725418
869.519233	2976.299751
869.830909	2990.029334
870.142542	2996.822289
870.454134	2994.949500
870.765684	2998.165756
871.077191	3001.291272
871.388657	3006.632374
871.700081	3019.578057
872.011463	3032.170859
872.322803	3032.213709
872.634101	3029.725900
872.945357	3050.281205
873.256571	3076.008733
873.567744	3067.373237
873.878874	3059.786300
874.189963	3084.646750
874.501010	3083.154569
874.812015	3075.471850
875.122979	3077.921851
875.433900	3071.771643
875.744780	3079.436718
876.055618	3085.828901
876.366415	3083.278077
876.677169	3095.439861
876.987882	3088.606577
877.298554	3085.133222
877.609183	3109.988631
877.919771	3132.383957
878.230317	3159.520488
878.540822	3215.482337
878.851285	3248.300248
879.161707	3298.474853
879.472087	3409.685227
879.782425	3647.655415
880.092722	4102.337245
880.402977	4640.598885
880.713191	5291.989059
881.023363	6492.373489
881.333494	7803.552399
881.643583	8336.931681
881.953631	8022.653548
882.263637	7357.851384
882.573602	6746.956799
882.883526	6154.883363
883.193408	5578.886165
883.503248	5124.300117
883.813048	4808.670954
884.122806	4489.565916
884.432522	4166.669930
884.742197	3925.687652
885.051831	3731.930904
885.361424	3603.676389
885.670975	3526.292157
885.980485	3436.927622
886.289954	3359.407279
886.599382	3312.547233
886.908768	3276.795370
887.218113	3232.508834
887.527417	3174.061696
887.836680	3122.783079
888.145901	3117.391565
888.455082	3104.176180
888.764221	3049.981256
889.073319	3025.990405
889.382376	3020.417409
889.691392	3028.299253
890.000366	3025.506454
890.309300	3009.911645
890.618193	3024.452853
890.927044	3042.611089
891.235855	3039.344421
891.544625	3028.599202
891.853353	3040.571942
892.162041	3055.743295
892.470687	3102.855398
892.779293	3152.117553
893.087858	3199.872404
893.396381	3277.733025
893.704864	3404.810431
894.013306	3648.633399
894.321707	3962.341882
894.630068	4164.935773
894.938387	4158.626769
895.246665	4113.314357
895.554903	3983.355932
895.863100	3777.694499
896.171256	3610.202162
896.479371	3464.835450
896.787446	3340.142510
897.095480	3234.021180
897.403473	3171.364679
897.711425	3135.224647
898.019336	3130.070067
898.327207	3096.490941
898.635038	3059.146074
898.942827	3044.514125
899.250576	3031.235725
899.558284	3002.072650
899.865952	2982.812922
900.173579	2961.319963
900.481165	2952.109775
900.788711	2936.318360
901.096216	2914.472520
901.403681	2903.286200
901.711105	2909.320461
902.018489	2910.273239
902.325832	2906.111766
902.633135	2919.148190
902.940397	2955.391566
903.247619	3044.284752
903.554800	3244.290010
903.861941	3607.404322
904.169041	4046.468657
904.476101	4345.046117
904.783121	4281.555305
905.090100	4026.185575
905.397039	3747.853389
905.703938	3489.211949
906.010796	3305.698826
906.317614	3191.546938
906.624391	3092.886516
906.931129	3018.416071
907.237826	2958.799386
907.544483	2912.047725
907.851099	2877.798126
908.157675	2857.431864
908.464211	2839.019050
908.770707	2824.034220
909.077163	2810.692806
909.383578	2795.352575
909.689954	2785.096348
909.996289	2783.266409
910.302584	2784.554424
910.608839	2784.153652
910.915054	2778.298352
911.221229	2772.251488
911.527363	2773.080757
911.833458	2783.223559
912.139513	2787.876544
912.445527	2790.344189
912.751502	2798.702422
913.057436	2809.268680
913.363331	2821.725372
913.669186	2844.060204
913.975000	2883.119064
914.280775	2945.316820
914.586510	3016.308869
914.892205	3095.021445
915.197859	3233.927919
915.503475	3436.484001
915.809050	3659.330727
916.114585	3803.641318
916.420081	3817.045746
916.725536	3754.134666
917.030952	3633.240235
917.336328	3499.785770
917.641665	3363.430120
917.946961	3262.929677
918.252218	3189.994263
918.557435	3111.127932
918.862612	3047.374979
919.167750	2998.117865
919.472848	2958.897688
919.777906	2930.445416
920.082925	2903.714698
920.387904	2872.613299
920.692843	2854.344157
920.997743	2845.617920
921.302603	2829.244252
921.607423	2820.437357
921.912204	2805.371868
922.216946	2794.467853
922.521647	2784.614917
922.826310	2777.567384
923.130932	2769.257042
923.435516	2761.085332
923.740059	2755.983684
924.044564	2745.225862
924.349028	2738.258987
924.653454	2734.258832
924.957840	2727.690208
925.262186	2722.149980
925.566493	2719.783158
925.870761	2712.463403
926.174989	2710.817466
926.479178	2705.758668
926.783328	2699.328677
927.087438	2699.931095
927.391509	2697.229036
927.695541	2694.232070
927.999533	2691.542615
928.303486	2688.946420
928.607400	2688.157480
928.911275	2686.534228
929.215110	2687.902902
929.518906	2685.566327
929.822663	2684.958868
930.126381	2684.588343
930.430060	2684.860565
930.733699	2685.921728
931.037299	2687.615556
931.340861	2688.671677
931.644383	2690.264682
931.947866	2687.597912
932.251309	2685.697397
932.554714	2684.245544
932.858080	2684.737057
933.161407	2678.289421
933.464694	2679.295131
933.767943	2675.594924
934.071153	2678.279339
934.374323	2677.825635
934.677455	2679.534586
934.980548	2679.297652
935.283602	2677.140038
935.586617	2676.220027
935.889593	2678.244051
936.192530	2676.903104
936.495428	2677.581139
936.798287	2678.740604
937.101108	2681.208249
937.403890	2685.800740
937.706632	2689.790814
938.009336	2699.351362
938.312002	2704.430324
938.614628	2713.151521
938.917216	2719.440360
939.219765	2723.221225
939.522275	2723.964796
939.824747	2720.325082
940.127179	2717.060935
940.429573	2714.275698
940.731929	2711.888712
941.034246	2706.345963
941.336524	2705.806559
941.638763	2702.003009
941.940964	2700.934284
942.243126	2699.631146
942.545250	2697.662575
942.847335	2695.641073
943.149381	2688.548169
943.451389	2684.180009
943.753359	2684.661440
944.055290	2683.786799
944.357182	2680.376459
944.659036	2680.089113
944.960851	2680.575584
945.262628	2678.738084
945.564367	2678.899401
945.866067	2679.516942
946.167729	2679.539627
946.469352	2680.288239
946.770937	2679.403516
947.072484	2677.629030
947.373992	2675.191632
947.675462	2675.070644
947.976893	2670.470592
948.278286	2669.200221
948.579641	2668.592762
948.880958	2668.202072
949.182236	2669.311126
949.483476	2672.255160
949.784678	2671.798936
950.085841	2669.606034
950.386967	2672.461847
950.688054	2669.565704
950.989103	2671.138544
951.290114	2674.528720
951.591087	2675.340346
951.892021	2675.531910
952.192917	2679.932837
952.493776	2682.110616
952.794596	2681.137673
953.095378	2681.205729
953.396122	2680.358815
953.696828	2679.766479
953.997496	2677.871005
954.298126	2674.269101
954.598718	2674.856395
954.899272	2672.197187
955.199788	2668.907834
955.500266	2662.671927
955.800706	2665.757113
956.101108	2661.872904
956.401472	2658.913746
956.701798	2658.888541
957.002087	2655.820998
957.302337	2656.042809
957.602550	2655.337048
957.902724	2652.745895
958.202861	2652.203971
958.502960	2649.340595
958.803022	2650.482417
959.103045	2649.494350
959.403031	2648.597025
959.702979	2646.744401
960.002889	2645.342960
960.302762	2646.903197
960.602596	2644.859009
960.902393	2645.264822
961.202153	2646.066366
961.501875	2647.324134
961.801559	2644.148207
962.101205	2642.214924
962.400814	2644.082672
962.700385	2642.787095
962.999918	2641.274749
963.299414	2639.081847
963.598873	2638.794501
963.898293	2638.305509
964.197677	2642.656025
964.497022	2643.520583
964.796331	2643.593680
965.095601	2642.645943
965.394835	2641.453710
965.694030	2641.284831
965.993189	2642.434214
966.292309	2641.854482
966.591393	2640.952115
966.890439	2639.800212
967.189447	2640.727784
967.488419	2639.752321
967.787353	2643.076962
968.086249	2641.368010
968.385108	2640.720222
968.683930	2642.194760
968.982714	2640.707619
969.281462	2639.527989
969.580172	2642.106539
969.878844	2638.766775
970.177480	2643.036632
970.476078	2639.321302
970.774639	2641.912455
971.073162	2643.029071
971.371649	2642.693834
971.670098	2641.993113
971.968510	2643.127373
972.266885	2639.487660
972.565223	2640.853813
972.863524	2641.456231
973.161788	2642.265336
973.460014	2641.693165
973.758204	2643.971766
974.056356	2642.668628
974.354471	2642.406488
974.652550	2642.562764
974.950591	2645.209370
975.248595	2641.746097
975.546563	2638.817187
975.844493	2641.360449
976.142386	2642.328350
976.440243	2638.212248
976.738062	2641.115953
977.035845	2638.930612
977.333590	2641.927578
977.631299	2638.371044
977.928971	2636.452885
978.226606	2635.167391
978.524204	2635.910961
978.821765	2637.778709
979.119290	2639.265849
979.416777	2637.564460
979.714228	2640.092598
980.011642	2640.125366
980.309020	2638.459265
980.606360	2637.325005
980.903664	2637.740900
981.200931	2640.911786
981.498162	2641.584780
981.795356	2640.057310
982.092513	2642.285500
982.389633	2645.302631
982.686717	2649.108702
982.983764	2652.040133
983.280775	2656.231852
983.577749	2656.012562
983.874686	2655.831081
984.171587	2652.007366
984.468451	2650.439567
984.765279	2651.067190
985.062070	2646.449493
985.358824	2643.969246
985.655543	2644.483443
985.952224	2643.954122
986.248869	2640.248874
986.545478	2640.337094
986.842050	2639.127217
987.138586	2639.291055
987.435086	2638.141672
987.731549	2638.164357
988.027975	2637.798873
988.324366	2636.304171
988.620719	2637.135962
988.917037	2636.339459
989.213318	2637.942546
989.509563	2637.768627
989.805772	2635.883235
990.101944	2635.709315
990.398080	2637.158647
990.694180	2636.306692
990.990244	2633.143368
991.286271	2635.449696
991.582262	2633.455919
991.878217	2634.141516
992.174136	2636.790643
992.470019	2635.454737
992.765865	2632.500621
993.061676	2633.516413
993.357450	2632.951804
993.653188	2635.051445
993.948890	2635.709315
994.244556	2636.084881
994.540186	2638.655870
994.835780	2638.285345
995.131337	2635.288379
995.426859	2635.411887
995.722345	2639.245685
996.017795	2638.804584
996.313208	2639.021353
996.608586	2640.087557
996.903928	2641.801550
997.199234	2640.279121
997.494504	2641.902373
997.789738	2640.480767
998.084936	2637.151085
998.380099	2637.990437
998.675225	2637.284676
998.970316	2636.974645
999.265371	2636.188225
999.560390	2637.745941
999.855373	2636.924233
1000.150320	2635.918523
1000.445232	2632.576238
1000.740108	2634.872484
1001.034948	2636.004223
1001.329752	2635.913482
1001.624521	2633.685292
1001.919254	2631.636063
1002.213951	2632.770322
1002.508613	2634.081023
1002.803239	2634.285189
1003.097829	2633.806280
1003.392384	2635.356434
1003.686903	2634.433903
1003.981386	2634.083543
1004.275834	2633.196300
1004.570246	2635.875673
1004.864623	2634.849798
1005.158964	2634.295272
1005.453270	2632.666979
1005.747540	2636.510859
1006.041775	2631.010960
1006.335974	2634.259983
1006.630138	2632.825775
1006.924266	2633.551701
1007.218359	2634.728811
1007.512416	2630.141361
1007.806438	2627.323356
1008.100425	2628.213119
1008.394376	2630.285034
1008.688292	2633.012298
1008.982172	2633.370220
1009.276017	2632.407359
1009.569827	2635.961373
1009.863602	2633.352576
1010.157341	2633.123203
1010.451045	2635.222844
1010.744714	2632.104890
1011.038347	2630.741258
1011.331945	2633.690333
1011.625508	2631.225209
1011.919036	2632.039355
1012.212528	2633.410549
1012.505986	2631.857874
1012.799408	2634.491877
1013.092795	2633.155971
1013.386147	2635.394243
1013.679464	2634.214613
1013.972745	2633.430714
1014.265992	2633.183697
1014.559204	2634.287710
1014.852380	2630.476597
1015.145521	2630.345527
1015.438628	2632.813172
1015.731699	2632.072123
1016.024736	2632.530868
1016.317737	2630.874849
1016.610703	2633.382823
1016.903635	2631.605816
1017.196531	2633.944911
1017.489393	2631.610857
1017.782219	2631.915847
1018.075011	2633.027421
1018.367768	2630.426186
1018.660490	2632.729993
1018.953177	2632.729993
1019.245829	2632.729993
