Dividing Wavelength (nm)	Counts (n)	Blue Motor Position (mm): 0.000000	Red Motor Position (mm): 0.500000	
326.493990	2150.246200
326.888308	2150.246200
327.282561	2150.246200
327.676750	2125.368106
328.070874	2128.425565
328.464933	2129.229629
328.858929	2140.269756
329.252859	2152.494554
329.646726	2167.164312
330.040528	2179.676456
330.434265	2201.625640
330.827938	2217.943855
331.221547	2238.839438
331.615091	2256.846439
332.008571	2276.012906
332.401986	2299.197173
332.795338	2316.712662
333.188625	2337.323419
333.581847	2356.484845
333.975006	2376.747763
334.368100	2395.692419
334.761129	2413.238155
335.154095	2428.724579
335.546996	2446.093875
335.939833	2458.537963
336.332606	2469.530199
336.725315	2485.271202
337.117960	2490.899650
337.510540	2498.567245
337.903056	2510.361025
338.295508	2516.710358
338.687896	2520.627335
339.080220	2530.760054
339.472480	2536.275076
339.864676	2539.456044
340.256807	2545.434853
340.648875	2544.754297
341.040879	2547.506767
341.432818	2547.741181
341.824694	2551.680842
342.216506	2547.108516
342.608253	2547.073228
342.999937	2546.107847
343.391557	2546.216232
343.783113	2544.923176
344.174605	2546.473330
344.566033	2544.093906
344.957397	2540.673483
345.348697	2540.532331
345.739934	2537.114428
346.131106	2537.691640
346.522215	2535.302133
346.913260	2530.770136
347.304241	2531.964890
347.695159	2529.532533
348.086012	2529.968593
348.476802	2527.256452
348.867528	2525.945752
349.258191	2524.302336
349.648789	2522.739578
350.039324	2519.898888
350.429796	2523.818385
350.820203	2518.676408
351.210548	2519.051974
351.600828	2516.168434
351.991045	2520.723117
352.381198	2517.469052
352.771288	2519.097344
353.161314	2516.024761
353.551276	2518.893178
353.941175	2517.322858
354.331010	2515.886129
354.720782	2520.110616
355.110490	2518.431912
355.500135	2519.455266
355.889717	2520.113137
356.279235	2517.101048
356.668689	2519.321676
357.058080	2516.861593
357.447408	2515.291273
357.836672	2519.104906
358.225873	2517.350585
358.615010	2518.497447
359.004084	2522.588343
359.393095	2522.815195
359.782043	2522.532891
360.170927	2520.831501
360.559748	2522.623632
360.948505	2523.878879
361.337199	2525.194620
361.725830	2523.450381
362.114398	2526.412059
362.502903	2526.036493
362.891344	2525.933149
363.279722	2524.526667
363.668037	2524.589682
364.056289	2527.004394
364.444478	2525.625639
364.832603	2529.666123
365.220665	2526.875845
365.608665	2530.013963
365.996601	2525.426513
366.384474	2529.555218
366.772284	2527.906761
367.160031	2529.298119
367.547715	2529.116638
367.935336	2528.546987
368.322893	2530.016484
368.710388	2528.166380
369.097820	2532.801721
369.485189	2530.951618
369.872495	2529.466998
370.259738	2532.307688
370.646918	2530.777698
371.034035	2531.712832
371.421090	2532.864736
371.808081	2529.580424
372.195010	2534.520755
372.581875	2531.987575
372.968678	2535.090405
373.355418	2535.881866
373.742096	2535.017308
374.128710	2530.787780
374.515262	2533.734335
374.901751	2533.610826
375.288177	2536.028060
375.674540	2534.903882
376.060841	2536.955632
376.447079	2534.803059
376.833254	2535.788605
377.219367	2532.365661
377.605417	2533.759540
377.991404	2533.479756
378.377329	2529.948428
378.763191	2533.573018
379.148991	2538.505787
379.534727	2534.845909
379.920402	2535.067720
380.306013	2535.299613
380.691563	2537.863040
381.077049	2538.064686
381.462474	2537.616023
381.847835	2536.406146
382.233134	2536.093595
382.618371	2535.531506
383.003545	2539.445962
383.388657	2537.968904
383.773706	2539.498894
384.158693	2541.422094
384.543618	2540.204656
384.928480	2541.583411
385.313280	2542.155582
385.698017	2539.564429
386.082692	2541.805222
386.467305	2541.921168
386.851856	2539.171219
387.236344	2541.991745
387.620770	2543.136087
388.005133	2540.612989
388.389435	2544.217414
388.773674	2545.434853
389.157851	2539.327495
389.541965	2541.676672
389.926018	2543.889739
390.310008	2542.616848
390.693936	2543.272198
391.077802	2541.202804
391.461606	2544.184647
391.845348	2540.333205
392.229027	2546.372507
392.612645	2542.435366
392.996200	2544.872764
393.379694	2546.284287
393.763125	2543.224307
394.146494	2542.576518
394.529801	2546.806047
394.913047	2544.368649
395.296230	2542.339584
395.679351	2544.245140
396.062410	2543.433515
396.445408	2545.863351
396.828343	2546.818649
397.211217	2541.386806
397.594028	2542.591642
397.976778	2543.413350
398.359466	2543.698175
398.742092	2542.730274
399.124656	2545.760007
399.507158	2546.528783
399.889598	2549.442570
400.271977	2547.053063
400.654294	2550.720502
401.036549	2546.856458
401.418742	2548.149514
401.800874	2548.512477
402.182944	2547.302600
402.564952	2547.055584
402.946898	2547.993238
403.328783	2550.339895
403.710606	2550.596994
404.092367	2547.970553
404.474067	2551.446429
404.855705	2549.780327
405.237282	2551.819474
405.618797	2549.261088
406.000250	2549.734957
406.381642	2551.088507
406.762972	2550.947354
407.144240	2549.621531
407.525447	2553.351985
407.906593	2551.960626
408.287677	2551.905174
408.668700	2549.989535
409.049661	2552.409289
409.430560	2552.910884
409.811399	2552.903322
410.192176	2553.490617
410.572891	2551.501881
410.953545	2551.549772
411.334138	2552.563044
411.714669	2553.568754
412.095139	2552.328631
412.475547	2552.570606
412.855894	2554.672767
413.236180	2551.695966
413.616405	2554.939948
413.996568	2552.232849
414.376670	2552.058929
414.756711	2555.658313
415.136691	2553.775442
415.516609	2554.778631
415.896466	2553.087324
416.276262	2556.076728
416.655997	2550.168496
417.035670	2552.794937
417.415283	2550.914587
417.794834	2551.849721
418.174324	2553.087324
418.553753	2555.015566
418.933121	2553.382232
419.312428	2555.953220
419.691674	2554.438353
420.070859	2556.238045
420.449983	2555.731409
420.829045	2555.534804
421.208047	2556.469938
421.586988	2555.560010
421.965867	2560.331462
422.344686	2557.508416
422.723444	2556.444733
423.102141	2557.606719
423.480777	2556.248128
423.859352	2558.564538
424.237866	2559.943293
424.616319	2558.619991
424.994712	2559.381205
425.373044	2556.409445
425.751314	2556.913560
426.129524	2556.386759
426.507673	2557.881462
426.885762	2556.779969
427.263789	2558.002449
427.641756	2556.114537
428.019662	2558.236863
428.397508	2558.251986
428.775292	2560.180228
429.153016	2561.221226
429.530679	2559.545042
429.908282	2559.580330
430.285824	2558.095711
430.663305	2555.335679
431.040726	2557.279044
431.418086	2560.228119
431.795385	2557.710062
432.172624	2558.872048
432.549802	2560.863304
432.926920	2559.350958
433.303977	2562.867163
433.680974	2559.590413
434.057910	2559.537481
434.434786	2560.265927
434.811601	2559.434137
435.188355	2558.141081
435.565050	2561.135526
435.941683	2561.271637
436.318257	2557.780638
436.694770	2558.655279
437.071222	2557.929353
437.447614	2557.594116
437.823946	2557.465566
438.200218	2559.877758
438.576429	2561.364899
438.952580	2559.373643
439.328670	2561.932029
439.704700	2561.304405
440.080670	2560.407080
440.456580	2563.709035
440.832429	2561.662327
441.208218	2561.977399
441.583947	2563.207441
441.959616	2563.262893
442.335224	2562.448747
442.710773	2562.065619
443.086261	2563.925805
443.461689	2561.153170
443.837057	2565.344890
444.212365	2562.234498
444.587612	2561.458160
444.962800	2563.608212
445.337927	2562.882286
445.712995	2563.053685
446.088002	2563.330949
446.462949	2563.288099
446.837837	2564.566032
447.212664	2562.461350
447.587431	2563.076371
447.962139	2565.372616
448.336786	2565.528892
448.711374	2564.951680
449.085901	2562.040413
449.460369	2562.960424
449.834776	2565.430589
450.209124	2563.358675
450.583412	2564.240877
450.957640	2564.442523
451.331808	2564.528223
451.705917	2567.308419
452.079965	2564.780281
452.453954	2564.513099
452.827883	2564.598799
453.201752	2565.531413
453.575562	2563.444375
453.949311	2564.427400
454.323001	2564.540826
454.696632	2565.370096
455.070202	2565.286917
455.443713	2567.376475
455.817164	2562.549570
456.190556	2562.126113
456.563888	2561.448078
456.937160	2561.959755
457.310373	2566.249777
457.683526	2566.217009
458.056619	2564.923953
458.429653	2567.013512
458.802628	2568.452761
459.175542	2566.456464
459.548398	2565.004612
459.921194	2567.648697
460.293930	2564.192986
460.666607	2567.585683
461.039224	2566.953018
461.411782	2564.651731
461.784280	2569.143399
462.156719	2566.038048
462.529099	2565.319684
462.901419	2567.424366
463.273680	2569.115673
463.645882	2567.431927
464.018024	2566.927812
464.390106	2568.180539
464.762130	2570.242371
465.134094	2568.533420
465.505999	2564.470250
465.877845	2568.170457
466.249631	2569.128276
466.621358	2567.084088
466.993026	2571.580797
467.364634	2571.084243
467.736184	2567.648697
468.107674	2568.051989
468.479105	2567.131979
468.850477	2568.775395
469.221790	2569.702967
469.593043	2567.162226
469.964238	2567.036197
470.335373	2568.369582
470.706449	2568.218347
471.077467	2567.605847
471.448425	2567.164746
471.819324	2568.790518
472.190164	2568.188101
472.560945	2566.413614
472.931667	2568.888821
473.302330	2568.057031
473.672934	2568.745148
474.043479	2569.334963
474.413965	2567.384037
474.784393	2563.782132
475.154761	2566.912689
475.525070	2564.994530
475.895321	2566.723645
476.265513	2565.851526
476.635645	2568.402350
477.005719	2569.090467
477.375734	2567.391598
477.745691	2569.970148
478.115588	2570.454099
478.485427	2571.404357
478.855207	2569.735735
479.224928	2569.728173
479.594591	2569.188770
479.964194	2570.043245
480.333739	2574.887794
480.703226	2571.507700
481.072653	2569.801270
481.442022	2570.217165
481.811333	2570.280179
482.180584	2569.342525
482.549777	2570.738924
482.918912	2571.464851
483.287988	2569.866805
483.657005	2571.603482
484.025964	2571.701785
484.394864	2573.072979
484.763706	2569.168605
485.132489	2570.244891
485.501213	2571.464851
485.869879	2570.020560
486.238487	2570.174315
486.607036	2572.460478
486.975527	2573.420818
487.343959	2570.544840
487.712333	2571.807649
488.080648	2568.845971
488.448905	2571.696744
488.817104	2569.955025
489.185244	2574.865109
489.553326	2570.849830
489.921350	2573.743452
490.289315	2571.840417
490.657222	2572.100036
491.025070	2572.949470
491.392861	2573.070458
491.760593	2569.624829
492.128267	2571.139696
492.495883	2573.433421
492.863440	2573.191446
493.230939	2570.348235
493.598380	2570.691033
493.965763	2567.308419
494.333088	2568.321691
494.700354	2566.786660
495.067563	2568.581311
495.434713	2564.724828
495.801805	2569.680282
496.168839	2573.224213
496.535815	2571.661456
496.902733	2571.011147
497.269593	2572.183215
497.636395	2572.057186
498.003139	2571.621126
498.369825	2570.832186
498.736453	2571.568194
499.103023	2572.120201
499.469535	2572.697413
499.835989	2570.212124
500.202385	2575.308730
500.568723	2572.652042
500.935003	2570.950653
501.301226	2571.018708
501.667390	2572.021898
502.033497	2574.426528
502.399546	2569.551733
502.765537	2571.490056
503.131470	2574.076168
503.497345	2571.374110
503.863163	2571.512742
504.228923	2573.619944
504.594625	2571.618606
504.960269	2574.779409
505.325856	2572.079871
505.691385	2569.644994
506.056856	2574.416446
506.422270	2574.063565
506.787625	2570.126424
507.152924	2571.215313
507.518164	2573.090623
507.883347	2574.250088
508.248472	2573.103226
508.613540	2569.637432
508.978550	2570.880077
509.343503	2572.601631
509.708398	2573.715726
510.073236	2575.563309
510.438016	2574.421487
510.802738	2573.214131
511.167403	2575.795202
511.532010	2571.726991
511.896561	2573.284707
512.261053	2573.904769
512.625488	2571.585838
512.989866	2570.454099
513.354186	2569.584500
513.718449	2570.345714
514.082655	2569.823955
514.446803	2572.513411
514.810894	2574.328226
515.174927	2574.557598
515.538904	2573.135993
515.902822	2573.987948
516.266684	2573.360324
516.630488	2573.040211
516.994235	2574.550037
517.357925	2573.239337
517.721558	2575.636405
518.085133	2569.934860
518.448651	2572.435273
518.812112	2575.023905
519.175516	2572.445355
519.538863	2571.449727
519.902152	2574.164388
520.265385	2572.662125
520.628560	2574.421487
520.991678	2573.511559
521.354739	2573.060376
521.717743	2571.532906
522.080690	2577.960377
522.443580	2571.880746
522.806413	2573.549368
523.169189	2574.844944
523.531908	2573.153637
523.894569	2575.180181
524.257174	2573.622464
524.619722	2574.184553
524.982213	2576.490881
525.344647	2574.824780
525.707025	2576.110274
526.069345	2575.659091
526.431608	2577.100861
526.793815	2574.257650
527.155964	2576.085068
527.518057	2572.392423
527.880093	2579.419791
528.242072	2571.205231
528.603995	2573.708164
528.965860	2575.956519
529.327669	2574.033318
529.689421	2576.891653
530.051117	2573.803946
530.412755	2573.317475
530.774337	2572.394943
531.135862	2575.021385
531.497331	2574.424008
531.858743	2570.784295
532.220098	2573.002403
532.581396	2568.596434
532.942638	2569.314798
533.303824	2573.844275
533.664953	2575.596076
534.026025	2574.124059
534.387040	2573.894687
534.747999	2577.453741
535.108902	2576.027095
535.469748	2571.815211
535.830537	2575.217990
536.191270	2573.887125
536.551947	2573.907290
536.912567	2572.773030
537.273131	2575.858216
537.633638	2576.127918
537.994089	2574.401323
538.354483	2575.661611
538.714821	2575.273442
539.075103	2574.207238
539.435328	2575.149934
539.795497	2572.553740
540.155609	2575.492732
540.515665	2575.313772
540.875665	2575.659091
541.235609	2573.841755
541.595496	2575.729667
541.955328	2575.908628
542.315102	2575.076837
542.674821	2576.480799
543.034483	2576.112794
543.394090	2575.013823
543.753640	2578.668659
544.113134	2573.355283
544.472571	2575.137331
544.831953	2575.470047
545.191278	2574.910479
545.550548	2573.733370
545.909761	2574.804615
546.268918	2572.939388
546.628019	2572.064748
546.987064	2576.823597
547.346053	2576.334605
547.704986	2575.240675
548.063863	2575.162537
548.422684	2577.463824
548.781449	2574.673545
549.140158	2574.449214
549.498811	2575.790161
549.857408	2573.274625
550.215949	2571.053997
550.574434	2573.413257
550.932864	2574.444172
551.291237	2570.980900
551.649555	2578.494740
552.007817	2573.947619
552.366022	2574.797053
552.724173	2573.904769
553.082267	2578.270408
553.440305	2573.536765
553.798288	2576.024574
554.156215	2575.722105
554.514086	2576.654718
554.871902	2575.049111
555.229661	2576.072465
555.587365	2575.248237
555.945014	2575.522979
556.302606	2576.125397
556.660143	2575.497774
557.017625	2576.248906
557.375050	2573.050293
557.732421	2574.786971
558.089735	2574.913000
558.446994	2575.643967
558.804197	2574.441652
559.161345	2573.415777
559.518437	2576.679924
559.875474	2573.758576
560.232455	2575.258319
560.589381	2575.603638
560.946251	2577.519276
561.303065	2572.717577
561.659825	2575.275963
562.016528	2575.497774
562.373177	2577.236972
562.729770	2577.216807
563.086307	2577.010120
563.442789	2575.424677
563.799216	2576.836200
564.155587	2575.699420
564.511904	2574.807136
564.868164	2576.422825
565.224370	2576.241344
565.580520	2577.052970
565.936615	2575.525500
566.292654	2576.717733
566.648638	2574.560119
567.004567	2576.180850
567.360441	2575.835531
567.716260	2576.208576
568.072023	2578.729153
568.427732	2572.846127
568.783385	2573.488874
569.138982	2571.467371
569.494525	2570.791857
569.850013	2568.755230
570.205445	2573.672876
570.560823	2577.002558
570.916145	2575.853175
571.271412	2575.719584
571.626625	2576.868967
571.981782	2575.268401
572.336884	2577.151272
572.691931	2576.251426
573.046923	2573.551888
573.401860	2576.521128
573.756743	2576.851323
574.111570	2577.882239
574.466342	2575.840572
574.821059	2575.147413
575.175722	2576.150603
575.530330	2576.080027
575.884882	2574.227403
576.239380	2575.696899
576.593823	2574.534913
576.948211	2576.097671
577.302544	2577.680593
577.656823	2577.436097
578.011047	2579.117322
578.365216	2575.258319
578.719330	2575.727146
579.073389	2574.764286
579.427394	2574.983576
579.781344	2575.575912
580.135239	2575.354101
580.489080	2572.785633
580.842866	2577.060531
581.196597	2577.294945
581.550273	2579.402147
581.903895	2573.745973
582.257463	2578.081365
582.610975	2574.870150
582.964434	2577.136149
583.317837	2575.578432
583.671186	2574.711354
584.024481	2575.338977
584.377721	2576.248906
584.730906	2576.377455
585.084037	2577.786458
585.437113	2577.549523
585.790135	2573.861919
586.143103	2574.918041
586.496016	2577.088258
586.848874	2571.016188
587.201679	2571.994172
587.554428	2568.881259
587.907124	2572.278997
588.259765	2571.003585
588.612352	2575.724626
588.964884	2576.952147
589.317362	2578.083886
589.669786	2573.587176
590.022155	2578.343505
590.374470	2576.049780
590.726731	2576.001889
591.078937	2575.306210
591.431090	2579.732343
591.783188	2578.315779
592.135232	2580.324678
592.487222	2576.717733
592.839157	2575.613720
593.191038	2575.575912
593.542866	2576.982393
593.894639	2577.002558
594.246358	2574.025757
594.598022	2576.238823
594.949633	2576.009451
595.301190	2572.959553
595.652692	2572.770509
596.004141	2573.335119
596.355535	2579.535738
596.706876	2577.042887
597.058162	2574.852506
597.409395	2575.046590
597.760573	2578.434246
598.111698	2576.783268
598.462768	2575.807805
598.813785	2574.792012
599.164748	2575.165057
599.515657	2573.534244
599.866511	2574.660942
600.217312	2576.644636
600.568060	2574.814697
600.918753	2577.607497
601.269392	2579.001376
601.619978	2575.291086
601.970510	2578.688824
602.320988	2576.596745
602.671412	2576.987435
603.021783	2574.731518
603.372100	2576.246385
603.722363	2577.156313
604.072572	2577.731005
604.422728	2579.606314
604.772830	2573.438462
605.122878	2573.032649
605.472872	2574.300500
605.822813	2569.823955
606.172701	2571.613565
606.522534	2577.504153
606.872314	2576.180850
607.222041	2574.113977
607.571714	2576.609348
607.921333	2575.790161
608.270899	2574.098853
608.620411	2576.783268
608.969870	2576.884091
609.319276	2576.783268
609.668627	2575.205387
610.017926	2574.240006
610.367171	2574.605489
610.716362	2575.091961
611.065500	2577.242013
611.414585	2575.220510
611.763616	2578.272929
612.112594	2574.968453
612.461518	2575.447362
612.810389	2574.093812
613.159207	2577.635223
613.507971	2575.258319
613.856682	2576.248906
614.205340	2576.143041
614.553945	2575.182702
614.902496	2575.333936
615.250994	2575.835531
615.599439	2576.541293
615.947830	2576.795871
616.296169	2574.736559
616.644454	2573.574573
616.992686	2573.370407
617.340864	2575.439800
617.688990	2575.286045
618.037063	2578.106571
618.385082	2575.941395
618.733048	2577.312589
619.080961	2576.019533
619.428821	2576.821077
619.776628	2575.787640
620.124382	2575.112125
620.472083	2575.243195
620.819731	2575.969122
621.167326	2575.497774
621.514868	2574.605489
621.862357	2574.386199
622.209793	2577.930130
622.557176	2576.032136
622.904506	2573.831672
623.251783	2571.490056
623.599007	2571.154820
623.946179	2572.299162
624.293297	2572.563822
624.640363	2577.690676
624.987376	2572.825962
625.334336	2576.994996
625.681243	2574.257650
626.028097	2573.980386
626.374899	2575.102043
626.721647	2576.654718
627.068343	2575.583473
627.414987	2574.781930
627.761577	2576.427867
628.108115	2574.890315
628.454600	2575.555747
628.801032	2575.845613
629.147412	2575.744790
629.493739	2576.463155
629.840014	2572.795715
630.186236	2578.368711
630.532405	2573.816549
630.878521	2574.151786
631.224585	2575.049111
631.570597	2576.352249
631.916556	2577.284863
632.262462	2573.728329
632.608316	2577.126066
632.954117	2574.628175
633.299866	2575.964080
633.645562	2574.557598
633.991206	2577.236972
634.336797	2575.502815
634.682336	2575.323854
635.027823	2576.435428
635.373257	2576.044739
635.718639	2574.746642
636.063968	2575.714543
636.409245	2574.489543
636.754470	2576.223700
637.099642	2574.204718
637.444762	2575.091961
637.789829	2575.301169
638.134845	2571.023750
638.479808	2575.444842
638.824719	2575.896025
639.169577	2576.377455
639.514383	2572.876374
639.859137	2574.567681
640.203839	2576.969791
640.548489	2574.950808
640.893086	2571.863102
641.237632	2569.130796
641.582125	2572.009295
641.926566	2570.607854
642.270955	2575.757393
642.615292	2573.614903
642.959576	2576.833679
643.303809	2573.269584
643.647990	2575.369224
643.992118	2573.511559
644.336195	2574.900397
644.680219	2575.296127
645.024192	2576.208576
645.368112	2576.765624
645.711981	2576.387537
646.055797	2575.016343
646.399562	2575.822928
646.743274	2575.964080
647.086935	2576.269070
647.430544	2576.556416
647.774101	2575.346539
648.117606	2575.099522
648.461059	2578.088927
648.804460	2576.357290
649.147810	2574.953329
649.491108	2574.875191
649.834354	2573.753534
650.177548	2575.840572
650.520690	2577.562126
650.863781	2573.642629
651.206820	2579.538258
651.549807	2577.501632
651.892742	2575.820408
652.235626	2574.111456
652.578458	2572.470561
652.921238	2574.834862
653.263967	2575.044070
653.606644	2573.803946
653.949269	2572.188256
654.291843	2573.831672
654.634365	2578.552713
654.976836	2573.793864
655.319255	2574.529872
655.661622	2576.624472
656.003938	2576.755542
656.346203	2574.902918
656.688416	2576.306879
657.030577	2573.430901
657.372687	2574.030798
657.714746	2572.102557
658.056753	2576.604307
658.398708	2572.263873
658.740612	2571.868143
659.082465	2572.914182
659.424266	2571.411918
659.766016	2571.525344
660.107715	2573.322516
660.449362	2573.168761
660.790958	2572.374779
661.132503	2573.264542
661.473996	2575.248237
661.815438	2575.502815
662.156829	2575.298648
662.498168	2574.030798
662.839456	2575.976683
663.180693	2573.309913
663.521879	2576.122877
663.863013	2576.185891
664.204097	2576.090109
664.545129	2575.104564
664.886110	2577.158834
665.227040	2576.563978
665.567918	2575.291086
665.908746	2572.246229
666.249522	2573.350242
666.590248	2575.817887
666.930922	2572.999882
667.271545	2574.507187
667.612118	2574.260170
667.952639	2573.884604
668.293109	2575.643967
668.633528	2573.047773
668.973896	2574.197156
669.314213	2574.882753
669.654480	2575.200346
669.994695	2575.462486
670.334859	2575.338977
670.674973	2574.408884
671.015035	2575.681776
671.355047	2576.642116
671.695008	2575.916189
672.034918	2575.177660
672.374777	2575.666652
672.714585	2573.246898
673.054342	2573.609862
673.394049	2573.078020
673.733705	2577.131108
674.073310	2574.297979
674.412864	2573.118349
674.752368	2575.845613
675.091820	2574.855027
675.431223	2572.684810
675.770574	2575.714543
676.109875	2570.552402
676.449125	2569.471074
676.788324	2571.215313
677.127473	2572.248750
677.466571	2569.405539
677.805619	2572.034501
678.144616	2574.708833
678.483562	2575.820407
678.822458	2574.227403
679.161303	2573.060376
679.500098	2575.359142
679.838842	2574.449214
680.177535	2574.726477
680.516179	2574.360993
680.854771	2572.755386
681.193314	2576.349729
681.531805	2573.783781
681.870247	2573.327557
682.208638	2576.367373
682.546978	2575.996848
682.885268	2575.596076
683.223508	2575.535582
683.561697	2573.793864
683.899836	2574.061045
684.237925	2572.926785
684.575963	2573.446024
684.913951	2575.722105
685.251889	2577.736046
685.589776	2573.433421
685.927614	2573.108267
686.265401	2573.332598
686.603137	2574.058524
686.940824	2574.217321
687.278460	2575.152455
687.616046	2574.817218
687.953582	2573.004923
688.291068	2573.751014
688.628504	2577.748649
688.965889	2573.995510
689.303224	2575.578432
689.640510	2576.687486
689.977745	2572.278997
690.314930	2573.645150
690.652065	2576.614389
690.989150	2575.248237
691.326185	2574.650860
691.663170	2573.440983
692.000105	2572.899059
692.336990	2572.125242
692.673825	2575.747311
693.010610	2573.143555
693.347345	2570.628019
693.684030	2571.439645
694.020665	2571.028791
694.357251	2568.740107
694.693786	2572.168092
695.030272	2574.529872
695.366707	2573.027608
695.703093	2574.088771
696.039429	2573.859399
696.375716	2573.889646
696.711952	2573.667835
697.048139	2572.876374
697.384276	2575.598597
697.720363	2573.511559
698.056400	2574.207238
698.392388	2574.371076
698.728326	2575.407033
699.064214	2572.740262
699.400053	2573.120870
699.735842	2573.670355
700.071581	2576.006930
700.407270	2575.775037
700.742910	2574.557598
701.078501	2574.086251
701.414042	2570.990982
701.749533	2574.020716
702.084974	2573.592217
702.420366	2572.987279
702.755709	2575.482650
703.091002	2575.565829
703.426246	2574.451734
703.761440	2574.330747
704.096584	2572.624316
704.431679	2572.425190
704.766725	2573.388051
705.101721	2574.633216
705.436668	2573.967783
705.771565	2573.274625
706.106413	2573.594738
706.441212	2575.192784
706.775961	2573.503997
707.110661	2572.856209
707.445311	2575.802763
707.779913	2572.331929
708.114465	2577.073134
708.448967	2576.206056
708.783421	2573.877043
709.117825	2571.787484
709.452180	2572.480643
709.786485	2574.018195
710.120742	2575.938875
710.454949	2574.867629
710.789107	2572.896538
711.123216	2570.567525
711.457275	2570.839747
711.791286	2571.921075
712.125247	2571.235478
712.459159	2572.447876
712.793023	2576.760583
713.126837	2571.207752
713.460602	2574.325705
713.794318	2574.577763
714.127985	2575.911148
714.461602	2571.479974
714.795171	2572.450396
715.128691	2572.382341
715.462162	2573.672876
715.795584	2571.593400
716.128957	2574.081209
716.462281	2573.173802
716.795556	2575.606158
717.128782	2574.502146
717.461960	2573.768658
717.795088	2571.369069
718.128167	2572.977197
718.461198	2574.550037
718.794180	2571.124573
719.127113	2574.217321
719.459997	2574.096333
719.792833	2570.993503
720.125619	2575.056673
720.458357	2573.743452
720.791046	2574.111456
721.123686	2572.415108
721.456278	2574.527352
721.788821	2573.592218
722.121315	2574.502146
722.453761	2572.026939
722.786158	2573.075499
723.118506	2573.942578
723.450805	2572.626837
723.783056	2572.878894
724.115259	2573.458627
724.447412	2573.768658
724.779518	2575.676735
725.111574	2572.987279
725.443582	2576.833679
725.775542	2571.285890
726.107453	2575.084399
726.439315	2573.277145
726.771129	2577.027764
727.102895	2572.767989
727.434612	2573.516600
727.766281	2573.423339
728.097901	2570.426373
728.429473	2571.769840
728.760996	2569.186249
729.092471	2569.939902
729.423897	2575.066755
729.755276	2572.652042
730.086606	2573.335119
730.417887	2571.900910
730.749120	2571.754717
731.080305	2572.445355
731.411442	2573.393092
731.742530	2574.378637
732.073570	2575.712023
732.404562	2571.303534
732.735506	2573.614903
733.066401	2571.250602
733.397249	2574.476940
733.728048	2573.375448
734.058798	2576.095150
734.389501	2572.261353
734.720156	2573.814028
735.050762	2572.783112
735.381320	2570.290262
735.711831	2572.427711
736.042293	2573.556929
736.372707	2572.503328
736.703073	2574.113977
737.033391	2570.854871
737.363661	2572.311764
737.693883	2572.173133
738.024056	2577.688155
738.354182	2569.876887
738.684260	2573.503997
739.014290	2571.948801
739.344272	2572.475602
739.674207	2575.593556
740.004093	2574.066086
740.333931	2573.478792
740.663722	2571.404357
740.993464	2572.094995
741.323159	2571.129614
741.652806	2573.239337
741.982405	2574.527352
742.311956	2572.732701
742.641460	2573.680438
742.970915	2572.984758
743.300323	2570.678431
743.629683	2570.655745
743.958996	2571.505180
744.288260	2574.113977
744.617477	2572.778071
744.946647	2570.696075
745.275768	2570.280179
745.604842	2569.208934
745.933869	2567.535271
746.262847	2567.401681
746.591778	2573.385530
746.920662	2574.202197
747.249498	2573.438462
747.578286	2574.860068
747.907027	2572.223544
748.235720	2572.566343
748.564365	2574.108936
748.892963	2572.420149
749.221514	2573.078020
749.550017	2572.697413
749.878473	2574.741601
750.206881	2573.670355
750.535242	2573.506518
750.863555	2572.405026
751.191821	2571.162381
751.520039	2570.738924
751.848210	2572.510890
752.176334	2572.750345
752.504411	2573.935016
752.832440	2570.484346
753.160421	2574.401323
753.488356	2572.319326
753.816243	2571.792526
754.144082	2573.173802
754.471875	2572.301682
754.799620	2573.491394
755.127318	2574.262691
755.454969	2573.130952
755.782572	2571.714388
756.110129	2572.248750
756.437638	2570.754048
756.765100	2571.739593
757.092515	2571.923596
757.419882	2570.527196
757.747203	2573.506518
758.074477	2571.490056
758.401703	2573.219172
758.728882	2570.988462
759.056014	2573.735890
759.383099	2573.967783
759.710138	2573.801425
760.037129	2573.675397
760.364073	2572.543657
760.690970	2572.367217
761.017820	2573.612382
761.344623	2571.464851
761.671379	2573.007444
761.998088	2566.985785
762.324751	2569.904613
762.651366	2570.199521
762.977935	2567.094170
763.304456	2569.019891
763.630931	2573.224213
763.957359	2573.589697
764.283740	2571.036352
764.610074	2572.445355
764.936362	2571.752196
765.262602	2569.334963
765.588796	2571.921075
765.914943	2573.279666
766.241044	2572.987279
766.567097	2573.476271
766.893104	2571.648853
767.219064	2571.815211
767.544978	2571.999213
767.870845	2571.943760
768.196665	2575.860737
768.522438	2572.319326
768.848165	2570.292782
769.173846	2571.358986
769.499479	2570.466702
769.825066	2571.396795
770.150607	2571.308575
770.476101	2573.728329
770.801548	2571.981569
771.126949	2570.940571
771.452303	2571.290931
771.777611	2571.031311
772.102872	2572.029460
772.428087	2571.212793
772.753256	2570.504511
773.078378	2571.971487
773.403453	2575.109605
773.728482	2570.693554
774.053465	2575.618761
774.378401	2573.234296
774.703291	2571.144737
775.028135	2571.081723
775.352932	2573.168761
775.677683	2572.084912
776.002388	2573.904769
776.327046	2574.144224
776.651658	2571.560633
776.976224	2573.015005
777.300743	2569.274469
777.625216	2568.614078
777.949643	2572.682289
778.274024	2573.383010
778.598359	2567.663821
778.922647	2567.134499
779.246889	2570.660787
779.571086	2568.263718
779.895236	2567.376475
780.219339	2572.770509
780.543397	2573.998030
780.867409	2572.120201
781.191374	2572.936868
781.515294	2572.415108
781.839167	2570.935529
782.162995	2571.961404
782.486776	2567.187432
782.810511	2570.436455
783.134201	2571.966445
783.457844	2571.152299
783.781441	2572.949470
784.104993	2568.263718
784.428498	2571.205231
784.751958	2571.016188
785.075372	2570.469223
785.398739	2573.211610
785.722061	2573.718246
786.045337	2571.384192
786.368568	2570.907803
786.691752	2573.604820
787.014891	2571.477453
787.337983	2573.844275
787.661030	2571.444686
787.984031	2572.475602
788.306987	2571.916034
788.629897	2571.250602
788.952760	2570.257494
789.275579	2572.634398
789.598351	2573.468709
789.921078	2573.630026
790.243759	2572.223544
790.566395	2569.665159
790.888984	2569.655076
791.211529	2570.764130
791.534027	2572.931826
791.856480	2570.260015
792.178888	2571.595921
792.501249	2571.225396
792.823566	2572.470561
793.145836	2568.288924
793.468062	2571.285890
793.790241	2572.145406
794.112375	2574.403843
794.434464	2569.130796
794.756507	2570.638101
795.078505	2571.497618
795.400457	2566.756413
795.722364	2566.363203
796.044226	2568.200703
796.366042	2568.828327
796.687812	2566.723645
797.009538	2571.815211
797.331218	2570.501990
797.652852	2570.612896
797.974442	2571.585838
798.295986	2571.369069
798.617484	2570.237330
798.938938	2569.743297
799.260346	2570.847309
799.581709	2571.217834
799.903026	2570.078533
800.224299	2571.779923
800.545526	2572.989800
800.866708	2569.312278
801.187845	2572.581466
801.508936	2572.331929
801.829983	2570.640622
802.150984	2569.287072
802.471940	2571.573235
802.792851	2570.202042
803.113717	2572.440314
803.434538	2570.504511
803.755314	2571.948801
804.076045	2567.817576
804.396731	2573.569532
804.717372	2572.120201
805.037967	2569.861764
805.358518	2571.008626
805.679024	2571.832855
805.999485	2571.984089
806.319901	2571.807649
806.640272	2570.325550
806.960598	2571.666497
807.280879	2570.181877
807.601115	2573.209090
807.921306	2570.055848
808.241453	2569.697926
808.561554	2573.723287
808.881611	2570.743966
809.201623	2570.159192
809.521590	2570.552402
809.841513	2569.350087
810.161390	2570.532237
810.481223	2566.718604
810.801011	2570.985941
811.120755	2572.354614
811.440453	2571.981569
811.760107	2568.235992
812.079716	2567.517627
812.399281	2567.474777
812.718801	2566.431258
813.038276	2565.307081
813.357707	2572.422670
813.677093	2569.491239
813.996434	2570.812021
814.315731	2571.021229
814.634983	2572.672207
814.954191	2569.781105
815.273354	2569.440827
815.592473	2569.723132
815.911547	2572.049624
816.230577	2571.101888
816.549562	2570.197000
816.868502	2570.028122
817.187399	2571.285890
817.506250	2572.760427
817.825058	2568.394788
818.143821	2570.209603
818.462539	2570.323029
818.781213	2571.500139
819.099843	2570.174315
819.418429	2570.902762
819.736970	2568.840930
820.055466	2570.743966
820.373919	2569.912175
820.692327	2570.640622
821.010691	2569.229099
821.329011	2569.521486
821.647286	2573.468709
821.965517	2570.275138
822.283704	2572.185736
822.601847	2571.381672
822.919945	2571.265725
823.237999	2571.414439
823.556010	2570.847309
823.873976	2571.623647
824.191897	2569.413101
824.509775	2571.237999
824.827609	2572.667166
825.145398	2571.479974
825.463144	2571.827814
825.780845	2573.554409
826.098502	2571.895869
826.416116	2571.442165
826.733685	2570.582649
827.051210	2569.168605
827.368692	2572.044583
827.686129	2570.081054
828.003522	2569.150961
828.320872	2566.988306
828.638177	2567.419325
828.955439	2566.201886
829.272656	2565.017215
829.589830	2564.979406
829.906960	2570.592731
830.224046	2570.459140
830.541088	2568.528378
830.858086	2568.972000
831.175041	2569.239181
831.491952	2570.043245
831.808819	2571.548030
832.125642	2572.031980
832.442421	2570.302865
832.759157	2569.274469
833.075849	2570.960735
833.392497	2568.732545
833.709101	2570.295303
834.025662	2567.343707
834.342179	2570.517114
834.658653	2568.798080
834.975083	2572.215982
835.291469	2572.747824
835.607811	2571.729511
835.924110	2572.082392
836.240366	2572.213462
836.556578	2568.296485
836.872746	2571.880746
837.188871	2569.312278
837.504952	2572.460478
837.820990	2567.890673
838.136984	2568.845971
838.452935	2567.764644
838.768842	2572.384861
839.084706	2569.314798
839.400526	2567.371434
839.716303	2568.432597
840.032037	2570.189439
840.347727	2570.794377
840.663373	2569.256825
840.978977	2570.557443
841.294537	2567.736917
841.610054	2568.775395
841.925527	2571.827814
842.240957	2570.083574
842.556344	2570.819583
842.871687	2568.994685
843.186987	2570.131465
843.502244	2570.222206
843.817458	2569.234140
844.132629	2566.796742
844.447756	2570.565005
844.762840	2566.675754
845.077881	2566.045610
845.392879	2567.734397
845.707833	2565.904458
846.022745	2564.530743
846.337613	2570.731363
846.652438	2570.585169
846.967221	2568.929150
847.281960	2570.297823
847.596656	2569.932340
847.911309	2571.301013
848.225919	2570.864953
848.540485	2571.500139
848.855009	2569.914696
849.169490	2569.559294
849.483928	2566.670713
849.798323	2568.709860
850.112675	2570.814542
850.426984	2567.290775
850.741251	2567.462174
851.055474	2567.487380
851.369654	2568.402350
851.683792	2569.418142
851.997887	2568.946794
852.311938	2567.608368
852.625947	2568.977041
852.939914	2568.898903
853.253837	2569.710529
853.567718	2570.481826
853.881555	2568.430076
854.195350	2566.411094
854.509103	2571.237999
854.822812	2569.110632
855.136479	2570.522155
855.450103	2569.909655
855.763685	2569.566856
856.077224	2569.632391
856.390720	2569.410580
856.704173	2569.758420
857.017584	2567.953687
857.330953	2569.607185
857.644278	2570.673389
857.957561	2572.122721
858.270802	2570.053328
858.584000	2571.195149
858.897155	2569.977710
859.210268	2566.090981
859.523339	2567.189952
859.836367	2569.090467
860.149352	2566.325394
860.462295	2568.606516
860.775195	2565.332287
861.088054	2565.430589
861.400869	2566.990827
861.713642	2567.646177
862.026373	2567.759602
862.339062	2568.646846
862.651708	2569.634912
862.964312	2568.087278
863.276873	2570.670869
863.589392	2570.121383
863.901869	2567.797411
864.214303	2569.652556
864.526696	2570.925447
864.839045	2568.190621
865.151353	2568.475446
865.463619	2570.486867
865.775842	2569.120714
866.088023	2570.237330
866.400162	2571.510221
866.712258	2567.555436
867.024313	2570.582649
867.336325	2568.336815
867.648296	2568.767833
867.960224	2568.374623
868.272110	2567.482339
868.583954	2569.208934
868.895755	2570.822103
869.207515	2570.179356
869.519233	2567.295816
869.830909	2567.948646
870.142542	2570.774212
870.454134	2568.712381
870.765684	2567.210117
871.077191	2567.252967
871.388657	2566.499314
871.700081	2568.276321
872.011463	2568.188101
872.322803	2568.024263
872.634101	2566.106104
872.945357	2567.517627
873.256571	2569.944943
873.567744	2571.283369
873.878874	2570.219686
874.189963	2568.964438
874.501010	2572.261353
874.812015	2569.138358
875.122979	2569.302196
875.433900	2566.257339
875.744780	2567.986454
876.055618	2567.505024
876.366415	2568.304047
876.677169	2570.514593
876.987882	2567.131979
877.298554	2564.324056
877.609183	2566.978224
877.919771	2565.985116
878.230317	2564.122410
878.540822	2569.947463
878.851285	2568.334294
879.161707	2566.272462
879.472087	2571.364027
879.782425	2567.510065
880.092722	2569.879408
880.402977	2567.434448
880.713191	2570.635581
881.023363	2568.903944
881.333494	2567.131979
881.643583	2569.700447
881.953631	2570.418811
882.263637	2566.910168
882.573602	2572.130283
882.883526	2569.786146
883.193408	2565.417987
883.503248	2565.486042
883.813048	2566.758933
884.122806	2571.036353
884.432522	2568.727504
884.742197	2567.850343
885.051831	2567.005950
885.361424	2569.521486
885.670975	2568.281362
885.980485	2567.063923
886.289954	2569.324881
886.599382	2567.174829
886.908768	2568.132648
887.218113	2567.542833
887.527417	2568.462843
887.836680	2567.759603
888.145901	2570.892680
888.455082	2568.172977
888.764221	2568.299006
889.073319	2567.167267
889.382376	2569.511403
889.691392	2569.337484
890.000366	2570.076013
890.309300	2569.657597
890.618193	2571.676579
890.927044	2570.839747
891.235855	2568.422514
891.544625	2570.779254
891.853353	2570.411249
892.162041	2568.712381
892.470687	2565.123079
892.779293	2567.391598
893.087858	2565.387740
893.396381	2567.870508
893.704864	2565.604509
894.013306	2563.424210
894.321707	2571.172464
894.630068	2567.908317
894.938387	2572.100036
895.246665	2570.542319
895.554903	2569.324881
895.863100	2567.126938
896.171256	2569.907134
896.479371	2567.283213
896.787446	2565.735579
897.095480	2566.738769
897.403473	2569.702967
897.711425	2570.159192
898.019336	2567.328584
898.327207	2568.457802
898.635038	2567.026115
898.942827	2567.250446
899.250576	2569.612227
899.558284	2565.196176
899.865952	2569.987793
900.173579	2566.511917
900.481165	2566.247256
900.788711	2567.830179
901.096216	2565.992678
901.403681	2567.837740
901.711105	2567.222720
902.018489	2566.199365
902.325832	2569.849161
902.633135	2569.705488
902.940397	2571.588359
903.247619	2568.316650
903.554800	2565.009653
903.861941	2565.702812
904.169041	2567.958728
904.476101	2566.771536
904.783121	2568.437638
905.090100	2567.152143
905.397039	2568.067113
905.703938	2567.976372
906.010796	2567.091650
906.317614	2565.538974
906.624391	2566.532082
906.931129	2566.516958
907.237826	2567.931002
907.544483	2566.350600
907.851099	2567.706670
908.157675	2566.988306
908.464211	2567.643656
908.770707	2565.307081
909.077163	2565.841443
909.383578	2565.284396
909.689954	2560.644014
909.996289	2561.536298
910.302584	2565.798594
910.608839	2569.070302
910.915054	2569.415622
911.221229	2567.477298
911.527363	2568.051989
911.833458	2567.676423
912.139513	2567.328584
912.445527	2565.314643
912.751502	2567.510065
913.057436	2568.530899
913.363331	2566.842112
913.669186	2568.180539
913.975000	2566.771536
914.280775	2566.930333
914.586510	2567.434448
914.892205	2568.755230
915.197859	2568.505693
915.503475	2567.560477
915.809050	2567.053841
916.114585	2566.355641
916.420081	2569.566856
916.725536	2567.273131
917.030952	2568.034345
917.336328	2567.048800
917.641665	2571.522824
917.946961	2568.447720
918.252218	2568.286403
918.557435	2568.261197
918.862612	2567.689026
919.167750	2568.730025
919.472848	2566.446382
919.777906	2570.708677
920.082925	2568.770354
920.387904	2566.310271
920.692843	2566.511917
920.997743	2567.119376
921.302603	2565.579303
921.607423	2566.590055
921.912204	2569.569377
922.216946	2568.069633
922.521647	2567.769685
922.826310	2568.057031
923.130932	2567.449572
923.435516	2565.410425
923.740059	2568.044428
924.044564	2568.833368
924.349028	2570.005437
924.653454	2561.924467
924.957840	2563.817420
925.262186	2565.387740
925.566493	2567.210117
925.870761	2560.538150
926.174989	2566.708522
926.479178	2565.014694
926.783328	2570.580128
927.087438	2567.131979
927.391509	2570.804459
927.695541	2566.801783
927.999533	2567.908317
928.303486	2566.262380
928.607400	2566.128789
928.911275	2566.073337
929.215110	2566.269942
929.518906	2568.276321
929.822663	2567.631053
930.126381	2567.716753
930.430060	2566.968141
930.733699	2565.929664
931.037299	2565.783470
931.340861	2566.784139
931.644383	2568.901424
931.947866	2566.274983
932.251309	2569.120714
932.554714	2568.299006
932.858080	2569.380333
933.161407	2566.151474
933.464694	2566.779098
933.767943	2567.610888
934.071153	2567.371434
934.374323	2565.854046
934.677455	2565.256670
934.980548	2567.857905
935.283602	2567.391598
935.586617	2566.733728
935.889593	2563.570404
936.192530	2568.407391
936.495428	2565.428069
936.798287	2568.049469
937.101108	2567.023594
937.403890	2567.643656
937.706632	2566.670713
938.009336	2566.262380
938.312002	2565.843964
938.614628	2567.552915
938.917216	2567.351269
939.219765	2567.815055
939.522275	2566.118707
939.824747	2566.915209
940.127179	2564.750034
940.429573	2561.324570
940.731929	2566.199365
941.034246	2564.170301
941.336524	2563.094015
941.638763	2565.228943
941.940964	2567.943605
942.243126	2563.830023
942.545250	2567.724314
942.847335	2566.932853
943.149381	2564.772719
943.451389	2565.012174
943.753359	2566.055693
944.055290	2568.757751
944.357182	2567.205076
944.659036	2567.802452
944.960851	2568.447720
945.262628	2565.846485
945.564367	2567.676423
945.866067	2565.750703
946.167729	2569.216496
946.469352	2564.992009
946.770937	2566.214489
947.072484	2564.616443
947.373992	2566.854715
947.675462	2565.725497
947.976893	2567.822617
948.278286	2565.279355
948.579641	2568.747669
948.880958	2567.202555
949.182236	2566.063254
949.483476	2565.717935
949.784678	2567.041238
950.085841	2567.348748
950.386967	2567.923440
950.688054	2566.262380
950.989103	2566.002760
951.290114	2563.303222
951.591087	2567.673903
951.892021	2565.354972
952.192917	2567.499983
952.493776	2567.963769
952.794596	2566.161557
953.095378	2567.406722
953.396122	2571.028791
953.696828	2566.771536
953.997496	2568.742628
954.298126	2566.340518
954.598718	2566.159036
954.899272	2563.635939
955.199788	2567.845302
955.500266	2566.925292
955.800706	2562.758778
956.101108	2564.203068
956.401472	2563.940928
956.701798	2562.317677
957.002087	2566.005281
957.302337	2564.452606
957.602550	2564.712225
957.902724	2566.262380
958.202861	2567.041238
958.502960	2564.356824
958.803022	2567.361351
959.103045	2564.800445
959.403031	2567.772205
959.702979	2566.741289
960.002889	2566.259859
960.302762	2566.955538
960.602596	2566.658110
960.902393	2563.623336
961.202153	2563.772050
961.501875	2564.974365
961.801559	2564.679458
962.101205	2566.416135
962.400814	2566.113666
962.700385	2569.100549
962.999918	2566.335477
963.299414	2567.063923
963.598873	2565.460836
963.898293	2564.351782
964.197677	2567.767164
964.497022	2567.928481
964.796331	2567.477298
965.095601	2566.847154
965.394835	2567.620971
965.694030	2565.168449
965.993189	2565.314643
966.292309	2564.974365
966.591393	2566.438820
966.890439	2566.900086
967.189447	2566.947977
967.488419	2568.825807
967.787353	2567.391598
968.086249	2565.155847
968.385108	2566.832030
968.683930	2563.741803
968.982714	2566.209448
969.281462	2566.809345
969.580172	2568.755230
969.878844	2563.756926
970.177480	2562.877245
970.476078	2563.893037
970.774639	2564.699622
971.073162	2566.317833
971.371649	2561.969837
971.670098	2561.876576
971.968510	2564.419838
972.266885	2560.850701
972.565223	2567.308419
972.863524	2565.775908
973.161788	2567.086608
973.460014	2564.452606
973.758204	2567.754561
974.056356	2561.735424
974.354471	2569.433266
974.652550	2565.652400
974.950591	2567.482339
975.248595	2565.483522
975.546563	2565.342369
975.844493	2565.354972
976.142386	2566.292627
976.440243	2566.902606
976.738062	2567.016032
977.035845	2562.461350
977.333590	2562.050496
977.631299	2564.160219
977.928971	2565.990157
978.226606	2564.097204
978.524204	2566.242215
978.821765	2566.375806
979.119290	2565.002091
979.416777	2566.673234
979.714228	2564.792883
980.011642	2564.503017
980.309020	2567.326063
980.606360	2564.956721
980.903664	2566.118707
981.200931	2562.665517
981.498162	2564.218192
981.795356	2566.453944
982.092513	2566.287586
982.389633	2565.125600
982.686717	2567.346228
982.983764	2564.815569
983.280775	2566.585014
983.577749	2565.382698
983.874686	2566.544684
984.171587	2566.781619
984.468451	2563.421690
984.765279	2565.236505
985.062070	2568.699778
985.358824	2567.013512
985.655543	2566.675754
985.952224	2566.287586
986.248869	2565.901937
986.545478	2560.926318
986.842050	2564.961762
987.138586	2559.431616
987.435086	2562.027811
987.731549	2559.325752
988.027975	2563.555280
988.324366	2564.508058
988.620719	2564.553429
988.917037	2563.487225
989.213318	2566.461505
989.509563	2561.823644
989.805772	2565.728017
990.101944	2565.420507
990.398080	2564.934036
990.694180	2566.194324
990.990244	2562.917574
991.286271	2566.403532
991.582262	2564.271124
991.878217	2566.685837
992.174136	2563.741803
992.470019	2565.178532
992.765865	2566.595096
993.061676	2564.886145
993.357450	2565.816238
993.653188	2563.691391
993.948890	2563.842626
994.244556	2567.157185
994.540186	2564.797925
994.835780	2564.586196
995.131337	2564.384550
995.426859	2563.676268
995.722345	2564.230795
996.017795	2565.959911
996.313208	2566.322874
996.608586	2564.271124
996.903928	2565.221382
997.199234	2566.282544
997.494504	2566.731207
997.789738	2566.711043
998.084936	2563.908161
998.380099	2566.378326
998.675225	2565.065106
998.970316	2563.588048
999.265371	2564.893707
999.560390	2564.066957
999.855373	2564.618964
1000.150320	2564.324056
1000.445232	2564.787842
1000.740108	2562.887327
1001.034948	2566.615261
1001.329752	2562.597461
1001.624521	2566.794222
1001.919254	2560.812892
1002.213951	2561.624518
1002.508613	2561.553942
1002.803239	2564.172822
1003.097829	2561.001936
1003.392384	2565.223902
1003.686903	2568.568708
1003.981386	2566.930333
1004.275834	2562.400856
1004.570246	2567.237843
1004.864623	2564.787842
1005.158964	2564.825651
1005.453270	2565.566701
1005.747540	2563.373799
1006.041775	2567.172308
1006.335974	2565.254149
1006.630138	2566.335477
1006.924266	2565.075188
1007.218359	2565.712894
1007.512416	2566.549726
1007.806438	2563.479663
1008.100425	2564.949159
1008.394376	2565.811197
1008.688292	2564.722307
1008.982172	2565.843964
1009.276017	2564.155178
1009.569827	2564.215671
1009.863602	2566.431258
1010.157341	2564.117369
1010.451045	2564.530743
1010.744714	2562.408418
1011.038347	2564.676937
1011.331945	2565.725497
1011.625508	2566.219530
1011.919036	2562.229457
1012.212528	2564.135013
1012.505986	2562.612584
1012.799408	2564.162739
1013.092795	2565.360013
1013.386147	2564.767678
1013.679464	2565.554098
1013.972745	2564.099725
1014.265992	2565.808676
1014.559204	2562.834395
1014.852380	2565.677606
1015.145521	2566.106104
1015.438628	2563.903120
1015.731699	2563.625856
1016.024736	2565.758264
1016.317737	2566.040569
1016.610703	2566.529561
1016.903635	2561.422872
1017.196531	2562.826833
1017.489393	2559.575289
1017.782219	2561.052347
1018.075011	2561.037224
1018.367768	2565.249108
1018.660490	2563.570404
1018.953177	2563.570404
1019.245829	2563.570404
