Dividing Wavelength (nm)	Counts (n)	Blue Motor Position (mm): 0.000000	Red Motor Position (mm): 1.500000	
326.493990	2084.517115
326.888308	2084.517115
327.282561	2084.517115
327.676750	2036.626154
328.070874	2059.311346
328.464933	2099.640577
328.858929	2134.928654
329.252859	2109.722885
329.646726	2056.790769
330.040528	2087.037692
330.434265	2001.338077
330.827938	2089.558269
331.221547	2197.943077
331.615091	2162.655000
332.008571	2192.901923
332.401986	2210.545962
332.795338	2167.696154
333.188625	2329.013077
333.581847	2276.080962
333.975006	2260.957500
334.368100	2339.095385
334.761129	2303.807308
335.154095	2318.930769
335.546996	2331.533654
335.939833	2323.971923
336.332606	2389.506923
336.725315	2331.533654
337.117960	2389.506923
337.510540	2419.753846
337.903056	2326.492500
338.295508	2404.630385
338.687896	2389.506923
339.080220	2409.671538
339.472480	2404.630385
339.864676	2427.315577
340.256807	2467.644808
340.648875	2399.589231
341.040879	2535.700385
341.432818	2472.685962
341.824694	2462.603654
342.216506	2482.768269
342.608253	2394.548077
342.999937	2518.056346
343.391557	2404.630385
343.783113	2475.206538
344.174605	2465.124231
344.566033	2467.644808
344.957397	2588.632500
345.348697	2447.480192
345.739934	2462.603654
346.131106	2417.233269
346.522215	2472.685962
346.913260	2613.838269
347.304241	2477.727115
347.695159	2450.000769
348.086012	2487.809423
348.476802	2439.918462
348.867528	2439.918462
349.258191	2432.356731
349.648789	2444.959615
350.039324	2422.274423
350.429796	2444.959615
350.820203	2520.576923
351.210548	2460.083077
351.600828	2412.192115
351.991045	2520.576923
352.381198	2427.315577
352.771288	2434.877308
353.161314	2485.288846
353.551276	2414.712692
353.941175	2485.288846
354.331010	2452.521346
354.720782	2346.657115
355.110490	2462.603654
355.500135	2386.986346
355.889717	2427.315577
356.279235	2394.548077
356.668689	2412.192115
357.058080	2439.918462
357.447408	2437.397885
357.836672	2422.274423
358.225873	2472.685962
358.615010	2434.877308
359.004084	2480.247692
359.393095	2412.192115
359.782043	2455.041923
360.170927	2460.083077
360.559748	2507.974038
360.948505	2419.753846
361.337199	2480.247692
361.725830	2341.615962
362.114398	2505.453462
362.502903	2457.562500
362.891344	2570.988462
363.279722	2455.041923
363.668037	2429.836154
364.056289	2502.932885
364.444478	2407.150962
364.832603	2510.494615
365.220665	2472.685962
365.608665	2439.918462
365.996601	2485.288846
366.384474	2568.467885
366.772284	2465.124231
367.160031	2444.959615
367.547715	2475.206538
367.935336	2457.562500
368.322893	2477.727115
368.710388	2407.150962
369.097820	2452.521346
369.485189	2472.685962
369.872495	2437.397885
370.259738	2392.027500
370.646918	2442.439038
371.034035	2490.330000
371.421090	2404.630385
371.808081	2497.891731
372.195010	2480.247692
372.581875	2404.630385
372.968678	2485.288846
373.355418	2427.315577
373.742096	2386.986346
374.128710	2500.412308
374.515262	2502.932885
374.901751	2492.850577
375.288177	2533.179808
375.674540	2457.562500
376.060841	2545.782692
376.447079	2424.795000
376.833254	2495.371154
377.219367	2465.124231
377.605417	2462.603654
377.991404	2492.850577
378.377329	2457.562500
378.763191	2366.821731
379.148991	2528.138654
379.534727	2439.918462
379.920402	2470.165385
380.306013	2422.274423
380.691563	2497.891731
381.077049	2447.480192
381.462474	2465.124231
381.847835	2429.836154
382.233134	2455.041923
382.618371	2482.768269
383.003545	2543.262115
383.388657	2442.439038
383.773706	2475.206538
384.158693	2402.109808
384.543618	2450.000769
384.928480	2419.753846
385.313280	2424.795000
385.698017	2467.644808
386.082692	2439.918462
386.467305	2339.095385
386.851856	2485.288846
387.236344	2412.192115
387.620770	2432.356731
388.005133	2490.330000
388.389435	2510.494615
388.773674	2533.179808
389.157851	2379.424615
389.541965	2540.741538
389.926018	2480.247692
390.310008	2550.823846
390.693936	2414.712692
391.077802	2510.494615
391.461606	2414.712692
391.845348	2460.083077
392.229027	2470.165385
392.612645	2477.727115
392.996200	2525.618077
393.379694	2492.850577
393.763125	2450.000769
394.146494	2470.165385
394.529801	2487.809423
394.913047	2543.262115
395.296230	2455.041923
395.679351	2455.041923
396.062410	2414.712692
396.445408	2492.850577
396.828343	2414.712692
397.211217	2568.467885
397.594028	2477.727115
397.976778	2497.891731
398.359466	2465.124231
398.742092	2497.891731
399.124656	2482.768269
399.507158	2407.150962
399.889598	2402.109808
400.271977	2502.932885
400.654294	2417.233269
401.036549	2434.877308
401.418742	2452.521346
401.800874	2485.288846
402.182944	2540.741538
402.564952	2412.192115
402.946898	2513.015192
403.328783	2465.124231
403.710606	2492.850577
404.092367	2465.124231
404.474067	2500.412308
404.855705	2450.000769
405.237282	2427.315577
405.618797	2525.618077
406.000250	2502.932885
406.381642	2404.630385
406.762972	2495.371154
407.144240	2477.727115
407.525447	2442.439038
407.906593	2414.712692
408.287677	2492.850577
408.668700	2437.397885
409.049661	2487.809423
409.430560	2460.083077
409.811399	2507.974038
410.192176	2505.453462
410.572891	2422.274423
410.953545	2518.056346
411.334138	2460.083077
411.714669	2412.192115
412.095139	2366.821731
412.475547	2480.247692
412.855894	2482.768269
413.236180	2495.371154
413.616405	2444.959615
413.996568	2472.685962
414.376670	2535.700385
414.756711	2475.206538
415.136691	2407.150962
415.516609	2472.685962
415.896466	2520.576923
416.276262	2497.891731
416.655997	2432.356731
417.035670	2502.932885
417.415283	2475.206538
417.794834	2495.371154
418.174324	2457.562500
418.553753	2495.371154
418.933121	2505.453462
419.312428	2518.056346
419.691674	2482.768269
420.070859	2477.727115
420.449983	2497.891731
420.829045	2447.480192
421.208047	2497.891731
421.586988	2424.795000
421.965867	2432.356731
422.344686	2518.056346
422.723444	2437.397885
423.102141	2487.809423
423.480777	2523.097500
423.859352	2460.083077
424.237866	2472.685962
424.616319	2457.562500
424.994712	2447.480192
425.373044	2555.865000
425.751314	2455.041923
426.129524	2500.412308
426.507673	2513.015192
426.885762	2487.809423
427.263789	2477.727115
427.641756	2497.891731
428.019662	2480.247692
428.397508	2515.535769
428.775292	2518.056346
429.153016	2381.945192
429.530679	2538.220962
429.908282	2434.877308
430.285824	2452.521346
430.663305	2518.056346
431.040726	2424.795000
431.418086	2523.097500
431.795385	2492.850577
432.172624	2570.988462
432.549802	2543.262115
432.926920	2533.179808
433.303977	2510.494615
433.680974	2560.906154
434.057910	2455.041923
434.434786	2510.494615
434.811601	2540.741538
435.188355	2495.371154
435.565050	2470.165385
435.941683	2462.603654
436.318257	2520.576923
436.694770	2434.877308
437.071222	2437.397885
437.447614	2525.618077
437.823946	2495.371154
438.200218	2485.288846
438.576429	2497.891731
438.952580	2538.220962
439.328670	2437.397885
439.704700	2447.480192
440.080670	2523.097500
440.456580	2553.344423
440.832429	2507.974038
441.208218	2477.727115
441.583947	2558.385577
441.959616	2505.453462
442.335224	2470.165385
442.710773	2507.974038
443.086261	2538.220962
443.461689	2528.138654
443.837057	2467.644808
444.212365	2475.206538
444.587612	2452.521346
444.962800	2533.179808
445.337927	2533.179808
445.712995	2462.603654
446.088002	2437.397885
446.462949	2465.124231
446.837837	2424.795000
447.212664	2515.535769
447.587431	2434.877308
447.962139	2386.986346
448.336786	2452.521346
448.711374	2472.685962
449.085901	2497.891731
449.460369	2452.521346
449.834776	2583.591346
450.209124	2475.206538
450.583412	2460.083077
450.957640	2487.809423
451.331808	2495.371154
451.705917	2450.000769
452.079965	2447.480192
452.453954	2535.700385
452.827883	2442.439038
453.201752	2492.850577
453.575562	2460.083077
453.949311	2518.056346
454.323001	2452.521346
454.696632	2510.494615
455.070202	2419.753846
455.443713	2535.700385
455.817164	2507.974038
456.190556	2475.206538
456.563888	2520.576923
456.937160	2439.918462
457.310373	2507.974038
457.683526	2568.467885
458.056619	2477.727115
458.429653	2485.288846
458.802628	2495.371154
459.175542	2513.015192
459.548398	2457.562500
459.921194	2568.467885
460.293930	2538.220962
460.666607	2437.397885
461.039224	2505.453462
461.411782	2523.097500
461.784280	2472.685962
462.156719	2513.015192
462.529099	2528.138654
462.901419	2538.220962
463.273680	2490.330000
463.645882	2460.083077
464.018024	2480.247692
464.390106	2482.768269
464.762130	2422.274423
465.134094	2510.494615
465.505999	2565.947308
465.877845	2530.659231
466.249631	2530.659231
466.621358	2455.041923
466.993026	2545.782692
467.364634	2472.685962
467.736184	2606.276538
468.107674	2485.288846
468.479105	2482.768269
468.850477	2497.891731
469.221790	2495.371154
469.593043	2533.179808
469.964238	2523.097500
470.335373	2520.576923
470.706449	2502.932885
471.077467	2573.509038
471.448425	2505.453462
471.819324	2500.412308
472.190164	2470.165385
472.560945	2424.795000
472.931667	2444.959615
473.302330	2497.891731
473.672934	2439.918462
474.043479	2565.947308
474.413965	2598.714808
474.784393	2528.138654
475.154761	2563.426731
475.525070	2475.206538
475.895321	2528.138654
476.265513	2558.385577
476.635645	2437.397885
477.005719	2475.206538
477.375734	2528.138654
477.745691	2518.056346
478.115588	2543.262115
478.485427	2422.274423
478.855207	2487.809423
479.224928	2477.727115
479.594591	2472.685962
479.964194	2525.618077
480.333739	2485.288846
480.703226	2497.891731
481.072653	2573.509038
481.442022	2570.988462
481.811333	2573.509038
482.180584	2457.562500
482.549777	2497.891731
482.918912	2540.741538
483.287988	2530.659231
483.657005	2576.029615
484.025964	2437.397885
484.394864	2371.862885
484.763706	2495.371154
485.132489	2505.453462
485.501213	2497.891731
485.869879	2427.315577
486.238487	2490.330000
486.607036	2492.850577
486.975527	2497.891731
487.343959	2452.521346
487.712333	2568.467885
488.080648	2444.959615
488.448905	2465.124231
488.817104	2442.439038
489.185244	2520.576923
489.553326	2492.850577
489.921350	2523.097500
490.289315	2523.097500
490.657222	2550.823846
491.025070	2485.288846
491.392861	2570.988462
491.760593	2455.041923
492.128267	2470.165385
492.495883	2495.371154
492.863440	2518.056346
493.230939	2475.206538
493.598380	2432.356731
493.965763	2505.453462
494.333088	2533.179808
494.700354	2492.850577
495.067563	2477.727115
495.434713	2485.288846
495.801805	2502.932885
496.168839	2495.371154
496.535815	2611.317692
496.902733	2492.850577
497.269593	2492.850577
497.636395	2480.247692
498.003139	2538.220962
498.369825	2485.288846
498.736453	2485.288846
499.103023	2429.836154
499.469535	2545.782692
499.835989	2422.274423
500.202385	2422.274423
500.568723	2482.768269
500.935003	2444.959615
501.301226	2543.262115
501.667390	2470.165385
502.033497	2586.111923
502.399546	2450.000769
502.765537	2558.385577
503.131470	2555.865000
503.497345	2500.412308
503.863163	2487.809423
504.228923	2525.618077
504.594625	2442.439038
504.960269	2548.303269
505.325856	2591.153077
505.691385	2427.315577
506.056856	2553.344423
506.422270	2480.247692
506.787625	2553.344423
507.152924	2540.741538
507.518164	2427.315577
507.883347	2510.494615
508.248472	2555.865000
508.613540	2480.247692
508.978550	2470.165385
509.343503	2538.220962
509.708398	2475.206538
510.073236	2608.797115
510.438016	2555.865000
510.802738	2530.659231
511.167403	2507.974038
511.532010	2477.727115
511.896561	2437.397885
512.261053	2477.727115
512.625488	2394.548077
512.989866	2548.303269
513.354186	2442.439038
513.718449	2492.850577
514.082655	2513.015192
514.446803	2497.891731
514.810894	2533.179808
515.174927	2455.041923
515.538904	2500.412308
515.902822	2434.877308
516.266684	2553.344423
516.630488	2550.823846
516.994235	2487.809423
517.357925	2525.618077
517.721558	2432.356731
518.085133	2480.247692
518.448651	2505.453462
518.812112	2543.262115
519.175516	2548.303269
519.538863	2424.795000
519.902152	2490.330000
520.265385	2427.315577
520.628560	2505.453462
520.991678	2487.809423
521.354739	2462.603654
521.717743	2369.342308
522.080690	2502.932885
522.443580	2502.932885
522.806413	2497.891731
523.169189	2439.918462
523.531908	2480.247692
523.894569	2490.330000
524.257174	2490.330000
524.619722	2447.480192
524.982213	2616.358846
525.344647	2460.083077
525.707025	2485.288846
526.069345	2500.412308
526.431608	2417.233269
526.793815	2457.562500
527.155964	2500.412308
527.518057	2457.562500
527.880093	2495.371154
528.242072	2477.727115
528.603995	2518.056346
528.965860	2540.741538
529.327669	2482.768269
529.689421	2583.591346
530.051117	2523.097500
530.412755	2528.138654
530.774337	2429.836154
531.135862	2444.959615
531.497331	2505.453462
531.858743	2480.247692
532.220098	2447.480192
532.581396	2500.412308
532.942638	2462.603654
533.303824	2457.562500
533.664953	2455.041923
534.026025	2422.274423
534.387040	2500.412308
534.747999	2535.700385
535.108902	2497.891731
535.469748	2457.562500
535.830537	2596.194231
536.191270	2490.330000
536.551947	2538.220962
536.912567	2523.097500
537.273131	2482.768269
537.633638	2533.179808
537.994089	2505.453462
538.354483	2492.850577
538.714821	2545.782692
539.075103	2490.330000
539.435328	2485.288846
539.795497	2507.974038
540.155609	2424.795000
540.515665	2543.262115
540.875665	2515.535769
541.235609	2528.138654
541.595496	2523.097500
541.955328	2417.233269
542.315102	2500.412308
542.674821	2507.974038
543.034483	2573.509038
543.394090	2540.741538
543.753640	2467.644808
544.113134	2631.482308
544.472571	2497.891731
544.831953	2581.070769
545.191278	2505.453462
545.550548	2472.685962
545.909761	2429.836154
546.268918	2507.974038
546.628019	2520.576923
546.987064	2462.603654
547.346053	2540.741538
547.704986	2475.206538
548.063863	2533.179808
548.422684	2530.659231
548.781449	2485.288846
549.140158	2535.700385
549.498811	2437.397885
549.857408	2465.124231
550.215949	2439.918462
550.574434	2482.768269
550.932864	2492.850577
551.291237	2507.974038
551.649555	2528.138654
552.007817	2434.877308
552.366022	2460.083077
552.724173	2500.412308
553.082267	2593.673654
553.440305	2442.439038
553.798288	2447.480192
554.156215	2535.700385
554.514086	2495.371154
554.871902	2545.782692
555.229661	2520.576923
555.587365	2543.262115
555.945014	2427.315577
556.302606	2427.315577
556.660143	2558.385577
557.017625	2530.659231
557.375050	2520.576923
557.732421	2558.385577
558.089735	2513.015192
558.446994	2573.509038
558.804197	2399.589231
559.161345	2480.247692
559.518437	2573.509038
559.875474	2520.576923
560.232455	2470.165385
560.589381	2470.165385
560.946251	2510.494615
561.303065	2505.453462
561.659825	2520.576923
562.016528	2490.330000
562.373177	2611.317692
562.729770	2475.206538
563.086307	2492.850577
563.442789	2510.494615
563.799216	2455.041923
564.155587	2520.576923
564.511904	2482.768269
564.868164	2460.083077
565.224370	2460.083077
565.580520	2397.068654
565.936615	2495.371154
566.292654	2434.877308
566.648638	2470.165385
567.004567	2424.795000
567.360441	2437.397885
567.716260	2538.220962
568.072023	2447.480192
568.427732	2475.206538
568.783385	2518.056346
569.138982	2533.179808
569.494525	2457.562500
569.850013	2477.727115
570.205445	2513.015192
570.560823	2472.685962
570.916145	2414.712692
571.271412	2528.138654
571.626625	2467.644808
571.981782	2515.535769
572.336884	2495.371154
572.691931	2472.685962
573.046923	2588.632500
573.401860	2472.685962
573.756743	2593.673654
574.111570	2482.768269
574.466342	2530.659231
574.821059	2437.397885
575.175722	2475.206538
575.530330	2460.083077
575.884882	2586.111923
576.239380	2485.288846
576.593823	2487.809423
576.948211	2513.015192
577.302544	2485.288846
577.656823	2487.809423
578.011047	2497.891731
578.365216	2573.509038
578.719330	2465.124231
579.073389	2543.262115
579.427394	2502.932885
579.781344	2427.315577
580.135239	2565.947308
580.489080	2472.685962
580.842866	2525.618077
581.196597	2450.000769
581.550273	2477.727115
581.903895	2492.850577
582.257463	2555.865000
582.610975	2523.097500
582.964434	2409.671538
583.317837	2538.220962
583.671186	2485.288846
584.024481	2457.562500
584.377721	2450.000769
584.730906	2429.836154
585.084037	2548.303269
585.437113	2487.809423
585.790135	2533.179808
586.143103	2470.165385
586.496016	2545.782692
586.848874	2482.768269
587.201679	2497.891731
587.554428	2444.959615
587.907124	2520.576923
588.259765	2548.303269
588.612352	2455.041923
588.964884	2553.344423
589.317362	2603.755962
589.669786	2439.918462
590.022155	2381.945192
590.374470	2513.015192
590.726731	2414.712692
591.078937	2384.465769
591.431090	2480.247692
591.783188	2510.494615
592.135232	2520.576923
592.487222	2502.932885
592.839157	2507.974038
593.191038	2409.671538
593.542866	2525.618077
593.894639	2490.330000
594.246358	2525.618077
594.598022	2447.480192
594.949633	2490.330000
595.301190	2427.315577
595.652692	2424.795000
596.004141	2518.056346
596.355535	2427.315577
596.706876	2505.453462
597.058162	2563.426731
597.409395	2492.850577
597.760573	2437.397885
598.111698	2457.562500
598.462768	2482.768269
598.813785	2510.494615
599.164748	2485.288846
599.515657	2482.768269
599.866511	2533.179808
600.217312	2424.795000
600.568060	2520.576923
600.918753	2528.138654
601.269392	2389.506923
601.619978	2520.576923
601.970510	2523.097500
602.320988	2485.288846
602.671412	2487.809423
603.021783	2535.700385
603.372100	2465.124231
603.722363	2540.741538
604.072572	2538.220962
604.422728	2507.974038
604.772830	2513.015192
605.122878	2533.179808
605.472872	2475.206538
605.822813	2442.439038
606.172701	2507.974038
606.522534	2540.741538
606.872314	2475.206538
607.222041	2487.809423
607.571714	2465.124231
607.921333	2507.974038
608.270899	2545.782692
608.620411	2492.850577
608.969870	2513.015192
609.319276	2447.480192
609.668627	2482.768269
610.017926	2492.850577
610.367171	2500.412308
610.716362	2439.918462
611.065500	2497.891731
611.414585	2439.918462
611.763616	2535.700385
612.112594	2525.618077
612.461518	2535.700385
612.810389	2523.097500
613.159207	2475.206538
613.507971	2507.974038
613.856682	2452.521346
614.205340	2543.262115
614.553945	2510.494615
614.902496	2507.974038
615.250994	2502.932885
615.599439	2576.029615
615.947830	2545.782692
616.296169	2480.247692
616.644454	2523.097500
616.992686	2535.700385
617.340864	2487.809423
617.688990	2467.644808
618.037063	2540.741538
618.385082	2475.206538
618.733048	2513.015192
619.080961	2477.727115
619.428821	2573.509038
619.776628	2545.782692
620.124382	2452.521346
620.472083	2429.836154
620.819731	2437.397885
621.167326	2505.453462
621.514868	2507.974038
621.862357	2500.412308
622.209793	2480.247692
622.557176	2502.932885
622.904506	2518.056346
623.251783	2533.179808
623.599007	2444.959615
623.946179	2475.206538
624.293297	2581.070769
624.640363	2447.480192
624.987376	2530.659231
625.334336	2392.027500
625.681243	2543.262115
626.028097	2555.865000
626.374899	2472.685962
626.721647	2530.659231
627.068343	2581.070769
627.414987	2500.412308
627.761577	2523.097500
628.108115	2525.618077
628.454600	2505.453462
628.801032	2490.330000
629.147412	2419.753846
629.493739	2510.494615
629.840014	2462.603654
630.186236	2513.015192
630.532405	2470.165385
630.878521	2495.371154
631.224585	2520.576923
631.570597	2434.877308
631.916556	2505.453462
632.262462	2535.700385
632.608316	2492.850577
632.954117	2465.124231
633.299866	2422.274423
633.645562	2513.015192
633.991206	2487.809423
634.336797	2525.618077
634.682336	2523.097500
635.027823	2545.782692
635.373257	2414.712692
635.718639	2533.179808
636.063968	2492.850577
636.409245	2475.206538
636.754470	2472.685962
637.099642	2472.685962
637.444762	2535.700385
637.789829	2455.041923
638.134845	2507.974038
638.479808	2570.988462
638.824719	2485.288846
639.169577	2502.932885
639.514383	2457.562500
639.859137	2533.179808
640.203839	2560.906154
640.548489	2659.208654
640.893086	2490.330000
641.237632	2538.220962
641.582125	2465.124231
641.926566	2460.083077
642.270955	2497.891731
642.615292	2515.535769
642.959576	2477.727115
643.303809	2487.809423
643.647990	2490.330000
643.992118	2427.315577
644.336195	2447.480192
644.680219	2467.644808
645.024192	2467.644808
645.368112	2510.494615
645.711981	2472.685962
646.055797	2533.179808
646.399562	2518.056346
646.743274	2533.179808
647.086935	2581.070769
647.430544	2490.330000
647.774101	2515.535769
648.117606	2467.644808
648.461059	2545.782692
648.804460	2540.741538
649.147810	2555.865000
649.491108	2538.220962
649.834354	2467.644808
650.177548	2447.480192
650.520690	2530.659231
650.863781	2538.220962
651.206820	2502.932885
651.549807	2477.727115
651.892742	2487.809423
652.235626	2500.412308
652.578458	2507.974038
652.921238	2500.412308
653.263967	2482.768269
653.606644	2583.591346
653.949269	2429.836154
654.291843	2477.727115
654.634365	2505.453462
654.976836	2510.494615
655.319255	2429.836154
655.661622	2480.247692
656.003938	2492.850577
656.346203	2502.932885
656.688416	2545.782692
657.030577	2465.124231
657.372687	2490.330000
657.714746	2555.865000
658.056753	2460.083077
658.398708	2457.562500
658.740612	2482.768269
659.082465	2480.247692
659.424266	2538.220962
659.766016	2505.453462
660.107715	2538.220962
660.449362	2429.836154
660.790958	2535.700385
661.132503	2523.097500
661.473996	2598.714808
661.815438	2543.262115
662.156829	2510.494615
662.498168	2548.303269
662.839456	2500.412308
663.180693	2513.015192
663.521879	2475.206538
663.863013	2535.700385
664.204097	2523.097500
664.545129	2419.753846
664.886110	2394.548077
665.227040	2417.233269
665.567918	2502.932885
665.908746	2560.906154
666.249522	2500.412308
666.590248	2497.891731
666.930922	2538.220962
667.271545	2490.330000
667.612118	2439.918462
667.952639	2500.412308
668.293109	2518.056346
668.633528	2492.850577
668.973896	2530.659231
669.314213	2510.494615
669.654480	2576.029615
669.994695	2407.150962
670.334859	2495.371154
670.674973	2414.712692
671.015035	2505.453462
671.355047	2523.097500
671.695008	2598.714808
672.034918	2553.344423
672.374777	2578.550192
672.714585	2462.603654
673.054342	2505.453462
673.394049	2462.603654
673.733705	2510.494615
674.073310	2513.015192
674.412864	2460.083077
674.752368	2528.138654
675.091820	2540.741538
675.431223	2429.836154
675.770574	2500.412308
676.109875	2475.206538
676.449125	2467.644808
676.788324	2550.823846
677.127473	2520.576923
677.466571	2520.576923
677.805619	2553.344423
678.144616	2497.891731
678.483562	2535.700385
678.822458	2550.823846
679.161303	2495.371154
679.500098	2500.412308
679.838842	2502.932885
680.177535	2543.262115
680.516179	2570.988462
680.854771	2492.850577
681.193314	2586.111923
681.531805	2520.576923
681.870247	2535.700385
682.208638	2570.988462
682.546978	2485.288846
682.885268	2497.891731
683.223508	2510.494615
683.561697	2442.439038
683.899836	2470.165385
684.237925	2477.727115
684.575963	2412.192115
684.913951	2560.906154
685.251889	2525.618077
685.589776	2560.906154
685.927614	2462.603654
686.265401	2475.206538
686.603137	2455.041923
686.940824	2593.673654
687.278460	2576.029615
687.616046	2500.412308
687.953582	2497.891731
688.291068	2528.138654
688.628504	2500.412308
688.965889	2538.220962
689.303224	2450.000769
689.640510	2543.262115
689.977745	2482.768269
690.314930	2525.618077
690.652065	2487.809423
690.989150	2500.412308
691.326185	2439.918462
691.663170	2540.741538
692.000105	2487.809423
692.336990	2467.644808
692.673825	2545.782692
693.010610	2555.865000
693.347345	2565.947308
693.684030	2397.068654
694.020665	2402.109808
694.357251	2558.385577
694.693786	2457.562500
695.030272	2502.932885
695.366707	2482.768269
695.703093	2525.618077
696.039429	2477.727115
696.375716	2528.138654
696.711952	2530.659231
697.048139	2444.959615
697.384276	2553.344423
697.720363	2523.097500
698.056400	2513.015192
698.392388	2455.041923
698.728326	2482.768269
699.064214	2490.330000
699.400053	2560.906154
699.735842	2581.070769
700.071581	2573.509038
700.407270	2515.535769
700.742910	2545.782692
701.078501	2515.535769
701.414042	2450.000769
701.749533	2505.453462
702.084974	2407.150962
702.420366	2518.056346
702.755709	2482.768269
703.091002	2505.453462
703.426246	2442.439038
703.761440	2422.274423
704.096584	2593.673654
704.431679	2535.700385
704.766725	2422.274423
705.101721	2475.206538
705.436668	2510.494615
705.771565	2581.070769
706.106413	2487.809423
706.441212	2616.358846
706.775961	2462.603654
707.110661	2455.041923
707.445311	2505.453462
707.779913	2442.439038
708.114465	2563.426731
708.448967	2480.247692
708.783421	2492.850577
709.117825	2487.809423
709.452180	2444.959615
709.786485	2490.330000
710.120742	2510.494615
710.454949	2424.795000
710.789107	2513.015192
711.123216	2497.891731
711.457275	2480.247692
711.791286	2530.659231
712.125247	2477.727115
712.459159	2510.494615
712.793023	2442.439038
713.126837	2565.947308
713.460602	2455.041923
713.794318	2533.179808
714.127985	2525.618077
714.461602	2455.041923
714.795171	2548.303269
715.128691	2588.632500
715.462162	2409.671538
715.795584	2502.932885
716.128957	2447.480192
716.462281	2492.850577
716.795556	2462.603654
717.128782	2465.124231
717.461960	2560.906154
717.795088	2477.727115
718.128167	2455.041923
718.461198	2450.000769
718.794180	2442.439038
719.127113	2505.453462
719.459997	2558.385577
719.792833	2497.891731
720.125619	2505.453462
720.458357	2455.041923
720.791046	2523.097500
721.123686	2427.315577
721.456278	2497.891731
721.788821	2497.891731
722.121315	2543.262115
722.453761	2434.877308
722.786158	2462.603654
723.118506	2563.426731
723.450805	2497.891731
723.783056	2535.700385
724.115259	2467.644808
724.447412	2475.206538
724.779518	2515.535769
725.111574	2462.603654
725.443582	2487.809423
725.775542	2588.632500
726.107453	2432.356731
726.439315	2477.727115
726.771129	2520.576923
727.102895	2513.015192
727.434612	2528.138654
727.766281	2475.206538
728.097901	2553.344423
728.429473	2515.535769
728.760996	2555.865000
729.092471	2492.850577
729.423897	2502.932885
729.755276	2485.288846
730.086606	2392.027500
730.417887	2477.727115
730.749120	2535.700385
731.080305	2490.330000
731.411442	2563.426731
731.742530	2535.700385
732.073570	2467.644808
732.404562	2543.262115
732.735506	2434.877308
733.066401	2515.535769
733.397249	2548.303269
733.728048	2487.809423
734.058798	2570.988462
734.389501	2497.891731
734.720156	2548.303269
735.050762	2442.439038
735.381320	2507.974038
735.711831	2465.124231
736.042293	2578.550192
736.372707	2588.632500
736.703073	2520.576923
737.033391	2467.644808
737.363661	2578.550192
737.693883	2442.439038
738.024056	2548.303269
738.354182	2495.371154
738.684260	2502.932885
739.014290	2447.480192
739.344272	2570.988462
739.674207	2487.809423
740.004093	2507.974038
740.333931	2505.453462
740.663722	2563.426731
740.993464	2565.947308
741.323159	2402.109808
741.652806	2507.974038
741.982405	2548.303269
742.311956	2485.288846
742.641460	2538.220962
742.970915	2515.535769
743.300323	2523.097500
743.629683	2558.385577
743.958996	2502.932885
744.288260	2427.315577
744.617477	2457.562500
744.946647	2485.288846
745.275768	2507.974038
745.604842	2515.535769
745.933869	2538.220962
746.262847	2437.397885
746.591778	2543.262115
746.920662	2422.274423
747.249498	2528.138654
747.578286	2513.015192
747.907027	2523.097500
748.235720	2485.288846
748.564365	2540.741538
748.892963	2543.262115
749.221514	2495.371154
749.550017	2480.247692
749.878473	2588.632500
750.206881	2495.371154
750.535242	2490.330000
750.863555	2518.056346
751.191821	2460.083077
751.520039	2492.850577
751.848210	2477.727115
752.176334	2530.659231
752.504411	2487.809423
752.832440	2485.288846
753.160421	2505.453462
753.488356	2528.138654
753.816243	2530.659231
754.144082	2472.685962
754.471875	2427.315577
754.799620	2548.303269
755.127318	2487.809423
755.454969	2535.700385
755.782572	2576.029615
756.110129	2437.397885
756.437638	2497.891731
756.765100	2507.974038
757.092515	2502.932885
757.419882	2457.562500
757.747203	2538.220962
758.074477	2477.727115
758.401703	2533.179808
758.728882	2545.782692
759.056014	2568.467885
759.383099	2487.809423
759.710138	2482.768269
760.037129	2485.288846
760.364073	2432.356731
760.690970	2558.385577
761.017820	2392.027500
761.344623	2429.836154
761.671379	2568.467885
761.998088	2470.165385
762.324751	2513.015192
762.651366	2465.124231
762.977935	2475.206538
763.304456	2457.562500
763.630931	2535.700385
763.957359	2535.700385
764.283740	2523.097500
764.610074	2538.220962
764.936362	2477.727115
765.262602	2523.097500
765.588796	2452.521346
765.914943	2565.947308
766.241044	2467.644808
766.567097	2563.426731
766.893104	2510.494615
767.219064	2555.865000
767.544978	2472.685962
767.870845	2523.097500
768.196665	2500.412308
768.522438	2525.618077
768.848165	2427.315577
769.173846	2434.877308
769.499479	2515.535769
769.825066	2505.453462
770.150607	2523.097500
770.476101	2583.591346
770.801548	2497.891731
771.126949	2528.138654
771.452303	2482.768269
771.777611	2535.700385
772.102872	2495.371154
772.428087	2507.974038
772.753256	2513.015192
773.078378	2525.618077
773.403453	2523.097500
773.728482	2528.138654
774.053465	2381.945192
774.378401	2505.453462
774.703291	2487.809423
775.028135	2505.453462
775.352932	2392.027500
775.677683	2581.070769
776.002388	2442.439038
776.327046	2452.521346
776.651658	2518.056346
776.976224	2505.453462
777.300743	2470.165385
777.625216	2500.412308
777.949643	2465.124231
778.274024	2553.344423
778.598359	2467.644808
778.922647	2555.865000
779.246889	2525.618077
779.571086	2482.768269
779.895236	2550.823846
780.219339	2497.891731
780.543397	2563.426731
780.867409	2472.685962
781.191374	2470.165385
781.515294	2339.095385
781.839167	2467.644808
782.162995	2470.165385
782.486776	2570.988462
782.810511	2560.906154
783.134201	2500.412308
783.457844	2528.138654
783.781441	2389.506923
784.104993	2389.506923
784.428498	2465.124231
784.751958	2520.576923
785.075372	2507.974038
785.398739	2455.041923
785.722061	2500.412308
786.045337	2467.644808
786.368568	2490.330000
786.691752	2563.426731
787.014891	2472.685962
787.337983	2495.371154
787.661030	2548.303269
787.984031	2586.111923
788.306987	2450.000769
788.629897	2586.111923
788.952760	2543.262115
789.275579	2518.056346
789.598351	2528.138654
789.921078	2490.330000
790.243759	2507.974038
790.566395	2510.494615
790.888984	2477.727115
791.211529	2487.809423
791.534027	2515.535769
791.856480	2568.467885
792.178888	2530.659231
792.501249	2528.138654
792.823566	2407.150962
793.145836	2518.056346
793.468062	2502.932885
793.790241	2444.959615
794.112375	2442.439038
794.434464	2482.768269
794.756507	2462.603654
795.078505	2510.494615
795.400457	2472.685962
795.722364	2475.206538
796.044226	2470.165385
796.366042	2450.000769
796.687812	2424.795000
797.009538	2475.206538
797.331218	2477.727115
797.652852	2530.659231
797.974442	2359.260000
798.295986	2457.562500
798.617484	2452.521346
798.938938	2467.644808
799.260346	2510.494615
799.581709	2505.453462
799.903026	2497.891731
800.224299	2510.494615
800.545526	2513.015192
800.866708	2535.700385
801.187845	2472.685962
801.508936	2467.644808
801.829983	2530.659231
802.150984	2455.041923
802.471940	2487.809423
802.792851	2510.494615
803.113717	2518.056346
803.434538	2485.288846
803.755314	2417.233269
804.076045	2472.685962
804.396731	2429.836154
804.717372	2462.603654
805.037967	2543.262115
805.358518	2437.397885
805.679024	2495.371154
805.999485	2389.506923
806.319901	2530.659231
806.640272	2570.988462
806.960598	2558.385577
807.280879	2608.797115
807.601115	2520.576923
807.921306	2475.206538
808.241453	2555.865000
808.561554	2593.673654
808.881611	2563.426731
809.201623	2460.083077
809.521590	2538.220962
809.841513	2467.644808
810.161390	2485.288846
810.481223	2485.288846
810.801011	2520.576923
811.120755	2533.179808
811.440453	2442.439038
811.760107	2513.015192
812.079716	2518.056346
812.399281	2560.906154
812.718801	2570.988462
813.038276	2485.288846
813.357707	2419.753846
813.677093	2502.932885
813.996434	2520.576923
814.315731	2480.247692
814.634983	2578.550192
814.954191	2455.041923
815.273354	2495.371154
815.592473	2485.288846
815.911547	2500.412308
816.230577	2442.439038
816.549562	2553.344423
816.868502	2523.097500
817.187399	2502.932885
817.506250	2485.288846
817.825058	2570.988462
818.143821	2460.083077
818.462539	2540.741538
818.781213	2414.712692
819.099843	2462.603654
819.418429	2485.288846
819.736970	2485.288846
820.055466	2505.453462
820.373919	2407.150962
820.692327	2515.535769
821.010691	2482.768269
821.329011	2467.644808
821.647286	2583.591346
821.965517	2452.521346
822.283704	2543.262115
822.601847	2384.465769
822.919945	2603.755962
823.237999	2480.247692
823.556010	2500.412308
823.873976	2465.124231
824.191897	2497.891731
824.509775	2500.412308
824.827609	2475.206538
825.145398	2505.453462
825.463144	2523.097500
825.780845	2472.685962
826.098502	2495.371154
826.416116	2452.521346
826.733685	2528.138654
827.051210	2419.753846
827.368692	2414.712692
827.686129	2457.562500
828.003522	2490.330000
828.320872	2558.385577
828.638177	2450.000769
828.955439	2528.138654
829.272656	2502.932885
829.589830	2540.741538
829.906960	2548.303269
830.224046	2545.782692
830.541088	2563.426731
830.858086	2530.659231
831.175041	2450.000769
831.491952	2518.056346
831.808819	2467.644808
832.125642	2525.618077
832.442421	2434.877308
832.759157	2540.741538
833.075849	2538.220962
833.392497	2528.138654
833.709101	2502.932885
834.025662	2452.521346
834.342179	2470.165385
834.658653	2417.233269
834.975083	2578.550192
835.291469	2444.959615
835.607811	2450.000769
835.924110	2500.412308
836.240366	2492.850577
836.556578	2477.727115
836.872746	2568.467885
837.188871	2540.741538
837.504952	2495.371154
837.820990	2550.823846
838.136984	2492.850577
838.452935	2513.015192
838.768842	2560.906154
839.084706	2482.768269
839.400526	2515.535769
839.716303	2470.165385
840.032037	2485.288846
840.347727	2424.795000
840.663373	2444.959615
840.978977	2502.932885
841.294537	2480.247692
841.610054	2523.097500
841.925527	2533.179808
842.240957	2553.344423
842.556344	2520.576923
842.871687	2490.330000
843.186987	2500.412308
843.502244	2510.494615
843.817458	2490.330000
844.132629	2485.288846
844.447756	2485.288846
844.762840	2470.165385
845.077881	2535.700385
845.392879	2470.165385
845.707833	2457.562500
846.022745	2578.550192
846.337613	2460.083077
846.652438	2528.138654
846.967221	2540.741538
847.281960	2457.562500
847.596656	2523.097500
847.911309	2450.000769
848.225919	2452.521346
848.540485	2460.083077
848.855009	2386.986346
849.169490	2444.959615
849.483928	2465.124231
849.798323	2455.041923
850.112675	2545.782692
850.426984	2528.138654
850.741251	2507.974038
851.055474	2492.850577
851.369654	2442.439038
851.683792	2487.809423
851.997887	2467.644808
852.311938	2492.850577
852.625947	2530.659231
852.939914	2404.630385
853.253837	2548.303269
853.567718	2467.644808
853.881555	2560.906154
854.195350	2530.659231
854.509103	2523.097500
854.822812	2558.385577
855.136479	2502.932885
855.450103	2535.700385
855.763685	2470.165385
856.077224	2470.165385
856.390720	2513.015192
856.704173	2515.535769
857.017584	2528.138654
857.330953	2535.700385
857.644278	2455.041923
857.957561	2520.576923
858.270802	2412.192115
858.584000	2568.467885
858.897155	2533.179808
859.210268	2568.467885
859.523339	2530.659231
859.836367	2535.700385
860.149352	2482.768269
860.462295	2581.070769
860.775195	2563.426731
861.088054	2460.083077
861.400869	2492.850577
861.713642	2500.412308
862.026373	2495.371154
862.339062	2530.659231
862.651708	2480.247692
862.964312	2444.959615
863.276873	2581.070769
863.589392	2381.945192
863.901869	2500.412308
864.214303	2450.000769
864.526696	2477.727115
864.839045	2460.083077
865.151353	2490.330000
865.463619	2525.618077
865.775842	2475.206538
866.088023	2492.850577
866.400162	2490.330000
866.712258	2470.165385
867.024313	2462.603654
867.336325	2528.138654
867.648296	2470.165385
867.960224	2485.288846
868.272110	2565.947308
868.583954	2565.947308
868.895755	2472.685962
869.207515	2515.535769
869.519233	2457.562500
869.830909	2487.809423
870.142542	2467.644808
870.454134	2545.782692
870.765684	2442.439038
871.077191	2467.644808
871.388657	2462.603654
871.700081	2467.644808
872.011463	2407.150962
872.322803	2525.618077
872.634101	2533.179808
872.945357	2515.535769
873.256571	2482.768269
873.567744	2442.439038
873.878874	2457.562500
874.189963	2480.247692
874.501010	2558.385577
874.812015	2550.823846
875.122979	2515.535769
875.433900	2553.344423
875.744780	2550.823846
876.055618	2497.891731
876.366415	2525.618077
876.677169	2442.439038
876.987882	2475.206538
877.298554	2505.453462
877.609183	2442.439038
877.919771	2487.809423
878.230317	2439.918462
878.540822	2502.932885
878.851285	2518.056346
879.161707	2520.576923
879.472087	2502.932885
879.782425	2545.782692
880.092722	2450.000769
880.402977	2518.056346
880.713191	2545.782692
881.023363	2535.700385
881.333494	2502.932885
881.643583	2490.330000
881.953631	2533.179808
882.263637	2432.356731
882.573602	2558.385577
882.883526	2535.700385
883.193408	2591.153077
883.503248	2515.535769
883.813048	2505.453462
884.122806	2528.138654
884.432522	2507.974038
884.742197	2475.206538
885.051831	2502.932885
885.361424	2447.480192
885.670975	2417.233269
885.980485	2487.809423
886.289954	2447.480192
886.599382	2444.959615
886.908768	2538.220962
887.218113	2553.344423
887.527417	2518.056346
887.836680	2442.439038
888.145901	2502.932885
888.455082	2513.015192
888.764221	2470.165385
889.073319	2467.644808
889.382376	2500.412308
889.691392	2510.494615
890.000366	2576.029615
890.309300	2555.865000
890.618193	2518.056346
890.927044	2490.330000
891.235855	2465.124231
891.544625	2528.138654
891.853353	2432.356731
892.162041	2507.974038
892.470687	2455.041923
892.779293	2553.344423
893.087858	2427.315577
893.396381	2576.029615
893.704864	2487.809423
894.013306	2523.097500
894.321707	2424.795000
894.630068	2513.015192
894.938387	2518.056346
895.246665	2392.027500
895.554903	2515.535769
895.863100	2442.439038
896.171256	2576.029615
896.479371	2487.809423
896.787446	2515.535769
897.095480	2513.015192
897.403473	2480.247692
897.711425	2502.932885
898.019336	2467.644808
898.327207	2457.562500
898.635038	2505.453462
898.942827	2576.029615
899.250576	2545.782692
899.558284	2457.562500
899.865952	2558.385577
900.173579	2457.562500
900.481165	2452.521346
900.788711	2422.274423
901.096216	2447.480192
901.403681	2422.274423
901.711105	2412.192115
902.018489	2510.494615
902.325832	2429.836154
902.633135	2482.768269
902.940397	2480.247692
903.247619	2535.700385
903.554800	2480.247692
903.861941	2439.918462
904.169041	2520.576923
904.476101	2399.589231
904.783121	2583.591346
905.090100	2470.165385
905.397039	2460.083077
905.703938	2485.288846
906.010796	2555.865000
906.317614	2465.124231
906.624391	2515.535769
906.931129	2444.959615
907.237826	2513.015192
907.544483	2523.097500
907.851099	2427.315577
908.157675	2518.056346
908.464211	2548.303269
908.770707	2490.330000
909.077163	2505.453462
909.383578	2477.727115
909.689954	2437.397885
909.996289	2533.179808
910.302584	2505.453462
910.608839	2518.056346
910.915054	2482.768269
911.221229	2558.385577
911.527363	2444.959615
911.833458	2467.644808
912.139513	2427.315577
912.445527	2500.412308
912.751502	2513.015192
913.057436	2482.768269
913.363331	2507.974038
913.669186	2528.138654
913.975000	2399.589231
914.280775	2470.165385
914.586510	2414.712692
914.892205	2543.262115
915.197859	2523.097500
915.503475	2520.576923
915.809050	2525.618077
916.114585	2427.315577
916.420081	2490.330000
916.725536	2470.165385
917.030952	2525.618077
917.336328	2457.562500
917.641665	2427.315577
917.946961	2475.206538
918.252218	2485.288846
918.557435	2533.179808
918.862612	2447.480192
919.167750	2492.850577
919.472848	2543.262115
919.777906	2502.932885
920.082925	2530.659231
920.387904	2553.344423
920.692843	2384.465769
920.997743	2490.330000
921.302603	2525.618077
921.607423	2424.795000
921.912204	2515.535769
922.216946	2563.426731
922.521647	2530.659231
922.826310	2452.521346
923.130932	2528.138654
923.435516	2432.356731
923.740059	2565.947308
924.044564	2520.576923
924.349028	2510.494615
924.653454	2507.974038
924.957840	2455.041923
925.262186	2543.262115
925.566493	2404.630385
925.870761	2500.412308
926.174989	2548.303269
926.479178	2513.015192
926.783328	2576.029615
927.087438	2528.138654
927.391509	2470.165385
927.695541	2487.809423
927.999533	2460.083077
928.303486	2407.150962
928.607400	2523.097500
928.911275	2460.083077
929.215110	2482.768269
929.518906	2520.576923
929.822663	2513.015192
930.126381	2465.124231
930.430060	2601.235385
930.733699	2450.000769
931.037299	2414.712692
931.340861	2505.453462
931.644383	2432.356731
931.947866	2505.453462
932.251309	2424.795000
932.554714	2452.521346
932.858080	2502.932885
933.161407	2490.330000
933.464694	2472.685962
933.767943	2467.644808
934.071153	2455.041923
934.374323	2535.700385
934.677455	2500.412308
934.980548	2460.083077
935.283602	2492.850577
935.586617	2437.397885
935.889593	2452.521346
936.192530	2535.700385
936.495428	2505.453462
936.798287	2460.083077
937.101108	2417.233269
937.403890	2485.288846
937.706632	2538.220962
938.009336	2502.932885
938.312002	2515.535769
938.614628	2487.809423
938.917216	2427.315577
939.219765	2528.138654
939.522275	2480.247692
939.824747	2553.344423
940.127179	2457.562500
940.429573	2432.356731
940.731929	2543.262115
941.034246	2550.823846
941.336524	2429.836154
941.638763	2502.932885
941.940964	2560.906154
942.243126	2439.918462
942.545250	2485.288846
942.847335	2500.412308
943.149381	2465.124231
943.451389	2495.371154
943.753359	2495.371154
944.055290	2457.562500
944.357182	2550.823846
944.659036	2492.850577
944.960851	2507.974038
945.262628	2548.303269
945.564367	2442.439038
945.866067	2565.947308
946.167729	2480.247692
946.469352	2442.439038
946.770937	2548.303269
947.072484	2455.041923
947.373992	2487.809423
947.675462	2540.741538
947.976893	2576.029615
948.278286	2427.315577
948.579641	2538.220962
948.880958	2538.220962
949.182236	2530.659231
949.483476	2487.809423
949.784678	2482.768269
950.085841	2518.056346
950.386967	2432.356731
950.688054	2505.453462
950.989103	2462.603654
951.290114	2510.494615
951.591087	2528.138654
951.892021	2439.918462
952.192917	2518.056346
952.493776	2505.453462
952.794596	2520.576923
953.095378	2528.138654
953.396122	2535.700385
953.696828	2523.097500
953.997496	2432.356731
954.298126	2419.753846
954.598718	2457.562500
954.899272	2538.220962
955.199788	2450.000769
955.500266	2465.124231
955.800706	2560.906154
956.101108	2397.068654
956.401472	2492.850577
956.701798	2500.412308
957.002087	2533.179808
957.302337	2439.918462
957.602550	2513.015192
957.902724	2444.959615
958.202861	2465.124231
958.502960	2485.288846
958.803022	2500.412308
959.103045	2475.206538
959.403031	2507.974038
959.702979	2487.809423
960.002889	2548.303269
960.302762	2434.877308
960.602596	2452.521346
960.902393	2513.015192
961.202153	2462.603654
961.501875	2573.509038
961.801559	2407.150962
962.101205	2465.124231
962.400814	2480.247692
962.700385	2540.741538
962.999918	2520.576923
963.299414	2548.303269
963.598873	2472.685962
963.898293	2495.371154
964.197677	2515.535769
964.497022	2520.576923
964.796331	2502.932885
965.095601	2520.576923
965.394835	2432.356731
965.694030	2447.480192
965.993189	2485.288846
966.292309	2470.165385
966.591393	2485.288846
966.890439	2485.288846
967.189447	2502.932885
967.488419	2502.932885
967.787353	2470.165385
968.086249	2487.809423
968.385108	2513.015192
968.683930	2490.330000
968.982714	2495.371154
969.281462	2480.247692
969.580172	2442.439038
969.878844	2530.659231
970.177480	2434.877308
970.476078	2563.426731
970.774639	2444.959615
971.073162	2505.453462
971.371649	2520.576923
971.670098	2492.850577
971.968510	2495.371154
972.266885	2472.685962
972.565223	2472.685962
972.863524	2465.124231
973.161788	2586.111923
973.460014	2558.385577
973.758204	2444.959615
974.056356	2520.576923
974.354471	2502.932885
974.652550	2502.932885
974.950591	2487.809423
975.248595	2437.397885
975.546563	2495.371154
975.844493	2485.288846
976.142386	2515.535769
976.440243	2523.097500
976.738062	2523.097500
977.035845	2437.397885
977.333590	2492.850577
977.631299	2467.644808
977.928971	2465.124231
978.226606	2520.576923
978.524204	2457.562500
978.821765	2465.124231
979.119290	2397.068654
979.416777	2507.974038
979.714228	2540.741538
980.011642	2432.356731
980.309020	2538.220962
980.606360	2432.356731
980.903664	2523.097500
981.200931	2419.753846
981.498162	2470.165385
981.795356	2533.179808
982.092513	2520.576923
982.389633	2535.700385
982.686717	2515.535769
982.983764	2470.165385
983.280775	2490.330000
983.577749	2485.288846
983.874686	2528.138654
984.171587	2472.685962
984.468451	2455.041923
984.765279	2465.124231
985.062070	2487.809423
985.358824	2447.480192
985.655543	2500.412308
985.952224	2608.797115
986.248869	2563.426731
986.545478	2533.179808
986.842050	2477.727115
987.138586	2525.618077
987.435086	2568.467885
987.731549	2520.576923
988.027975	2495.371154
988.324366	2417.233269
988.620719	2507.974038
988.917037	2502.932885
989.213318	2480.247692
989.509563	2497.891731
989.805772	2462.603654
990.101944	2548.303269
990.398080	2409.671538
990.694180	2535.700385
990.990244	2457.562500
991.286271	2374.383462
991.582262	2523.097500
991.878217	2475.206538
992.174136	2422.274423
992.470019	2447.480192
992.765865	2482.768269
993.061676	2475.206538
993.357450	2497.891731
993.653188	2570.988462
993.948890	2472.685962
994.244556	2520.576923
994.540186	2487.809423
994.835780	2477.727115
995.131337	2450.000769
995.426859	2591.153077
995.722345	2460.083077
996.017795	2538.220962
996.313208	2507.974038
996.608586	2520.576923
996.903928	2470.165385
997.199234	2480.247692
997.494504	2407.150962
997.789738	2412.192115
998.084936	2429.836154
998.380099	2565.947308
998.675225	2550.823846
998.970316	2472.685962
999.265371	2520.576923
999.560390	2490.330000
999.855373	2497.891731
1000.150320	2465.124231
1000.445232	2530.659231
1000.740108	2470.165385
1001.034948	2490.330000
1001.329752	2573.509038
1001.624521	2487.809423
1001.919254	2429.836154
1002.213951	2470.165385
1002.508613	2439.918462
1002.803239	2500.412308
1003.097829	2467.644808
1003.392384	2470.165385
1003.686903	2409.671538
1003.981386	2510.494615
1004.275834	2465.124231
1004.570246	2558.385577
1004.864623	2455.041923
1005.158964	2495.371154
1005.453270	2465.124231
1005.747540	2422.274423
1006.041775	2417.233269
1006.335974	2502.932885
1006.630138	2543.262115
1006.924266	2467.644808
1007.218359	2500.412308
1007.512416	2553.344423
1007.806438	2555.865000
1008.100425	2470.165385
1008.394376	2507.974038
1008.688292	2404.630385
1008.982172	2540.741538
1009.276017	2518.056346
1009.569827	2530.659231
1009.863602	2477.727115
1010.157341	2497.891731
1010.451045	2439.918462
1010.744714	2432.356731
1011.038347	2470.165385
1011.331945	2442.439038
1011.625508	2518.056346
1011.919036	2485.288846
1012.212528	2500.412308
1012.505986	2485.288846
1012.799408	2591.153077
1013.092795	2588.632500
1013.386147	2528.138654
1013.679464	2525.618077
1013.972745	2397.068654
1014.265992	2515.535769
1014.559204	2467.644808
1014.852380	2462.603654
1015.145521	2427.315577
1015.438628	2518.056346
1015.731699	2477.727115
1016.024736	2502.932885
1016.317737	2520.576923
1016.610703	2548.303269
1016.903635	2538.220962
1017.196531	2502.932885
1017.489393	2510.494615
1017.782219	2505.453462
1018.075011	2492.850577
1018.367768	2482.768269
1018.660490	2535.700385
1018.953177	2535.700385
1019.245829	2535.700385
