Dividing Wavelength (nm)	Counts (n)	Blue Motor Position (mm): 0.000000	Red Motor Position (mm): 34.200000	
326.493990	2128.125617
326.888308	2128.125617
327.282561	2128.125617
327.676750	2093.122365
328.070874	2094.233939
328.464933	2097.553539
328.858929	2105.566453
329.252859	2112.797988
329.646726	2123.906171
330.040528	2137.550054
330.434265	2155.090749
330.827938	2171.988696
331.221547	2190.628363
331.615091	2207.748121
332.008571	2228.520196
332.401986	2247.232959
332.795338	2266.938829
333.188625	2286.619494
333.581847	2305.468368
333.975006	2324.705411
334.368100	2341.840293
334.761129	2357.961903
335.154095	2374.963194
335.546996	2395.500855
335.939833	2415.604977
336.332606	2429.647111
336.725315	2442.121446
337.117960	2450.141922
337.510540	2460.115844
337.903056	2473.232927
338.295508	2478.067393
338.687896	2486.798672
339.080220	2496.533140
339.472480	2499.686382
339.864676	2503.119407
340.256807	2510.209790
340.648875	2515.903773
341.040879	2519.848476
341.432818	2518.502488
341.824694	2518.252951
342.216506	2518.923425
342.608253	2521.030627
342.999937	2520.375277
343.391557	2520.803775
343.783113	2518.341171
344.174605	2518.643641
344.566033	2518.361336
344.957397	2514.993845
345.348697	2512.647188
345.739934	2511.089472
346.131106	2509.874553
346.522215	2510.209790
346.913260	2506.302896
347.304241	2502.030518
347.695159	2504.001609
348.086012	2502.945488
348.476802	2501.670076
348.867528	2498.421052
349.258191	2497.901813
349.648789	2493.528612
350.039324	2492.517861
350.429796	2495.592965
350.820203	2489.525936
351.210548	2492.898468
351.600828	2487.527118
351.991045	2490.229177
352.381198	2486.541573
352.771288	2490.937459
353.161314	2490.922336
353.551276	2489.679691
353.941175	2489.455360
354.331010	2486.707931
354.720782	2490.761019
355.110490	2488.724393
355.500135	2491.068529
355.889717	2487.471666
356.279235	2489.772952
356.668689	2489.266317
357.058080	2493.064826
357.447408	2486.675163
357.836672	2487.277581
358.225873	2486.428147
358.615010	2486.206336
359.004084	2491.338231
359.393095	2491.872593
359.782043	2493.931904
360.170927	2493.142964
360.559748	2495.096411
360.948505	2495.683705
361.337199	2494.531802
361.725830	2497.430465
362.114398	2498.907523
362.502903	2496.056751
362.891344	2496.802842
363.279722	2498.781494
363.668037	2498.365599
364.056289	2499.041114
364.444478	2502.063286
364.832603	2500.739983
365.220665	2501.231495
365.608665	2500.132524
365.996601	2502.678306
366.384474	2505.219048
366.772284	2506.761641
367.160031	2508.780623
367.547715	2510.769358
367.935336	2511.391941
368.322893	2514.706499
368.710388	2517.375790
369.097820	2524.234280
369.485189	2527.213602
369.872495	2531.196114
370.259738	2539.577032
370.646918	2548.391489
371.034035	2556.240566
371.421090	2566.378326
371.808081	2575.681776
372.195010	2585.401120
372.581875	2597.822523
372.968678	2609.386930
373.355418	2618.476131
373.742096	2639.323822
374.128710	2655.533653
374.515262	2667.937412
374.901751	2683.648168
375.288177	2694.466484
375.674540	2716.967674
376.060841	2736.358472
376.447079	2757.392687
376.833254	2780.667694
377.219367	2790.457615
377.605417	2826.900116
377.991404	2834.545026
378.377329	2857.051257
378.763191	2876.232848
379.148991	2916.443611
379.534727	2938.710388
379.920402	2968.556539
380.306013	2979.636995
380.691563	3026.257586
381.077049	3050.510577
381.462474	3066.286868
381.847835	3110.452417
382.233134	3130.705252
382.618371	3132.089049
383.003545	3198.271837
383.388657	3201.609081
383.773706	3236.708115
384.158693	3255.163779
384.543618	3278.605145
384.928480	3316.305414
385.313280	3362.832743
385.698017	3358.943493
386.082692	3416.485743
386.467305	3421.761311
386.851856	3450.684931
387.236344	3473.349959
387.620770	3504.050586
388.005133	3531.265255
388.389435	3560.763567
388.773674	3572.219589
389.157851	3613.274746
389.541965	3624.277064
389.926018	3590.967640
390.310008	3664.029083
390.693936	3686.333668
391.077802	3722.433370
391.461606	3713.316444
391.845348	3774.483284
392.229027	3773.122172
392.612645	3787.769245
392.996200	3869.909806
393.379694	3905.530599
393.763125	3967.710711
394.146494	3939.134930
394.529801	4001.690608
394.913047	4046.108215
395.296230	4013.396167
395.679351	4068.276689
396.062410	4089.678908
396.445408	4077.958225
396.828343	4107.693471
397.211217	4131.187768
397.594028	4053.128022
397.976778	4118.829380
398.359466	4145.577742
398.742092	4173.898944
399.124656	4094.737705
399.507158	4173.412473
399.889598	4199.876010
400.271977	4262.320783
400.654294	4233.984457
401.036549	4244.908637
401.418742	4210.656518
401.800874	4312.215603
402.182944	4336.977751
402.564952	4397.534611
402.946898	4388.334505
403.328783	4385.448445
403.710606	4296.908139
404.092367	4488.923169
404.474067	4456.722798
404.855705	4459.707162
405.237282	4388.233682
405.618797	4501.079911
406.000250	4533.612997
406.381642	4616.219865
406.762972	4575.973813
407.144240	4585.050411
407.525447	4586.572839
407.906593	4646.953259
408.287677	4690.788613
408.668700	4614.677272
409.049661	4668.715921
409.430560	4709.481211
409.811399	4641.675171
410.192176	4801.247855
410.572891	4740.955655
410.953545	4839.782435
411.334138	4717.630236
411.714669	4788.612203
412.095139	4683.615051
412.475547	4825.889015
412.855894	4808.915450
413.236180	4817.800484
413.616405	4769.256693
413.996568	4855.528479
414.376670	4797.809788
414.756711	4752.754476
415.136691	4785.222027
415.516609	4860.365466
415.896466	4898.549686
416.276262	4932.259882
416.655997	4913.058127
417.035670	5099.510243
417.415283	5189.504922
417.794834	5130.876302
418.174324	5084.560701
418.553753	4994.497967
418.933121	5178.936142
419.312428	5246.772429
419.691674	5186.157595
420.070859	5308.760977
420.449983	5223.948605
420.829045	5339.227191
421.208047	5242.000977
421.586988	5313.426565
421.965867	5326.407537
422.344686	5461.250840
422.723444	5311.851205
423.102141	5131.866889
423.480777	5429.330254
423.859352	5198.911715
424.237866	5457.371672
424.616319	5449.852791
424.994712	5562.517539
425.373044	5439.450370
425.751314	5582.326753
426.129524	5386.135127
426.507673	5579.410445
426.885762	5654.707640
427.263789	5593.102219
427.641756	5475.154342
428.019662	5595.625317
428.397508	5606.645279
428.775292	5550.307864
429.153016	5648.930477
429.530679	5573.358540
429.908282	5661.929092
430.285824	5532.459659
430.663305	5811.830323
431.040726	5535.759094
431.418086	5540.840577
431.795385	5645.815044
432.172624	5659.569832
432.549802	5654.321991
432.926920	5665.334392
433.303977	5677.153377
433.680974	5709.071443
434.057910	5728.840327
434.434786	5737.107820
434.811601	5705.388880
435.188355	5942.728923
435.565050	5815.528009
435.941683	5796.590915
436.318257	6006.403738
436.694770	5988.525286
437.071222	6031.821235
437.447614	5959.581501
437.823946	5872.838367
438.200218	6026.966604
438.576429	5888.990223
438.952580	5988.240460
439.328670	6033.192429
439.704700	5943.356547
440.080670	5928.401964
440.456580	6200.120157
440.832429	6075.991825
441.208218	5927.907931
441.583947	6085.171767
441.959616	6084.715542
442.335224	6014.275499
442.710773	6150.187528
443.086261	6183.144071
443.461689	5975.882072
443.837057	6124.497808
444.212365	6277.413648
444.587612	6168.325599
444.962800	6325.665052
445.337927	6301.734695
445.712995	5914.155663
446.088002	6492.489436
446.462949	6324.132541
446.837837	6254.483960
447.212664	6426.533499
447.587431	6567.907618
447.962139	7110.711337
448.336786	8038.114767
448.711374	7778.485261
449.085901	6851.671647
449.460369	6773.672394
449.834776	6705.793258
450.209124	7103.174812
450.583412	7250.794921
450.957640	7398.835965
451.331808	7161.049779
451.705917	6708.747374
452.079965	6632.938502
452.453954	6849.269537
452.827883	6722.703808
453.201752	6815.014897
453.575562	6614.177848
453.949311	6820.267779
454.323001	6707.913063
454.696632	6785.544312
455.070202	6920.606905
455.443713	7080.434167
455.817164	7180.034765
456.190556	7260.801611
456.563888	7334.465472
456.937160	7379.694704
457.310373	7035.756942
457.683526	7064.158802
458.056619	6948.509692
458.429653	6936.904956
458.802628	6870.333999
459.175542	6982.708880
459.548398	7340.013261
459.921194	7496.510841
460.293930	7499.205338
460.666607	8035.901700
461.039224	8345.552054
461.411782	8466.265004
461.784280	8485.076069
462.156719	8375.325109
462.529099	8255.189372
462.901419	7842.722164
463.273680	7732.560350
463.645882	7748.969305
464.018024	7616.729758
464.390106	7781.865355
464.762130	8169.071341
465.134094	8637.316395
465.505999	9655.490840
465.877845	10881.562470
466.249631	11529.854855
466.621358	11145.179528
466.993026	10514.105204
467.364634	10260.129353
467.736184	9900.627028
468.107674	9573.085619
468.479105	9599.934804
468.850477	9366.738589
469.221790	9135.226119
469.593043	8808.750914
469.964238	8668.765633
470.335373	8682.747273
470.706449	8739.004030
471.077467	8715.983601
471.448425	10032.236432
471.819324	11108.200144
472.190164	11130.391303
472.560945	9883.134224
472.931667	9093.447557
473.302330	8955.277092
473.672934	8598.680992
474.043479	8960.456877
474.413965	8898.554028
474.784393	8783.340978
475.154761	8939.697406
475.525070	9023.952730
475.895321	8851.925876
476.265513	9029.505561
476.635645	9196.420686
477.005719	9197.418834
477.375734	9310.975866
477.745691	9548.948574
478.115588	9682.634933
478.485427	9928.769270
478.855207	10452.325864
479.224928	11277.406473
479.594591	11910.197309
479.964194	11720.491128
480.333739	11657.015440
480.703226	11578.829664
481.072653	11664.070535
481.442022	11903.416957
481.811333	12099.336361
482.180584	11897.642316
482.549777	11605.840167
482.918912	11431.615369
483.287988	11444.679519
483.657005	11466.653909
484.025964	11141.101235
484.394864	11271.505802
484.763706	11246.335321
485.132489	11004.085194
485.501213	10965.288474
485.869879	11039.103569
486.238487	10882.802594
486.607036	10994.897691
486.975527	10772.343351
487.343959	10960.494336
487.712333	11003.636531
488.080648	10941.998343
488.448905	10986.403347
488.817104	10920.991855
489.185244	11190.897752
489.553326	11342.202944
489.921350	11874.016948
490.289315	12936.503136
490.657222	13275.195578
491.025070	13182.188810
491.392861	13063.454513
491.760593	12683.235567
492.128267	12339.905263
492.495883	12003.778769
492.863440	11673.396669
493.230939	11330.051243
493.598380	11258.406364
493.965763	11124.319233
494.333088	11029.114523
494.700354	10940.123034
495.067563	11004.105358
495.434713	10824.146248
495.801805	10957.172216
496.168839	10877.650535
496.535815	10815.677110
496.902733	10805.138578
497.269593	10739.066695
497.636395	10833.484986
498.003139	10816.612244
498.369825	10684.796153
498.736453	10833.159831
499.103023	10761.615776
499.469535	10786.269539
499.835989	10772.403845
500.202385	10727.209901
500.568723	10571.375233
500.935003	10789.884046
501.301226	10584.744373
501.667390	10832.156642
502.033497	10929.080386
502.399546	10783.839703
502.765537	10677.431027
503.131470	10754.956412
503.497345	10911.673282
503.863163	10521.931596
504.228923	10821.620630
504.594625	10871.691891
504.960269	10616.717891
505.325856	10822.507873
505.691385	10614.494742
506.056856	10754.510270
506.422270	10761.036043
506.787625	10641.248146
507.152924	10744.027190
507.518164	10716.883097
507.883347	10629.736671
508.248472	10540.825840
508.613540	10749.292675
508.978550	10613.562129
509.343503	10580.497201
509.708398	10677.201655
510.073236	10768.368402
510.438016	10765.091652
510.802738	10692.355363
511.167403	10727.461959
511.532010	10606.053330
511.896561	10810.583024
512.261053	10866.217198
512.625488	10716.384023
512.989866	10677.252066
513.354186	10641.840481
513.718449	10525.266319
514.082655	10680.417911
514.446803	10565.416589
514.810894	10649.271142
515.174927	10498.094500
515.538904	10497.222380
515.902822	10605.098031
516.266684	10480.304268
516.630488	10392.399148
516.994235	10419.442417
517.357925	10435.891702
517.721558	10491.530917
518.085133	10470.776487
518.448651	10453.051790
518.812112	10314.871243
519.175516	10284.697416
519.538863	10355.079486
519.902152	10249.868084
520.265385	10343.391571
520.628560	10241.008257
520.991678	10174.633904
521.354739	10197.387152
521.717743	10104.249314
522.080690	10051.808712
522.443580	10115.458320
522.806413	10035.619046
523.169189	10022.635554
523.531908	10018.307724
523.894569	9825.186161
524.257174	9783.105129
524.619722	9833.216719
524.982213	9755.348536
525.344647	9738.289272
525.707025	9661.318414
526.069345	9688.891005
526.431608	9566.577489
526.793815	9607.509138
527.155964	9393.917970
527.518057	9383.041681
527.880093	9295.774266
528.242072	9303.767016
528.603995	9165.538577
528.965860	9064.090397
529.327669	9052.503305
529.689421	8956.343296
530.051117	8884.300166
530.412755	8897.061847
530.774337	8772.615923
531.135862	8697.810241
531.497331	8677.794340
531.858743	8502.919233
532.220098	8563.282010
532.581396	8424.201616
532.942638	8363.196093
533.303824	8277.403216
533.664953	8226.502686
534.026025	8113.323741
534.387040	8119.166438
534.747999	8075.026095
535.108902	8050.248824
535.469748	7846.618976
535.830537	7854.999894
536.191270	7778.621372
536.551947	7733.626554
536.912567	7677.750404
537.273131	7581.308090
537.633638	7506.799836
537.994089	7440.947244
538.354483	7354.264603
538.714821	7395.012250
539.075103	7340.608117
539.435328	7256.567042
539.795497	7116.400280
540.155609	7134.387117
540.515665	7139.884495
540.875665	6938.571057
541.235609	6909.324803
541.595496	6860.123142
541.955328	6871.095213
542.315102	6764.058914
542.674821	6684.887593
543.034483	6632.197453
543.394090	6581.092756
543.753640	6490.238560
544.113134	6539.026847
544.472571	6418.679382
544.831953	6420.572335
545.191278	6277.398524
545.550548	6238.115333
545.909761	6249.160501
546.268918	6175.720972
546.628019	6163.002141
546.987064	6042.695004
547.346053	5971.599612
547.704986	5946.250169
548.063863	5895.112705
548.422684	5849.180232
548.781449	5752.039718
549.140158	5742.499334
549.498811	5640.514271
549.857408	5547.618408
550.215949	5563.679525
550.574434	5469.420030
550.932864	5447.307009
551.291237	5430.923259
551.649555	5354.017936
552.007817	5315.231298
552.366022	5263.400675
552.724173	5211.083581
553.082267	5163.777393
553.440305	5143.721162
553.798288	5050.900917
554.156215	5043.026635
554.514086	4992.047967
554.871902	4908.586623
555.229661	4870.737640
555.587365	4827.547555
555.945014	4762.062966
556.302606	4740.015480
556.660143	4684.270401
557.017625	4674.084749
557.375050	4612.678454
557.732421	4599.546249
558.089735	4538.812948
558.446994	4502.982947
558.804197	4471.949604
559.161345	4434.922329
559.518437	4365.951782
559.875474	4337.159232
560.232455	4310.685613
560.589381	4267.072070
560.946251	4214.089543
561.303065	4216.443762
561.659825	4156.179288
562.016528	4115.154378
562.373177	4066.068663
562.729770	4039.252246
563.086307	3995.293384
563.442789	3983.890294
563.799216	3918.083072
564.155587	3901.031369
564.511904	3859.514946
564.868164	3827.117971
565.224370	3803.185093
565.580520	3755.762959
565.936615	3740.246288
566.292654	3684.196218
566.648638	3683.092206
567.004567	3646.042246
567.360441	3617.917648
567.716260	3579.491453
568.072023	3567.218764
568.427732	3530.115872
568.783385	3507.796163
569.138982	3480.848675
569.494525	3463.769246
569.850013	3430.512754
570.205445	3414.078593
570.560823	3390.652351
570.916145	3356.357381
571.271412	3341.894311
571.626625	3314.472954
571.981782	3292.687608
572.336884	3270.554422
572.691931	3258.322062
573.046923	3228.433061
573.401860	3209.470761
573.756743	3186.041998
574.111570	3171.437776
574.466342	3158.219870
574.821059	3142.362921
575.175722	3115.264198
575.530330	3100.561673
575.884882	3086.330496
576.239380	3065.843247
576.593823	3051.138201
576.948211	3036.579348
577.302544	3019.746936
577.656823	3002.009636
578.011047	2992.423882
578.365216	2978.485092
578.719330	2963.180148
579.073389	2952.593725
579.427394	2939.252312
579.781344	2926.294026
580.135239	2912.393044
580.489080	2905.814338
580.842866	2888.560989
581.196597	2878.695451
581.550273	2874.415512
581.903895	2863.420755
582.257463	2864.260107
582.610975	2845.315451
582.964434	2839.656756
583.317837	2829.430775
583.671186	2825.657472
584.024481	2815.456697
584.377721	2806.223823
584.730906	2799.554377
585.084037	2789.497275
585.437113	2783.238682
585.790135	2775.704678
586.143103	2767.159922
586.496016	2762.887544
586.848874	2753.090062
587.201679	2750.995462
587.554428	2740.940881
587.907124	2737.061713
588.259765	2732.093656
588.612352	2729.038717
588.964884	2726.157697
589.317362	2718.893395
589.669786	2715.367108
590.022155	2713.968187
590.374470	2710.716643
590.726731	2708.259081
591.078937	2699.815148
591.431090	2696.142667
591.783188	2688.233097
592.135232	2687.139167
592.487222	2687.287881
592.839157	2683.665812
593.191038	2681.377128
593.542866	2675.713392
593.894639	2670.974707
594.246358	2668.035714
594.598022	2668.933040
594.949633	2659.649755
595.301190	2658.671771
595.652692	2658.732265
596.004141	2658.772594
596.355535	2652.927376
596.706876	2648.788589
597.058162	2646.734319
597.409395	2649.474186
597.760573	2647.719864
598.111698	2641.867085
598.462768	2643.293731
598.813785	2639.989255
599.164748	2637.088071
599.515657	2638.108904
599.866511	2633.440796
600.217312	2636.783081
600.568060	2633.307205
600.918753	2633.392905
601.269392	2630.191772
601.619978	2628.450054
601.970510	2631.666310
602.320988	2627.777060
602.671412	2629.685136
603.021783	2626.080711
603.372100	2625.500979
603.722363	2624.586009
604.072572	2626.458798
604.422728	2627.139354
604.772830	2619.449073
605.122878	2617.997221
605.472872	2617.871192
605.822813	2614.576798
606.172701	2616.086624
606.522534	2618.473610
606.872314	2620.341358
607.222041	2618.614762
607.571714	2619.766666
607.921333	2617.697273
608.270899	2615.947992
608.620411	2617.354474
608.969870	2615.161572
609.319276	2617.868672
609.668627	2618.327417
610.017926	2622.836729
610.367171	2622.443519
610.716362	2618.229114
611.065500	2617.883795
611.414585	2616.946141
611.763616	2617.346912
612.112594	2618.067797
612.461518	2613.555965
612.810389	2613.901284
613.159207	2612.852724
613.507971	2611.577312
613.856682	2614.211315
614.205340	2610.201077
614.553945	2612.580501
614.902496	2612.162086
615.250994	2610.281735
615.599439	2612.404061
615.947830	2609.991869
616.296169	2610.140583
616.644454	2608.529934
616.992686	2608.933227
617.340864	2608.192177
617.688990	2604.408791
618.037063	2613.321551
618.385082	2607.892228
618.733048	2610.720316
619.080961	2609.475151
619.428821	2610.072527
619.776628	2608.038422
620.124382	2609.475151
620.472083	2608.350973
620.819731	2610.332147
621.167326	2602.936774
621.514868	2605.648915
621.862357	2604.244953
622.209793	2606.326950
622.557176	2605.114552
622.904506	2603.453492
623.251783	2600.927874
623.599007	2597.572986
623.946179	2598.568614
624.293297	2600.219592
624.640363	2600.111207
624.987376	2598.707246
625.334336	2600.320415
625.681243	2597.618357
626.028097	2598.404777
626.374899	2597.837647
626.721647	2598.528285
627.068343	2597.870414
627.414987	2595.680033
627.761577	2596.380753
628.108115	2596.539550
628.454600	2596.088367
628.801032	2593.900506
629.147412	2592.932604
629.493739	2593.887903
629.840014	2594.896134
630.186236	2593.421596
630.532405	2595.468305
630.878521	2592.710793
631.224585	2593.784559
631.570597	2592.569641
631.916556	2594.986874
632.262462	2592.315063
632.608316	2592.688108
632.954117	2591.450505
633.299866	2594.538212
633.645562	2590.195258
633.991206	2591.921853
634.336797	2590.575865
634.682336	2586.313569
635.027823	2588.264496
635.373257	2587.074783
635.718639	2587.120154
636.063968	2587.099989
636.409245	2586.192582
636.754470	2585.070925
637.099642	2584.899526
637.444762	2585.796851
637.789829	2586.348857
638.134845	2585.201995
638.479808	2586.058991
638.824719	2582.633527
639.169577	2583.586305
639.514383	2582.474731
639.859137	2581.864751
640.203839	2583.634196
640.548489	2581.350553
640.893086	2578.444328
641.237632	2577.282342
641.582125	2579.208063
641.926566	2576.896694
642.270955	2581.383321
642.615292	2584.077817
642.959576	2583.059504
643.303809	2582.583115
643.647990	2583.344330
643.992118	2580.168403
644.336195	2581.416088
644.680219	2582.676377
645.024192	2582.041191
645.368112	2581.164031
645.711981	2581.116140
646.055797	2585.345668
646.399562	2581.963053
646.743274	2583.568661
647.086935	2584.463466
647.430544	2585.837180
647.774101	2584.662591
648.117606	2586.459763
648.461059	2585.454053
648.804460	2587.634352
649.147810	2583.183013
649.491108	2584.040009
649.834354	2582.368866
650.177548	2582.431881
650.520690	2581.839545
650.863781	2582.199988
651.206820	2584.934814
651.549807	2580.276787
651.892742	2580.090265
652.235626	2580.201170
652.578458	2580.594380
652.921238	2579.266036
653.263967	2581.219483
653.606644	2577.030284
653.949269	2582.409196
654.291843	2577.514235
654.634365	2579.271077
654.976836	2576.647157
655.319255	2581.378280
655.661622	2578.262847
656.003938	2577.899883
656.346203	2576.546334
656.688416	2576.004410
657.030577	2576.238823
657.372687	2577.952816
657.714746	2577.370562
658.056753	2577.539441
658.398708	2571.248081
658.740612	2572.992320
659.082465	2569.839078
659.424266	2572.704974
659.766016	2570.570046
660.107715	2572.828483
660.449362	2573.617423
660.790958	2575.142372
661.132503	2576.382496
661.473996	2574.872671
661.815438	2574.723957
662.156829	2577.045408
662.498168	2577.748649
662.839456	2576.390058
663.180693	2574.728998
663.521879	2577.610017
663.863013	2576.964749
664.204097	2575.636405
664.545129	2576.788309
664.886110	2576.558937
665.227040	2577.521797
665.567918	2576.226220
665.908746	2575.933833
666.249522	2575.553226
666.590248	2575.170099
666.930922	2577.884760
667.271545	2578.315779
667.612118	2578.449369
667.952639	2576.251426
668.293109	2576.453072
668.633528	2577.224369
668.973896	2577.970460
669.314213	2577.879719
669.654480	2574.585325
669.994695	2577.035326
670.334859	2577.846951
670.674973	2575.734708
671.015035	2575.210428
671.355047	2575.086920
671.695008	2578.751838
672.034918	2573.549368
672.374777	2575.386868
672.714585	2576.442990
673.054342	2573.899728
673.394049	2575.893504
673.733705	2575.371745
674.073310	2574.701271
674.412864	2575.676735
674.752368	2576.412743
675.091820	2575.225551
675.431223	2575.651529
675.770574	2575.134811
676.109875	2571.815211
676.449125	2570.852350
676.788324	2574.245047
677.127473	2573.451065
677.466571	2570.728842
677.805619	2572.120201
678.144616	2571.910993
678.483562	2574.885273
678.822458	2572.916703
679.161303	2574.499625
679.500098	2573.229254
679.838842	2572.669686
680.177535	2572.863771
680.516179	2570.789336
680.854771	2573.723287
681.193314	2573.561971
681.531805	2574.199677
681.870247	2578.156982
682.208638	2574.781930
682.546978	2575.767475
682.885268	2577.778896
683.223508	2577.761252
683.561697	2575.235634
683.899836	2574.280335
684.237925	2574.494584
684.575963	2574.827300
684.913951	2576.233782
685.251889	2578.537589
685.589776	2576.163206
685.927614	2573.355283
686.265401	2572.006775
686.603137	2575.775037
686.940824	2574.212279
687.278460	2578.020871
687.616046	2574.408884
687.953582	2580.788465
688.291068	2578.429205
688.628504	2576.803432
688.965889	2579.843248
689.303224	2576.879050
689.640510	2575.989286
689.977745	2575.752352
690.314930	2573.448545
690.652065	2573.932495
690.989150	2573.098184
691.326185	2572.672207
691.663170	2569.385375
692.000105	2573.372927
692.336990	2568.520817
692.673825	2570.509552
693.010610	2570.827145
693.347345	2568.558625
693.684030	2562.930177
694.020665	2566.718604
694.357251	2562.237018
694.693786	2566.143913
695.030272	2566.577452
695.366707	2567.376475
695.703093	2566.411094
696.039429	2566.002760
696.375716	2564.624005
696.711952	2565.092832
697.048139	2566.524520
697.384276	2567.159705
697.720363	2564.624005
698.056400	2565.488563
698.392388	2564.190466
698.728326	2567.010991
699.064214	2563.915723
699.400053	2562.612584
699.735842	2564.407235
700.071581	2565.105435
700.407270	2563.557801
700.742910	2562.073181
701.078501	2562.405897
701.414042	2563.749365
701.749533	2558.627552
702.084974	2563.036041
702.420366	2560.517985
702.755709	2562.300033
703.091002	2560.049158
703.426246	2561.259035
703.761440	2562.529405
704.096584	2561.115362
704.431679	2560.913716
704.766725	2562.579817
705.101721	2560.160063
705.436668	2559.915567
705.771565	2559.116544
706.106413	2562.647873
706.441212	2562.186607
706.775961	2560.497820
707.110661	2562.083263
707.445311	2561.616957
707.779913	2562.128634
708.114465	2564.540826
708.448967	2562.910013
708.783421	2562.373130
709.117825	2561.246432
709.452180	2563.593089
709.786485	2563.809858
710.120742	2564.850857
710.454949	2567.547874
710.789107	2563.507389
711.123216	2563.479663
711.457275	2563.827502
711.791286	2560.893551
712.125247	2563.270455
712.459159	2566.786660
712.793023	2569.607185
713.126837	2565.261711
713.460602	2565.783470
713.794318	2568.399829
714.127985	2565.135682
714.461602	2564.571073
714.795171	2564.283727
715.128691	2562.688202
715.462162	2562.662996
715.795584	2560.228119
716.128957	2563.298181
716.462281	2562.239539
716.795556	2564.402194
717.128782	2563.356155
717.461960	2560.926318
717.795088	2561.175856
718.128167	2558.965310
718.461198	2559.202244
718.794180	2558.914898
719.127113	2555.186965
719.459997	2559.930691
719.792833	2559.212326
720.125619	2559.522357
720.458357	2556.984136
720.791046	2557.216029
721.123686	2556.563200
721.456278	2557.962120
721.788821	2558.438509
722.121315	2559.557645
722.453761	2557.899106
722.786158	2557.339538
723.118506	2558.246945
723.450805	2557.573951
723.783056	2556.046482
724.115259	2555.880123
724.447412	2558.922460
724.779518	2559.623180
725.111574	2557.074877
725.443582	2556.918601
725.775542	2559.832388
726.107453	2556.482541
726.439315	2555.358364
726.771129	2562.945301
727.102895	2559.630742
727.434612	2560.311298
727.766281	2560.132337
728.097901	2557.261400
728.429473	2557.538663
728.760996	2558.173848
729.092471	2556.225443
729.423897	2559.419013
729.755276	2559.965979
730.086606	2559.499672
730.417887	2560.341545
730.749120	2559.910526
731.080305	2559.164435
731.411442	2563.862791
731.742530	2562.783984
732.073570	2562.451268
732.404562	2562.398335
732.735506	2563.726679
733.066401	2561.932029
733.397249	2562.768860
733.728048	2559.587892
734.058798	2559.209806
734.389501	2557.631924
734.720156	2558.251986
735.050762	2558.763663
735.381320	2555.265103
735.711831	2559.368602
736.042293	2556.356512
736.372707	2552.671429
736.703073	2554.236707
737.033391	2554.849207
737.363661	2556.638817
737.693883	2555.774259
738.024056	2557.155535
738.354182	2556.361554
738.684260	2558.483879
739.014290	2557.639486
739.344272	2559.484548
739.674207	2559.724003
740.004093	2559.842470
740.333931	2557.342058
740.663722	2559.960937
740.993464	2555.370967
741.323159	2560.331462
741.652806	2556.454815
741.982405	2557.170659
742.311956	2554.763508
742.641460	2556.825340
742.970915	2557.460525
743.300323	2556.270813
743.629683	2556.376677
743.958996	2553.389793
744.288260	2553.329300
744.617477	2551.932900
744.946647	2551.075904
745.275768	2553.810730
745.604842	2550.662529
745.933869	2549.424926
746.262847	2548.847714
746.591778	2554.082952
746.920662	2550.602035
747.249498	2554.861810
747.578286	2551.040616
747.907027	2554.942469
748.235720	2553.808209
748.564365	2554.826522
748.892963	2552.137067
749.221514	2554.317366
749.550017	2555.010524
749.878473	2554.466080
750.206881	2553.609084
750.535242	2554.211502
750.863555	2552.033723
751.191821	2551.915256
751.520039	2552.918446
751.848210	2554.607232
752.176334	2551.257385
752.504411	2552.565565
752.832440	2552.331151
753.160421	2553.377191
753.488356	2549.611449
753.816243	2555.015566
754.144082	2552.379042
754.471875	2553.636810
754.799620	2551.068342
755.127318	2551.181768
755.454969	2551.403579
755.782572	2551.368291
756.110129	2551.965667
756.437638	2551.690925
756.765100	2549.409803
757.092515	2553.949362
757.419882	2551.340564
757.747203	2551.930379
758.074477	2552.520194
758.401703	2552.028682
758.728882	2553.926676
759.056014	2550.281922
759.383099	2554.955072
759.710138	2555.280226
760.037129	2556.835422
760.364073	2553.190668
760.690970	2552.351316
761.017820	2553.019269
761.344623	2553.223435
761.671379	2555.605381
761.998088	2550.133208
762.324751	2557.213509
762.651366	2559.761812
762.977935	2569.019891
763.304456	2572.331929
763.630931	2579.598752
763.957359	2570.154151
764.283740	2567.230281
764.610074	2562.325239
764.936362	2559.282902
765.262602	2559.018242
765.588796	2557.314332
765.914943	2555.179403
766.241044	2551.509443
766.567097	2553.634289
766.893104	2551.275029
767.219064	2554.962633
767.544978	2551.474155
767.870845	2550.460883
768.196665	2547.436191
768.522438	2549.021634
768.848165	2552.197561
769.173846	2547.665563
769.499479	2549.586243
769.825066	2549.369473
770.150607	2548.900646
770.476101	2544.325799
770.801548	2548.101623
771.126949	2550.133208
771.452303	2547.300080
771.777611	2547.307641
772.102872	2550.125646
772.428087	2548.701520
772.753256	2547.073228
773.078378	2544.179605
773.403453	2546.042312
773.728482	2545.676828
774.053465	2547.302600
774.378401	2547.103475
774.703291	2544.650953
775.028135	2543.496529
775.352932	2545.671787
775.677683	2541.303627
776.002388	2545.956612
776.327046	2545.719678
776.651658	2545.434853
776.976224	2543.473844
777.300743	2545.722198
777.625216	2545.276056
777.949643	2545.472661
778.274024	2546.546427
778.598359	2541.457382
778.922647	2542.221117
779.246889	2539.982845
779.571086	2541.744728
779.895236	2543.098278
780.219339	2542.064841
780.543397	2545.119781
780.867409	2544.971067
781.191374	2546.354863
781.515294	2543.163813
781.839167	2541.464944
782.162995	2545.394523
782.486776	2544.986190
782.810511	2543.393185
783.134201	2543.635161
783.457844	2542.432846
783.781441	2541.490150
784.104993	2543.123484
784.428498	2547.448794
784.751958	2542.261446
785.075372	2544.398896
785.398739	2544.131714
785.722061	2543.773793
786.045337	2541.714481
786.368568	2544.159441
786.691752	2544.421581
787.014891	2542.238761
787.337983	2547.098433
787.661030	2546.369987
787.984031	2547.211859
788.306987	2548.273022
788.629897	2546.271684
788.952760	2544.358566
789.275579	2545.185316
789.598351	2546.591797
789.921078	2544.918134
790.243759	2544.149358
790.566395	2544.293031
790.888984	2544.393854
791.211529	2543.849410
791.534027	2545.570964
791.856480	2541.890922
792.178888	2545.359235
792.501249	2543.030222
792.823566	2546.221273
793.145836	2541.117104
793.468062	2542.962167
793.790241	2544.766900
794.112375	2540.902855
794.434464	2542.939482
794.756507	2544.958464
795.078505	2541.706919
795.400457	2541.996786
795.722364	2540.184491
796.044226	2544.068700
796.366042	2541.656508
796.687812	2540.698689
797.009538	2542.984852
797.331218	2544.882846
797.652852	2544.431663
797.974442	2544.900490
798.295986	2542.236241
798.617484	2543.425953
798.938938	2544.217414
799.260346	2542.074924
799.581709	2542.410160
799.903026	2543.534338
800.224299	2542.478216
800.545526	2540.360931
800.866708	2542.422763
801.187845	2543.773792
801.508936	2541.364121
801.829983	2543.433515
802.150984	2540.950746
802.471940	2541.538041
802.792851	2540.106353
803.113717	2544.383772
803.434538	2541.449821
803.755314	2542.269008
804.076045	2539.682896
804.396731	2543.216745
804.717372	2541.117104
805.037967	2542.536189
805.358518	2540.867567
805.679024	2543.410829
805.999485	2539.377906
806.319901	2543.393185
806.640272	2539.992927
806.960598	2540.461754
807.280879	2541.381765
807.601115	2542.861344
807.921306	2542.523586
808.241453	2542.631971
808.561554	2541.406971
808.881611	2543.264636
809.201623	2540.101312
809.521590	2542.483257
809.841513	2542.722712
810.161390	2539.677855
810.481223	2540.658359
810.801011	2543.478885
811.120755	2540.446631
811.440453	2540.980993
811.760107	2542.085006
812.079716	2539.541744
812.399281	2537.031249
812.718801	2539.198945
813.038276	2537.598379
813.357707	2541.038967
813.677093	2542.858823
813.996434	2542.475695
814.315731	2543.851930
814.634983	2542.818494
814.954191	2541.613658
815.273354	2542.047197
815.592473	2541.606096
815.911547	2543.877136
816.230577	2541.699358
816.549562	2544.212373
816.868502	2541.283462
817.187399	2543.751107
817.506250	2543.327650
817.825058	2547.486602
818.143821	2543.340253
818.462539	2545.328988
818.781213	2546.369987
819.099843	2545.069369
819.418429	2548.744370
819.736970	2553.079762
820.055466	2551.864844
820.373919	2553.888868
820.692327	2559.025803
821.010691	2568.883780
821.329011	2584.014803
821.647286	2620.583333
821.965517	2654.006183
822.283704	2678.445697
822.601847	2685.591532
822.919945	2668.060920
823.237999	2642.623258
823.556010	2623.693725
823.873976	2607.004985
824.191897	2592.645258
824.509775	2585.408682
824.827609	2577.710840
825.145398	2573.919893
825.463144	2573.302351
825.780845	2572.871332
826.098502	2575.081878
826.416116	2583.553537
826.733685	2596.174066
827.051210	2601.396702
827.368692	2596.721031
827.686129	2582.424319
828.003522	2575.086920
828.320872	2564.339180
828.638177	2559.222408
828.955439	2554.561862
829.272656	2550.712941
829.589830	2548.910728
829.906960	2548.177240
830.224046	2545.656663
830.541088	2547.307641
830.858086	2545.119781
831.175041	2544.693803
831.491952	2546.566592
831.808819	2548.131870
832.125642	2546.254040
832.442421	2547.388300
832.759157	2553.127653
833.075849	2558.952707
833.392497	2568.551064
833.709101	2572.634398
834.025662	2571.996692
834.342179	2570.595252
834.658653	2559.683674
834.975083	2558.435988
835.291469	2560.565876
835.607811	2547.221942
835.924110	2549.475337
836.240366	2543.574667
836.556578	2546.496016
836.872746	2543.970397
837.188871	2542.778165
837.504952	2541.694317
837.820990	2544.081303
838.136984	2539.153575
838.452935	2540.116435
838.768842	2541.827907
839.084706	2541.298586
839.400526	2543.398227
839.716303	2548.787220
840.032037	2552.043805
840.347727	2550.773435
840.663373	2549.858465
840.978977	2545.749925
841.294537	2546.067518
841.610054	2539.793802
841.925527	2541.855633
842.240957	2538.470499
842.556344	2540.171888
842.871687	2534.679551
843.186987	2537.492515
843.502244	2537.157278
843.817458	2534.409849
844.132629	2537.792463
844.447756	2536.862371
844.762840	2533.215096
845.077881	2533.134437
845.392879	2532.463964
845.707833	2535.216434
846.022745	2532.048069
846.337613	2538.256250
846.652438	2536.474202
846.967221	2534.548481
847.281960	2538.195756
847.596656	2538.793132
847.911309	2535.617206
848.225919	2535.350024
848.540485	2536.242309
848.855009	2535.980169
849.169490	2538.412525
849.483928	2537.610982
849.798323	2534.961856
850.112675	2534.540919
850.426984	2535.140817
850.741251	2533.328522
851.055474	2534.583769
851.369654	2536.796836
851.683792	2534.762730
851.997887	2537.429500
852.311938	2534.956814
852.625947	2533.709129
852.939914	2536.978317
853.253837	2538.150385
853.567718	2537.623585
853.881555	2534.248532
854.195350	2537.207690
854.509103	2536.406146
854.822812	2535.428162
855.136479	2536.943029
855.450103	2534.137627
855.763685	2537.641229
856.077224	2532.879859
856.390720	2537.018646
856.704173	2534.545960
857.017584	2535.463450
857.330953	2533.315919
857.644278	2536.355735
857.957561	2539.791281
858.270802	2535.304654
858.584000	2538.253729
858.897155	2536.388502
859.210268	2536.280117
859.523339	2535.281969
859.836367	2537.018646
860.149352	2536.101156
860.462295	2538.374717
860.775195	2531.407842
861.088054	2528.889786
861.400869	2532.607637
861.713642	2531.995137
862.026373	2534.316588
862.339062	2532.186700
862.651708	2534.046886
862.964312	2535.407998
863.276873	2535.571835
863.589392	2533.300795
863.901869	2535.390354
864.214303	2533.726773
864.526696	2536.693492
864.839045	2537.482433
865.151353	2538.858668
865.463619	2535.738193
865.775842	2537.071578
866.088023	2534.528316
866.400162	2538.435211
866.712258	2534.858512
867.024313	2535.476053
867.336325	2538.712474
867.648296	2538.543595
867.960224	2536.176774
868.272110	2538.170550
868.583954	2536.690971
868.895755	2537.250539
869.207515	2537.361445
869.519233	2537.666435
869.830909	2536.862371
870.142542	2537.482433
870.454134	2538.503266
870.765684	2535.128214
871.077191	2536.512010
871.388657	2537.893287
871.700081	2536.501928
872.011463	2536.184335
872.322803	2536.701054
872.634101	2538.813297
872.945357	2534.929088
873.256571	2538.830941
873.567744	2540.897814
873.878874	2541.482588
874.189963	2539.440921
874.501010	2542.062321
874.812015	2538.785571
875.122979	2540.497043
875.433900	2537.885725
875.744780	2539.859337
876.055618	2540.149203
876.366415	2540.980993
876.677169	2541.311189
876.987882	2537.489994
877.298554	2533.583100
877.609183	2537.696682
877.919771	2538.495704
878.230317	2539.148534
878.540822	2543.930068
878.851285	2545.485264
879.161707	2544.368649
879.472087	2549.001469
879.782425	2553.067160
880.092722	2559.613098
880.402977	2569.866805
880.713191	2584.776017
881.023363	2606.619337
881.333494	2619.948148
881.643583	2623.648355
881.953631	2619.154166
882.263637	2615.796757
882.573602	2607.683020
882.883526	2597.893100
883.193408	2589.454208
883.503248	2584.287025
883.813048	2575.089440
884.122806	2569.639953
884.432522	2566.784139
884.742197	2558.221739
885.051831	2555.895247
885.361424	2552.938610
885.670975	2550.665050
885.980485	2547.539534
886.289954	2546.695141
886.599382	2545.802857
886.908768	2543.720860
887.218113	2543.599873
887.527417	2543.635161
887.836680	2538.798174
888.145901	2542.931920
888.455082	2540.897814
888.764221	2540.471837
889.073319	2540.733977
889.382376	2539.929913
889.691392	2538.515869
890.000366	2540.517207
890.309300	2540.706250
890.618193	2539.624923
890.927044	2537.200128
891.235855	2540.776827
891.544625	2540.701209
891.853353	2543.103319
892.162041	2539.166178
892.470687	2542.929399
892.779293	2543.970397
893.087858	2542.674821
893.396381	2543.809081
893.704864	2546.964843
894.013306	2549.029195
894.321707	2560.230639
894.630068	2565.969993
894.938387	2569.302196
895.246665	2564.117369
895.554903	2564.440003
895.863100	2557.321893
896.171256	2555.582695
896.479371	2550.904505
896.787446	2549.316541
897.095480	2546.856458
897.403473	2544.340922
897.711425	2544.451828
898.019336	2543.473844
898.327207	2540.497043
898.635038	2544.315717
898.942827	2541.737166
899.250576	2541.442259
899.558284	2538.135262
899.865952	2541.301107
900.173579	2539.287166
900.481165	2541.033925
900.788711	2537.734490
901.096216	2538.208359
901.403681	2539.501415
901.711105	2538.888914
902.018489	2537.278266
902.325832	2542.064841
902.633135	2538.944367
902.940397	2541.230530
903.247619	2542.531148
903.554800	2550.833928
903.861941	2556.863148
904.169041	2572.445355
904.476101	2580.516242
904.783121	2576.427867
905.090100	2573.577094
905.397039	2565.710373
905.703938	2560.732234
906.010796	2555.721327
906.317614	2550.551624
906.624391	2546.914431
906.931129	2541.888401
907.237826	2540.449152
907.544483	2542.019471
907.851099	2539.466127
908.157675	2538.967052
908.464211	2535.604603
908.770707	2532.784077
909.077163	2535.077802
909.383578	2535.075282
909.689954	2534.868594
909.996289	2531.816176
910.302584	2530.359282
910.608839	2537.132072
910.915054	2540.423946
911.221229	2532.242153
911.527363	2535.735673
911.833458	2538.162988
912.139513	2537.348842
912.445527	2536.514531
912.751502	2538.926723
913.057436	2534.450178
913.363331	2536.582587
913.669186	2536.522093
913.975000	2543.751107
914.280775	2539.254398
914.586510	2545.034081
914.892205	2550.677653
915.197859	2551.784186
915.503475	2562.698284
915.809050	2564.669375
916.114585	2571.850499
916.420081	2575.240675
916.725536	2573.665314
917.030952	2568.102401
917.336328	2563.184755
917.641665	2562.481514
917.946961	2557.636966
918.252218	2554.604712
918.557435	2550.428116
918.862612	2548.842673
919.167750	2548.260419
919.472848	2546.017106
919.777906	2542.082485
920.082925	2542.301776
920.387904	2538.805735
920.692843	2540.071065
920.997743	2541.386806
921.302603	2539.125849
921.607423	2538.029398
921.912204	2536.832124
922.216946	2540.620551
922.521647	2537.094264
922.826310	2535.712988
923.130932	2535.685261
923.435516	2534.125024
923.740059	2535.294572
924.044564	2532.900024
924.349028	2535.833975
924.653454	2530.205527
924.957840	2530.886083
925.262186	2530.659231
925.566493	2532.486649
925.870761	2528.131092
926.174989	2532.620240
926.479178	2532.887421
926.783328	2532.469005
927.087438	2534.780374
927.391509	2530.608819
927.695541	2533.469674
927.999533	2532.461443
928.303486	2533.275590
928.607400	2532.113604
928.911275	2532.678213
929.215110	2536.368338
929.518906	2529.842564
929.822663	2532.095960
930.126381	2532.831968
930.430060	2532.801721
930.733699	2531.886752
931.037299	2532.564787
931.340861	2532.708460
931.644383	2534.659386
931.947866	2531.533871
932.251309	2530.334076
932.554714	2532.098480
932.858080	2533.694005
933.161407	2531.473377
933.464694	2532.063192
933.767943	2530.419776
934.071153	2534.319108
934.374323	2531.639735
934.677455	2535.407998
934.980548	2531.138140
935.283602	2534.671989
935.586617	2530.402132
935.889593	2532.184180
936.192530	2531.095291
936.495428	2534.508152
936.798287	2532.300126
937.101108	2531.289375
937.403890	2529.441792
937.706632	2533.230219
938.009336	2532.824406
938.312002	2536.517052
938.614628	2531.876669
938.917216	2536.285158
939.219765	2533.835158
939.522275	2535.103008
939.824747	2535.019829
940.127179	2530.150074
940.429573	2526.512882
940.731929	2530.979344
941.034246	2528.819210
941.336524	2532.315250
941.638763	2534.006557
941.940964	2537.623585
942.243126	2531.904396
942.545250	2533.177287
942.847335	2532.627801
943.149381	2532.557225
943.451389	2531.294416
943.753359	2535.355066
944.055290	2532.595034
944.357182	2531.226361
944.659036	2534.190559
944.960851	2532.123686
945.262628	2530.228212
945.564367	2531.710311
945.866067	2531.364992
946.167729	2532.413552
946.469352	2531.334745
946.770937	2531.980013
947.072484	2534.167874
947.373992	2533.520086
947.675462	2530.810465
947.976893	2531.511186
948.278286	2534.387164
948.579641	2531.680064
948.880958	2533.152081
949.182236	2533.419262
949.483476	2530.850795
949.784678	2531.196114
950.085841	2532.375744
950.386967	2533.477236
950.688054	2534.699716
950.989103	2532.612678
951.290114	2530.896165
951.591087	2533.000847
951.892021	2531.314581
952.192917	2533.608306
952.493776	2532.960518
952.794596	2529.320804
953.095378	2532.622760
953.396122	2533.250384
953.696828	2530.911288
953.997496	2532.219468
954.298126	2532.463964
954.598718	2534.853471
954.899272	2531.969931
955.199788	2530.676875
955.500266	2529.890455
955.800706	2529.998840
956.101108	2523.568848
956.401472	2527.231246
956.701798	2526.323838
957.002087	2524.816533
957.302337	2529.403983
957.602550	2524.599764
957.902724	2529.575383
958.202861	2529.081350
958.502960	2526.492717
958.803022	2532.332894
959.103045	2533.028573
959.403031	2529.890455
959.702979	2530.500434
960.002889	2528.166380
960.302762	2530.208048
960.602596	2530.316432
960.902393	2530.780218
961.202153	2526.964065
961.501875	2528.035310
961.801559	2527.137985
962.101205	2527.914322
962.400814	2529.741741
962.700385	2531.082688
962.999918	2530.419776
963.299414	2528.451205
963.598873	2530.631504
963.898293	2526.843077
964.197677	2528.330218
964.497022	2529.771988
964.796331	2530.729807
965.095601	2529.678726
965.394835	2529.630835
965.694030	2528.748633
965.993189	2529.751823
966.292309	2528.408356
966.591393	2529.048582
966.890439	2528.723428
967.189447	2525.544980
967.488419	2526.734692
967.787353	2528.574714
968.086249	2527.521113
968.385108	2529.230064
968.683930	2528.710825
968.982714	2529.472039
969.281462	2529.446833
969.580172	2528.748633
969.878844	2529.000691
970.177480	2530.646628
970.476078	2527.773170
970.774639	2530.891124
971.073162	2529.411545
971.371649	2523.778056
971.670098	2526.225536
971.968510	2525.623118
972.266885	2521.620442
972.565223	2531.433048
972.863524	2528.539426
973.161788	2531.659900
973.460014	2529.167049
973.758204	2531.339787
974.056356	2529.061185
974.354471	2527.722759
974.652550	2525.421472
974.950591	2525.602953
975.248595	2531.390198
975.546563	2527.448016
975.844493	2528.143695
976.142386	2532.592513
976.440243	2531.175949
976.738062	2532.080836
977.035845	2528.252080
977.333590	2529.504807
977.631299	2529.005732
977.928971	2530.107224
978.226606	2526.951462
978.524204	2528.993129
978.821765	2528.925074
979.119290	2526.974147
979.416777	2525.489527
979.714228	2528.529343
980.011642	2527.390043
980.309020	2531.649818
980.606360	2528.418438
980.903664	2528.746113
981.200931	2527.125382
981.498162	2530.810465
981.795356	2526.870804
982.092513	2529.504807
982.389633	2529.666123
982.686717	2531.337266
982.983764	2530.359282
983.280775	2531.430527
983.577749	2529.640918
983.874686	2531.246525
984.171587	2532.196783
984.468451	2529.887934
984.765279	2532.340456
985.062070	2528.277286
985.358824	2528.010104
985.655543	2530.001360
985.952224	2527.085053
986.248869	2527.536236
986.545478	2524.198992
986.842050	2525.139167
987.138586	2525.360978
987.435086	2526.006246
987.731549	2524.763601
988.027975	2527.006915
988.324366	2526.051616
988.620719	2526.727131
988.917037	2529.172090
989.213318	2526.359127
989.509563	2528.771319
989.805772	2526.868283
990.101944	2526.472553
990.398080	2527.074970
990.694180	2527.140505
990.990244	2527.684950
991.286271	2529.540095
991.582262	2525.822244
991.878217	2526.865762
992.174136	2525.355937
992.470019	2527.732841
992.765865	2525.769312
993.061676	2523.924249
993.357450	2528.970444
993.653188	2524.677902
993.948890	2524.894671
994.244556	2527.314425
994.540186	2527.521113
994.835780	2527.458098
995.131337	2529.003212
995.426859	2526.633869
995.722345	2527.836185
996.017795	2527.763088
996.313208	2527.841226
996.608586	2528.015146
996.903928	2527.354754
997.199234	2526.409538
997.494504	2530.999509
997.789738	2524.675381
998.084936	2530.283665
998.380099	2525.731503
998.675225	2527.337110
998.970316	2527.513551
999.265371	2528.811648
999.560390	2526.752337
999.855373	2530.535722
1000.150320	2528.443644
1000.445232	2526.996833
1000.740108	2522.928621
1001.034948	2527.906761
1001.329752	2525.055988
1001.624521	2527.725279
1001.919254	2523.329393
1002.213951	2523.833508
1002.508613	2523.470545
1002.803239	2526.452388
1003.097829	2521.391069
1003.392384	2525.935670
1003.686903	2526.248221
1003.981386	2526.041534
1004.275834	2524.108251
1004.570246	2527.737882
1004.864623	2526.611184
1005.158964	2526.580937
1005.453270	2527.763088
1005.747540	2527.241328
1006.041775	2524.604805
1006.335974	2524.889630
1006.630138	2527.382481
1006.924266	2526.134795
1007.218359	2522.195133
1007.512416	2523.957017
1007.806438	2528.017666
1008.100425	2526.069260
1008.394376	2526.918695
1008.688292	2527.450536
1008.982172	2525.527336
1009.276017	2528.196627
1009.569827	2525.539939
1009.863602	2529.207378
1010.157341	2525.887779
1010.451045	2524.531708
1010.744714	2525.862573
1011.038347	2527.284178
1011.331945	2526.913653
1011.625508	2525.207223
1011.919036	2525.204702
1012.212528	2526.959024
1012.505986	2525.592871
1012.799408	2527.871473
1013.092795	2527.019518
1013.386147	2526.109589
1013.679464	2524.042716
1013.972745	2529.073788
1014.265992	2526.764939
1014.559204	2526.648993
1014.852380	2526.079342
1015.145521	2525.474404
1015.438628	2525.378622
1015.731699	2525.731503
1016.024736	2524.806451
1016.317737	2527.579086
1016.610703	2525.250073
1016.903635	2525.401307
1017.196531	2523.946934
1017.489393	2523.561286
1017.782219	2521.199506
1018.075011	2522.784948
1018.367768	2527.566483
1018.660490	2526.464991
1018.953177	2526.464991
1019.245829	2526.464991
