Dividing Wavelength (nm)	Counts (n)	Blue Motor Position (mm): 0.000000	Red Motor Position (mm): 47.600000	
326.493990	2127.190483
326.888308	2127.190483
327.282561	2127.190483
327.676750	2096.487335
328.070874	2092.840060
328.464933	2095.048086
328.858929	2101.168047
329.252859	2112.969388
329.646726	2124.425410
330.040528	2136.017543
330.434265	2152.701242
330.827938	2171.325785
331.221547	2190.149453
331.615091	2207.317103
332.008571	2226.004660
332.401986	2247.172465
332.795338	2267.221134
333.188625	2283.809050
333.581847	2304.061886
333.975006	2326.046358
334.368100	2341.588235
334.761129	2359.267562
335.154095	2374.746425
335.546996	2396.194014
335.939833	2420.129412
336.332606	2435.867894
336.725315	2452.120574
337.117960	2461.363530
337.510540	2468.025415
337.903056	2479.330202
338.295508	2486.516367
338.687896	2495.794611
339.080220	2503.873060
339.472480	2509.378000
339.864676	2513.892353
340.256807	2518.348733
340.648875	2520.685308
341.040879	2521.970802
341.432818	2526.822913
341.824694	2526.769981
342.216506	2527.367357
342.608253	2529.867770
342.999937	2529.255269
343.391557	2527.493386
343.783113	2528.151257
344.174605	2526.520443
344.566033	2523.359640
344.957397	2522.490041
345.348697	2522.603467
345.739934	2518.361336
346.131106	2519.856038
346.522215	2516.193640
346.913260	2513.294976
347.304241	2513.778927
347.695159	2509.211642
348.086012	2509.536796
348.476802	2507.006137
348.867528	2507.694254
349.258191	2502.252329
349.648789	2504.140241
350.039324	2502.721156
350.429796	2502.363234
350.820203	2501.291989
351.210548	2499.535147
351.600828	2499.434324
351.991045	2498.103459
352.381198	2496.976761
352.771288	2497.732934
353.161314	2495.572800
353.551276	2498.340393
353.941175	2497.654797
354.331010	2496.260918
354.720782	2498.428614
355.110490	2497.526247
355.500135	2498.143788
355.889717	2496.956597
356.279235	2497.337204
356.668689	2497.637153
357.058080	2497.959786
357.447408	2497.589262
357.836672	2495.154384
358.225873	2496.003819
358.615010	2493.957110
359.004084	2500.613954
359.393095	2499.701505
359.782043	2500.926505
360.170927	2501.138234
360.559748	2503.051352
360.948505	2501.044972
361.337199	2502.471619
361.725830	2504.460354
362.114398	2503.898266
362.502903	2504.997237
362.891344	2503.263080
363.279722	2508.304234
363.668037	2507.013699
364.056289	2507.764831
364.444478	2508.009327
364.832603	2509.917403
365.220665	2508.626868
365.608665	2509.234327
365.996601	2511.553258
366.384474	2509.423370
366.772284	2516.528877
367.160031	2514.308248
367.547715	2518.570544
367.935336	2518.366377
368.322893	2524.148581
368.710388	2525.784435
369.097820	2533.757020
369.485189	2538.132741
369.872495	2539.529141
370.259738	2546.269164
370.646918	2556.948848
371.034035	2562.000084
371.421090	2571.011147
371.808081	2585.406162
372.195010	2590.467480
372.581875	2606.140427
372.968678	2617.687190
373.355418	2626.481483
373.742096	2647.296407
374.128710	2661.996412
374.515262	2679.874864
374.901751	2693.614529
375.288177	2703.424614
375.674540	2725.850187
376.060841	2743.307703
376.447079	2763.396701
376.833254	2785.413940
377.219367	2797.457257
377.605417	2835.311281
377.991404	2847.944413
378.377329	2868.529964
378.763191	2883.373642
379.148991	2921.633479
379.534727	2946.067952
379.920402	2974.679020
380.306013	2988.839622
380.691563	3038.056407
381.077049	3059.020045
381.462474	3076.301120
381.847835	3116.955505
382.233134	3138.042652
382.618371	3138.181284
383.003545	3207.361038
383.388657	3212.414795
383.773706	3247.849065
384.158693	3259.816764
384.543618	3289.652833
384.928480	3324.890499
385.313280	3369.388764
385.698017	3366.807693
386.082692	3423.192999
386.467305	3427.556117
386.851856	3459.464101
387.236344	3485.428563
387.620770	3511.574508
388.005133	3540.084753
388.389435	3567.735482
388.773674	3580.270311
389.157851	3619.903863
389.541965	3635.481028
389.926018	3603.394084
390.310008	3670.292716
390.693936	3689.265099
391.077802	3733.604567
391.461606	3719.759038
391.845348	3781.777833
392.229027	3781.709778
392.612645	3798.693425
392.996200	3874.945918
393.379694	3916.091816
393.763125	3979.650684
394.146494	3944.970066
394.529801	4009.693440
394.913047	4054.582394
395.296230	4020.461345
395.679351	4077.958225
396.062410	4099.110906
396.445408	4081.754214
396.828343	4112.709419
397.211217	4139.392246
397.594028	4056.931572
397.976778	4125.551758
398.359466	4150.689472
398.742092	4181.231303
399.124656	4103.055609
399.507158	4182.300027
399.889598	4206.220302
400.271977	4270.893265
400.654294	4241.785643
401.036549	4251.583125
401.418742	4217.169688
401.800874	4324.715144
402.182944	4345.036035
402.564952	4407.896703
402.946898	4394.870361
403.328783	4389.352818
403.710606	4305.079850
404.092367	4497.644365
404.474067	4460.135660
404.855705	4469.802072
405.237282	4398.328593
405.618797	4507.434286
406.000250	4542.024163
406.381642	4619.509218
406.762972	4584.561419
407.144240	4594.961319
407.525447	4594.242955
407.906593	4653.688241
408.287677	4697.049726
408.668700	4626.329899
409.049661	4677.192621
409.430560	4717.983117
409.811399	4645.393022
410.192176	4805.704235
410.572891	4746.594186
410.953545	4848.904403
411.334138	4731.432916
411.714669	4794.076814
412.095139	4689.747614
412.475547	4829.601825
412.855894	4813.737314
413.236180	4824.724509
413.616405	4776.765492
413.996568	4863.329665
414.376670	4804.428823
414.756711	4760.079272
415.136691	4789.648160
415.516609	4869.890727
415.896466	4907.472528
416.276262	4943.620122
416.655997	4921.537348
417.035670	5103.291108
417.415283	5197.094379
417.794834	5141.540863
418.174324	5091.648564
418.553753	5001.225387
418.933121	5183.442934
419.312428	5254.092185
419.691674	5193.184964
420.070859	5316.516793
420.449983	5227.467331
420.829045	5342.244321
421.208047	5251.138068
421.586988	5323.050128
421.965867	5337.049412
422.344686	5467.254854
422.723444	5323.957536
423.102141	5142.445750
423.480777	5439.349547
423.859352	5208.235329
424.237866	5467.685873
424.616319	5458.198422
424.994712	5565.746398
425.373044	5445.771977
425.751314	5590.226241
426.129524	5390.094954
426.507673	5587.430921
426.885762	5669.992418
427.263789	5597.268733
427.641756	5483.583152
428.019662	5602.690494
428.397508	5606.758705
428.775292	5553.493873
429.153016	5653.167567
429.530679	5581.706691
429.908282	5666.718189
430.285824	5532.416809
430.663305	5812.896527
431.040726	5549.977668
431.418086	5546.176638
431.795385	5652.320653
432.172624	5663.854813
432.549802	5657.898690
432.926920	5677.594478
433.303977	5678.378377
433.680974	5716.371033
434.057910	5738.743674
434.434786	5743.237863
434.811601	5712.234767
435.188355	5944.034582
435.565050	5820.347352
435.941683	5806.315300
436.318257	6014.709039
436.694770	6000.689590
437.071222	6038.092431
437.447614	5969.694055
437.823946	5879.485128
438.200218	6031.659918
438.576429	5894.449793
438.952580	5994.670452
439.328670	6040.555034
439.704700	5948.977434
440.080670	5929.858858
440.456580	6209.186672
440.832429	6087.263845
441.208218	5938.890085
441.583947	6087.586479
441.959616	6091.695020
442.335224	6025.076172
442.710773	6162.699672
443.086261	6183.552404
443.461689	5979.589840
443.837057	6133.395444
444.212365	6281.738958
444.587612	6176.726682
444.962800	6331.850548
445.337927	6311.983360
445.712995	5922.037508
446.088002	6497.578480
446.462949	6323.850237
446.837837	6256.944043
447.212664	6432.794612
447.587431	6574.998001
447.962139	7113.095803
448.336786	8037.608131
448.711374	7785.280737
449.085901	6860.397884
449.460369	6776.432426
449.834776	6713.438168
450.209124	7106.086079
450.583412	7254.026300
450.957640	7403.645226
451.331808	7165.191087
451.705917	6720.967131
452.079965	6639.754142
452.453954	6854.396391
452.827883	6730.981383
453.201752	6820.292985
453.575562	6621.452233
453.949311	6827.562329
454.323001	6718.260031
454.696632	6787.283510
455.070202	6929.774244
455.443713	7081.883499
455.817164	7185.199427
456.190556	7261.265397
456.563888	7338.793302
456.937160	7383.367184
457.310373	7040.384721
457.683526	7063.866415
458.056619	6952.504806
458.429653	6943.143384
458.802628	6883.287243
459.175542	6986.567883
459.548398	7342.937131
459.921194	7502.000658
460.293930	7505.486616
460.666607	8038.102164
461.039224	8343.333947
461.411782	8470.479408
461.784280	8493.792224
462.156719	8380.018423
462.529099	8259.118951
462.901419	7854.518464
463.273680	7739.635609
463.645882	7754.474245
464.018024	7622.267465
464.390106	7788.784338
464.762130	8169.761979
465.134094	8644.253023
465.505999	9659.901850
465.877845	10886.495239
466.249631	11535.027078
466.621358	11156.544809
466.993026	10525.868737
467.364634	10269.521023
467.736184	9908.927288
468.107674	9573.637625
468.479105	9606.158109
468.850477	9374.257470
469.221790	9148.943099
469.593043	8813.600504
469.964238	8675.886263
470.335373	8687.485958
470.706449	8746.427129
471.077467	8721.997697
471.448425	10036.680209
471.819324	11108.474887
472.190164	11141.111317
472.560945	9886.486592
472.931667	9099.108773
473.302330	8958.299263
473.672934	8606.164585
474.043479	8964.013411
474.413965	8903.378413
474.784393	8787.986401
475.154761	8945.726626
475.525070	9031.332980
475.895321	8858.524746
476.265513	9034.970172
476.635645	9205.008291
477.005719	9200.307415
477.375734	9318.313265
477.745691	9555.665912
478.115588	9689.778248
478.485427	9925.905894
478.855207	10469.155756
479.224928	11284.990889
479.594591	11916.934812
479.964194	11726.601007
480.333739	11671.556648
480.703226	11581.947618
481.072653	11673.096721
481.442022	11907.268399
481.811333	12098.673449
482.180584	11908.150601
482.549777	11618.062444
482.918912	11442.257245
483.287988	11466.192643
483.657005	11470.913684
484.025964	11155.607155
484.394864	11286.755293
484.763706	11260.614389
485.132489	11015.387461
485.501213	10983.746658
485.869879	11044.311081
486.238487	10892.290045
486.607036	10999.028916
486.975527	10788.515373
487.343959	10977.505710
487.712333	11022.714778
488.080648	10951.120311
488.448905	10993.183698
488.817104	10939.714700
489.185244	11196.112826
489.553326	11352.953204
489.921350	11898.073334
490.289315	12960.090695
490.657222	13301.865802
491.025070	13204.826111
491.392861	13085.610384
491.760593	12699.878936
492.128267	12352.596368
492.495883	12030.312882
492.863440	11691.728825
493.230939	11351.675272
493.598380	11288.121445
493.965763	11153.162195
494.333088	11055.499922
494.700354	10976.792387
495.067563	11033.137363
495.434713	10862.330468
495.801805	10997.123360
496.168839	10914.680330
496.535815	10849.838489
496.902733	10848.212717
497.269593	10782.022367
497.636395	10877.632891
498.003139	10867.658968
498.369825	10738.073587
498.736453	10898.553679
499.103023	10826.029119
499.469535	10851.043325
499.835989	10840.167035
500.202385	10809.058075
500.568723	10654.269446
500.935003	10879.233457
501.301226	10681.463950
501.667390	10942.406676
502.033497	11034.410255
502.399546	10897.177444
502.765537	10805.867024
503.131470	10880.962573
503.497345	11052.439941
503.863163	10665.518781
504.228923	10973.911367
504.594625	11042.995340
504.960269	10787.116453
505.325856	11010.353868
505.691385	10794.670622
506.056856	10951.667276
506.422270	10982.869498
506.787625	10868.238700
507.152924	10984.543161
507.518164	10968.913063
507.883347	10885.398788
508.248472	10806.592951
508.613540	11036.741788
508.978550	10925.498646
509.343503	10900.887733
509.708398	11022.185457
510.073236	11134.356171
510.438016	11134.908177
510.802738	11084.645353
511.167403	11138.560493
511.532010	11033.931345
511.896561	11265.373239
512.261053	11336.309835
512.625488	11204.380318
512.989866	11187.525220
513.354186	11183.940960
513.718449	11081.098901
514.082655	11266.557910
514.446803	11171.902685
514.810894	11289.172526
515.174927	11154.755200
515.538904	11177.268993
515.902822	11337.171872
516.266684	11211.790814
516.630488	11162.329533
516.994235	11220.315406
517.357925	11283.211362
517.721558	11375.537574
518.085133	11382.141485
518.448651	11393.552137
518.812112	11278.815475
519.175516	11289.391816
519.538863	11412.388408
519.902152	11334.447129
520.265385	11492.353711
520.628560	11402.169989
520.991678	11374.725948
521.354739	11444.765219
521.717743	11378.277441
522.080690	11355.352794
522.443580	11491.698361
522.806413	11442.002667
523.169189	11475.390228
523.531908	11528.158506
523.894569	11353.658966
524.257174	11360.512415
524.619722	11475.841412
524.982213	11417.469891
525.344647	11472.705814
525.707025	11422.768144
526.069345	11512.099911
526.431608	11435.479413
526.793815	11544.189376
527.155964	11331.987046
527.518057	11393.015254
527.880093	11344.947852
528.242072	11406.296174
528.603995	11308.754888
528.965860	11227.476365
529.327669	11292.411467
529.689421	11231.632796
530.051117	11204.952489
530.412755	11305.084928
530.774337	11202.925945
531.135862	11180.339056
531.497331	11201.315297
531.858743	11055.636033
532.220098	11219.894469
532.581396	11090.830848
532.942638	11071.876110
533.303824	11040.174814
533.664953	11048.787625
534.026025	10967.602363
534.387040	11067.714637
534.747999	11062.928062
535.108902	11123.374017
535.469748	10881.328056
535.830537	10987.572894
536.191270	10966.175717
536.551947	10989.465848
536.912567	10982.337656
537.273131	10911.532130
537.633638	10888.506659
537.994089	10876.526357
538.354483	10822.545682
538.714821	10966.402569
539.075103	10976.787346
539.435328	10946.560587
539.795497	10775.171439
540.155609	10934.260172
540.515665	11018.210507
540.875665	10752.133366
541.235609	10819.851185
541.595496	10818.149796
541.955328	10966.049688
542.315102	10855.701351
542.674821	10808.964813
543.034483	10811.001440
543.394090	10811.077057
543.753640	10735.938659
544.113134	10970.811058
544.472571	10816.476133
544.831953	10964.451642
545.191278	10765.331106
545.550548	10792.066866
545.909761	10938.469535
546.268918	10905.381922
546.628019	10989.962401
546.987064	10854.357883
547.346053	10774.107755
547.704986	10877.958045
548.063863	10861.176044
548.422684	10847.454023
548.781449	10772.688670
549.140158	10868.783145
549.498811	10757.809705
549.857408	10601.395304
550.215949	10831.813843
550.574434	10688.627430
550.932864	10783.222161
551.291237	10846.319763
551.649555	10785.825917
552.007817	10803.485079
552.366022	10763.554100
552.724173	10758.026474
553.082267	10739.006201
553.440305	10874.756912
553.798288	10678.872797
554.156215	10835.428351
554.514086	10812.952366
554.871902	10662.317648
555.229661	10699.695283
555.587365	10669.390387
555.945014	10565.666126
556.302606	10700.456497
556.660143	10588.978942
557.017625	10742.713970
557.375050	10637.275716
557.732421	10778.672520
558.089735	10688.660198
558.446994	10689.648264
558.804197	10725.334592
559.161345	10727.275436
559.518437	10575.977806
559.875474	10665.828812
560.232455	10699.990191
560.589381	10650.241564
560.946251	10644.610595
561.303065	10757.645867
561.659825	10681.279948
562.016528	10614.285534
562.373177	10492.748356
562.729770	10608.463002
563.086307	10521.785402
563.442789	10614.023394
563.799216	10497.050981
564.155587	10544.127796
564.511904	10495.999900
564.868164	10491.480506
565.224370	10500.753708
565.580520	10427.208315
565.936615	10432.604870
566.292654	10302.182658
566.648638	10431.994891
567.004567	10387.625175
567.360441	10369.923163
567.716260	10280.586355
568.072023	10379.743331
568.427732	10324.421709
568.783385	10236.778728
569.138982	10305.131733
569.494525	10324.983797
569.850013	10200.656341
570.205445	10282.970821
570.560823	10176.625160
570.916145	10099.629097
571.271412	10163.676957
571.626625	10105.731414
571.981782	10089.203991
572.336884	10060.610566
572.691931	10069.024252
573.046923	10009.478143
573.401860	9970.550353
573.756743	9898.905474
574.111570	9952.719792
574.466342	9932.189693
574.821059	9958.433939
575.175722	9851.788330
575.530330	9858.538435
575.884882	9859.118168
576.239380	9784.637640
576.593823	9759.457077
576.948211	9768.276575
577.302544	9652.753494
577.656823	9669.535495
578.011047	9671.100773
578.365216	9643.876022
578.719330	9564.669412
579.073389	9578.121732
579.427394	9523.687352
579.781344	9499.509978
580.135239	9448.100292
580.489080	9458.270819
580.842866	9361.488227
581.196597	9362.592240
581.550273	9407.347604
581.903895	9373.319815
582.257463	9440.420094
582.610975	9318.862751
582.964434	9350.606897
583.317837	9266.296119
583.671186	9248.576463
584.024481	9241.627233
584.377721	9158.705293
584.730906	9139.475812
585.084037	9171.156943
585.437113	9102.960214
585.790135	9124.818657
586.143103	9026.947176
586.496016	9001.383485
586.848874	9056.851300
587.201679	9041.095174
587.554428	8929.196682
587.907124	8977.432963
588.259765	8949.028581
588.612352	8950.649312
588.964884	8829.661620
589.317362	8842.816511
589.669786	8843.640740
590.022155	8892.456753
590.374470	8910.887211
590.726731	8840.129576
591.078937	8691.027369
591.431090	8809.761665
591.783188	8677.958177
592.135232	8678.928599
592.487222	8673.370727
592.839157	8726.055826
593.191038	8656.941607
593.542866	8604.853885
593.894639	8500.315477
594.246358	8548.292139
594.598022	8574.617044
594.949633	8462.466494
595.301190	8445.634082
595.652692	8472.329512
596.004141	8584.041481
596.355535	8358.769960
596.706876	8340.437804
597.058162	8270.365765
597.409395	8345.514246
597.760573	8407.840551
598.111698	8322.531625
598.462768	8302.445148
598.813785	8267.497349
599.164748	8236.353100
599.515657	8231.435455
599.866511	8140.334243
600.217312	8266.804190
600.568060	8123.889999
600.918753	8225.491934
601.269392	8198.063016
601.619978	8114.480686
601.970510	8176.038215
602.320988	8171.735590
602.671412	8227.016883
603.021783	8167.687544
603.372100	8134.388202
603.722363	8146.381107
604.072572	8113.384235
604.422728	8123.869835
604.772830	8053.409627
605.122878	8065.122748
605.472872	8055.821819
605.822813	8085.441119
606.172701	8033.333232
606.522534	8109.288297
606.872314	8107.768389
607.222041	8079.739574
607.571714	8136.150085
607.921333	8086.542611
608.270899	8097.875125
608.620411	8188.978857
608.969870	8091.989578
609.319276	8082.610511
609.668627	8101.900486
610.017926	8132.785115
610.367171	8183.302518
610.716362	8152.178434
611.065500	8144.425139
611.414585	8180.822270
611.763616	8159.611615
612.112594	8140.482957
612.461518	8163.037079
612.810389	8216.720327
613.159207	8160.088004
613.507971	8106.588759
613.856682	8224.133343
614.205340	8186.818723
614.553945	8262.456195
614.902496	8160.849219
615.250994	8212.783186
615.599439	8196.086884
615.947830	8202.877318
616.296169	8171.919592
616.644454	8195.139147
616.992686	8193.619239
617.340864	8246.594204
617.688990	8153.524422
618.037063	8242.568843
618.385082	8190.410545
618.733048	8277.100747
619.080961	8218.376346
619.428821	8236.194304
619.776628	8242.034481
620.124382	8187.867283
620.472083	8175.140890
620.819731	8197.924385
621.167326	8088.412879
621.514868	8102.049200
621.862357	7993.624063
622.209793	8008.311465
622.557176	7941.801002
622.904506	7913.263030
623.251783	7848.101075
623.599007	7804.094323
623.946179	7806.972822
624.293297	7761.743589
624.640363	7687.555449
624.987376	7665.477715
625.334336	7609.893953
625.681243	7561.433341
626.028097	7548.855662
626.374899	7522.447578
626.721647	7518.316352
627.068343	7450.462422
627.414987	7419.424037
627.761577	7370.010647
628.108115	7413.430105
628.454600	7306.557644
628.801032	7359.759461
629.147412	7315.793038
629.493739	7306.469424
629.840014	7239.401913
630.186236	7300.684700
630.532405	7183.311515
630.878521	7232.762713
631.224585	7189.499531
631.570597	7114.310721
631.916556	7145.918756
632.262462	7140.912890
632.608316	7104.936696
632.954117	7078.470638
633.299866	7066.470171
633.645562	7059.783081
633.991206	6978.330637
634.336797	6921.292502
634.682336	6876.673250
635.027823	6841.246541
635.373257	6832.447207
635.718639	6768.661487
636.063968	6783.321163
636.409245	6678.462642
636.754470	6671.745305
637.099642	6633.046887
637.444762	6571.819553
637.789829	6582.678198
638.134845	6529.395723
638.479808	6512.318814
638.824719	6517.266707
639.169577	6445.894051
639.514383	6465.441125
639.859137	6394.784312
640.203839	6401.259674
640.548489	6385.732921
640.893086	6365.011258
641.237632	6340.460838
641.582125	6358.036821
641.926566	6329.135886
642.270955	6342.008473
642.615292	6335.011351
642.959576	6349.514751
643.303809	6346.303536
643.647990	6344.879410
643.992118	6341.259861
644.336195	6285.204751
644.680219	6309.505633
645.024192	6300.597914
645.368112	6395.837913
645.711981	6418.926398
646.055797	6493.429611
646.399562	6451.893024
646.743274	6579.109062
647.086935	6633.886239
647.430544	6623.166226
647.774101	6650.108672
648.117606	6651.926008
648.461059	6649.695298
648.804460	6610.260872
649.147810	6514.985585
649.491108	6485.976265
649.834354	6459.638757
650.177548	6372.056270
650.520690	6292.532068
650.863781	6269.642709
651.206820	6290.475277
651.549807	6215.346962
651.892742	6149.275079
652.235626	6157.109032
652.578458	6148.629811
652.921238	6053.871242
653.263967	6092.473878
653.606644	6029.545154
653.949269	6033.608324
654.291843	5977.149922
654.634365	6017.912692
654.976836	5974.790662
655.319255	5977.704449
655.661622	5951.487928
656.003938	5945.388132
656.346203	5914.138019
656.688416	5943.517864
657.030577	5899.261574
657.372687	5863.161872
657.714746	5853.906313
658.056753	5894.782509
658.398708	5835.921997
658.740612	5825.370862
659.082465	5872.883737
659.424266	5869.077666
659.766016	5865.899218
660.107715	5840.043140
660.449362	5854.866653
660.790958	5852.066292
661.132503	5840.375856
661.473996	5874.595209
661.815438	5863.131625
662.156829	5857.087281
662.498168	5850.332135
662.839456	5827.321788
663.180693	5859.164237
663.521879	5857.727508
663.863013	5852.807342
664.204097	5872.792996
664.545129	5918.107928
664.886110	5909.991670
665.227040	5944.715138
665.567918	5905.704169
665.908746	5938.330517
666.249522	5940.054591
666.590248	5921.561118
666.930922	5953.239729
667.271545	5965.779599
667.612118	5968.915197
667.952639	5942.421413
668.293109	5965.696420
668.633528	5926.551861
668.973896	5921.699750
669.314213	5916.499800
669.654480	5900.226955
669.994695	5892.761007
670.334859	5881.738524
670.674973	5875.580754
671.015035	5881.362958
671.355047	5873.849118
671.695008	5863.202201
672.034918	5833.313200
672.374777	5847.211661
672.714585	5832.801523
673.054342	5833.560216
673.394049	5827.379762
673.733705	5854.047466
674.073310	5847.574624
674.412864	5806.937883
674.752368	5797.044618
675.091820	5795.549916
675.431223	5738.350464
675.770574	5740.737451
676.109875	5688.586714
676.449125	5697.252457
676.788324	5663.217107
677.127473	5604.764928
677.466571	5595.829483
677.805619	5587.793884
678.144616	5574.084466
678.483562	5549.649993
678.822458	5520.663359
679.161303	5517.752092
679.500098	5504.146018
679.838842	5487.301003
680.177535	5490.726467
680.516179	5506.613663
680.854771	5516.927864
681.193314	5600.724444
681.531805	5707.075146
681.870247	5856.252970
682.208638	5958.888342
682.546978	5974.936855
682.885268	5952.778464
683.223508	5864.306214
683.561697	5811.558100
683.899836	5783.294871
684.237925	5739.220063
684.575963	5706.119847
684.913951	5662.017313
685.251889	5724.620882
685.589776	5693.166602
685.927614	5667.101316
686.265401	5734.320062
686.603137	5717.895982
686.940824	5798.710720
687.278460	5818.303164
687.616046	5830.855637
687.953582	5896.357870
688.291068	5875.999170
688.628504	5938.494354
688.965889	5902.979425
689.303224	5848.867680
689.640510	5802.872192
689.977745	5723.534513
690.314930	5627.785357
690.652065	5569.582716
690.989150	5474.738447
691.326185	5404.031223
691.663170	5348.210527
692.000105	5271.224546
692.336990	5185.676165
692.673825	5167.943907
693.010610	5096.190643
693.347345	5028.608935
693.684030	5017.536040
694.020665	4977.879804
694.357251	4879.529413
694.693786	4895.260333
695.030272	4859.684911
695.366707	4823.098737
695.703093	4789.585146
696.039429	4811.236902
696.375716	4792.803922
696.711952	4769.491107
697.048139	4753.132562
697.384276	4735.664964
697.720363	4747.509155
698.056400	4755.794292
698.392388	4709.214030
698.728326	4687.141338
699.064214	4663.243748
699.400053	4662.449766
699.735842	4626.062718
700.071581	4599.266465
700.407270	4572.281168
700.742910	4557.273653
701.078501	4501.931866
701.414042	4501.226105
701.749533	4470.563286
702.084974	4407.301847
702.420366	4462.131957
702.755709	4407.042227
703.091002	4351.324874
703.426246	4398.459663
703.761440	4352.600286
704.096584	4319.996624
704.431679	4337.292823
704.766725	4321.632478
705.101721	4312.593689
705.436668	4339.268955
705.771565	4288.081079
706.106413	4313.422959
706.441212	4349.991489
706.775961	4353.608517
707.110661	4338.769881
707.445311	4365.321638
707.779913	4391.104619
708.114465	4400.607194
708.448967	4424.403961
708.783421	4482.654494
709.117825	4525.562275
709.452180	4531.021844
709.786485	4576.717383
710.120742	4662.893388
710.454949	4645.675327
710.789107	4710.285275
711.123216	4787.092295
711.457275	4778.396305
711.791286	4849.441286
712.125247	4868.448957
712.459159	4770.416158
712.793023	4846.257797
713.126837	4799.327176
713.460602	4799.609480
713.794318	4717.421028
714.127985	4725.277667
714.461602	4641.491169
714.795171	4612.302888
715.128691	4546.475502
715.462162	4491.433663
715.795584	4441.609419
716.128957	4423.499074
716.462281	4367.711145
716.795556	4340.451106
717.128782	4303.965755
717.461960	4236.948655
717.795088	4246.846961
718.128167	4207.616702
718.461198	4144.952639
718.794180	4140.771002
719.127113	4123.835245
719.459997	4100.608129
719.792833	4055.527611
720.125619	4048.689286
720.458357	4013.915406
720.791046	4015.556302
721.123686	3987.653515
721.456278	3948.634985
721.788821	3964.955720
722.121315	3937.095783
722.453761	3913.183070
722.786158	3922.146242
723.118506	3948.574491
723.450805	3901.381729
723.783056	3922.988114
724.115259	3937.869601
724.447412	3945.809418
724.779518	3931.807613
725.111574	3939.767595
725.443582	3975.027946
725.775542	3954.487764
726.107453	4003.391998
726.439315	4006.157071
726.771129	4017.323226
727.102895	4056.538362
727.434612	4103.421093
727.766281	4116.767548
728.097901	4115.527424
728.429473	4123.500009
728.760996	4130.028303
729.092471	4124.629227
729.423897	4108.424438
729.755276	4114.430973
730.086606	4115.794605
730.417887	4153.270543
730.749120	4217.444431
731.080305	4280.484060
731.411442	4309.604285
731.742530	4278.039100
732.073570	4282.906334
732.404562	4340.451106
732.735506	4326.787058
733.066401	4290.581491
733.397249	4227.405751
733.728048	4147.427845
734.058798	4065.612439
734.389501	3995.908405
734.720156	3931.984053
735.050762	3887.815984
735.381320	3884.065366
735.711831	3833.147191
736.042293	3797.533960
736.372707	3820.698062
736.703073	3796.762663
737.033391	3786.450983
737.363661	3801.713076
737.693883	3826.412210
738.024056	3833.416893
738.354182	3831.634845
738.684260	3894.540883
739.014290	3915.655756
739.344272	3913.631733
739.674207	3952.057928
740.004093	3953.640850
740.333931	3953.487095
740.663722	3955.730409
740.993464	3951.387455
741.323159	3929.279474
741.652806	3900.670926
741.982405	3873.794015
742.311956	3837.633818
742.641460	3828.564782
742.970915	3808.178356
743.300323	3767.506327
743.629683	3732.243456
743.958996	3721.896487
744.288260	3695.879092
744.617477	3664.712159
744.946647	3650.589366
745.275768	3624.531642
745.604842	3619.117443
745.933869	3573.646235
746.262847	3563.694998
746.591778	3599.482149
746.920662	3578.228644
747.249498	3544.561298
747.578286	3588.192485
747.907027	3604.361986
748.235720	3603.084053
748.564365	3627.906695
748.892963	3628.456180
749.221514	3606.254939
749.550017	3588.154676
749.878473	3584.978749
750.206881	3559.110068
750.535242	3553.025395
750.863555	3551.427350
751.191821	3547.991803
751.520039	3532.127292
751.848210	3507.488653
752.176334	3541.647511
752.504411	3543.699261
752.832440	3505.333559
753.160421	3487.752535
753.488356	3499.997498
753.816243	3514.581556
754.144082	3469.770740
754.471875	3456.812454
754.799620	3471.391471
755.127318	3465.510965
755.454969	3465.294195
755.782572	3472.513127
756.110129	3447.330043
756.437638	3434.250770
756.765100	3451.216773
757.092515	3461.067187
757.419882	3469.095225
757.747203	3441.497428
758.074477	3439.455761
758.401703	3458.828915
758.728882	3479.422029
759.056014	3485.368070
759.383099	3490.557938
759.710138	3485.068121
760.037129	3504.733662
760.364073	3534.559649
760.690970	3520.746887
761.017820	3495.205881
761.344623	3513.089375
761.671379	3562.449833
761.998088	3608.919189
762.324751	3737.496338
762.651366	3986.305007
762.977935	4459.331596
763.304456	4906.814658
763.630931	5005.089432
763.957359	4643.938649
764.283740	4301.969458
764.610074	4108.399232
764.936362	3906.722832
765.262602	3749.171650
765.588796	3635.148312
765.914943	3543.558108
766.241044	3455.809264
766.567097	3428.438319
766.893104	3380.794374
767.219064	3349.819004
767.544978	3322.087617
767.870845	3264.416817
768.196665	3248.403592
768.522438	3257.543204
768.848165	3252.025661
769.173846	3214.718602
769.499479	3201.868701
769.825066	3180.620237
770.150607	3163.964265
770.476101	3180.925227
770.801548	3177.225020
771.126949	3131.100983
771.452303	3110.979218
771.777611	3121.164869
772.102872	3125.689304
772.428087	3102.436982
772.753256	3089.660178
773.078378	3080.901173
773.403453	3047.964794
773.728482	3033.471477
774.053465	3056.128943
774.378401	3045.678631
774.703291	3012.001203
775.028135	3012.601100
775.352932	3009.319309
775.677683	2996.726507
776.002388	2995.660303
776.327046	2998.473267
776.651658	2984.998262
776.976224	2972.902014
777.300743	2975.162971
777.625216	2961.589664
777.949643	2959.643779
778.274024	2962.454222
778.598359	2950.385700
778.922647	2956.049436
779.246889	2954.758901
779.571086	2941.198197
779.895236	2933.883483
780.219339	2943.078548
780.543397	2957.753346
780.867409	2959.893316
781.191374	2953.601956
781.515294	2950.826801
781.839167	2950.138683
782.162995	2944.490071
782.486776	2947.716409
782.810511	2948.923765
783.134201	2934.266611
783.457844	2937.745007
783.781441	2933.510438
784.104993	2911.026891
784.428498	2910.242992
784.751958	2927.198913
785.075372	2921.555341
785.398739	2903.346693
785.722061	2918.961667
786.045337	2934.979934
786.368568	2919.818664
786.691752	2907.377096
787.014891	2957.992801
787.337983	2988.995897
787.661030	3014.332737
787.984031	3082.814291
788.306987	3128.164511
788.629897	3121.921042
788.952760	3105.532251
789.275579	3090.950713
789.598351	3030.318235
789.921078	2982.578508
790.243759	2975.369658
790.566395	2956.566155
790.888984	2935.955397
791.211529	2917.592994
791.534027	2911.798188
791.856480	2899.555746
792.178888	2883.754249
792.501249	2877.525903
792.823566	2873.377034
793.145836	2870.715305
793.468062	2865.101980
793.790241	2862.346989
794.112375	2869.107177
794.434464	2883.476986
794.756507	2887.010834
795.078505	2893.453429
795.400457	2908.425656
795.722364	2943.035698
796.044226	2970.971252
796.366042	2973.247333
796.687812	2961.022535
797.009538	2978.172540
797.331218	2964.826085
797.652852	2952.462655
797.974442	2936.015891
798.295986	2930.074891
798.617484	2924.562389
798.938938	2912.403126
799.260346	2893.700446
799.581709	2888.366905
799.903026	2880.893394
800.224299	2876.227806
800.545526	2868.787063
800.866708	2852.173941
801.187845	2841.728670
801.508936	2844.899556
801.829983	2850.170082
802.150984	2838.640963
802.471940	2824.860969
802.792851	2824.661844
803.113717	2821.614466
803.434538	2829.390446
803.755314	2823.514981
804.076045	2818.430977
804.396731	2816.016265
804.717372	2818.811585
805.037967	2809.760193
805.358518	2819.802171
805.679024	2829.839109
805.999485	2822.899960
806.319901	2829.713080
806.640272	2823.479693
806.960598	2825.352482
807.280879	2835.175170
807.601115	2844.198835
807.921306	2831.797597
808.241453	2824.752584
808.561554	2831.482525
808.881611	2837.365551
809.201623	2829.158553
809.521590	2828.082267
809.841513	2823.877944
810.161390	2826.663182
810.481223	2823.109168
810.801011	2813.510811
811.120755	2805.908751
811.440453	2810.181129
811.760107	2809.702220
812.079716	2813.024340
812.399281	2799.181332
812.718801	2794.062040
813.038276	2786.520474
813.357707	2794.856022
813.677093	2798.382309
813.996434	2795.266876
814.315731	2789.343520
814.634983	2785.998714
814.954191	2787.780762
815.273354	2806.579225
815.592473	2809.392189
815.911547	2811.489309
816.230577	2820.213025
816.549562	2830.413800
816.868502	2827.227791
817.187399	2838.325891
817.506250	2856.184179
817.825058	2845.844772
818.143821	2858.707276
818.462539	2876.968856
818.781213	2904.387692
819.099843	2940.225254
819.418429	2996.945797
819.736970	3058.576423
820.055466	3131.451343
820.373919	3236.062847
820.692327	3377.789847
821.010691	3547.540620
821.329011	3991.154597
821.647286	4895.759407
821.965517	6287.669875
822.283704	7051.767646
822.601847	7036.913886
822.919945	6389.854064
823.237999	5878.174428
823.556010	5291.623575
823.873976	4731.511053
824.191897	4323.616172
824.509775	4019.256509
824.827609	3749.988317
825.145398	3623.515850
825.463144	3610.630660
825.780845	3701.421841
826.098502	3807.318839
826.416116	4089.189916
826.733685	4410.601282
827.051210	4477.502435
827.368692	4360.260320
827.686129	4094.594032
828.003522	3764.569855
828.320872	3506.089733
828.638177	3311.062614
828.955439	3172.468692
829.272656	3086.726226
829.589830	3016.908766
829.906960	2970.152064
830.224046	2925.303439
830.541088	2889.435629
830.858086	2873.992055
831.175041	2857.716689
831.491952	2858.661906
831.808819	2866.122813
832.125642	2892.815723
832.442421	2939.854730
832.759157	3020.936648
833.075849	3198.685212
833.392497	3480.904128
833.709101	3686.777289
834.025662	3636.816934
834.342179	3479.311123
834.658653	3299.412507
834.975083	3151.686535
835.291469	3053.247924
835.607811	2966.371199
835.924110	2907.911458
836.240366	2859.584437
836.556578	2812.245482
836.872746	2789.411575
837.188871	2766.343255
837.504952	2752.704414
837.820990	2744.444483
838.136984	2730.127606
838.452935	2720.909856
838.768842	2720.130998
839.084706	2739.410891
839.400526	2816.724547
839.716303	2949.125412
840.032037	3029.751106
840.347727	3019.890609
840.663373	2952.225721
840.978977	2879.628065
841.294537	2808.386478
841.610054	2758.743716
841.925527	2736.625653
842.240957	2715.619165
842.556344	2694.968079
842.871687	2677.336643
843.186987	2668.542350
843.502244	2662.573624
843.817458	2660.799138
844.132629	2646.318423
844.447756	2638.539923
844.762840	2630.222019
845.077881	2636.155457
845.392879	2634.340642
845.707833	2627.373767
846.022745	2621.326903
846.337613	2620.948817
846.652438	2624.152470
846.967221	2622.055350
847.281960	2621.336986
847.596656	2618.390431
847.911309	2619.098713
848.225919	2615.932869
848.540485	2613.674432
848.855009	2613.324072
849.169490	2614.286932
849.483928	2612.421705
849.798323	2612.567898
850.112675	2607.529265
850.426984	2611.327775
850.741251	2608.477002
851.055474	2610.558999
851.369654	2613.578650
851.683792	2613.785337
851.997887	2609.538165
852.311938	2608.817280
852.625947	2611.962960
852.939914	2611.763834
853.253837	2616.235338
853.567718	2609.346601
853.881555	2608.592949
854.195350	2611.297528
854.509103	2609.886005
854.822812	2608.693772
855.136479	2610.208638
855.450103	2609.621344
855.763685	2612.903135
856.077224	2612.444390
856.390720	2607.877105
856.704173	2610.758124
857.017584	2614.234000
857.330953	2615.033023
857.644278	2618.226594
857.957561	2614.407920
858.270802	2613.054370
858.584000	2613.238372
858.897155	2615.872375
859.210268	2615.685852
859.523339	2611.763834
859.836367	2607.735952
860.149352	2607.519183
860.462295	2614.115533
860.775195	2607.093205
861.088054	2606.268977
861.400869	2605.742176
861.713642	2602.142792
862.026373	2605.540530
862.339062	2606.858792
862.651708	2614.034874
862.964312	2614.425564
863.276873	2612.320882
863.589392	2614.864144
863.901869	2619.650720
864.214303	2623.938221
864.526696	2625.430402
864.839045	2629.468367
865.151353	2631.999026
865.463619	2630.375774
865.775842	2630.012811
866.088023	2631.089098
866.400162	2629.317132
866.712258	2631.114303
867.024313	2629.990126
867.336325	2627.477111
867.648296	2630.063223
867.960224	2633.569345
868.272110	2631.386526
868.583954	2622.922428
868.895755	2628.324025
869.207515	2630.617750
869.519233	2636.810807
869.830909	2635.018677
870.142542	2629.730507
870.454134	2631.671351
870.765684	2634.605302
871.077191	2640.357259
871.388657	2644.186015
871.700081	2640.321971
872.011463	2638.701240
872.322803	2642.653505
872.634101	2646.434370
872.945357	2652.768580
873.256571	2657.419044
873.567744	2654.946358
873.878874	2653.275216
874.189963	2655.372336
874.501010	2659.201092
874.812015	2664.522030
875.122979	2664.892555
875.433900	2656.015083
875.744780	2654.094403
876.055618	2662.361896
876.366415	2663.786022
876.677169	2665.767195
876.987882	2659.027172
877.298554	2655.581544
877.609183	2669.386743
877.919771	2676.323371
878.230317	2682.707992
878.540822	2696.210723
878.851285	2703.966538
879.161707	2730.304047
879.472087	2768.810900
879.782425	2816.616162
880.092722	2931.436003
880.402977	3126.344654
880.713191	3388.434243
881.023363	3691.621838
881.333494	3887.687435
881.643583	4059.399217
881.953631	4057.324782
882.263637	3881.955643
882.573602	3657.178154
882.883526	3520.404089
883.193408	3403.255235
883.503248	3299.977116
883.813048	3182.472861
884.122806	3070.932291
884.432522	2982.210504
884.742197	2914.447314
885.051831	2875.821993
885.361424	2840.105418
885.670975	2805.913792
885.980485	2773.458844
886.289954	2754.796492
886.599382	2741.142527
886.908768	2728.660630
887.218113	2709.912579
887.527417	2693.528829
887.836680	2688.538087
888.145901	2682.718075
888.455082	2675.433607
888.764221	2665.699139
889.073319	2656.163797
889.382376	2655.052222
889.691392	2657.411482
890.000366	2655.284116
890.309300	2652.574495
890.618193	2658.152532
890.927044	2660.544560
891.235855	2660.204282
891.544625	2656.937614
891.853353	2658.938952
892.162041	2666.972031
892.470687	2685.208405
892.779293	2698.738862
893.087858	2709.587425
893.396381	2732.922926
893.704864	2772.692589
894.013306	2844.735718
894.321707	2941.861109
894.630068	2992.595281
894.938387	3010.877026
895.246665	3005.089781
895.554903	2962.885241
895.863100	2914.787592
896.171256	2857.507482
896.479371	2794.205713
896.787446	2756.616349
897.095480	2736.839902
897.403473	2731.024932
897.711425	2713.847200
898.019336	2694.847091
898.327207	2683.375945
898.635038	2680.525173
898.942827	2678.201201
899.250576	2669.734583
899.558284	2654.706903
899.865952	2650.923517
900.173579	2646.651140
900.481165	2645.930255
900.788711	2639.744759
901.096216	2632.785446
901.403681	2628.399642
901.711105	2629.486011
902.018489	2626.993160
902.325832	2633.481125
902.633135	2633.458440
902.940397	2647.561068
903.247619	2686.640092
903.554800	2754.461256
903.861941	2885.286760
904.169041	3014.660412
904.476101	3083.477203
904.783121	3072.779874
905.090100	3016.767614
905.397039	2938.165943
905.703938	2863.950076
906.010796	2797.830302
906.317614	2745.984556
906.624391	2709.514328
906.931129	2680.709175
907.237826	2658.840650
907.544483	2641.602424
907.851099	2625.490896
908.157675	2616.154679
908.464211	2610.153186
908.770707	2598.024170
909.077163	2593.577872
909.383578	2590.543097
909.689954	2590.084352
909.996289	2587.175607
910.302584	2590.618715
910.608839	2583.364494
910.915054	2586.174937
911.221229	2587.281471
911.527363	2589.774321
911.833458	2589.217274
912.139513	2588.531677
912.445527	2591.238777
912.751502	2594.797831
913.057436	2600.885024
913.363331	2606.362238
913.669186	2616.510081
913.975000	2630.330404
914.280775	2650.036274
914.586510	2668.920437
914.892205	2707.313864
915.197859	2773.690737
915.503475	2860.867411
915.809050	2928.590271
916.114585	2946.947633
916.420081	2959.484983
916.725536	2971.392188
917.030952	2943.091150
917.336328	2892.790517
917.641665	2844.675224
917.946961	2791.836370
918.252218	2757.271699
918.557435	2728.980744
918.862612	2705.400747
919.167750	2688.278467
919.472848	2675.032836
919.777906	2653.464259
920.082925	2642.890439
920.387904	2631.391567
920.692843	2631.164715
920.997743	2625.269086
921.302603	2615.942951
921.607423	2609.951540
921.912204	2605.384254
922.216946	2599.869232
922.521647	2599.072730
922.826310	2593.807244
923.130932	2589.683581
923.435516	2584.723085
923.740059	2584.508836
924.044564	2581.363156
924.349028	2579.334092
924.653454	2571.492577
924.957840	2565.309602
925.262186	2564.843295
925.566493	2567.898234
925.870761	2562.413459
926.174989	2563.283058
926.479178	2561.009498
926.783328	2558.050340
927.087438	2560.250804
927.391509	2560.228119
927.695541	2556.870710
927.999533	2555.065977
928.303486	2552.931048
928.607400	2554.425751
928.911275	2554.077911
929.215110	2553.682180
929.518906	2551.753939
929.822663	2555.751574
930.126381	2552.258054
930.430060	2551.340564
930.733699	2553.084804
931.037299	2553.057077
931.340861	2554.645041
931.644383	2553.009186
931.947866	2552.676470
932.251309	2554.952551
932.554714	2553.311656
932.858080	2555.242418
933.161407	2554.874413
933.464694	2552.091696
933.767943	2550.503733
934.071153	2553.863662
934.374323	2551.685883
934.677455	2549.455173
934.980548	2549.429967
935.283602	2550.859134
935.586617	2551.539690
935.889593	2551.514484
936.192530	2546.120450
936.495428	2550.904505
936.798287	2551.269988
937.101108	2552.426933
937.403890	2553.727551
937.706632	2560.752399
938.009336	2561.382543
938.312002	2566.743810
938.614628	2568.021743
938.917216	2575.651529
939.219765	2573.574573
939.522275	2575.273442
939.824747	2569.639953
940.127179	2568.805642
940.429573	2565.014694
940.731929	2566.262380
941.034246	2563.635939
941.336524	2564.601320
941.638763	2564.881104
941.940964	2563.693912
942.243126	2558.635114
942.545250	2561.942111
942.847335	2560.099569
943.149381	2558.698128
943.451389	2559.275341
943.753359	2556.056564
944.055290	2556.404403
944.357182	2554.907181
944.659036	2555.771739
944.960851	2553.394835
945.262628	2554.771070
945.564367	2554.017417
945.866067	2554.135884
946.167729	2557.173179
946.469352	2555.368446
946.770937	2555.118909
947.072484	2553.409958
947.373992	2554.831563
947.675462	2555.242417
947.976893	2551.121274
948.278286	2551.327962
948.579641	2552.409289
948.880958	2548.537683
949.182236	2551.701007
949.483476	2550.254196
949.784678	2551.169165
950.085841	2550.047508
950.386967	2552.447098
950.688054	2551.927859
950.989103	2551.834598
951.290114	2554.148487
951.591087	2555.970864
951.892021	2554.478683
952.192917	2554.831563
952.493776	2557.815927
952.794596	2557.631924
953.095378	2558.062943
953.396122	2560.840619
953.696828	2555.635628
953.997496	2558.821637
954.298126	2552.152190
954.598718	2553.334341
954.899272	2553.455328
955.199788	2547.058104
955.500266	2551.285112
955.800706	2546.059956
956.101108	2542.533669
956.401472	2540.776827
956.701798	2540.897814
957.002087	2540.963349
957.302337	2543.032743
957.602550	2541.253216
957.902724	2540.517207
958.202861	2542.601724
958.502960	2540.481919
958.803022	2536.418749
959.103045	2537.943698
959.403031	2539.004861
959.702979	2536.249870
960.002889	2537.994110
960.302762	2537.812628
960.602596	2537.240457
960.902393	2536.625436
961.202153	2536.443955
961.501875	2539.418236
961.801559	2535.929757
962.101205	2535.970086
962.400814	2538.493184
962.700385	2537.749614
962.999918	2535.833975
963.299414	2535.902031
963.598873	2535.299613
963.898293	2535.148378
964.197677	2536.252391
964.497022	2533.308357
964.796331	2536.726259
965.095601	2535.997813
965.394835	2535.256763
965.694030	2531.586803
965.993189	2534.505631
966.292309	2533.131917
966.591393	2532.796680
966.890439	2534.387164
967.189447	2535.793646
967.488419	2536.811959
967.787353	2531.332225
968.086249	2533.235260
968.385108	2534.364479
968.683930	2536.088553
968.982714	2536.993441
969.281462	2536.118800
969.580172	2535.634850
969.878844	2533.376413
970.177480	2535.342463
970.476078	2535.594520
970.774639	2537.426980
971.073162	2534.389685
971.371649	2531.985054
971.670098	2532.698377
971.968510	2535.077802
972.266885	2528.221833
972.565223	2534.682072
972.863524	2536.242309
973.161788	2536.834644
973.460014	2537.593338
973.758204	2534.303985
974.056356	2534.689633
974.354471	2538.740200
974.652550	2537.169881
974.950591	2534.533358
975.248595	2534.104859
975.546563	2535.153419
975.844493	2532.539581
976.142386	2535.150899
976.440243	2535.501259
976.738062	2534.767771
977.035845	2533.613347
977.333590	2534.588810
977.631299	2532.756351
977.928971	2534.984541
978.226606	2533.300795
978.524204	2532.456402
978.821765	2532.698378
979.119290	2532.935312
979.416777	2535.584438
979.714228	2535.047555
980.011642	2536.227185
980.309020	2535.395395
980.606360	2533.096629
980.903664	2533.777184
981.200931	2532.637884
981.498162	2537.031249
981.795356	2538.566281
982.092513	2539.884542
982.389633	2545.079451
982.686717	2546.586756
982.983764	2549.583722
983.280775	2552.038764
983.577749	2550.133208
983.874686	2551.438867
984.171587	2547.022816
984.468451	2541.906045
984.765279	2540.623071
985.062070	2540.108874
985.358824	2537.255581
985.655543	2535.425642
985.952224	2536.690971
986.248869	2535.392874
986.545478	2529.182173
986.842050	2532.597554
987.138586	2526.722090
987.435086	2529.741741
987.731549	2528.032790
988.027975	2532.496731
988.324366	2529.751823
988.620719	2530.888603
988.917037	2531.710311
989.213318	2530.729807
989.509563	2530.528161
989.805772	2529.925743
990.101944	2526.447347
990.398080	2532.771474
990.694180	2531.017153
990.990244	2530.921371
991.286271	2529.582944
991.582262	2531.009591
991.878217	2531.468336
992.174136	2531.838861
992.470019	2530.437420
992.765865	2530.273583
993.061676	2530.560928
993.357450	2531.647297
993.653188	2529.600588
993.948890	2530.709642
994.244556	2531.886752
994.540186	2532.521937
994.835780	2532.287523
995.131337	2530.873480
995.426859	2531.501103
995.722345	2532.292565
996.017795	2534.059489
996.313208	2537.101825
996.608586	2535.541588
996.903928	2534.687113
997.199234	2534.462781
997.494504	2532.078316
997.789738	2533.157123
998.084936	2534.906403
998.380099	2530.097142
998.675225	2533.404139
998.970316	2531.342307
999.265371	2531.354910
999.560390	2530.071936
999.855373	2529.822399
1000.150320	2529.850126
1000.445232	2531.039838
1000.740108	2531.614529
1001.034948	2531.604447
1001.329752	2530.518078
1001.624521	2530.906247
1001.919254	2527.324508
1002.213951	2530.049251
1002.508613	2525.708818
1002.803239	2527.286699
1003.097829	2525.736544
1003.392384	2528.942718
1003.686903	2529.774508
1003.981386	2528.718387
1004.275834	2528.589837
1004.570246	2530.986906
1004.864623	2528.194107
1005.158964	2526.913653
1005.453270	2528.980527
1005.747540	2531.312060
1006.041775	2524.408200
1006.335974	2528.357944
1006.630138	2526.265865
1006.924266	2529.076308
1007.218359	2529.401463
1007.512416	2525.572707
1007.806438	2530.712163
1008.100425	2526.986750
1008.394376	2527.251411
1008.688292	2527.100176
1008.982172	2528.844415
1009.276017	2528.736031
1009.569827	2530.263500
1009.863602	2529.174611
1010.157341	2526.664116
1010.451045	2527.626977
1010.744714	2530.835671
1011.038347	2527.884076
1011.331945	2528.607481
1011.625508	2529.194776
1011.919036	2527.624456
1012.212528	2529.028418
1012.505986	2524.937521
1012.799408	2532.204344
1013.092795	2528.415917
1013.386147	2527.367357
1013.679464	2527.216123
1013.972745	2527.984899
1014.265992	2528.589837
1014.559204	2527.140505
1014.852380	2529.358613
1015.145521	2525.978519
1015.438628	2527.667306
1015.731699	2530.006401
1016.024736	2525.519774
1016.317737	2528.060516
1016.610703	2528.920033
1016.903635	2525.199661
1017.196531	2526.013807
1017.489393	2525.366019
1017.782219	2522.500123
1018.075011	2526.603623
1018.367768	2527.410207
1018.660490	2529.613191
1018.953177	2529.613191
1019.245829	2529.613191
