Dividing Wavelength (nm)	Counts (n)	Blue Motor Position (mm): 0.000000	Red Motor Position (mm): 6.700000	
326.493990	2122.325769
326.888308	2122.325769
327.282561	2122.325769
327.676750	1983.694038
328.070874	2089.558269
328.464933	2034.105577
328.858929	2061.831923
329.252859	2069.393654
329.646726	2064.352500
330.040528	2092.078846
330.434265	2104.681731
330.827938	2099.640577
331.221547	2152.572692
331.615091	2165.175577
332.008571	2114.764038
332.401986	2195.422500
332.795338	2208.025385
333.188625	2291.204423
333.581847	2240.792885
333.975006	2245.834038
334.368100	2341.615962
334.761129	2308.848462
335.154095	2303.807308
335.546996	2268.519231
335.939833	2366.821731
336.332606	2313.889615
336.725315	2323.971923
337.117960	2417.233269
337.510540	2465.124231
337.903056	2407.150962
338.295508	2487.809423
338.687896	2437.397885
339.080220	2472.685962
339.472480	2452.521346
339.864676	2427.315577
340.256807	2467.644808
340.648875	2472.685962
341.040879	2424.795000
341.432818	2520.576923
341.824694	2543.262115
342.216506	2381.945192
342.608253	2510.494615
342.999937	2598.714808
343.391557	2465.124231
343.783113	2545.782692
344.174605	2465.124231
344.566033	2510.494615
344.957397	2497.891731
345.348697	2482.768269
345.739934	2558.385577
346.131106	2507.974038
346.522215	2515.535769
346.913260	2427.315577
347.304241	2465.124231
347.695159	2422.274423
348.086012	2432.356731
348.476802	2507.974038
348.867528	2422.274423
349.258191	2447.480192
349.648789	2444.959615
350.039324	2480.247692
350.429796	2437.397885
350.820203	2510.494615
351.210548	2457.562500
351.600828	2432.356731
351.991045	2480.247692
352.381198	2402.109808
352.771288	2414.712692
353.161314	2462.603654
353.551276	2475.206538
353.941175	2308.848462
354.331010	2450.000769
354.720782	2427.315577
355.110490	2379.424615
355.500135	2397.068654
355.889717	2505.453462
356.279235	2429.836154
356.668689	2442.439038
357.058080	2404.630385
357.447408	2457.562500
357.836672	2492.850577
358.225873	2535.700385
358.615010	2414.712692
359.004084	2437.397885
359.393095	2412.192115
359.782043	2379.424615
360.170927	2442.439038
360.559748	2397.068654
360.948505	2553.344423
361.337199	2480.247692
361.725830	2414.712692
362.114398	2439.918462
362.502903	2422.274423
362.891344	2414.712692
363.279722	2434.877308
363.668037	2407.150962
364.056289	2409.671538
364.444478	2465.124231
364.832603	2427.315577
365.220665	2371.862885
365.608665	2518.056346
365.996601	2419.753846
366.384474	2518.056346
366.772284	2417.233269
367.160031	2495.371154
367.547715	2472.685962
367.935336	2470.165385
368.322893	2513.015192
368.710388	2482.768269
369.097820	2472.685962
369.485189	2434.877308
369.872495	2455.041923
370.259738	2455.041923
370.646918	2455.041923
371.034035	2424.795000
371.421090	2507.974038
371.808081	2482.768269
372.195010	2452.521346
372.581875	2492.850577
372.968678	2487.809423
373.355418	2397.068654
373.742096	2495.371154
374.128710	2475.206538
374.515262	2349.177692
374.901751	2442.439038
375.288177	2437.397885
375.674540	2442.439038
376.060841	2442.439038
376.447079	2419.753846
376.833254	2520.576923
377.219367	2376.904038
377.605417	2485.288846
377.991404	2450.000769
378.377329	2409.671538
378.763191	2470.165385
379.148991	2528.138654
379.534727	2528.138654
379.920402	2465.124231
380.306013	2460.083077
380.691563	2419.753846
381.077049	2442.439038
381.462474	2432.356731
381.847835	2472.685962
382.233134	2419.753846
382.618371	2455.041923
383.003545	2329.013077
383.388657	2450.000769
383.773706	2434.877308
384.158693	2434.877308
384.543618	2477.727115
384.928480	2460.083077
385.313280	2455.041923
385.698017	2412.192115
386.082692	2442.439038
386.467305	2427.315577
386.851856	2560.906154
387.236344	2482.768269
387.620770	2480.247692
388.005133	2510.494615
388.389435	2452.521346
388.773674	2470.165385
389.157851	2450.000769
389.541965	2409.671538
389.926018	2515.535769
390.310008	2465.124231
390.693936	2485.288846
391.077802	2500.412308
391.461606	2495.371154
391.845348	2447.480192
392.229027	2447.480192
392.612645	2583.591346
392.996200	2480.247692
393.379694	2472.685962
393.763125	2417.233269
394.146494	2492.850577
394.529801	2394.548077
394.913047	2424.795000
395.296230	2505.453462
395.679351	2538.220962
396.062410	2470.165385
396.445408	2397.068654
396.828343	2487.809423
397.211217	2497.891731
397.594028	2497.891731
397.976778	2475.206538
398.359466	2462.603654
398.742092	2412.192115
399.124656	2533.179808
399.507158	2462.603654
399.889598	2447.480192
400.271977	2485.288846
400.654294	2409.671538
401.036549	2490.330000
401.418742	2470.165385
401.800874	2422.274423
402.182944	2442.439038
402.564952	2505.453462
402.946898	2510.494615
403.328783	2475.206538
403.710606	2490.330000
404.092367	2444.959615
404.474067	2442.439038
404.855705	2404.630385
405.237282	2528.138654
405.618797	2500.412308
406.000250	2548.303269
406.381642	2414.712692
406.762972	2492.850577
407.144240	2482.768269
407.525447	2490.330000
407.906593	2528.138654
408.287677	2422.274423
408.668700	2429.836154
409.049661	2414.712692
409.430560	2409.671538
409.811399	2392.027500
410.192176	2535.700385
410.572891	2414.712692
410.953545	2523.097500
411.334138	2495.371154
411.714669	2550.823846
412.095139	2533.179808
412.475547	2543.262115
412.855894	2470.165385
413.236180	2412.192115
413.616405	2525.618077
413.996568	2495.371154
414.376670	2505.453462
414.756711	2475.206538
415.136691	2465.124231
415.516609	2472.685962
415.896466	2462.603654
416.276262	2472.685962
416.655997	2538.220962
417.035670	2548.303269
417.415283	2505.453462
417.794834	2485.288846
418.174324	2525.618077
418.553753	2548.303269
418.933121	2472.685962
419.312428	2477.727115
419.691674	2568.467885
420.070859	2482.768269
420.449983	2538.220962
420.829045	2500.412308
421.208047	2477.727115
421.586988	2497.891731
421.965867	2510.494615
422.344686	2472.685962
422.723444	2550.823846
423.102141	2417.233269
423.480777	2467.644808
423.859352	2520.576923
424.237866	2490.330000
424.616319	2470.165385
424.994712	2533.179808
425.373044	2523.097500
425.751314	2510.494615
426.129524	2495.371154
426.507673	2515.535769
426.885762	2475.206538
427.263789	2480.247692
427.641756	2455.041923
428.019662	2598.714808
428.397508	2457.562500
428.775292	2487.809423
429.153016	2490.330000
429.530679	2553.344423
429.908282	2467.644808
430.285824	2417.233269
430.663305	2442.439038
431.040726	2490.330000
431.418086	2510.494615
431.795385	2502.932885
432.172624	2487.809423
432.549802	2540.741538
432.926920	2500.412308
433.303977	2565.947308
433.680974	2505.453462
434.057910	2507.974038
434.434786	2439.918462
434.811601	2520.576923
435.188355	2513.015192
435.565050	2492.850577
435.941683	2558.385577
436.318257	2495.371154
436.694770	2460.083077
437.071222	2505.453462
437.447614	2439.918462
437.823946	2482.768269
438.200218	2568.467885
438.576429	2520.576923
438.952580	2487.809423
439.328670	2419.753846
439.704700	2510.494615
440.080670	2578.550192
440.456580	2460.083077
440.832429	2407.150962
441.208218	2434.877308
441.583947	2555.865000
441.959616	2502.932885
442.335224	2520.576923
442.710773	2513.015192
443.086261	2513.015192
443.461689	2442.439038
443.837057	2525.618077
444.212365	2480.247692
444.587612	2540.741538
444.962800	2475.206538
445.337927	2434.877308
445.712995	2513.015192
446.088002	2455.041923
446.462949	2515.535769
446.837837	2467.644808
447.212664	2553.344423
447.587431	2470.165385
447.962139	2528.138654
448.336786	2507.974038
448.711374	2497.891731
449.085901	2470.165385
449.460369	2485.288846
449.834776	2452.521346
450.209124	2452.521346
450.583412	2492.850577
450.957640	2510.494615
451.331808	2417.233269
451.705917	2525.618077
452.079965	2510.494615
452.453954	2475.206538
452.827883	2495.371154
453.201752	2497.891731
453.575562	2523.097500
453.949311	2545.782692
454.323001	2467.644808
454.696632	2427.315577
455.070202	2502.932885
455.443713	2490.330000
455.817164	2533.179808
456.190556	2518.056346
456.563888	2523.097500
456.937160	2439.918462
457.310373	2409.671538
457.683526	2515.535769
458.056619	2462.603654
458.429653	2515.535769
458.802628	2510.494615
459.175542	2535.700385
459.548398	2472.685962
459.921194	2470.165385
460.293930	2437.397885
460.666607	2495.371154
461.039224	2497.891731
461.411782	2520.576923
461.784280	2480.247692
462.156719	2598.714808
462.529099	2507.974038
462.901419	2442.439038
463.273680	2570.988462
463.645882	2530.659231
464.018024	2583.591346
464.390106	2462.603654
464.762130	2455.041923
465.134094	2485.288846
465.505999	2480.247692
465.877845	2480.247692
466.249631	2525.618077
466.621358	2492.850577
466.993026	2482.768269
467.364634	2450.000769
467.736184	2500.412308
468.107674	2407.150962
468.479105	2545.782692
468.850477	2470.165385
469.221790	2550.823846
469.593043	2520.576923
469.964238	2533.179808
470.335373	2376.904038
470.706449	2530.659231
471.077467	2465.124231
471.448425	2570.988462
471.819324	2470.165385
472.190164	2518.056346
472.560945	2505.453462
472.931667	2543.262115
473.302330	2429.836154
473.672934	2424.795000
474.043479	2492.850577
474.413965	2477.727115
474.784393	2465.124231
475.154761	2455.041923
475.525070	2603.755962
475.895321	2475.206538
476.265513	2523.097500
476.635645	2492.850577
477.005719	2477.727115
477.375734	2530.659231
477.745691	2432.356731
478.115588	2434.877308
478.485427	2450.000769
478.855207	2477.727115
479.224928	2480.247692
479.594591	2419.753846
479.964194	2507.974038
480.333739	2505.453462
480.703226	2513.015192
481.072653	2465.124231
481.442022	2530.659231
481.811333	2457.562500
482.180584	2558.385577
482.549777	2560.906154
482.918912	2427.315577
483.287988	2530.659231
483.657005	2442.439038
484.025964	2518.056346
484.394864	2470.165385
484.763706	2538.220962
485.132489	2475.206538
485.501213	2475.206538
485.869879	2477.727115
486.238487	2576.029615
486.607036	2447.480192
486.975527	2502.932885
487.343959	2472.685962
487.712333	2437.397885
488.080648	2608.797115
488.448905	2482.768269
488.817104	2525.618077
489.185244	2555.865000
489.553326	2442.439038
489.921350	2553.344423
490.289315	2434.877308
490.657222	2477.727115
491.025070	2497.891731
491.392861	2439.918462
491.760593	2555.865000
492.128267	2558.385577
492.495883	2457.562500
492.863440	2492.850577
493.230939	2525.618077
493.598380	2472.685962
493.965763	2497.891731
494.333088	2528.138654
494.700354	2606.276538
495.067563	2513.015192
495.434713	2450.000769
495.801805	2437.397885
496.168839	2422.274423
496.535815	2507.974038
496.902733	2465.124231
497.269593	2555.865000
497.636395	2467.644808
498.003139	2460.083077
498.369825	2568.467885
498.736453	2523.097500
499.103023	2533.179808
499.469535	2543.262115
499.835989	2475.206538
500.202385	2528.138654
500.568723	2490.330000
500.935003	2500.412308
501.301226	2535.700385
501.667390	2563.426731
502.033497	2361.780577
502.399546	2515.535769
502.765537	2480.247692
503.131470	2523.097500
503.497345	2530.659231
503.863163	2525.618077
504.228923	2477.727115
504.594625	2490.330000
504.960269	2555.865000
505.325856	2510.494615
505.691385	2437.397885
506.056856	2492.850577
506.422270	2505.453462
506.787625	2392.027500
507.152924	2475.206538
507.518164	2492.850577
507.883347	2510.494615
508.248472	2492.850577
508.613540	2515.535769
508.978550	2432.356731
509.343503	2515.535769
509.708398	2455.041923
510.073236	2545.782692
510.438016	2518.056346
510.802738	2505.453462
511.167403	2427.315577
511.532010	2513.015192
511.896561	2563.426731
512.261053	2502.932885
512.625488	2528.138654
512.989866	2507.974038
513.354186	2550.823846
513.718449	2480.247692
514.082655	2570.988462
514.446803	2472.685962
514.810894	2513.015192
515.174927	2500.412308
515.538904	2510.494615
515.902822	2515.535769
516.266684	2470.165385
516.630488	2490.330000
516.994235	2455.041923
517.357925	2470.165385
517.721558	2487.809423
518.085133	2419.753846
518.448651	2495.371154
518.812112	2528.138654
519.175516	2475.206538
519.538863	2482.768269
519.902152	2540.741538
520.265385	2492.850577
520.628560	2533.179808
520.991678	2502.932885
521.354739	2404.630385
521.717743	2560.906154
522.080690	2560.906154
522.443580	2576.029615
522.806413	2444.959615
523.169189	2467.644808
523.531908	2485.288846
523.894569	2520.576923
524.257174	2487.809423
524.619722	2507.974038
524.982213	2467.644808
525.344647	2437.397885
525.707025	2470.165385
526.069345	2492.850577
526.431608	2523.097500
526.793815	2467.644808
527.155964	2492.850577
527.518057	2409.671538
527.880093	2550.823846
528.242072	2490.330000
528.603995	2467.644808
528.965860	2505.453462
529.327669	2581.070769
529.689421	2565.947308
530.051117	2455.041923
530.412755	2417.233269
530.774337	2492.850577
531.135862	2530.659231
531.497331	2497.891731
531.858743	2513.015192
532.220098	2467.644808
532.581396	2444.959615
532.942638	2450.000769
533.303824	2538.220962
533.664953	2480.247692
534.026025	2513.015192
534.387040	2533.179808
534.747999	2470.165385
535.108902	2477.727115
535.469748	2414.712692
535.830537	2530.659231
536.191270	2505.453462
536.551947	2520.576923
536.912567	2563.426731
537.273131	2447.480192
537.633638	2475.206538
537.994089	2588.632500
538.354483	2550.823846
538.714821	2500.412308
539.075103	2482.768269
539.435328	2457.562500
539.795497	2447.480192
540.155609	2460.083077
540.515665	2465.124231
540.875665	2495.371154
541.235609	2427.315577
541.595496	2563.426731
541.955328	2525.618077
542.315102	2482.768269
542.674821	2457.562500
543.034483	2472.685962
543.394090	2409.671538
543.753640	2538.220962
544.113134	2444.959615
544.472571	2573.509038
544.831953	2495.371154
545.191278	2465.124231
545.550548	2513.015192
545.909761	2533.179808
546.268918	2500.412308
546.628019	2543.262115
546.987064	2543.262115
547.346053	2470.165385
547.704986	2429.836154
548.063863	2555.865000
548.422684	2545.782692
548.781449	2424.795000
549.140158	2460.083077
549.498811	2450.000769
549.857408	2487.809423
550.215949	2452.521346
550.574434	2482.768269
550.932864	2500.412308
551.291237	2394.548077
551.649555	2477.727115
552.007817	2429.836154
552.366022	2535.700385
552.724173	2565.947308
553.082267	2477.727115
553.440305	2487.809423
553.798288	2460.083077
554.156215	2533.179808
554.514086	2457.562500
554.871902	2558.385577
555.229661	2528.138654
555.587365	2475.206538
555.945014	2480.247692
556.302606	2543.262115
556.660143	2452.521346
557.017625	2462.603654
557.375050	2422.274423
557.732421	2545.782692
558.089735	2525.618077
558.446994	2475.206538
558.804197	2500.412308
559.161345	2550.823846
559.518437	2502.932885
559.875474	2477.727115
560.232455	2467.644808
560.589381	2505.453462
560.946251	2591.153077
561.303065	2545.782692
561.659825	2462.603654
562.016528	2452.521346
562.373177	2507.974038
562.729770	2470.165385
563.086307	2452.521346
563.442789	2545.782692
563.799216	2530.659231
564.155587	2462.603654
564.511904	2470.165385
564.868164	2475.206538
565.224370	2548.303269
565.580520	2520.576923
565.936615	2480.247692
566.292654	2460.083077
566.648638	2523.097500
567.004567	2553.344423
567.360441	2540.741538
567.716260	2480.247692
568.072023	2480.247692
568.427732	2450.000769
568.783385	2540.741538
569.138982	2505.453462
569.494525	2500.412308
569.850013	2485.288846
570.205445	2535.700385
570.560823	2555.865000
570.916145	2497.891731
571.271412	2434.877308
571.626625	2507.974038
571.981782	2487.809423
572.336884	2432.356731
572.691931	2533.179808
573.046923	2462.603654
573.401860	2447.480192
573.756743	2513.015192
574.111570	2470.165385
574.466342	2525.618077
574.821059	2596.194231
575.175722	2477.727115
575.530330	2455.041923
575.884882	2495.371154
576.239380	2487.809423
576.593823	2507.974038
576.948211	2492.850577
577.302544	2487.809423
577.656823	2472.685962
578.011047	2457.562500
578.365216	2533.179808
578.719330	2485.288846
579.073389	2507.974038
579.427394	2404.630385
579.781344	2528.138654
580.135239	2591.153077
580.489080	2513.015192
580.842866	2472.685962
581.196597	2553.344423
581.550273	2518.056346
581.903895	2535.700385
582.257463	2485.288846
582.610975	2490.330000
582.964434	2500.412308
583.317837	2467.644808
583.671186	2507.974038
584.024481	2528.138654
584.377721	2505.453462
584.730906	2570.988462
585.084037	2477.727115
585.437113	2553.344423
585.790135	2392.027500
586.143103	2452.521346
586.496016	2530.659231
586.848874	2507.974038
587.201679	2540.741538
587.554428	2515.535769
587.907124	2570.988462
588.259765	2530.659231
588.612352	2523.097500
588.964884	2515.535769
589.317362	2502.932885
589.669786	2490.330000
590.022155	2530.659231
590.374470	2490.330000
590.726731	2492.850577
591.078937	2555.865000
591.431090	2550.823846
591.783188	2480.247692
592.135232	2505.453462
592.487222	2510.494615
592.839157	2538.220962
593.191038	2500.412308
593.542866	2465.124231
593.894639	2523.097500
594.246358	2475.206538
594.598022	2422.274423
594.949633	2485.288846
595.301190	2573.509038
595.652692	2439.918462
596.004141	2497.891731
596.355535	2470.165385
596.706876	2513.015192
597.058162	2525.618077
597.409395	2444.959615
597.760573	2482.768269
598.111698	2545.782692
598.462768	2586.111923
598.813785	2573.509038
599.164748	2487.809423
599.515657	2525.618077
599.866511	2437.397885
600.217312	2538.220962
600.568060	2500.412308
600.918753	2462.603654
601.269392	2502.932885
601.619978	2553.344423
601.970510	2523.097500
602.320988	2450.000769
602.671412	2439.918462
603.021783	2520.576923
603.372100	2505.453462
603.722363	2565.947308
604.072572	2505.453462
604.422728	2576.029615
604.772830	2525.618077
605.122878	2492.850577
605.472872	2548.303269
605.822813	2447.480192
606.172701	2457.562500
606.522534	2518.056346
606.872314	2616.358846
607.222041	2548.303269
607.571714	2452.521346
607.921333	2497.891731
608.270899	2482.768269
608.620411	2452.521346
608.969870	2492.850577
609.319276	2495.371154
609.668627	2437.397885
610.017926	2444.959615
610.367171	2495.371154
610.716362	2434.877308
611.065500	2432.356731
611.414585	2452.521346
611.763616	2553.344423
612.112594	2457.562500
612.461518	2497.891731
612.810389	2450.000769
613.159207	2535.700385
613.507971	2545.782692
613.856682	2533.179808
614.205340	2497.891731
614.553945	2505.453462
614.902496	2598.714808
615.250994	2523.097500
615.599439	2535.700385
615.947830	2502.932885
616.296169	2518.056346
616.644454	2482.768269
616.992686	2560.906154
617.340864	2543.262115
617.688990	2500.412308
618.037063	2467.644808
618.385082	2455.041923
618.733048	2480.247692
619.080961	2450.000769
619.428821	2439.918462
619.776628	2482.768269
620.124382	2472.685962
620.472083	2576.029615
620.819731	2535.700385
621.167326	2555.865000
621.514868	2495.371154
621.862357	2505.453462
622.209793	2518.056346
622.557176	2402.109808
622.904506	2523.097500
623.251783	2477.727115
623.599007	2513.015192
623.946179	2432.356731
624.293297	2520.576923
624.640363	2475.206538
624.987376	2523.097500
625.334336	2414.712692
625.681243	2500.412308
626.028097	2500.412308
626.374899	2487.809423
626.721647	2470.165385
627.068343	2502.932885
627.414987	2596.194231
627.761577	2465.124231
628.108115	2523.097500
628.454600	2530.659231
628.801032	2429.836154
629.147412	2578.550192
629.493739	2528.138654
629.840014	2535.700385
630.186236	2480.247692
630.532405	2540.741538
630.878521	2507.974038
631.224585	2497.891731
631.570597	2518.056346
631.916556	2460.083077
632.262462	2409.671538
632.608316	2507.974038
632.954117	2523.097500
633.299866	2553.344423
633.645562	2505.453462
633.991206	2535.700385
634.336797	2457.562500
634.682336	2465.124231
635.027823	2475.206538
635.373257	2553.344423
635.718639	2538.220962
636.063968	2563.426731
636.409245	2523.097500
636.754470	2442.439038
637.099642	2560.906154
637.444762	2513.015192
637.789829	2480.247692
638.134845	2530.659231
638.479808	2455.041923
638.824719	2500.412308
639.169577	2530.659231
639.514383	2560.906154
639.859137	2490.330000
640.203839	2497.891731
640.548489	2465.124231
640.893086	2485.288846
641.237632	2576.029615
641.582125	2460.083077
641.926566	2482.768269
642.270955	2518.056346
642.615292	2528.138654
642.959576	2573.509038
643.303809	2535.700385
643.647990	2490.330000
643.992118	2568.467885
644.336195	2563.426731
644.680219	2475.206538
645.024192	2548.303269
645.368112	2495.371154
645.711981	2477.727115
646.055797	2560.906154
646.399562	2507.974038
646.743274	2457.562500
647.086935	2523.097500
647.430544	2507.974038
647.774101	2409.671538
648.117606	2523.097500
648.461059	2593.673654
648.804460	2485.288846
649.147810	2523.097500
649.491108	2439.918462
649.834354	2455.041923
650.177548	2621.400000
650.520690	2548.303269
650.863781	2485.288846
651.206820	2429.836154
651.549807	2502.932885
651.892742	2490.330000
652.235626	2533.179808
652.578458	2538.220962
652.921238	2419.753846
653.263967	2475.206538
653.606644	2460.083077
653.949269	2495.371154
654.291843	2507.974038
654.634365	2545.782692
654.976836	2528.138654
655.319255	2439.918462
655.661622	2588.632500
656.003938	2482.768269
656.346203	2533.179808
656.688416	2507.974038
657.030577	2525.618077
657.372687	2518.056346
657.714746	2465.124231
658.056753	2530.659231
658.398708	2528.138654
658.740612	2457.562500
659.082465	2573.509038
659.424266	2583.591346
659.766016	2535.700385
660.107715	2462.603654
660.449362	2477.727115
660.790958	2470.165385
661.132503	2510.494615
661.473996	2603.755962
661.815438	2475.206538
662.156829	2533.179808
662.498168	2565.947308
662.839456	2429.836154
663.180693	2475.206538
663.521879	2553.344423
663.863013	2535.700385
664.204097	2568.467885
664.545129	2429.836154
664.886110	2523.097500
665.227040	2495.371154
665.567918	2492.850577
665.908746	2467.644808
666.249522	2545.782692
666.590248	2465.124231
666.930922	2543.262115
667.271545	2525.618077
667.612118	2568.467885
667.952639	2513.015192
668.293109	2533.179808
668.633528	2535.700385
668.973896	2462.603654
669.314213	2513.015192
669.654480	2515.535769
669.994695	2419.753846
670.334859	2472.685962
670.674973	2510.494615
671.015035	2480.247692
671.355047	2533.179808
671.695008	2495.371154
672.034918	2434.877308
672.374777	2530.659231
672.714585	2475.206538
673.054342	2465.124231
673.394049	2452.521346
673.733705	2497.891731
674.073310	2560.906154
674.412864	2462.603654
674.752368	2538.220962
675.091820	2465.124231
675.431223	2467.644808
675.770574	2530.659231
676.109875	2444.959615
676.449125	2548.303269
676.788324	2417.233269
677.127473	2528.138654
677.466571	2475.206538
677.805619	2528.138654
678.144616	2543.262115
678.483562	2457.562500
678.822458	2588.632500
679.161303	2553.344423
679.500098	2553.344423
679.838842	2495.371154
680.177535	2487.809423
680.516179	2467.644808
680.854771	2576.029615
681.193314	2455.041923
681.531805	2523.097500
681.870247	2588.632500
682.208638	2477.727115
682.546978	2442.439038
682.885268	2462.603654
683.223508	2470.165385
683.561697	2437.397885
683.899836	2487.809423
684.237925	2480.247692
684.575963	2515.535769
684.913951	2525.618077
685.251889	2528.138654
685.589776	2472.685962
685.927614	2545.782692
686.265401	2507.974038
686.603137	2487.809423
686.940824	2462.603654
687.278460	2586.111923
687.616046	2402.109808
687.953582	2472.685962
688.291068	2437.397885
688.628504	2565.947308
688.965889	2472.685962
689.303224	2505.453462
689.640510	2465.124231
689.977745	2477.727115
690.314930	2472.685962
690.652065	2550.823846
690.989150	2513.015192
691.326185	2543.262115
691.663170	2467.644808
692.000105	2535.700385
692.336990	2444.959615
692.673825	2500.412308
693.010610	2540.741538
693.347345	2578.550192
693.684030	2457.562500
694.020665	2452.521346
694.357251	2460.083077
694.693786	2545.782692
695.030272	2472.685962
695.366707	2588.632500
695.703093	2485.288846
696.039429	2490.330000
696.375716	2427.315577
696.711952	2505.453462
697.048139	2598.714808
697.384276	2432.356731
697.720363	2530.659231
698.056400	2533.179808
698.392388	2513.015192
698.728326	2548.303269
699.064214	2510.494615
699.400053	2530.659231
699.735842	2510.494615
700.071581	2399.589231
700.407270	2502.932885
700.742910	2444.959615
701.078501	2500.412308
701.414042	2434.877308
701.749533	2450.000769
702.084974	2475.206538
702.420366	2447.480192
702.755709	2480.247692
703.091002	2538.220962
703.426246	2475.206538
703.761440	2558.385577
704.096584	2487.809423
704.431679	2490.330000
704.766725	2462.603654
705.101721	2492.850577
705.436668	2462.603654
705.771565	2497.891731
706.106413	2510.494615
706.441212	2555.865000
706.775961	2535.700385
707.110661	2500.412308
707.445311	2477.727115
707.779913	2404.630385
708.114465	2583.591346
708.448967	2497.891731
708.783421	2520.576923
709.117825	2593.673654
709.452180	2492.850577
709.786485	2414.712692
710.120742	2497.891731
710.454949	2455.041923
710.789107	2485.288846
711.123216	2540.741538
711.457275	2507.974038
711.791286	2492.850577
712.125247	2462.603654
712.459159	2462.603654
712.793023	2525.618077
713.126837	2502.932885
713.460602	2465.124231
713.794318	2510.494615
714.127985	2495.371154
714.461602	2507.974038
714.795171	2505.453462
715.128691	2457.562500
715.462162	2515.535769
715.795584	2477.727115
716.128957	2523.097500
716.462281	2487.809423
716.795556	2452.521346
717.128782	2452.521346
717.461960	2513.015192
717.795088	2450.000769
718.128167	2457.562500
718.461198	2490.330000
718.794180	2545.782692
719.127113	2530.659231
719.459997	2495.371154
719.792833	2502.932885
720.125619	2500.412308
720.458357	2548.303269
720.791046	2530.659231
721.123686	2462.603654
721.456278	2470.165385
721.788821	2465.124231
722.121315	2523.097500
722.453761	2495.371154
722.786158	2444.959615
723.118506	2444.959615
723.450805	2482.768269
723.783056	2505.453462
724.115259	2392.027500
724.447412	2528.138654
724.779518	2452.521346
725.111574	2485.288846
725.443582	2482.768269
725.775542	2414.712692
726.107453	2502.932885
726.439315	2500.412308
726.771129	2513.015192
727.102895	2480.247692
727.434612	2497.891731
727.766281	2434.877308
728.097901	2535.700385
728.429473	2465.124231
728.760996	2510.494615
729.092471	2543.262115
729.423897	2477.727115
729.755276	2442.439038
730.086606	2528.138654
730.417887	2480.247692
730.749120	2409.671538
731.080305	2558.385577
731.411442	2520.576923
731.742530	2482.768269
732.073570	2540.741538
732.404562	2460.083077
732.735506	2533.179808
733.066401	2500.412308
733.397249	2520.576923
733.728048	2525.618077
734.058798	2470.165385
734.389501	2394.548077
734.720156	2510.494615
735.050762	2550.823846
735.381320	2543.262115
735.711831	2515.535769
736.042293	2442.439038
736.372707	2520.576923
736.703073	2455.041923
737.033391	2545.782692
737.363661	2502.932885
737.693883	2419.753846
738.024056	2495.371154
738.354182	2487.809423
738.684260	2528.138654
739.014290	2535.700385
739.344272	2480.247692
739.674207	2568.467885
740.004093	2558.385577
740.333931	2538.220962
740.663722	2467.644808
740.993464	2429.836154
741.323159	2507.974038
741.652806	2442.439038
741.982405	2422.274423
742.311956	2427.315577
742.641460	2500.412308
742.970915	2472.685962
743.300323	2535.700385
743.629683	2555.865000
743.958996	2417.233269
744.288260	2470.165385
744.617477	2525.618077
744.946647	2381.945192
745.275768	2518.056346
745.604842	2523.097500
745.933869	2530.659231
746.262847	2477.727115
746.591778	2460.083077
746.920662	2497.891731
747.249498	2505.453462
747.578286	2510.494615
747.907027	2487.809423
748.235720	2581.070769
748.564365	2467.644808
748.892963	2523.097500
749.221514	2455.041923
749.550017	2427.315577
749.878473	2565.947308
750.206881	2487.809423
750.535242	2525.618077
750.863555	2573.509038
751.191821	2482.768269
751.520039	2422.274423
751.848210	2618.879423
752.176334	2513.015192
752.504411	2500.412308
752.832440	2399.589231
753.160421	2576.029615
753.488356	2457.562500
753.816243	2495.371154
754.144082	2429.836154
754.471875	2515.535769
754.799620	2487.809423
755.127318	2447.480192
755.454969	2492.850577
755.782572	2470.165385
756.110129	2492.850577
756.437638	2492.850577
756.765100	2477.727115
757.092515	2399.589231
757.419882	2434.877308
757.747203	2414.712692
758.074477	2490.330000
758.401703	2482.768269
758.728882	2460.083077
759.056014	2583.591346
759.383099	2487.809423
759.710138	2455.041923
760.037129	2530.659231
760.364073	2530.659231
760.690970	2490.330000
761.017820	2492.850577
761.344623	2482.768269
761.671379	2515.535769
761.998088	2475.206538
762.324751	2480.247692
762.651366	2530.659231
762.977935	2450.000769
763.304456	2513.015192
763.630931	2437.397885
763.957359	2480.247692
764.283740	2505.453462
764.610074	2450.000769
764.936362	2515.535769
765.262602	2518.056346
765.588796	2560.906154
765.914943	2452.521346
766.241044	2535.700385
766.567097	2583.591346
766.893104	2392.027500
767.219064	2535.700385
767.544978	2450.000769
767.870845	2533.179808
768.196665	2485.288846
768.522438	2515.535769
768.848165	2523.097500
769.173846	2530.659231
769.499479	2535.700385
769.825066	2482.768269
770.150607	2492.850577
770.476101	2505.453462
770.801548	2500.412308
771.126949	2467.644808
771.452303	2560.906154
771.777611	2419.753846
772.102872	2492.850577
772.428087	2535.700385
772.753256	2578.550192
773.078378	2520.576923
773.403453	2475.206538
773.728482	2495.371154
774.053465	2618.879423
774.378401	2457.562500
774.703291	2475.206538
775.028135	2467.644808
775.352932	2518.056346
775.677683	2482.768269
776.002388	2538.220962
776.327046	2523.097500
776.651658	2528.138654
776.976224	2467.644808
777.300743	2485.288846
777.625216	2467.644808
777.949643	2555.865000
778.274024	2422.274423
778.598359	2593.673654
778.922647	2548.303269
779.246889	2533.179808
779.571086	2502.932885
779.895236	2540.741538
780.219339	2555.865000
780.543397	2477.727115
780.867409	2505.453462
781.191374	2490.330000
781.515294	2475.206538
781.839167	2568.467885
782.162995	2487.809423
782.486776	2467.644808
782.810511	2530.659231
783.134201	2467.644808
783.457844	2523.097500
783.781441	2472.685962
784.104993	2568.467885
784.428498	2520.576923
784.751958	2477.727115
785.075372	2485.288846
785.398739	2470.165385
785.722061	2523.097500
786.045337	2444.959615
786.368568	2497.891731
786.691752	2487.809423
787.014891	2510.494615
787.337983	2510.494615
787.661030	2543.262115
787.984031	2482.768269
788.306987	2603.755962
788.629897	2515.535769
788.952760	2545.782692
789.275579	2480.247692
789.598351	2576.029615
789.921078	2550.823846
790.243759	2487.809423
790.566395	2482.768269
790.888984	2586.111923
791.211529	2538.220962
791.534027	2434.877308
791.856480	2462.603654
792.178888	2424.795000
792.501249	2518.056346
792.823566	2462.603654
793.145836	2568.467885
793.468062	2439.918462
793.790241	2523.097500
794.112375	2462.603654
794.434464	2460.083077
794.756507	2392.027500
795.078505	2565.947308
795.400457	2485.288846
795.722364	2540.741538
796.044226	2510.494615
796.366042	2475.206538
796.687812	2477.727115
797.009538	2452.521346
797.331218	2560.906154
797.652852	2540.741538
797.974442	2533.179808
798.295986	2457.562500
798.617484	2530.659231
798.938938	2550.823846
799.260346	2535.700385
799.581709	2565.947308
799.903026	2497.891731
800.224299	2475.206538
800.545526	2439.918462
800.866708	2397.068654
801.187845	2462.603654
801.508936	2518.056346
801.829983	2467.644808
802.150984	2540.741538
802.471940	2482.768269
802.792851	2545.782692
803.113717	2513.015192
803.434538	2497.891731
803.755314	2490.330000
804.076045	2576.029615
804.396731	2492.850577
804.717372	2480.247692
805.037967	2548.303269
805.358518	2500.412308
805.679024	2568.467885
805.999485	2485.288846
806.319901	2565.947308
806.640272	2482.768269
806.960598	2591.153077
807.280879	2558.385577
807.601115	2442.439038
807.921306	2497.891731
808.241453	2560.906154
808.561554	2500.412308
808.881611	2447.480192
809.201623	2455.041923
809.521590	2462.603654
809.841513	2565.947308
810.161390	2535.700385
810.481223	2553.344423
810.801011	2533.179808
811.120755	2450.000769
811.440453	2543.262115
811.760107	2487.809423
812.079716	2515.535769
812.399281	2495.371154
812.718801	2470.165385
813.038276	2455.041923
813.357707	2533.179808
813.677093	2412.192115
813.996434	2523.097500
814.315731	2455.041923
814.634983	2497.891731
814.954191	2439.918462
815.273354	2510.494615
815.592473	2465.124231
815.911547	2447.480192
816.230577	2502.932885
816.549562	2495.371154
816.868502	2475.206538
817.187399	2518.056346
817.506250	2518.056346
817.825058	2429.836154
818.143821	2523.097500
818.462539	2447.480192
818.781213	2553.344423
819.099843	2563.426731
819.418429	2480.247692
819.736970	2480.247692
820.055466	2447.480192
820.373919	2490.330000
820.692327	2434.877308
821.010691	2510.494615
821.329011	2450.000769
821.647286	2452.521346
821.965517	2424.795000
822.283704	2442.439038
822.601847	2455.041923
822.919945	2510.494615
823.237999	2465.124231
823.556010	2507.974038
823.873976	2485.288846
824.191897	2523.097500
824.509775	2444.959615
824.827609	2573.509038
825.145398	2432.356731
825.463144	2548.303269
825.780845	2465.124231
826.098502	2558.385577
826.416116	2470.165385
826.733685	2535.700385
827.051210	2492.850577
827.368692	2487.809423
827.686129	2442.439038
828.003522	2550.823846
828.320872	2447.480192
828.638177	2480.247692
828.955439	2513.015192
829.272656	2505.453462
829.589830	2490.330000
829.906960	2543.262115
830.224046	2530.659231
830.541088	2465.124231
830.858086	2462.603654
831.175041	2429.836154
831.491952	2475.206538
831.808819	2500.412308
832.125642	2507.974038
832.442421	2475.206538
832.759157	2439.918462
833.075849	2482.768269
833.392497	2480.247692
833.709101	2437.397885
834.025662	2472.685962
834.342179	2460.083077
834.658653	2570.988462
834.975083	2606.276538
835.291469	2487.809423
835.607811	2404.630385
835.924110	2525.618077
836.240366	2495.371154
836.556578	2507.974038
836.872746	2568.467885
837.188871	2462.603654
837.504952	2523.097500
837.820990	2518.056346
838.136984	2447.480192
838.452935	2437.397885
838.768842	2576.029615
839.084706	2419.753846
839.400526	2507.974038
839.716303	2457.562500
840.032037	2513.015192
840.347727	2533.179808
840.663373	2540.741538
840.978977	2467.644808
841.294537	2548.303269
841.610054	2530.659231
841.925527	2359.260000
842.240957	2490.330000
842.556344	2523.097500
842.871687	2447.480192
843.186987	2535.700385
843.502244	2555.865000
843.817458	2515.535769
844.132629	2530.659231
844.447756	2472.685962
844.762840	2588.632500
845.077881	2492.850577
845.392879	2482.768269
845.707833	2525.618077
846.022745	2520.576923
846.337613	2447.480192
846.652438	2535.700385
846.967221	2485.288846
847.281960	2553.344423
847.596656	2550.823846
847.911309	2563.426731
848.225919	2492.850577
848.540485	2518.056346
848.855009	2429.836154
849.169490	2470.165385
849.483928	2545.782692
849.798323	2520.576923
850.112675	2563.426731
850.426984	2520.576923
850.741251	2505.453462
851.055474	2533.179808
851.369654	2480.247692
851.683792	2444.959615
851.997887	2465.124231
852.311938	2528.138654
852.625947	2535.700385
852.939914	2475.206538
853.253837	2442.439038
853.567718	2538.220962
853.881555	2432.356731
854.195350	2452.521346
854.509103	2502.932885
854.822812	2460.083077
855.136479	2558.385577
855.450103	2470.165385
855.763685	2465.124231
856.077224	2434.877308
856.390720	2404.630385
856.704173	2477.727115
857.017584	2515.535769
857.330953	2523.097500
857.644278	2482.768269
857.957561	2477.727115
858.270802	2548.303269
858.584000	2457.562500
858.897155	2480.247692
859.210268	2500.412308
859.523339	2427.315577
859.836367	2518.056346
860.149352	2543.262115
860.462295	2455.041923
860.775195	2550.823846
861.088054	2538.220962
861.400869	2492.850577
861.713642	2495.371154
862.026373	2442.439038
862.339062	2475.206538
862.651708	2432.356731
862.964312	2505.453462
863.276873	2452.521346
863.589392	2515.535769
863.901869	2487.809423
864.214303	2510.494615
864.526696	2462.603654
864.839045	2475.206538
865.151353	2533.179808
865.463619	2482.768269
865.775842	2510.494615
866.088023	2530.659231
866.400162	2457.562500
866.712258	2510.494615
867.024313	2475.206538
867.336325	2535.700385
867.648296	2470.165385
867.960224	2563.426731
868.272110	2490.330000
868.583954	2472.685962
868.895755	2502.932885
869.207515	2470.165385
869.519233	2439.918462
869.830909	2520.576923
870.142542	2581.070769
870.454134	2550.823846
870.765684	2455.041923
871.077191	2465.124231
871.388657	2490.330000
871.700081	2475.206538
872.011463	2525.618077
872.322803	2467.644808
872.634101	2492.850577
872.945357	2555.865000
873.256571	2462.603654
873.567744	2497.891731
873.878874	2573.509038
874.189963	2505.453462
874.501010	2507.974038
874.812015	2530.659231
875.122979	2412.192115
875.433900	2495.371154
875.744780	2477.727115
876.055618	2578.550192
876.366415	2515.535769
876.677169	2525.618077
876.987882	2507.974038
877.298554	2497.891731
877.609183	2462.603654
877.919771	2513.015192
878.230317	2477.727115
878.540822	2437.397885
878.851285	2447.480192
879.161707	2550.823846
879.472087	2409.671538
879.782425	2477.727115
880.092722	2573.509038
880.402977	2412.192115
880.713191	2460.083077
881.023363	2520.576923
881.333494	2538.220962
881.643583	2565.947308
881.953631	2470.165385
882.263637	2465.124231
882.573602	2490.330000
882.883526	2563.426731
883.193408	2366.821731
883.503248	2525.618077
883.813048	2507.974038
884.122806	2475.206538
884.432522	2470.165385
884.742197	2482.768269
885.051831	2477.727115
885.361424	2533.179808
885.670975	2472.685962
885.980485	2429.836154
886.289954	2500.412308
886.599382	2457.562500
886.908768	2475.206538
887.218113	2505.453462
887.527417	2470.165385
887.836680	2485.288846
888.145901	2513.015192
888.455082	2472.685962
888.764221	2477.727115
889.073319	2555.865000
889.382376	2553.344423
889.691392	2545.782692
890.000366	2505.453462
890.309300	2543.262115
890.618193	2492.850577
890.927044	2535.700385
891.235855	2502.932885
891.544625	2573.509038
891.853353	2515.535769
892.162041	2485.288846
892.470687	2518.056346
892.779293	2510.494615
893.087858	2515.535769
893.396381	2462.603654
893.704864	2492.850577
894.013306	2482.768269
894.321707	2560.906154
894.630068	2538.220962
894.938387	2470.165385
895.246665	2465.124231
895.554903	2525.618077
895.863100	2560.906154
896.171256	2558.385577
896.479371	2475.206538
896.787446	2497.891731
897.095480	2467.644808
897.403473	2490.330000
897.711425	2477.727115
898.019336	2386.986346
898.327207	2518.056346
898.635038	2427.315577
898.942827	2581.070769
899.250576	2432.356731
899.558284	2502.932885
899.865952	2427.315577
900.173579	2513.015192
900.481165	2565.947308
900.788711	2409.671538
901.096216	2515.535769
901.403681	2452.521346
901.711105	2495.371154
902.018489	2482.768269
902.325832	2505.453462
902.633135	2417.233269
902.940397	2515.535769
903.247619	2467.644808
903.554800	2500.412308
903.861941	2528.138654
904.169041	2442.439038
904.476101	2528.138654
904.783121	2477.727115
905.090100	2480.247692
905.397039	2558.385577
905.703938	2389.506923
906.010796	2513.015192
906.317614	2462.603654
906.624391	2520.576923
906.931129	2477.727115
907.237826	2480.247692
907.544483	2450.000769
907.851099	2480.247692
908.157675	2530.659231
908.464211	2523.097500
908.770707	2460.083077
909.077163	2399.589231
909.383578	2465.124231
909.689954	2581.070769
909.996289	2485.288846
910.302584	2520.576923
910.608839	2525.618077
910.915054	2392.027500
911.221229	2601.235385
911.527363	2507.974038
911.833458	2434.877308
912.139513	2507.974038
912.445527	2500.412308
912.751502	2495.371154
913.057436	2563.426731
913.363331	2477.727115
913.669186	2422.274423
913.975000	2535.700385
914.280775	2518.056346
914.586510	2389.506923
914.892205	2548.303269
915.197859	2576.029615
915.503475	2467.644808
915.809050	2477.727115
916.114585	2490.330000
916.420081	2497.891731
916.725536	2492.850577
917.030952	2482.768269
917.336328	2452.521346
917.641665	2520.576923
917.946961	2507.974038
918.252218	2495.371154
918.557435	2480.247692
918.862612	2439.918462
919.167750	2439.918462
919.472848	2518.056346
919.777906	2381.945192
920.082925	2550.823846
920.387904	2429.836154
920.692843	2510.494615
920.997743	2538.220962
921.302603	2515.535769
921.607423	2576.029615
921.912204	2515.535769
922.216946	2439.918462
922.521647	2447.480192
922.826310	2533.179808
923.130932	2487.809423
923.435516	2412.192115
923.740059	2455.041923
924.044564	2513.015192
924.349028	2465.124231
924.653454	2402.109808
924.957840	2500.412308
925.262186	2477.727115
925.566493	2490.330000
925.870761	2492.850577
926.174989	2550.823846
926.479178	2515.535769
926.783328	2437.397885
927.087438	2520.576923
927.391509	2545.782692
927.695541	2470.165385
927.999533	2513.015192
928.303486	2513.015192
928.607400	2535.700385
928.911275	2492.850577
929.215110	2505.453462
929.518906	2520.576923
929.822663	2470.165385
930.126381	2563.426731
930.430060	2470.165385
930.733699	2523.097500
931.037299	2570.988462
931.340861	2439.918462
931.644383	2515.535769
931.947866	2455.041923
932.251309	2525.618077
932.554714	2576.029615
932.858080	2429.836154
933.161407	2523.097500
933.464694	2513.015192
933.767943	2518.056346
934.071153	2437.397885
934.374323	2450.000769
934.677455	2434.877308
934.980548	2470.165385
935.283602	2472.685962
935.586617	2507.974038
935.889593	2570.988462
936.192530	2513.015192
936.495428	2555.865000
936.798287	2460.083077
937.101108	2568.467885
937.403890	2465.124231
937.706632	2465.124231
938.009336	2467.644808
938.312002	2450.000769
938.614628	2563.426731
938.917216	2432.356731
939.219765	2437.397885
939.522275	2482.768269
939.824747	2550.823846
940.127179	2480.247692
940.429573	2510.494615
940.731929	2502.932885
941.034246	2475.206538
941.336524	2444.959615
941.638763	2480.247692
941.940964	2525.618077
942.243126	2586.111923
942.545250	2497.891731
942.847335	2467.644808
943.149381	2495.371154
943.451389	2477.727115
943.753359	2462.603654
944.055290	2477.727115
944.357182	2432.356731
944.659036	2477.727115
944.960851	2523.097500
945.262628	2419.753846
945.564367	2422.274423
945.866067	2540.741538
946.167729	2477.727115
946.469352	2475.206538
946.770937	2500.412308
947.072484	2535.700385
947.373992	2505.453462
947.675462	2472.685962
947.976893	2462.603654
948.278286	2535.700385
948.579641	2507.974038
948.880958	2528.138654
949.182236	2490.330000
949.483476	2434.877308
949.784678	2437.397885
950.085841	2487.809423
950.386967	2442.439038
950.688054	2505.453462
950.989103	2513.015192
951.290114	2492.850577
951.591087	2543.262115
951.892021	2465.124231
952.192917	2533.179808
952.493776	2535.700385
952.794596	2560.906154
953.095378	2520.576923
953.396122	2538.220962
953.696828	2455.041923
953.997496	2558.385577
954.298126	2465.124231
954.598718	2460.083077
954.899272	2507.974038
955.199788	2502.932885
955.500266	2452.521346
955.800706	2452.521346
956.101108	2525.618077
956.401472	2427.315577
956.701798	2500.412308
957.002087	2450.000769
957.302337	2444.959615
957.602550	2492.850577
957.902724	2497.891731
958.202861	2560.906154
958.502960	2409.671538
958.803022	2427.315577
959.103045	2540.741538
959.403031	2513.015192
959.702979	2485.288846
960.002889	2535.700385
960.302762	2533.179808
960.602596	2439.918462
960.902393	2565.947308
961.202153	2442.439038
961.501875	2518.056346
961.801559	2439.918462
962.101205	2576.029615
962.400814	2442.439038
962.700385	2611.317692
962.999918	2523.097500
963.299414	2515.535769
963.598873	2371.862885
963.898293	2525.618077
964.197677	2434.877308
964.497022	2530.659231
964.796331	2462.603654
965.095601	2525.618077
965.394835	2497.891731
965.694030	2507.974038
965.993189	2525.618077
966.292309	2475.206538
966.591393	2361.780577
966.890439	2578.550192
967.189447	2502.932885
967.488419	2548.303269
967.787353	2447.480192
968.086249	2540.741538
968.385108	2533.179808
968.683930	2510.494615
968.982714	2442.439038
969.281462	2518.056346
969.580172	2601.235385
969.878844	2490.330000
970.177480	2485.288846
970.476078	2470.165385
970.774639	2467.644808
971.073162	2485.288846
971.371649	2419.753846
971.670098	2558.385577
971.968510	2490.330000
972.266885	2462.603654
972.565223	2487.809423
972.863524	2455.041923
973.161788	2513.015192
973.460014	2485.288846
973.758204	2439.918462
974.056356	2462.603654
974.354471	2477.727115
974.652550	2485.288846
974.950591	2432.356731
975.248595	2450.000769
975.546563	2475.206538
975.844493	2513.015192
976.142386	2467.644808
976.440243	2515.535769
976.738062	2555.865000
977.035845	2467.644808
977.333590	2560.906154
977.631299	2477.727115
977.928971	2457.562500
978.226606	2487.809423
978.524204	2553.344423
978.821765	2535.700385
979.119290	2447.480192
979.416777	2573.509038
979.714228	2487.809423
980.011642	2434.877308
980.309020	2381.945192
980.606360	2548.303269
980.903664	2424.795000
981.200931	2513.015192
981.498162	2497.891731
981.795356	2490.330000
982.092513	2518.056346
982.389633	2528.138654
982.686717	2460.083077
982.983764	2437.397885
983.280775	2530.659231
983.577749	2487.809423
983.874686	2533.179808
984.171587	2565.947308
984.468451	2518.056346
984.765279	2530.659231
985.062070	2543.262115
985.358824	2545.782692
985.655543	2417.233269
985.952224	2558.385577
986.248869	2485.288846
986.545478	2515.535769
986.842050	2507.974038
987.138586	2528.138654
987.435086	2457.562500
987.731549	2507.974038
988.027975	2457.562500
988.324366	2462.603654
988.620719	2492.850577
988.917037	2518.056346
989.213318	2467.644808
989.509563	2548.303269
989.805772	2540.741538
990.101944	2450.000769
990.398080	2422.274423
990.694180	2422.274423
990.990244	2507.974038
991.286271	2455.041923
991.582262	2510.494615
991.878217	2465.124231
992.174136	2470.165385
992.470019	2462.603654
992.765865	2507.974038
993.061676	2434.877308
993.357450	2528.138654
993.653188	2545.782692
993.948890	2374.383462
994.244556	2477.727115
994.540186	2518.056346
994.835780	2432.356731
995.131337	2563.426731
995.426859	2437.397885
995.722345	2442.439038
996.017795	2523.097500
996.313208	2550.823846
996.608586	2409.671538
996.903928	2502.932885
997.199234	2465.124231
997.494504	2510.494615
997.789738	2550.823846
998.084936	2465.124231
998.380099	2565.947308
998.675225	2482.768269
998.970316	2475.206538
999.265371	2525.618077
999.560390	2533.179808
999.855373	2402.109808
1000.150320	2535.700385
1000.445232	2497.891731
1000.740108	2487.809423
1001.034948	2434.877308
1001.329752	2490.330000
1001.624521	2502.932885
1001.919254	2487.809423
1002.213951	2407.150962
1002.508613	2538.220962
1002.803239	2530.659231
1003.097829	2495.371154
1003.392384	2528.138654
1003.686903	2462.603654
1003.981386	2417.233269
1004.275834	2515.535769
1004.570246	2477.727115
1004.864623	2462.603654
1005.158964	2515.535769
1005.453270	2437.397885
1005.747540	2588.632500
1006.041775	2538.220962
1006.335974	2460.083077
1006.630138	2518.056346
1006.924266	2452.521346
1007.218359	2513.015192
1007.512416	2447.480192
1007.806438	2500.412308
1008.100425	2513.015192
1008.394376	2475.206538
1008.688292	2510.494615
1008.982172	2543.262115
1009.276017	2500.412308
1009.569827	2535.700385
1009.863602	2477.727115
1010.157341	2485.288846
1010.451045	2465.124231
1010.744714	2465.124231
1011.038347	2482.768269
1011.331945	2492.850577
1011.625508	2477.727115
1011.919036	2497.891731
1012.212528	2523.097500
1012.505986	2515.535769
1012.799408	2510.494615
1013.092795	2578.550192
1013.386147	2533.179808
1013.679464	2475.206538
1013.972745	2528.138654
1014.265992	2465.124231
1014.559204	2497.891731
1014.852380	2465.124231
1015.145521	2487.809423
1015.438628	2578.550192
1015.731699	2452.521346
1016.024736	2482.768269
1016.317737	2462.603654
1016.610703	2492.850577
1016.903635	2397.068654
1017.196531	2495.371154
1017.489393	2490.330000
1017.782219	2480.247692
1018.075011	2545.782692
1018.367768	2563.426731
1018.660490	2417.233269
1018.953177	2417.233269
1019.245829	2417.233269
