Dividing Wavelength (nm)	Counts (n)	Blue Motor Position (mm): 0.000000	Red Motor Position (mm): 1.200000	
326.493990	2104.681731
326.888308	2104.681731
327.282561	2104.681731
327.676750	2142.490385
328.070874	2081.996538
328.464933	2034.105577
328.858929	2089.558269
329.252859	2041.667308
329.646726	2114.764038
330.040528	2109.722885
330.434265	2049.229038
330.827938	2112.243462
331.221547	2155.093269
331.615091	2205.504808
332.008571	2228.190000
332.401986	2182.819615
332.795338	2185.340192
333.188625	2265.998654
333.581847	2276.080962
333.975006	2283.642692
334.368100	2351.698269
334.761129	2381.945192
335.154095	2336.574808
335.546996	2351.698269
335.939833	2336.574808
336.332606	2334.054231
336.725315	2414.712692
337.117960	2392.027500
337.510540	2389.506923
337.903056	2477.727115
338.295508	2447.480192
338.687896	2457.562500
339.080220	2399.589231
339.472480	2444.959615
339.864676	2482.768269
340.256807	2452.521346
340.648875	2452.521346
341.040879	2444.959615
341.432818	2447.480192
341.824694	2429.836154
342.216506	2545.782692
342.608253	2515.535769
342.999937	2492.850577
343.391557	2553.344423
343.783113	2616.358846
344.174605	2487.809423
344.566033	2462.603654
344.957397	2444.959615
345.348697	2560.906154
345.739934	2462.603654
346.131106	2523.097500
346.522215	2485.288846
346.913260	2422.274423
347.304241	2439.918462
347.695159	2429.836154
348.086012	2475.206538
348.476802	2492.850577
348.867528	2505.453462
349.258191	2399.589231
349.648789	2460.083077
350.039324	2563.426731
350.429796	2434.877308
350.820203	2417.233269
351.210548	2535.700385
351.600828	2444.959615
351.991045	2409.671538
352.381198	2457.562500
352.771288	2412.192115
353.161314	2487.809423
353.551276	2497.891731
353.941175	2439.918462
354.331010	2447.480192
354.720782	2490.330000
355.110490	2442.439038
355.500135	2366.821731
355.889717	2485.288846
356.279235	2412.192115
356.668689	2540.741538
357.058080	2434.877308
357.447408	2462.603654
357.836672	2402.109808
358.225873	2424.795000
358.615010	2369.342308
359.004084	2482.768269
359.393095	2439.918462
359.782043	2399.589231
360.170927	2407.150962
360.559748	2460.083077
360.948505	2424.795000
361.337199	2540.741538
361.725830	2480.247692
362.114398	2467.644808
362.502903	2434.877308
362.891344	2467.644808
363.279722	2540.741538
363.668037	2384.465769
364.056289	2518.056346
364.444478	2533.179808
364.832603	2427.315577
365.220665	2429.836154
365.608665	2326.492500
365.996601	2467.644808
366.384474	2495.371154
366.772284	2407.150962
367.160031	2505.453462
367.547715	2477.727115
367.935336	2442.439038
368.322893	2447.480192
368.710388	2462.603654
369.097820	2487.809423
369.485189	2462.603654
369.872495	2520.576923
370.259738	2507.974038
370.646918	2485.288846
371.034035	2513.015192
371.421090	2439.918462
371.808081	2460.083077
372.195010	2477.727115
372.581875	2437.397885
372.968678	2495.371154
373.355418	2404.630385
373.742096	2389.506923
374.128710	2381.945192
374.515262	2507.974038
374.901751	2502.932885
375.288177	2427.315577
375.674540	2394.548077
376.060841	2424.795000
376.447079	2442.439038
376.833254	2434.877308
377.219367	2492.850577
377.605417	2402.109808
377.991404	2492.850577
378.377329	2434.877308
378.763191	2487.809423
379.148991	2460.083077
379.534727	2495.371154
379.920402	2439.918462
380.306013	2432.356731
380.691563	2472.685962
381.077049	2429.836154
381.462474	2442.439038
381.847835	2434.877308
382.233134	2389.506923
382.618371	2480.247692
383.003545	2424.795000
383.388657	2505.453462
383.773706	2482.768269
384.158693	2434.877308
384.543618	2439.918462
384.928480	2502.932885
385.313280	2467.644808
385.698017	2450.000769
386.082692	2487.809423
386.467305	2460.083077
386.851856	2460.083077
387.236344	2533.179808
387.620770	2384.465769
388.005133	2507.974038
388.389435	2460.083077
388.773674	2505.453462
389.157851	2439.918462
389.541965	2447.480192
389.926018	2467.644808
390.310008	2429.836154
390.693936	2427.315577
391.077802	2424.795000
391.461606	2447.480192
391.845348	2452.521346
392.229027	2505.453462
392.612645	2477.727115
392.996200	2603.755962
393.379694	2487.809423
393.763125	2424.795000
394.146494	2497.891731
394.529801	2563.426731
394.913047	2540.741538
395.296230	2518.056346
395.679351	2492.850577
396.062410	2462.603654
396.445408	2510.494615
396.828343	2455.041923
397.211217	2437.397885
397.594028	2470.165385
397.976778	2510.494615
398.359466	2505.453462
398.742092	2477.727115
399.124656	2518.056346
399.507158	2495.371154
399.889598	2601.235385
400.271977	2523.097500
400.654294	2528.138654
401.036549	2507.974038
401.418742	2417.233269
401.800874	2525.618077
402.182944	2485.288846
402.564952	2472.685962
402.946898	2462.603654
403.328783	2432.356731
403.710606	2467.644808
404.092367	2447.480192
404.474067	2475.206538
404.855705	2450.000769
405.237282	2450.000769
405.618797	2442.439038
406.000250	2407.150962
406.381642	2482.768269
406.762972	2465.124231
407.144240	2490.330000
407.525447	2500.412308
407.906593	2407.150962
408.287677	2480.247692
408.668700	2543.262115
409.049661	2505.453462
409.430560	2399.589231
409.811399	2422.274423
410.192176	2545.782692
410.572891	2414.712692
410.953545	2412.192115
411.334138	2510.494615
411.714669	2460.083077
412.095139	2452.521346
412.475547	2472.685962
412.855894	2470.165385
413.236180	2500.412308
413.616405	2450.000769
413.996568	2480.247692
414.376670	2500.412308
414.756711	2475.206538
415.136691	2460.083077
415.516609	2419.753846
415.896466	2434.877308
416.276262	2465.124231
416.655997	2487.809423
417.035670	2465.124231
417.415283	2414.712692
417.794834	2487.809423
418.174324	2507.974038
418.553753	2507.974038
418.933121	2492.850577
419.312428	2457.562500
419.691674	2482.768269
420.070859	2492.850577
420.449983	2497.891731
420.829045	2525.618077
421.208047	2497.891731
421.586988	2515.535769
421.965867	2424.795000
422.344686	2467.644808
422.723444	2608.797115
423.102141	2412.192115
423.480777	2518.056346
423.859352	2457.562500
424.237866	2437.397885
424.616319	2472.685962
424.994712	2490.330000
425.373044	2477.727115
425.751314	2467.644808
426.129524	2538.220962
426.507673	2465.124231
426.885762	2505.453462
427.263789	2482.768269
427.641756	2467.644808
428.019662	2422.274423
428.397508	2467.644808
428.775292	2467.644808
429.153016	2490.330000
429.530679	2412.192115
429.908282	2455.041923
430.285824	2568.467885
430.663305	2407.150962
431.040726	2485.288846
431.418086	2500.412308
431.795385	2457.562500
432.172624	2447.480192
432.549802	2593.673654
432.926920	2492.850577
433.303977	2470.165385
433.680974	2558.385577
434.057910	2472.685962
434.434786	2470.165385
434.811601	2525.618077
435.188355	2455.041923
435.565050	2432.356731
435.941683	2495.371154
436.318257	2450.000769
436.694770	2442.439038
437.071222	2477.727115
437.447614	2515.535769
437.823946	2502.932885
438.200218	2545.782692
438.576429	2520.576923
438.952580	2482.768269
439.328670	2487.809423
439.704700	2520.576923
440.080670	2558.385577
440.456580	2495.371154
440.832429	2505.453462
441.208218	2462.603654
441.583947	2520.576923
441.959616	2442.439038
442.335224	2568.467885
442.710773	2407.150962
443.086261	2434.877308
443.461689	2409.671538
443.837057	2495.371154
444.212365	2467.644808
444.587612	2523.097500
444.962800	2467.644808
445.337927	2455.041923
445.712995	2472.685962
446.088002	2588.632500
446.462949	2404.630385
446.837837	2523.097500
447.212664	2397.068654
447.587431	2565.947308
447.962139	2447.480192
448.336786	2513.015192
448.711374	2495.371154
449.085901	2402.109808
449.460369	2492.850577
449.834776	2412.192115
450.209124	2560.906154
450.583412	2513.015192
450.957640	2439.918462
451.331808	2480.247692
451.705917	2500.412308
452.079965	2475.206538
452.453954	2555.865000
452.827883	2505.453462
453.201752	2485.288846
453.575562	2525.618077
453.949311	2497.891731
454.323001	2487.809423
454.696632	2477.727115
455.070202	2518.056346
455.443713	2518.056346
455.817164	2518.056346
456.190556	2442.439038
456.563888	2523.097500
456.937160	2386.986346
457.310373	2432.356731
457.683526	2477.727115
458.056619	2480.247692
458.429653	2485.288846
458.802628	2528.138654
459.175542	2404.630385
459.548398	2497.891731
459.921194	2465.124231
460.293930	2533.179808
460.666607	2513.015192
461.039224	2513.015192
461.411782	2518.056346
461.784280	2467.644808
462.156719	2535.700385
462.529099	2475.206538
462.901419	2545.782692
463.273680	2487.809423
463.645882	2457.562500
464.018024	2487.809423
464.390106	2543.262115
464.762130	2462.603654
465.134094	2518.056346
465.505999	2568.467885
465.877845	2563.426731
466.249631	2510.494615
466.621358	2530.659231
466.993026	2497.891731
467.364634	2573.509038
467.736184	2576.029615
468.107674	2505.453462
468.479105	2540.741538
468.850477	2442.439038
469.221790	2560.906154
469.593043	2543.262115
469.964238	2462.603654
470.335373	2510.494615
470.706449	2444.959615
471.077467	2475.206538
471.448425	2404.630385
471.819324	2515.535769
472.190164	2535.700385
472.560945	2523.097500
472.931667	2432.356731
473.302330	2447.480192
473.672934	2603.755962
474.043479	2417.233269
474.413965	2530.659231
474.784393	2510.494615
475.154761	2482.768269
475.525070	2525.618077
475.895321	2402.109808
476.265513	2455.041923
476.635645	2414.712692
477.005719	2520.576923
477.375734	2482.768269
477.745691	2545.782692
478.115588	2437.397885
478.485427	2538.220962
478.855207	2429.836154
479.224928	2419.753846
479.594591	2513.015192
479.964194	2457.562500
480.333739	2518.056346
480.703226	2601.235385
481.072653	2409.671538
481.442022	2495.371154
481.811333	2518.056346
482.180584	2492.850577
482.549777	2500.412308
482.918912	2525.618077
483.287988	2472.685962
483.657005	2432.356731
484.025964	2485.288846
484.394864	2480.247692
484.763706	2507.974038
485.132489	2465.124231
485.501213	2540.741538
485.869879	2507.974038
486.238487	2540.741538
486.607036	2563.426731
486.975527	2392.027500
487.343959	2530.659231
487.712333	2502.932885
488.080648	2520.576923
488.448905	2510.494615
488.817104	2616.358846
489.185244	2450.000769
489.553326	2525.618077
489.921350	2550.823846
490.289315	2495.371154
490.657222	2472.685962
491.025070	2495.371154
491.392861	2518.056346
491.760593	2475.206538
492.128267	2528.138654
492.495883	2555.865000
492.863440	2492.850577
493.230939	2538.220962
493.598380	2497.891731
493.965763	2497.891731
494.333088	2523.097500
494.700354	2485.288846
495.067563	2553.344423
495.434713	2538.220962
495.801805	2487.809423
496.168839	2545.782692
496.535815	2487.809423
496.902733	2470.165385
497.269593	2558.385577
497.636395	2472.685962
498.003139	2462.603654
498.369825	2523.097500
498.736453	2540.741538
499.103023	2492.850577
499.469535	2434.877308
499.835989	2480.247692
500.202385	2455.041923
500.568723	2586.111923
500.935003	2470.165385
501.301226	2487.809423
501.667390	2424.795000
502.033497	2402.109808
502.399546	2492.850577
502.765537	2535.700385
503.131470	2523.097500
503.497345	2472.685962
503.863163	2515.535769
504.228923	2439.918462
504.594625	2447.480192
504.960269	2500.412308
505.325856	2455.041923
505.691385	2472.685962
506.056856	2485.288846
506.422270	2472.685962
506.787625	2495.371154
507.152924	2457.562500
507.518164	2439.918462
507.883347	2467.644808
508.248472	2480.247692
508.613540	2518.056346
508.978550	2447.480192
509.343503	2465.124231
509.708398	2538.220962
510.073236	2565.947308
510.438016	2442.439038
510.802738	2507.974038
511.167403	2487.809423
511.532010	2538.220962
511.896561	2538.220962
512.261053	2444.959615
512.625488	2422.274423
512.989866	2563.426731
513.354186	2482.768269
513.718449	2533.179808
514.082655	2553.344423
514.446803	2429.836154
514.810894	2450.000769
515.174927	2515.535769
515.538904	2495.371154
515.902822	2576.029615
516.266684	2460.083077
516.630488	2510.494615
516.994235	2518.056346
517.357925	2523.097500
517.721558	2467.644808
518.085133	2495.371154
518.448651	2460.083077
518.812112	2528.138654
519.175516	2515.535769
519.538863	2583.591346
519.902152	2427.315577
520.265385	2616.358846
520.628560	2482.768269
520.991678	2492.850577
521.354739	2510.494615
521.717743	2507.974038
522.080690	2497.891731
522.443580	2535.700385
522.806413	2434.877308
523.169189	2470.165385
523.531908	2553.344423
523.894569	2513.015192
524.257174	2523.097500
524.619722	2452.521346
524.982213	2636.523462
525.344647	2535.700385
525.707025	2490.330000
526.069345	2475.206538
526.431608	2576.029615
526.793815	2477.727115
527.155964	2487.809423
527.518057	2535.700385
527.880093	2457.562500
528.242072	2507.974038
528.603995	2558.385577
528.965860	2472.685962
529.327669	2472.685962
529.689421	2412.192115
530.051117	2533.179808
530.412755	2553.344423
530.774337	2434.877308
531.135862	2510.494615
531.497331	2450.000769
531.858743	2450.000769
532.220098	2495.371154
532.581396	2538.220962
532.942638	2419.753846
533.303824	2530.659231
533.664953	2444.959615
534.026025	2477.727115
534.387040	2558.385577
534.747999	2520.576923
535.108902	2586.111923
535.469748	2427.315577
535.830537	2558.385577
536.191270	2447.480192
536.551947	2475.206538
536.912567	2502.932885
537.273131	2502.932885
537.633638	2472.685962
537.994089	2558.385577
538.354483	2497.891731
538.714821	2460.083077
539.075103	2495.371154
539.435328	2515.535769
539.795497	2513.015192
540.155609	2533.179808
540.515665	2460.083077
540.875665	2447.480192
541.235609	2482.768269
541.595496	2475.206538
541.955328	2550.823846
542.315102	2510.494615
542.674821	2502.932885
543.034483	2505.453462
543.394090	2568.467885
543.753640	2490.330000
544.113134	2555.865000
544.472571	2525.618077
544.831953	2432.356731
545.191278	2553.344423
545.550548	2490.330000
545.909761	2553.344423
546.268918	2472.685962
546.628019	2505.453462
546.987064	2555.865000
547.346053	2465.124231
547.704986	2495.371154
548.063863	2470.165385
548.422684	2502.932885
548.781449	2482.768269
549.140158	2477.727115
549.498811	2543.262115
549.857408	2550.823846
550.215949	2475.206538
550.574434	2429.836154
550.932864	2472.685962
551.291237	2530.659231
551.649555	2525.618077
552.007817	2578.550192
552.366022	2465.124231
552.724173	2434.877308
553.082267	2530.659231
553.440305	2422.274423
553.798288	2507.974038
554.156215	2497.891731
554.514086	2553.344423
554.871902	2409.671538
555.229661	2480.247692
555.587365	2558.385577
555.945014	2583.591346
556.302606	2460.083077
556.660143	2550.823846
557.017625	2510.494615
557.375050	2528.138654
557.732421	2495.371154
558.089735	2555.865000
558.446994	2545.782692
558.804197	2535.700385
559.161345	2502.932885
559.518437	2613.838269
559.875474	2502.932885
560.232455	2432.356731
560.589381	2507.974038
560.946251	2450.000769
561.303065	2490.330000
561.659825	2535.700385
562.016528	2480.247692
562.373177	2528.138654
562.729770	2480.247692
563.086307	2550.823846
563.442789	2543.262115
563.799216	2465.124231
564.155587	2528.138654
564.511904	2550.823846
564.868164	2505.453462
565.224370	2470.165385
565.580520	2482.768269
565.936615	2422.274423
566.292654	2535.700385
566.648638	2477.727115
567.004567	2460.083077
567.360441	2490.330000
567.716260	2611.317692
568.072023	2467.644808
568.427732	2442.439038
568.783385	2465.124231
569.138982	2535.700385
569.494525	2485.288846
569.850013	2568.467885
570.205445	2490.330000
570.560823	2553.344423
570.916145	2507.974038
571.271412	2513.015192
571.626625	2502.932885
571.981782	2530.659231
572.336884	2505.453462
572.691931	2528.138654
573.046923	2470.165385
573.401860	2505.453462
573.756743	2409.671538
574.111570	2482.768269
574.466342	2492.850577
574.821059	2465.124231
575.175722	2402.109808
575.530330	2500.412308
575.884882	2550.823846
576.239380	2545.782692
576.593823	2412.192115
576.948211	2505.453462
577.302544	2550.823846
577.656823	2515.535769
578.011047	2583.591346
578.365216	2500.412308
578.719330	2477.727115
579.073389	2545.782692
579.427394	2487.809423
579.781344	2480.247692
580.135239	2540.741538
580.489080	2492.850577
580.842866	2598.714808
581.196597	2417.233269
581.550273	2530.659231
581.903895	2465.124231
582.257463	2570.988462
582.610975	2452.521346
582.964434	2487.809423
583.317837	2515.535769
583.671186	2422.274423
584.024481	2510.494615
584.377721	2424.795000
584.730906	2583.591346
585.084037	2553.344423
585.437113	2510.494615
585.790135	2480.247692
586.143103	2507.974038
586.496016	2565.947308
586.848874	2490.330000
587.201679	2490.330000
587.554428	2480.247692
587.907124	2482.768269
588.259765	2563.426731
588.612352	2450.000769
588.964884	2500.412308
589.317362	2525.618077
589.669786	2596.194231
590.022155	2470.165385
590.374470	2465.124231
590.726731	2475.206538
591.078937	2472.685962
591.431090	2507.974038
591.783188	2510.494615
592.135232	2457.562500
592.487222	2467.644808
592.839157	2525.618077
593.191038	2513.015192
593.542866	2475.206538
593.894639	2482.768269
594.246358	2472.685962
594.598022	2528.138654
594.949633	2550.823846
595.301190	2593.673654
595.652692	2495.371154
596.004141	2555.865000
596.355535	2497.891731
596.706876	2586.111923
597.058162	2460.083077
597.409395	2472.685962
597.760573	2497.891731
598.111698	2477.727115
598.462768	2548.303269
598.813785	2565.947308
599.164748	2414.712692
599.515657	2392.027500
599.866511	2523.097500
600.217312	2507.974038
600.568060	2553.344423
600.918753	2452.521346
601.269392	2565.947308
601.619978	2500.412308
601.970510	2507.974038
602.320988	2515.535769
602.671412	2505.453462
603.021783	2457.562500
603.372100	2515.535769
603.722363	2492.850577
604.072572	2553.344423
604.422728	2548.303269
604.772830	2583.591346
605.122878	2533.179808
605.472872	2525.618077
605.822813	2480.247692
606.172701	2412.192115
606.522534	2485.288846
606.872314	2485.288846
607.222041	2593.673654
607.571714	2470.165385
607.921333	2555.865000
608.270899	2548.303269
608.620411	2538.220962
608.969870	2424.795000
609.319276	2525.618077
609.668627	2583.591346
610.017926	2407.150962
610.367171	2452.521346
610.716362	2457.562500
611.065500	2507.974038
611.414585	2480.247692
611.763616	2452.521346
612.112594	2505.453462
612.461518	2548.303269
612.810389	2467.644808
613.159207	2576.029615
613.507971	2495.371154
613.856682	2548.303269
614.205340	2386.986346
614.553945	2553.344423
614.902496	2598.714808
615.250994	2472.685962
615.599439	2518.056346
615.947830	2432.356731
616.296169	2500.412308
616.644454	2407.150962
616.992686	2424.795000
617.340864	2523.097500
617.688990	2465.124231
618.037063	2510.494615
618.385082	2502.932885
618.733048	2528.138654
619.080961	2525.618077
619.428821	2462.603654
619.776628	2555.865000
620.124382	2510.494615
620.472083	2492.850577
620.819731	2558.385577
621.167326	2485.288846
621.514868	2497.891731
621.862357	2555.865000
622.209793	2460.083077
622.557176	2528.138654
622.904506	2573.509038
623.251783	2492.850577
623.599007	2553.344423
623.946179	2545.782692
624.293297	2477.727115
624.640363	2480.247692
624.987376	2455.041923
625.334336	2515.535769
625.681243	2543.262115
626.028097	2528.138654
626.374899	2455.041923
626.721647	2523.097500
627.068343	2528.138654
627.414987	2555.865000
627.761577	2502.932885
628.108115	2578.550192
628.454600	2414.712692
628.801032	2492.850577
629.147412	2502.932885
629.493739	2525.618077
629.840014	2563.426731
630.186236	2467.644808
630.532405	2540.741538
630.878521	2475.206538
631.224585	2533.179808
631.570597	2399.589231
631.916556	2573.509038
632.262462	2525.618077
632.608316	2548.303269
632.954117	2555.865000
633.299866	2626.441154
633.645562	2455.041923
633.991206	2518.056346
634.336797	2417.233269
634.682336	2467.644808
635.027823	2518.056346
635.373257	2497.891731
635.718639	2507.974038
636.063968	2487.809423
636.409245	2407.150962
636.754470	2623.920577
637.099642	2518.056346
637.444762	2487.809423
637.789829	2482.768269
638.134845	2472.685962
638.479808	2480.247692
638.824719	2502.932885
639.169577	2538.220962
639.514383	2510.494615
639.859137	2550.823846
640.203839	2550.823846
640.548489	2550.823846
640.893086	2578.550192
641.237632	2475.206538
641.582125	2485.288846
641.926566	2555.865000
642.270955	2505.453462
642.615292	2548.303269
642.959576	2518.056346
643.303809	2578.550192
643.647990	2467.644808
643.992118	2507.974038
644.336195	2472.685962
644.680219	2437.397885
645.024192	2548.303269
645.368112	2477.727115
645.711981	2452.521346
646.055797	2520.576923
646.399562	2457.562500
646.743274	2523.097500
647.086935	2477.727115
647.430544	2525.618077
647.774101	2510.494615
648.117606	2568.467885
648.461059	2560.906154
648.804460	2543.262115
649.147810	2472.685962
649.491108	2535.700385
649.834354	2497.891731
650.177548	2475.206538
650.520690	2475.206538
650.863781	2545.782692
651.206820	2507.974038
651.549807	2497.891731
651.892742	2533.179808
652.235626	2507.974038
652.578458	2477.727115
652.921238	2553.344423
653.263967	2502.932885
653.606644	2510.494615
653.949269	2497.891731
654.291843	2467.644808
654.634365	2581.070769
654.976836	2444.959615
655.319255	2555.865000
655.661622	2518.056346
656.003938	2452.521346
656.346203	2525.618077
656.688416	2482.768269
657.030577	2603.755962
657.372687	2502.932885
657.714746	2570.988462
658.056753	2457.562500
658.398708	2525.618077
658.740612	2455.041923
659.082465	2505.453462
659.424266	2470.165385
659.766016	2497.891731
660.107715	2507.974038
660.449362	2568.467885
660.790958	2462.603654
661.132503	2490.330000
661.473996	2573.509038
661.815438	2523.097500
662.156829	2417.233269
662.498168	2555.865000
662.839456	2545.782692
663.180693	2520.576923
663.521879	2601.235385
663.863013	2427.315577
664.204097	2492.850577
664.545129	2528.138654
664.886110	2480.247692
665.227040	2485.288846
665.567918	2563.426731
665.908746	2470.165385
666.249522	2593.673654
666.590248	2444.959615
666.930922	2492.850577
667.271545	2495.371154
667.612118	2505.453462
667.952639	2480.247692
668.293109	2543.262115
668.633528	2490.330000
668.973896	2513.015192
669.314213	2507.974038
669.654480	2490.330000
669.994695	2560.906154
670.334859	2530.659231
670.674973	2480.247692
671.015035	2543.262115
671.355047	2555.865000
671.695008	2475.206538
672.034918	2520.576923
672.374777	2429.836154
672.714585	2490.330000
673.054342	2533.179808
673.394049	2507.974038
673.733705	2550.823846
674.073310	2419.753846
674.412864	2525.618077
674.752368	2611.317692
675.091820	2437.397885
675.431223	2455.041923
675.770574	2490.330000
676.109875	2502.932885
676.449125	2495.371154
676.788324	2442.439038
677.127473	2417.233269
677.466571	2535.700385
677.805619	2460.083077
678.144616	2487.809423
678.483562	2525.618077
678.822458	2432.356731
679.161303	2523.097500
679.500098	2424.795000
679.838842	2442.439038
680.177535	2432.356731
680.516179	2404.630385
680.854771	2591.153077
681.193314	2528.138654
681.531805	2545.782692
681.870247	2525.618077
682.208638	2507.974038
682.546978	2510.494615
682.885268	2467.644808
683.223508	2427.315577
683.561697	2462.603654
683.899836	2507.974038
684.237925	2485.288846
684.575963	2502.932885
684.913951	2558.385577
685.251889	2576.029615
685.589776	2477.727115
685.927614	2528.138654
686.265401	2565.947308
686.603137	2492.850577
686.940824	2507.974038
687.278460	2477.727115
687.616046	2477.727115
687.953582	2518.056346
688.291068	2565.947308
688.628504	2513.015192
688.965889	2477.727115
689.303224	2533.179808
689.640510	2558.385577
689.977745	2502.932885
690.314930	2565.947308
690.652065	2518.056346
690.989150	2444.959615
691.326185	2507.974038
691.663170	2535.700385
692.000105	2548.303269
692.336990	2447.480192
692.673825	2467.644808
693.010610	2513.015192
693.347345	2507.974038
693.684030	2497.891731
694.020665	2533.179808
694.357251	2578.550192
694.693786	2485.288846
695.030272	2422.274423
695.366707	2477.727115
695.703093	2444.959615
696.039429	2502.932885
696.375716	2477.727115
696.711952	2520.576923
697.048139	2502.932885
697.384276	2543.262115
697.720363	2439.918462
698.056400	2507.974038
698.392388	2510.494615
698.728326	2525.618077
699.064214	2555.865000
699.400053	2495.371154
699.735842	2437.397885
700.071581	2455.041923
700.407270	2482.768269
700.742910	2477.727115
701.078501	2558.385577
701.414042	2407.150962
701.749533	2518.056346
702.084974	2434.877308
702.420366	2497.891731
702.755709	2477.727115
703.091002	2427.315577
703.426246	2497.891731
703.761440	2487.809423
704.096584	2533.179808
704.431679	2407.150962
704.766725	2482.768269
705.101721	2477.727115
705.436668	2482.768269
705.771565	2535.700385
706.106413	2513.015192
706.441212	2565.947308
706.775961	2533.179808
707.110661	2555.865000
707.445311	2437.397885
707.779913	2429.836154
708.114465	2487.809423
708.448967	2525.618077
708.783421	2523.097500
709.117825	2497.891731
709.452180	2485.288846
709.786485	2507.974038
710.120742	2467.644808
710.454949	2515.535769
710.789107	2457.562500
711.123216	2487.809423
711.457275	2533.179808
711.791286	2417.233269
712.125247	2553.344423
712.459159	2482.768269
712.793023	2462.603654
713.126837	2490.330000
713.460602	2462.603654
713.794318	2500.412308
714.127985	2581.070769
714.461602	2480.247692
714.795171	2444.959615
715.128691	2424.795000
715.462162	2485.288846
715.795584	2465.124231
716.128957	2444.959615
716.462281	2518.056346
716.795556	2507.974038
717.128782	2593.673654
717.461960	2487.809423
717.795088	2467.644808
718.128167	2538.220962
718.461198	2497.891731
718.794180	2480.247692
719.127113	2497.891731
719.459997	2543.262115
719.792833	2518.056346
720.125619	2462.603654
720.458357	2434.877308
720.791046	2578.550192
721.123686	2475.206538
721.456278	2467.644808
721.788821	2525.618077
722.121315	2472.685962
722.453761	2543.262115
722.786158	2462.603654
723.118506	2518.056346
723.450805	2507.974038
723.783056	2455.041923
724.115259	2465.124231
724.447412	2560.906154
724.779518	2457.562500
725.111574	2447.480192
725.443582	2482.768269
725.775542	2467.644808
726.107453	2500.412308
726.439315	2497.891731
726.771129	2492.850577
727.102895	2429.836154
727.434612	2513.015192
727.766281	2530.659231
728.097901	2447.480192
728.429473	2510.494615
728.760996	2495.371154
729.092471	2455.041923
729.423897	2540.741538
729.755276	2432.356731
730.086606	2550.823846
730.417887	2482.768269
730.749120	2472.685962
731.080305	2480.247692
731.411442	2505.453462
731.742530	2560.906154
732.073570	2505.453462
732.404562	2525.618077
732.735506	2424.795000
733.066401	2477.727115
733.397249	2500.412308
733.728048	2472.685962
734.058798	2472.685962
734.389501	2548.303269
734.720156	2553.344423
735.050762	2434.877308
735.381320	2480.247692
735.711831	2535.700385
736.042293	2523.097500
736.372707	2485.288846
736.703073	2507.974038
737.033391	2429.836154
737.363661	2513.015192
737.693883	2505.453462
738.024056	2528.138654
738.354182	2447.480192
738.684260	2550.823846
739.014290	2505.453462
739.344272	2523.097500
739.674207	2467.644808
740.004093	2533.179808
740.333931	2495.371154
740.663722	2482.768269
740.993464	2500.412308
741.323159	2482.768269
741.652806	2480.247692
741.982405	2538.220962
742.311956	2540.741538
742.641460	2490.330000
742.970915	2480.247692
743.300323	2500.412308
743.629683	2502.932885
743.958996	2596.194231
744.288260	2424.795000
744.617477	2550.823846
744.946647	2485.288846
745.275768	2480.247692
745.604842	2442.439038
745.933869	2472.685962
746.262847	2515.535769
746.591778	2492.850577
746.920662	2429.836154
747.249498	2581.070769
747.578286	2591.153077
747.907027	2573.509038
748.235720	2495.371154
748.564365	2520.576923
748.892963	2525.618077
749.221514	2429.836154
749.550017	2485.288846
749.878473	2457.562500
750.206881	2510.494615
750.535242	2568.467885
750.863555	2505.453462
751.191821	2502.932885
751.520039	2523.097500
751.848210	2495.371154
752.176334	2518.056346
752.504411	2462.603654
752.832440	2465.124231
753.160421	2510.494615
753.488356	2533.179808
753.816243	2467.644808
754.144082	2515.535769
754.471875	2533.179808
754.799620	2495.371154
755.127318	2394.548077
755.454969	2492.850577
755.782572	2447.480192
756.110129	2379.424615
756.437638	2563.426731
756.765100	2432.356731
757.092515	2515.535769
757.419882	2497.891731
757.747203	2495.371154
758.074477	2465.124231
758.401703	2515.535769
758.728882	2472.685962
759.056014	2507.974038
759.383099	2432.356731
759.710138	2507.974038
760.037129	2538.220962
760.364073	2490.330000
760.690970	2437.397885
761.017820	2576.029615
761.344623	2492.850577
761.671379	2548.303269
761.998088	2495.371154
762.324751	2477.727115
762.651366	2497.891731
762.977935	2475.206538
763.304456	2502.932885
763.630931	2518.056346
763.957359	2553.344423
764.283740	2533.179808
764.610074	2513.015192
764.936362	2540.741538
765.262602	2447.480192
765.588796	2495.371154
765.914943	2540.741538
766.241044	2555.865000
766.567097	2550.823846
766.893104	2533.179808
767.219064	2477.727115
767.544978	2485.288846
767.870845	2518.056346
768.196665	2515.535769
768.522438	2545.782692
768.848165	2538.220962
769.173846	2497.891731
769.499479	2583.591346
769.825066	2497.891731
770.150607	2497.891731
770.476101	2533.179808
770.801548	2548.303269
771.126949	2460.083077
771.452303	2497.891731
771.777611	2482.768269
772.102872	2555.865000
772.428087	2482.768269
772.753256	2520.576923
773.078378	2467.644808
773.403453	2485.288846
773.728482	2442.439038
774.053465	2555.865000
774.378401	2475.206538
774.703291	2422.274423
775.028135	2543.262115
775.352932	2505.453462
775.677683	2477.727115
776.002388	2447.480192
776.327046	2444.959615
776.651658	2510.494615
776.976224	2427.315577
777.300743	2477.727115
777.625216	2528.138654
777.949643	2457.562500
778.274024	2510.494615
778.598359	2553.344423
778.922647	2513.015192
779.246889	2472.685962
779.571086	2502.932885
779.895236	2455.041923
780.219339	2475.206538
780.543397	2470.165385
780.867409	2465.124231
781.191374	2455.041923
781.515294	2467.644808
781.839167	2477.727115
782.162995	2439.918462
782.486776	2528.138654
782.810511	2533.179808
783.134201	2492.850577
783.457844	2507.974038
783.781441	2581.070769
784.104993	2467.644808
784.428498	2455.041923
784.751958	2510.494615
785.075372	2487.809423
785.398739	2570.988462
785.722061	2513.015192
786.045337	2513.015192
786.368568	2475.206538
786.691752	2497.891731
787.014891	2480.247692
787.337983	2500.412308
787.661030	2475.206538
787.984031	2538.220962
788.306987	2578.550192
788.629897	2520.576923
788.952760	2434.877308
789.275579	2482.768269
789.598351	2487.809423
789.921078	2392.027500
790.243759	2576.029615
790.566395	2518.056346
790.888984	2495.371154
791.211529	2422.274423
791.534027	2515.535769
791.856480	2487.809423
792.178888	2417.233269
792.501249	2573.509038
792.823566	2505.453462
793.145836	2573.509038
793.468062	2513.015192
793.790241	2472.685962
794.112375	2444.959615
794.434464	2543.262115
794.756507	2555.865000
795.078505	2510.494615
795.400457	2560.906154
795.722364	2452.521346
796.044226	2444.959615
796.366042	2432.356731
796.687812	2530.659231
797.009538	2500.412308
797.331218	2530.659231
797.652852	2497.891731
797.974442	2540.741538
798.295986	2480.247692
798.617484	2515.535769
798.938938	2515.535769
799.260346	2543.262115
799.581709	2540.741538
799.903026	2525.618077
800.224299	2553.344423
800.545526	2427.315577
800.866708	2490.330000
801.187845	2419.753846
801.508936	2457.562500
801.829983	2520.576923
802.150984	2452.521346
802.471940	2485.288846
802.792851	2570.988462
803.113717	2452.521346
803.434538	2465.124231
803.755314	2565.947308
804.076045	2452.521346
804.396731	2485.288846
804.717372	2520.576923
805.037967	2497.891731
805.358518	2497.891731
805.679024	2424.795000
805.999485	2472.685962
806.319901	2485.288846
806.640272	2533.179808
806.960598	2477.727115
807.280879	2437.397885
807.601115	2611.317692
807.921306	2452.521346
808.241453	2495.371154
808.561554	2437.397885
808.881611	2528.138654
809.201623	2485.288846
809.521590	2495.371154
809.841513	2427.315577
810.161390	2528.138654
810.481223	2618.879423
810.801011	2442.439038
811.120755	2507.974038
811.440453	2417.233269
811.760107	2422.274423
812.079716	2502.932885
812.399281	2475.206538
812.718801	2452.521346
813.038276	2442.439038
813.357707	2525.618077
813.677093	2530.659231
813.996434	2543.262115
814.315731	2535.700385
814.634983	2515.535769
814.954191	2452.521346
815.273354	2505.453462
815.592473	2480.247692
815.911547	2502.932885
816.230577	2467.644808
816.549562	2485.288846
816.868502	2528.138654
817.187399	2465.124231
817.506250	2505.453462
817.825058	2482.768269
818.143821	2427.315577
818.462539	2477.727115
818.781213	2507.974038
819.099843	2462.603654
819.418429	2434.877308
819.736970	2497.891731
820.055466	2558.385577
820.373919	2497.891731
820.692327	2455.041923
821.010691	2558.385577
821.329011	2518.056346
821.647286	2533.179808
821.965517	2558.385577
822.283704	2477.727115
822.601847	2462.603654
822.919945	2548.303269
823.237999	2424.795000
823.556010	2502.932885
823.873976	2492.850577
824.191897	2515.535769
824.509775	2457.562500
824.827609	2492.850577
825.145398	2565.947308
825.463144	2465.124231
825.780845	2462.603654
826.098502	2563.426731
826.416116	2384.465769
826.733685	2487.809423
827.051210	2472.685962
827.368692	2485.288846
827.686129	2404.630385
828.003522	2538.220962
828.320872	2447.480192
828.638177	2500.412308
828.955439	2427.315577
829.272656	2417.233269
829.589830	2578.550192
829.906960	2507.974038
830.224046	2495.371154
830.541088	2568.467885
830.858086	2502.932885
831.175041	2507.974038
831.491952	2573.509038
831.808819	2548.303269
832.125642	2538.220962
832.442421	2535.700385
832.759157	2487.809423
833.075849	2540.741538
833.392497	2437.397885
833.709101	2492.850577
834.025662	2447.480192
834.342179	2538.220962
834.658653	2465.124231
834.975083	2502.932885
835.291469	2434.877308
835.607811	2583.591346
835.924110	2518.056346
836.240366	2457.562500
836.556578	2540.741538
836.872746	2507.974038
837.188871	2455.041923
837.504952	2497.891731
837.820990	2472.685962
838.136984	2475.206538
838.452935	2523.097500
838.768842	2452.521346
839.084706	2407.150962
839.400526	2429.836154
839.716303	2457.562500
840.032037	2480.247692
840.347727	2444.959615
840.663373	2452.521346
840.978977	2570.988462
841.294537	2427.315577
841.610054	2510.494615
841.925527	2472.685962
842.240957	2475.206538
842.556344	2460.083077
842.871687	2442.439038
843.186987	2525.618077
843.502244	2485.288846
843.817458	2518.056346
844.132629	2505.453462
844.447756	2460.083077
844.762840	2442.439038
845.077881	2407.150962
845.392879	2533.179808
845.707833	2518.056346
846.022745	2495.371154
846.337613	2475.206538
846.652438	2563.426731
846.967221	2470.165385
847.281960	2502.932885
847.596656	2513.015192
847.911309	2528.138654
848.225919	2505.453462
848.540485	2576.029615
848.855009	2404.630385
849.169490	2576.029615
849.483928	2457.562500
849.798323	2397.068654
850.112675	2477.727115
850.426984	2513.015192
850.741251	2573.509038
851.055474	2437.397885
851.369654	2452.521346
851.683792	2442.439038
851.997887	2465.124231
852.311938	2465.124231
852.625947	2412.192115
852.939914	2505.453462
853.253837	2409.671538
853.567718	2492.850577
853.881555	2472.685962
854.195350	2490.330000
854.509103	2457.562500
854.822812	2500.412308
855.136479	2450.000769
855.450103	2480.247692
855.763685	2505.453462
856.077224	2467.644808
856.390720	2485.288846
856.704173	2475.206538
857.017584	2495.371154
857.330953	2583.591346
857.644278	2563.426731
857.957561	2518.056346
858.270802	2558.385577
858.584000	2507.974038
858.897155	2505.453462
859.210268	2490.330000
859.523339	2477.727115
859.836367	2518.056346
860.149352	2523.097500
860.462295	2437.397885
860.775195	2540.741538
861.088054	2497.891731
861.400869	2442.439038
861.713642	2525.618077
862.026373	2487.809423
862.339062	2520.576923
862.651708	2452.521346
862.964312	2560.906154
863.276873	2472.685962
863.589392	2497.891731
863.901869	2434.877308
864.214303	2429.836154
864.526696	2500.412308
864.839045	2444.959615
865.151353	2472.685962
865.463619	2492.850577
865.775842	2505.453462
866.088023	2550.823846
866.400162	2618.879423
866.712258	2465.124231
867.024313	2444.959615
867.336325	2548.303269
867.648296	2570.988462
867.960224	2523.097500
868.272110	2331.533654
868.583954	2472.685962
868.895755	2497.891731
869.207515	2525.618077
869.519233	2540.741538
869.830909	2419.753846
870.142542	2495.371154
870.454134	2422.274423
870.765684	2553.344423
871.077191	2465.124231
871.388657	2540.741538
871.700081	2497.891731
872.011463	2515.535769
872.322803	2535.700385
872.634101	2538.220962
872.945357	2535.700385
873.256571	2513.015192
873.567744	2558.385577
873.878874	2462.603654
874.189963	2497.891731
874.501010	2553.344423
874.812015	2450.000769
875.122979	2502.932885
875.433900	2475.206538
875.744780	2563.426731
876.055618	2450.000769
876.366415	2525.618077
876.677169	2470.165385
876.987882	2457.562500
877.298554	2414.712692
877.609183	2525.618077
877.919771	2427.315577
878.230317	2545.782692
878.540822	2593.673654
878.851285	2477.727115
879.161707	2502.932885
879.472087	2467.644808
879.782425	2507.974038
880.092722	2500.412308
880.402977	2447.480192
880.713191	2510.494615
881.023363	2442.439038
881.333494	2452.521346
881.643583	2565.947308
881.953631	2583.591346
882.263637	2460.083077
882.573602	2485.288846
882.883526	2515.535769
883.193408	2507.974038
883.503248	2475.206538
883.813048	2540.741538
884.122806	2487.809423
884.432522	2502.932885
884.742197	2487.809423
885.051831	2427.315577
885.361424	2520.576923
885.670975	2578.550192
885.980485	2500.412308
886.289954	2492.850577
886.599382	2578.550192
886.908768	2515.535769
887.218113	2477.727115
887.527417	2460.083077
887.836680	2596.194231
888.145901	2492.850577
888.455082	2523.097500
888.764221	2507.974038
889.073319	2505.453462
889.382376	2437.397885
889.691392	2591.153077
890.000366	2409.671538
890.309300	2417.233269
890.618193	2543.262115
890.927044	2558.385577
891.235855	2540.741538
891.544625	2470.165385
891.853353	2467.644808
892.162041	2525.618077
892.470687	2538.220962
892.779293	2480.247692
893.087858	2525.618077
893.396381	2558.385577
893.704864	2472.685962
894.013306	2523.097500
894.321707	2520.576923
894.630068	2518.056346
894.938387	2593.673654
895.246665	2545.782692
895.554903	2525.618077
895.863100	2500.412308
896.171256	2482.768269
896.479371	2520.576923
896.787446	2482.768269
897.095480	2538.220962
897.403473	2465.124231
897.711425	2480.247692
898.019336	2439.918462
898.327207	2636.523462
898.635038	2417.233269
898.942827	2583.591346
899.250576	2520.576923
899.558284	2570.988462
899.865952	2457.562500
900.173579	2457.562500
900.481165	2565.947308
900.788711	2409.671538
901.096216	2530.659231
901.403681	2563.426731
901.711105	2487.809423
902.018489	2402.109808
902.325832	2515.535769
902.633135	2475.206538
902.940397	2450.000769
903.247619	2523.097500
903.554800	2475.206538
903.861941	2472.685962
904.169041	2442.439038
904.476101	2505.453462
904.783121	2450.000769
905.090100	2507.974038
905.397039	2480.247692
905.703938	2515.535769
906.010796	2402.109808
906.317614	2530.659231
906.624391	2442.439038
906.931129	2520.576923
907.237826	2462.603654
907.544483	2480.247692
907.851099	2460.083077
908.157675	2490.330000
908.464211	2570.988462
908.770707	2545.782692
909.077163	2450.000769
909.383578	2515.535769
909.689954	2465.124231
909.996289	2510.494615
910.302584	2457.562500
910.608839	2535.700385
910.915054	2497.891731
911.221229	2568.467885
911.527363	2475.206538
911.833458	2502.932885
912.139513	2472.685962
912.445527	2563.426731
912.751502	2523.097500
913.057436	2528.138654
913.363331	2450.000769
913.669186	2555.865000
913.975000	2475.206538
914.280775	2495.371154
914.586510	2487.809423
914.892205	2535.700385
915.197859	2528.138654
915.503475	2492.850577
915.809050	2507.974038
916.114585	2513.015192
916.420081	2467.644808
916.725536	2538.220962
917.030952	2555.865000
917.336328	2568.467885
917.641665	2490.330000
917.946961	2437.397885
918.252218	2417.233269
918.557435	2543.262115
918.862612	2492.850577
919.167750	2490.330000
919.472848	2518.056346
919.777906	2533.179808
920.082925	2535.700385
920.387904	2591.153077
920.692843	2525.618077
920.997743	2482.768269
921.302603	2515.535769
921.607423	2497.891731
921.912204	2404.630385
922.216946	2502.932885
922.521647	2535.700385
922.826310	2442.439038
923.130932	2513.015192
923.435516	2477.727115
923.740059	2530.659231
924.044564	2457.562500
924.349028	2530.659231
924.653454	2434.877308
924.957840	2558.385577
925.262186	2515.535769
925.566493	2502.932885
925.870761	2460.083077
926.174989	2502.932885
926.479178	2538.220962
926.783328	2482.768269
927.087438	2450.000769
927.391509	2570.988462
927.695541	2429.836154
927.999533	2502.932885
928.303486	2455.041923
928.607400	2550.823846
928.911275	2530.659231
929.215110	2525.618077
929.518906	2510.494615
929.822663	2457.562500
930.126381	2465.124231
930.430060	2505.453462
930.733699	2472.685962
931.037299	2439.918462
931.340861	2553.344423
931.644383	2447.480192
931.947866	2513.015192
932.251309	2470.165385
932.554714	2429.836154
932.858080	2500.412308
933.161407	2563.426731
933.464694	2475.206538
933.767943	2525.618077
934.071153	2540.741538
934.374323	2485.288846
934.677455	2475.206538
934.980548	2533.179808
935.283602	2518.056346
935.586617	2535.700385
935.889593	2427.315577
936.192530	2457.562500
936.495428	2409.671538
936.798287	2487.809423
937.101108	2533.179808
937.403890	2462.603654
937.706632	2492.850577
938.009336	2570.988462
938.312002	2543.262115
938.614628	2545.782692
938.917216	2444.959615
939.219765	2480.247692
939.522275	2525.618077
939.824747	2596.194231
940.127179	2462.603654
940.429573	2553.344423
940.731929	2535.700385
941.034246	2507.974038
941.336524	2477.727115
941.638763	2465.124231
941.940964	2475.206538
942.243126	2487.809423
942.545250	2482.768269
942.847335	2518.056346
943.149381	2482.768269
943.451389	2487.809423
943.753359	2462.603654
944.055290	2414.712692
944.357182	2462.603654
944.659036	2545.782692
944.960851	2417.233269
945.262628	2470.165385
945.564367	2523.097500
945.866067	2495.371154
946.167729	2487.809423
946.469352	2528.138654
946.770937	2475.206538
947.072484	2530.659231
947.373992	2528.138654
947.675462	2553.344423
947.976893	2533.179808
948.278286	2507.974038
948.579641	2455.041923
948.880958	2467.644808
949.182236	2490.330000
949.483476	2495.371154
949.784678	2523.097500
950.085841	2452.521346
950.386967	2452.521346
950.688054	2540.741538
950.989103	2452.521346
951.290114	2460.083077
951.591087	2465.124231
951.892021	2505.453462
952.192917	2550.823846
952.493776	2465.124231
952.794596	2510.494615
953.095378	2543.262115
953.396122	2548.303269
953.696828	2500.412308
953.997496	2497.891731
954.298126	2470.165385
954.598718	2565.947308
954.899272	2497.891731
955.199788	2500.412308
955.500266	2371.862885
955.800706	2490.330000
956.101108	2487.809423
956.401472	2442.439038
956.701798	2515.535769
957.002087	2520.576923
957.302337	2505.453462
957.602550	2447.480192
957.902724	2606.276538
958.202861	2432.356731
958.502960	2490.330000
958.803022	2457.562500
959.103045	2528.138654
959.403031	2472.685962
959.702979	2424.795000
960.002889	2455.041923
960.302762	2538.220962
960.602596	2422.274423
960.902393	2560.906154
961.202153	2533.179808
961.501875	2457.562500
961.801559	2507.974038
962.101205	2429.836154
962.400814	2490.330000
962.700385	2591.153077
962.999918	2417.233269
963.299414	2462.603654
963.598873	2540.741538
963.898293	2581.070769
964.197677	2545.782692
964.497022	2462.603654
964.796331	2520.576923
965.095601	2419.753846
965.394835	2525.618077
965.694030	2422.274423
965.993189	2525.618077
966.292309	2515.535769
966.591393	2565.947308
966.890439	2432.356731
967.189447	2520.576923
967.488419	2603.755962
967.787353	2472.685962
968.086249	2482.768269
968.385108	2470.165385
968.683930	2535.700385
968.982714	2389.506923
969.281462	2550.823846
969.580172	2540.741538
969.878844	2525.618077
970.177480	2457.562500
970.476078	2500.412308
970.774639	2520.576923
971.073162	2535.700385
971.371649	2507.974038
971.670098	2482.768269
971.968510	2439.918462
972.266885	2535.700385
972.565223	2513.015192
972.863524	2497.891731
973.161788	2490.330000
973.460014	2490.330000
973.758204	2392.027500
974.056356	2520.576923
974.354471	2558.385577
974.652550	2414.712692
974.950591	2455.041923
975.248595	2470.165385
975.546563	2525.618077
975.844493	2467.644808
976.142386	2513.015192
976.440243	2502.932885
976.738062	2500.412308
977.035845	2507.974038
977.333590	2462.603654
977.631299	2485.288846
977.928971	2490.330000
978.226606	2505.453462
978.524204	2513.015192
978.821765	2505.453462
979.119290	2507.974038
979.416777	2530.659231
979.714228	2502.932885
980.011642	2495.371154
980.309020	2381.945192
980.606360	2528.138654
980.903664	2520.576923
981.200931	2399.589231
981.498162	2472.685962
981.795356	2480.247692
982.092513	2487.809423
982.389633	2434.877308
982.686717	2475.206538
982.983764	2510.494615
983.280775	2470.165385
983.577749	2523.097500
983.874686	2427.315577
984.171587	2472.685962
984.468451	2480.247692
984.765279	2409.671538
985.062070	2450.000769
985.358824	2472.685962
985.655543	2465.124231
985.952224	2525.618077
986.248869	2540.741538
986.545478	2444.959615
986.842050	2555.865000
987.138586	2442.439038
987.435086	2462.603654
987.731549	2475.206538
988.027975	2502.932885
988.324366	2507.974038
988.620719	2510.494615
988.917037	2429.836154
989.213318	2543.262115
989.509563	2530.659231
989.805772	2523.097500
990.101944	2500.412308
990.398080	2480.247692
990.694180	2485.288846
990.990244	2535.700385
991.286271	2510.494615
991.582262	2565.947308
991.878217	2485.288846
992.174136	2482.768269
992.470019	2492.850577
992.765865	2475.206538
993.061676	2507.974038
993.357450	2477.727115
993.653188	2515.535769
993.948890	2560.906154
994.244556	2447.480192
994.540186	2538.220962
994.835780	2442.439038
995.131337	2452.521346
995.426859	2495.371154
995.722345	2492.850577
996.017795	2528.138654
996.313208	2434.877308
996.608586	2515.535769
996.903928	2507.974038
997.199234	2460.083077
997.494504	2543.262115
997.789738	2457.562500
998.084936	2538.220962
998.380099	2507.974038
998.675225	2414.712692
998.970316	2460.083077
999.265371	2487.809423
999.560390	2462.603654
999.855373	2442.439038
1000.150320	2407.150962
1000.445232	2570.988462
1000.740108	2407.150962
1001.034948	2535.700385
1001.329752	2495.371154
1001.624521	2563.426731
1001.919254	2475.206538
1002.213951	2497.891731
1002.508613	2452.521346
1002.803239	2497.891731
1003.097829	2560.906154
1003.392384	2548.303269
1003.686903	2472.685962
1003.981386	2490.330000
1004.275834	2497.891731
1004.570246	2429.836154
1004.864623	2462.603654
1005.158964	2475.206538
1005.453270	2530.659231
1005.747540	2578.550192
1006.041775	2520.576923
1006.335974	2485.288846
1006.630138	2538.220962
1006.924266	2525.618077
1007.218359	2613.838269
1007.512416	2565.947308
1007.806438	2462.603654
1008.100425	2513.015192
1008.394376	2558.385577
1008.688292	2515.535769
1008.982172	2507.974038
1009.276017	2444.959615
1009.569827	2500.412308
1009.863602	2533.179808
1010.157341	2502.932885
1010.451045	2518.056346
1010.744714	2497.891731
1011.038347	2555.865000
1011.331945	2455.041923
1011.625508	2545.782692
1011.919036	2507.974038
1012.212528	2513.015192
1012.505986	2543.262115
1012.799408	2442.439038
1013.092795	2558.385577
1013.386147	2492.850577
1013.679464	2409.671538
1013.972745	2485.288846
1014.265992	2500.412308
1014.559204	2518.056346
1014.852380	2545.782692
1015.145521	2439.918462
1015.438628	2482.768269
1015.731699	2485.288846
1016.024736	2513.015192
1016.317737	2472.685962
1016.610703	2470.165385
1016.903635	2490.330000
1017.196531	2442.439038
1017.489393	2520.576923
1017.782219	2515.535769
1018.075011	2434.877308
1018.367768	2505.453462
1018.660490	2570.988462
1018.953177	2570.988462
1019.245829	2570.988462
