Dividing Wavelength (nm)	Counts (n)	Blue Motor Position (mm): 0.000000	Red Motor Position (mm): 9.800000	
326.493990	2129.048148
326.888308	2129.048148
327.282561	2129.048148
327.676750	2096.807448
328.070874	2097.349373
328.464933	2098.302151
328.858929	2103.295413
329.252859	2113.786055
329.646726	2127.099742
330.040528	2137.650877
330.434265	2154.599236
330.827938	2172.137410
331.221547	2189.562159
331.615091	2212.285160
332.008571	2229.173025
332.401986	2245.536610
332.795338	2267.566453
333.188625	2286.853907
333.581847	2305.821249
333.975006	2323.462767
334.368100	2341.144614
334.761129	2359.922912
335.154095	2378.252547
335.546996	2393.786863
335.939833	2405.101733
336.332606	2420.986408
336.725315	2434.978131
337.117960	2445.534307
337.510540	2453.191820
337.903056	2467.012143
338.295508	2471.508852
338.687896	2478.755511
339.080220	2488.338744
339.472480	2494.514158
339.864676	2498.423573
340.256807	2503.885663
340.648875	2506.875067
341.040879	2509.897239
341.432818	2508.861282
341.824694	2513.489061
342.216506	2513.007631
342.608253	2513.015192
342.999937	2513.849503
343.391557	2514.582991
343.783113	2513.209277
344.174605	2509.221724
344.566033	2510.711385
344.957397	2507.510252
345.348697	2504.757782
345.739934	2505.123266
346.131106	2503.837772
346.522215	2500.051865
346.913260	2499.109169
347.304241	2499.993892
347.695159	2496.054230
348.086012	2496.200424
348.476802	2489.092397
348.867528	2491.192037
349.258191	2487.930411
349.648789	2489.225987
350.039324	2485.127529
350.429796	2489.276399
350.820203	2486.609628
351.210548	2482.884216
351.600828	2482.196098
351.991045	2484.343630
352.381198	2480.628299
352.771288	2482.692652
353.161314	2482.929586
353.551276	2482.180975
353.941175	2481.601242
354.331010	2482.085193
354.720782	2481.495378
355.110490	2481.182826
355.500135	2480.898001
355.889717	2479.831797
356.279235	2482.561582
356.668689	2480.918166
357.058080	2481.601242
357.447408	2479.302476
357.836672	2478.647126
358.225873	2480.255254
358.615010	2477.621251
359.004084	2483.403455
359.393095	2483.645430
359.782043	2485.127529
360.170927	2487.388487
360.559748	2484.580564
360.948505	2485.387149
361.337199	2489.127685
361.725830	2485.664412
362.114398	2491.272696
362.502903	2488.815133
362.891344	2488.391676
363.279722	2488.384115
363.668037	2491.605412
364.056289	2489.636841
364.444478	2492.497696
364.832603	2491.829743
365.220665	2491.847387
365.608665	2496.515496
365.996601	2493.261431
366.384474	2495.237563
366.772284	2496.510455
367.160031	2495.686226
367.547715	2498.211844
367.935336	2501.387771
368.322893	2505.166116
368.710388	2505.108143
369.097820	2516.440656
369.485189	2512.962260
369.872495	2523.344517
370.259738	2529.282996
370.646918	2536.932947
371.034035	2541.401930
371.421090	2552.341233
371.808081	2564.475291
372.195010	2570.431414
372.581875	2582.411716
372.968678	2598.492997
373.355418	2607.504059
373.742096	2625.062398
374.128710	2639.044038
374.515262	2656.073056
374.901751	2669.606034
375.288177	2681.157838
375.674540	2708.390151
376.060841	2724.935218
376.447079	2742.506159
376.833254	2764.510796
377.219367	2774.051180
377.605417	2810.271870
377.991404	2819.484579
378.377329	2839.916375
378.763191	2856.229549
379.148991	2888.787841
379.534727	2912.375400
379.920402	2933.341559
380.306013	2942.327416
380.691563	2983.987511
381.077049	2999.768843
381.462474	3008.812673
381.847835	3035.389636
382.233134	3049.028478
382.618371	3037.597662
383.003545	3090.592791
383.388657	3083.089034
383.773706	3095.707042
384.158693	3098.676282
384.543618	3108.524176
384.928480	3122.689818
385.313280	3142.279742
385.698017	3124.930611
386.082692	3145.869043
386.467305	3131.474028
386.851856	3136.094246
387.236344	3130.801034
387.620770	3129.228194
388.005133	3121.227883
388.389435	3116.973149
388.773674	3099.359358
389.157851	3101.053186
389.541965	3085.856627
389.926018	3042.389278
390.310008	3053.555434
390.693936	3034.872918
391.077802	3028.004346
391.461606	2994.740292
391.845348	2993.338851
392.229027	2970.777167
392.612645	2950.327727
392.996200	2947.025771
393.379694	2934.574121
393.763125	2925.545414
394.146494	2891.739437
394.529801	2881.150493
394.913047	2864.728934
395.296230	2832.268945
395.679351	2818.806543
396.062410	2799.400622
396.445408	2771.550767
396.828343	2754.244486
397.211217	2736.847464
397.594028	2704.689944
397.976778	2693.949766
398.359466	2680.683969
398.742092	2666.664520
399.124656	2645.610141
399.507158	2638.542444
399.889598	2627.998870
400.271977	2615.637961
400.654294	2609.351642
401.036549	2592.741040
401.418742	2587.301635
401.800874	2575.654049
402.182944	2572.188256
402.564952	2564.984447
402.946898	2559.885320
403.328783	2550.627241
403.710606	2543.378062
404.092367	2544.270346
404.474067	2539.219110
404.855705	2535.077802
405.237282	2534.036804
405.618797	2531.579241
406.000250	2531.571680
406.381642	2527.218643
406.762972	2527.795855
407.144240	2525.633200
407.525447	2527.337110
407.906593	2524.889630
408.287677	2525.023221
408.668700	2523.266379
409.049661	2524.380474
409.430560	2523.193282
409.811399	2522.326203
410.192176	2519.601460
410.572891	2520.188754
410.953545	2520.707993
411.334138	2522.593385
411.714669	2520.531553
412.095139	2519.482993
412.475547	2521.421316
412.855894	2520.803775
413.236180	2518.910822
413.616405	2521.706142
413.996568	2521.431399
414.376670	2520.488703
414.756711	2522.560617
415.136691	2520.292098
415.516609	2520.713034
415.896466	2522.202695
416.276262	2524.380474
416.655997	2518.893178
417.035670	2517.741274
417.415283	2519.871162
417.794834	2516.296983
418.174324	2520.609691
418.553753	2520.587005
418.933121	2522.250586
419.312428	2520.859228
419.691674	2523.594054
420.070859	2525.759229
420.449983	2522.043899
420.829045	2523.291584
421.208047	2521.721265
421.586988	2523.231091
421.965867	2522.550535
422.344686	2526.412059
422.723444	2523.541122
423.102141	2524.566996
423.480777	2525.809641
423.859352	2523.720082
424.237866	2523.687315
424.616319	2524.186389
424.994712	2524.680422
425.373044	2522.542973
425.751314	2524.874507
426.129524	2525.678571
426.507673	2522.174969
426.885762	2524.544311
427.263789	2525.734023
427.641756	2524.960206
428.019662	2525.050947
428.397508	2525.315608
428.775292	2525.618077
429.153016	2527.553880
429.530679	2527.311905
429.908282	2525.176976
430.285824	2524.141019
430.663305	2525.378622
431.040726	2526.079343
431.418086	2528.930115
431.795385	2525.081194
432.172624	2527.188396
432.549802	2529.381298
432.926920	2528.511699
433.303977	2527.621936
433.680974	2527.503468
434.057910	2526.331400
434.434786	2524.750998
434.811601	2525.229908
435.188355	2525.590351
435.565050	2527.548839
435.941683	2529.386339
436.318257	2526.623787
436.694770	2522.895854
437.071222	2527.435413
437.447614	2523.594054
437.823946	2525.285361
438.200218	2528.504137
438.576429	2527.831143
438.952580	2525.161852
439.328670	2529.651000
439.704700	2527.437933
440.080670	2531.823737
440.456580	2528.602440
440.832429	2529.587986
441.208218	2528.257121
441.583947	2530.714683
441.959616	2528.186545
442.335224	2529.295599
442.710773	2528.105886
443.086261	2532.131248
443.461689	2526.817872
443.837057	2530.165198
444.212365	2532.189221
444.587612	2528.970444
444.962800	2531.551515
445.337927	2529.656041
445.712995	2530.109745
446.088002	2530.281144
446.462949	2529.968593
446.837837	2530.087060
447.212664	2531.362472
447.587431	2532.088398
447.962139	2529.111597
448.336786	2536.479243
448.711374	2532.690816
449.085901	2531.937163
449.460369	2532.068233
449.834776	2533.215096
450.209124	2535.211393
450.583412	2535.034952
450.957640	2534.629139
451.331808	2533.696526
451.705917	2532.804242
452.079965	2533.540250
452.453954	2533.893131
452.827883	2533.578059
453.201752	2532.781557
453.575562	2534.735004
453.949311	2536.017977
454.323001	2531.753161
454.696632	2535.876825
455.070202	2535.249201
455.443713	2534.750127
455.817164	2530.041689
456.190556	2533.474715
456.563888	2532.801721
456.937160	2530.661751
457.310373	2535.274407
457.683526	2535.629808
458.056619	2533.265507
458.429653	2535.057637
458.802628	2535.662576
459.175542	2534.286341
459.548398	2534.377082
459.921194	2533.973789
460.293930	2535.619726
460.666607	2535.050076
461.039224	2537.038811
461.411782	2535.879346
461.784280	2538.513348
462.156719	2538.044521
462.529099	2538.301620
462.901419	2535.990251
463.273680	2538.016795
463.645882	2538.152906
464.018024	2535.365148
464.390106	2536.960673
464.762130	2538.934285
465.134094	2540.423946
465.505999	2538.563760
465.877845	2542.405119
466.249631	2542.468134
466.621358	2539.667773
466.993026	2544.076262
467.364634	2542.992414
467.736184	2541.522917
468.107674	2538.634336
468.479105	2540.139121
468.850477	2537.941178
469.221790	2539.657690
469.593043	2537.663914
469.964238	2538.276414
470.335373	2539.282124
470.706449	2542.362269
471.077467	2538.410005
471.448425	2542.800850
471.819324	2541.273380
472.190164	2543.302445
472.560945	2541.318751
472.931667	2539.340098
473.302330	2540.728936
473.672934	2541.038967
474.043479	2539.241795
474.413965	2539.191384
474.784393	2535.649973
475.154761	2535.758358
475.525070	2533.971269
475.895321	2538.039480
476.265513	2535.617206
476.635645	2539.758513
477.005719	2539.035108
477.375734	2539.007382
477.745691	2541.260777
478.115588	2540.920499
478.485427	2540.234903
478.855207	2539.587114
479.224928	2542.982331
479.594591	2540.963349
479.964194	2541.840510
480.333739	2542.105171
480.703226	2542.808412
481.072653	2543.022661
481.442022	2542.826056
481.811333	2545.023999
482.180584	2542.488298
482.549777	2543.080634
482.918912	2544.159441
483.287988	2541.633823
483.657005	2545.770089
484.025964	2542.294214
484.394864	2540.897814
484.763706	2542.581560
485.132489	2540.360931
485.501213	2540.638195
485.869879	2545.087013
486.238487	2539.879501
486.607036	2542.972249
486.975527	2545.797816
487.343959	2542.470654
487.712333	2542.311858
488.080648	2539.924872
488.448905	2541.638864
488.817104	2543.196580
489.185244	2542.589121
489.553326	2542.137938
489.921350	2543.597352
490.289315	2544.890408
490.657222	2545.220604
491.025070	2547.741181
491.392861	2547.131201
491.760593	2545.780172
492.128267	2545.807898
492.495883	2544.466951
492.863440	2545.331509
493.230939	2542.972249
493.598380	2541.984183
493.965763	2538.830941
494.333088	2542.982331
494.700354	2539.521579
495.067563	2543.730943
495.434713	2538.674665
495.801805	2544.224976
496.168839	2540.802032
496.535815	2543.821683
496.902733	2543.874616
497.269593	2544.676159
497.636395	2544.371169
498.003139	2541.313709
498.369825	2543.078113
498.736453	2545.023999
499.103023	2542.546272
499.469535	2545.407126
499.835989	2543.272198
500.202385	2544.358566
500.568723	2544.857641
500.935003	2543.448638
501.301226	2542.352187
501.667390	2544.560212
502.033497	2545.689431
502.399546	2547.138763
502.765537	2542.256405
503.131470	2544.189688
503.497345	2543.068031
503.863163	2544.320758
504.228923	2544.582898
504.594625	2547.390820
504.960269	2546.198587
505.325856	2544.666077
505.691385	2542.989893
506.056856	2544.426622
506.422270	2546.473330
506.787625	2543.088196
507.152924	2544.661036
507.518164	2544.658515
507.883347	2545.003834
508.248472	2544.555171
508.613540	2544.960984
508.978550	2543.851930
509.343503	2545.893598
509.708398	2546.619524
510.073236	2543.501570
510.438016	2545.845707
510.802738	2542.798329
511.167403	2546.193546
511.532010	2544.918134
511.896561	2547.085831
512.261053	2546.710265
512.625488	2542.367311
512.989866	2540.532331
513.354186	2542.488298
513.718449	2539.793802
514.082655	2545.835624
514.446803	2543.597352
514.810894	2545.613814
515.174927	2545.432332
515.538904	2547.088351
515.902822	2545.480223
516.266684	2543.257074
516.630488	2546.276725
516.994235	2544.666077
517.357925	2544.378731
517.721558	2548.212528
518.085133	2545.639019
518.448651	2546.007024
518.812112	2546.629606
519.175516	2543.998124
519.538863	2546.649771
519.902152	2548.169679
520.265385	2546.541386
520.628560	2547.229503
520.991678	2546.332178
521.354739	2545.346633
521.717743	2543.607434
522.080690	2545.949050
522.443580	2547.138763
522.806413	2545.911242
523.169189	2545.792775
523.531908	2545.129863
523.894569	2544.746735
524.257174	2547.584905
524.619722	2547.537014
524.982213	2547.191695
525.344647	2544.519883
525.707025	2547.032898
526.069345	2547.254709
526.431608	2546.412837
526.793815	2546.674977
527.155964	2548.719164
527.518057	2545.054246
527.880093	2549.727395
528.242072	2547.579864
528.603995	2549.437529
528.965860	2549.092210
529.327669	2548.116747
529.689421	2546.168341
530.051117	2547.809236
530.412755	2544.948381
530.774337	2548.313352
531.135862	2546.100285
531.497331	2546.017106
531.858743	2542.516025
532.220098	2543.436035
532.581396	2543.052907
532.942638	2543.040305
533.303824	2544.855120
533.664953	2547.486602
534.026025	2547.262271
534.387040	2548.875440
534.747999	2545.631458
535.108902	2546.969884
535.469748	2548.089020
535.830537	2545.800336
536.191270	2547.385779
536.551947	2544.121632
536.912567	2548.182282
537.273131	2547.211859
537.633638	2546.072559
537.994089	2548.719164
538.354483	2545.754966
538.714821	2545.623896
539.075103	2548.731767
539.435328	2547.597508
539.795497	2546.332178
540.155609	2550.317210
540.515665	2548.031047
540.875665	2546.473330
541.235609	2548.991387
541.595496	2547.877292
541.955328	2548.668753
542.315102	2547.252189
542.674821	2545.959133
543.034483	2548.842673
543.394090	2550.501212
543.753640	2549.198074
544.113134	2545.392003
544.472571	2547.854607
544.831953	2547.947868
545.191278	2550.589432
545.550548	2546.785882
545.909761	2547.685728
546.268918	2548.827549
546.628019	2543.932589
546.987064	2546.753114
547.346053	2544.600542
547.704986	2546.869061
548.063863	2547.660522
548.422684	2548.066335
548.781449	2548.600697
549.140158	2547.592467
549.498811	2549.182951
549.857408	2550.004659
550.215949	2545.540717
550.574434	2542.135417
550.932864	2545.543238
551.291237	2543.239430
551.649555	2546.027188
552.007817	2549.631613
552.366022	2546.669935
552.724173	2548.328475
553.082267	2547.471479
553.440305	2545.026519
553.798288	2545.954092
554.156215	2544.867723
554.514086	2548.267981
554.871902	2548.933413
555.229661	2548.729247
555.587365	2547.146324
555.945014	2548.862837
556.302606	2547.746222
556.660143	2547.836962
557.017625	2548.946016
557.375050	2545.996941
557.732421	2547.912580
558.089735	2548.913249
558.446994	2549.694628
558.804197	2546.947199
559.161345	2547.862168
559.518437	2547.647919
559.875474	2548.288146
560.232455	2549.828218
560.589381	2544.509801
560.946251	2550.922149
561.303065	2548.162117
561.659825	2550.919628
562.016528	2548.305790
562.373177	2543.998124
562.729770	2550.097920
563.086307	2547.108516
563.442789	2548.789741
563.799216	2545.853268
564.155587	2545.071890
564.511904	2547.421067
564.868164	2547.741181
565.224370	2549.150183
565.580520	2544.713968
565.936615	2548.603218
566.292654	2548.673794
566.648638	2548.421736
567.004567	2547.010213
567.360441	2547.133722
567.716260	2547.436191
568.072023	2547.375697
568.427732	2541.908566
568.783385	2545.523073
569.138982	2543.042825
569.494525	2547.413506
569.850013	2541.911086
570.205445	2549.452652
570.560823	2546.634647
570.916145	2547.680687
571.271412	2548.436860
571.626625	2550.319731
571.981782	2545.691952
572.336884	2547.574822
572.691931	2548.446942
573.046923	2548.202446
573.401860	2548.167158
573.756743	2545.570964
574.111570	2549.051881
574.466342	2544.666077
574.821059	2547.239586
575.175722	2548.290666
575.530330	2546.420398
575.884882	2547.816798
576.239380	2547.418547
576.593823	2549.203115
576.948211	2546.400234
577.302544	2546.795964
577.656823	2544.938299
578.011047	2548.129349
578.365216	2549.525749
578.719330	2548.562889
579.073389	2546.990049
579.427394	2547.537014
579.781344	2546.904349
580.135239	2546.004503
580.489080	2546.364946
580.842866	2549.624052
581.196597	2551.017931
581.550273	2546.334699
581.903895	2549.666901
582.257463	2547.312683
582.610975	2546.594318
582.964434	2548.373845
583.317837	2548.373845
583.671186	2546.783361
584.024481	2547.310162
584.377721	2544.537527
584.730906	2545.903680
585.084037	2549.263609
585.437113	2547.385779
585.790135	2546.029709
586.143103	2549.999618
586.496016	2547.239586
586.848874	2542.586601
587.201679	2544.605583
587.554428	2540.096271
587.907124	2543.567105
588.259765	2543.168854
588.612352	2545.144986
588.964884	2546.380069
589.317362	2544.436704
589.669786	2547.917621
590.022155	2551.580019
590.374470	2545.855789
590.726731	2547.151366
591.078937	2545.749925
591.431090	2546.178423
591.783188	2547.118598
592.135232	2545.717157
592.487222	2548.320913
592.839157	2548.204967
593.191038	2548.146993
593.542866	2547.910059
593.894639	2546.806047
594.246358	2547.300080
594.598022	2547.602549
594.949633	2544.351005
595.301190	2545.933927
595.652692	2546.627086
596.004141	2545.737322
596.355535	2548.043650
596.706876	2548.575492
597.058162	2545.341591
597.409395	2542.571477
597.760573	2550.937272
598.111698	2544.232538
598.462768	2546.680018
598.813785	2545.699513
599.164748	2543.141128
599.515657	2545.276056
599.866511	2546.228834
600.217312	2546.468289
600.568060	2546.773279
600.918753	2549.271171
601.269392	2545.724719
601.619978	2543.562064
601.970510	2543.257074
602.320988	2545.671787
602.671412	2547.224462
603.021783	2545.127342
603.372100	2546.213711
603.722363	2546.226314
604.072572	2544.973587
604.422728	2548.512477
604.772830	2541.974101
605.122878	2541.485109
605.472872	2544.282949
605.822813	2540.726415
606.172701	2545.691952
606.522534	2545.898639
606.872314	2549.137580
607.222041	2545.124822
607.571714	2546.226314
607.921333	2543.257074
608.270899	2544.471992
608.620411	2545.356715
608.969870	2545.754966
609.319276	2549.886192
609.668627	2551.091027
610.017926	2552.842828
610.367171	2555.812068
610.716362	2553.248641
611.065500	2549.303938
611.414585	2548.015923
611.763616	2547.453835
612.112594	2548.313352
612.461518	2547.952909
612.810389	2548.716644
613.159207	2547.083310
613.507971	2546.395192
613.856682	2547.085831
614.205340	2546.884184
614.553945	2547.025337
614.902496	2546.037271
615.250994	2547.214380
615.599439	2546.954761
615.947830	2546.707744
616.296169	2545.412167
616.644454	2548.819987
616.992686	2543.887218
617.340864	2547.806716
617.688990	2543.801519
618.037063	2547.312682
618.385082	2545.011396
618.733048	2545.429812
619.080961	2545.260933
619.428821	2547.322765
619.776628	2547.645399
620.124382	2549.182951
620.472083	2548.986346
620.819731	2546.105326
621.167326	2545.233207
621.514868	2546.213711
621.862357	2543.642722
622.209793	2544.955943
622.557176	2545.651622
622.904506	2544.237579
623.251783	2542.717671
623.599007	2544.769420
623.946179	2539.992927
624.293297	2541.366642
624.640363	2543.844369
624.987376	2547.703372
625.334336	2546.087682
625.681243	2543.577188
626.028097	2545.981818
626.374899	2544.890408
626.721647	2544.991231
627.068343	2544.661036
627.414987	2542.226158
627.761577	2545.293700
628.108115	2542.440407
628.454600	2545.855789
628.801032	2545.775131
629.147412	2544.976108
629.493739	2544.479554
629.840014	2545.026519
630.186236	2545.003834
630.532405	2545.334030
630.878521	2543.932589
631.224585	2543.856972
631.570597	2544.330840
631.916556	2543.746066
632.262462	2544.595501
632.608316	2543.531817
632.954117	2544.076262
633.299866	2543.735984
633.645562	2544.787064
633.991206	2546.475851
634.336797	2542.211035
634.682336	2544.703885
635.027823	2545.099616
635.373257	2541.366642
635.718639	2539.544264
636.063968	2544.325799
636.409245	2542.962167
636.754470	2543.972918
637.099642	2541.386806
637.444762	2544.277908
637.789829	2545.356715
638.134845	2540.179450
638.479808	2541.412012
638.824719	2539.403112
639.169577	2542.047197
639.514383	2543.403268
639.859137	2539.604758
640.203839	2542.977290
640.548489	2542.589121
640.893086	2540.134079
641.237632	2537.817669
641.582125	2538.931764
641.926566	2539.025026
642.270955	2540.804553
642.615292	2541.734646
642.959576	2544.040974
643.303809	2541.797660
643.647990	2541.928730
643.992118	2540.219779
644.336195	2543.889739
644.680219	2541.306148
645.024192	2541.729605
645.368112	2541.964018
645.711981	2541.107022
646.055797	2545.205480
646.399562	2543.388144
646.743274	2541.626261
647.086935	2543.579708
647.430544	2542.606765
647.774101	2541.943854
648.117606	2541.258257
648.461059	2542.500901
648.804460	2546.359904
649.147810	2545.674307
649.491108	2544.088865
649.834354	2542.251364
650.177548	2542.788247
650.520690	2542.500901
650.863781	2542.626930
651.206820	2543.168854
651.549807	2544.144317
651.892742	2540.842362
652.235626	2541.202804
652.578458	2540.703730
652.921238	2544.345963
653.263967	2542.170706
653.606644	2542.548792
653.949269	2542.226158
654.291843	2540.187012
654.634365	2544.015768
654.976836	2540.665921
655.319255	2541.044008
655.661622	2541.802701
656.003938	2540.565098
656.346203	2541.830428
656.688416	2540.126518
657.030577	2540.413863
657.372687	2544.880326
657.714746	2541.636343
658.056753	2542.258926
658.398708	2536.418749
658.740612	2540.164326
659.082465	2538.205838
659.424266	2539.476209
659.766016	2536.118800
660.107715	2539.987886
660.449362	2540.807073
660.790958	2541.527958
661.132503	2540.514687
661.473996	2543.995603
661.815438	2541.167516
662.156829	2544.426622
662.498168	2542.795809
662.839456	2540.534851
663.180693	2541.593493
663.521879	2541.694317
663.863013	2541.180119
664.204097	2541.590973
664.545129	2540.287835
664.886110	2541.321271
665.227040	2540.108874
665.567918	2541.719522
665.908746	2537.764737
666.249522	2542.747918
666.590248	2538.256250
666.930922	2542.936961
667.271545	2541.943854
667.612118	2541.747249
667.952639	2538.054603
668.293109	2541.366642
668.633528	2539.312371
668.973896	2540.784388
669.314213	2542.674821
669.654480	2542.717671
669.994695	2541.260777
670.334859	2536.338091
670.674973	2541.049049
671.015035	2543.335212
671.355047	2540.907897
671.695008	2539.115766
672.034918	2541.074255
672.374777	2540.514687
672.714585	2540.640715
673.054342	2542.808412
673.394049	2539.367824
673.733705	2542.871426
674.073310	2541.321271
674.412864	2541.049049
674.752368	2538.152906
675.091820	2540.789429
675.431223	2540.149203
675.770574	2540.794471
676.109875	2538.478060
676.449125	2538.505787
676.788324	2538.117618
677.127473	2536.247350
677.466571	2536.106198
677.805619	2541.855633
678.144616	2541.583411
678.483562	2542.246323
678.822458	2540.910417
679.161303	2538.702392
679.500098	2539.337577
679.838842	2541.543082
680.177535	2537.089223
680.516179	2539.778678
680.854771	2540.265149
681.193314	2538.667104
681.531805	2539.748431
681.870247	2539.135931
682.208638	2540.434028
682.546978	2541.248174
682.885268	2541.197763
683.223508	2538.775488
683.561697	2538.858668
683.899836	2541.921168
684.237925	2539.939995
684.575963	2538.788091
684.913951	2539.692978
685.251889	2541.611138
685.589776	2541.681714
685.927614	2541.553164
686.265401	2538.924202
686.603137	2540.673483
686.940824	2539.919830
687.278460	2542.619368
687.616046	2540.479398
687.953582	2543.068031
688.291068	2539.524100
688.628504	2540.595345
688.965889	2541.709440
689.303224	2538.498225
689.640510	2540.860006
689.977745	2543.375541
690.314930	2540.423946
690.652065	2540.625592
690.989150	2540.610468
691.326185	2541.414533
691.663170	2539.471168
692.000105	2541.916127
692.336990	2537.268183
692.673825	2540.537372
693.010610	2539.990407
693.347345	2536.144006
693.684030	2534.833306
694.020665	2536.557381
694.357251	2535.518903
694.693786	2535.912113
695.030272	2539.135931
695.366707	2539.539223
695.703093	2537.787422
696.039429	2539.829090
696.375716	2542.538710
696.711952	2538.223482
697.048139	2541.001158
697.384276	2537.432021
697.720363	2540.620551
698.056400	2537.946219
698.392388	2539.206507
698.728326	2539.120807
699.064214	2539.047711
699.400053	2538.609130
699.735842	2535.934798
700.071581	2539.030067
700.407270	2537.510159
700.742910	2539.511497
701.078501	2539.030067
701.414042	2537.837834
701.749533	2538.931764
702.084974	2540.151723
702.420366	2537.472350
702.755709	2538.747762
703.091002	2537.525282
703.426246	2538.959491
703.761440	2536.980838
704.096584	2538.959491
704.431679	2538.949408
704.766725	2536.350693
705.101721	2536.201979
705.436668	2538.962011
705.771565	2539.304810
706.106413	2536.176774
706.441212	2537.699202
706.775961	2536.509490
707.110661	2538.785571
707.445311	2539.841692
707.779913	2535.715508
708.114465	2538.238606
708.448967	2540.575180
708.783421	2541.109543
709.117825	2536.088553
709.452180	2540.204656
709.786485	2538.979655
710.120742	2539.514017
710.454949	2538.946888
710.789107	2540.020653
711.123216	2532.471526
711.457275	2536.257432
711.791286	2536.789274
712.125247	2536.169212
712.459159	2540.232382
712.793023	2539.125849
713.126837	2537.162319
713.460602	2539.934954
713.794318	2538.042001
714.127985	2537.482432
714.461602	2536.398584
714.795171	2538.644418
715.128691	2536.690971
715.462162	2539.458565
715.795584	2537.109387
716.128957	2535.670138
716.462281	2540.048380
716.795556	2539.614841
717.128782	2537.225334
717.461960	2538.495704
717.795088	2538.616692
718.128167	2536.882535
718.461198	2537.217772
718.794180	2539.529141
719.127113	2538.725077
719.459997	2536.514531
719.792833	2537.305992
720.125619	2537.472350
720.458357	2538.326826
720.791046	2539.335057
721.123686	2538.029398
721.456278	2537.835313
721.788821	2537.069058
722.121315	2540.512166
722.453761	2536.239788
722.786158	2538.493184
723.118506	2538.798174
723.450805	2537.240457
723.783056	2535.765920
724.115259	2537.051414
724.447412	2536.297761
724.779518	2538.019315
725.111574	2538.382278
725.443582	2539.340098
725.775542	2534.528316
726.107453	2536.622916
726.439315	2536.917823
726.771129	2541.288504
727.102895	2538.220962
727.434612	2539.206507
727.766281	2538.036959
728.097901	2536.998482
728.429473	2533.449509
728.760996	2536.101156
729.092471	2533.076464
729.423897	2539.660211
729.755276	2537.205169
730.086606	2538.490663
730.417887	2537.817669
730.749120	2538.525951
731.080305	2537.464788
731.411442	2538.611651
731.742530	2538.800694
732.073570	2538.755324
732.404562	2534.707277
732.735506	2537.477391
733.066401	2537.633667
733.397249	2539.093081
733.728048	2535.445806
734.058798	2538.654501
734.389501	2540.126518
734.720156	2538.321785
735.050762	2536.537216
735.381320	2535.057638
735.711831	2538.004192
736.042293	2538.614172
736.372707	2535.176105
736.703073	2536.416228
737.033391	2535.589479
737.363661	2536.885056
737.693883	2541.122146
738.024056	2539.128369
738.354182	2537.250539
738.684260	2537.240457
739.014290	2535.506300
739.344272	2537.878163
739.674207	2534.931609
740.004093	2537.028729
740.333931	2537.467309
740.663722	2534.838347
740.993464	2537.772299
741.323159	2540.063503
741.652806	2537.918492
741.982405	2536.655683
742.311956	2537.061496
742.641460	2538.621733
742.970915	2536.643080
743.300323	2538.926723
743.629683	2535.561753
743.958996	2539.335057
744.288260	2535.327339
744.617477	2534.848430
744.946647	2534.331711
745.275768	2534.460261
745.604842	2532.990764
745.933869	2534.137627
746.262847	2532.269879
746.591778	2536.877494
746.920662	2534.228368
747.249498	2534.687113
747.578286	2536.902700
747.907027	2539.670293
748.235720	2536.741383
748.564365	2536.254912
748.892963	2537.686599
749.221514	2538.651980
749.550017	2535.052596
749.878473	2537.830272
750.206881	2537.215251
750.535242	2535.811290
750.863555	2536.441434
751.191821	2538.372196
751.520039	2536.935467
751.848210	2537.139634
752.176334	2533.938501
752.504411	2538.306661
752.832440	2535.985210
753.160421	2535.632329
753.488356	2540.134079
753.816243	2536.264994
754.144082	2533.336083
754.471875	2536.958153
754.799620	2537.197607
755.127318	2533.565456
755.454969	2535.546629
755.782572	2534.598893
756.110129	2536.146527
756.437638	2538.941847
756.765100	2534.881197
757.092515	2539.120807
757.419882	2535.755837
757.747203	2537.396733
758.074477	2536.781712
758.401703	2534.452699
758.728882	2534.737524
759.056014	2534.397246
759.383099	2534.946732
759.710138	2534.964376
760.037129	2534.959335
760.364073	2536.259953
760.690970	2533.383974
761.017820	2537.018646
761.344623	2537.457227
761.671379	2536.789274
761.998088	2532.831968
762.324751	2533.777184
762.651366	2535.997813
762.977935	2536.398584
763.304456	2533.366330
763.630931	2539.599717
763.957359	2537.293389
764.283740	2538.503266
764.610074	2535.861702
764.936362	2535.982689
765.262602	2532.811803
765.588796	2536.459078
765.914943	2537.416897
766.241044	2534.782895
766.567097	2535.755837
766.893104	2535.155940
767.219064	2538.868750
767.544978	2537.058976
767.870845	2535.007226
768.196665	2536.317926
768.522438	2537.971424
768.848165	2532.668131
769.173846	2536.207021
769.499479	2534.359438
769.825066	2533.346166
770.150607	2535.571835
770.476101	2535.450847
770.801548	2537.174922
771.126949	2534.578728
771.452303	2535.781043
771.777611	2533.520086
772.102872	2533.482277
772.428087	2534.908923
772.753256	2535.052596
773.078378	2534.568646
773.403453	2534.934129
773.728482	2536.958153
774.053465	2535.657535
774.378401	2533.630991
774.703291	2535.788605
775.028135	2536.232226
775.352932	2533.900693
775.677683	2534.908923
776.002388	2535.655014
776.327046	2534.006557
776.651658	2533.545291
776.976224	2534.382123
777.300743	2533.845240
777.625216	2534.266176
777.949643	2536.534696
778.274024	2535.604603
778.598359	2532.869777
778.922647	2529.217461
779.246889	2531.367513
779.571086	2529.217461
779.895236	2533.250384
780.219339	2532.219468
780.543397	2533.835158
780.867409	2535.402957
781.191374	2533.487318
781.515294	2534.296423
781.839167	2531.778367
782.162995	2535.211393
782.486776	2535.632329
782.810511	2533.373892
783.134201	2535.541588
783.457844	2534.495549
783.781441	2536.832124
784.104993	2531.266690
784.428498	2535.902031
784.751958	2537.616023
785.075372	2534.510672
785.398739	2532.156453
785.722061	2534.535878
786.045337	2534.271218
786.368568	2536.181815
786.691752	2533.948584
787.014891	2535.791125
787.337983	2535.473533
787.661030	2531.445651
787.984031	2535.534027
788.306987	2532.537061
788.629897	2536.489325
788.952760	2533.189890
789.275579	2534.188038
789.598351	2536.527134
789.921078	2535.476053
790.243759	2535.551671
790.566395	2534.271218
790.888984	2535.811290
791.211529	2533.366330
791.534027	2535.468492
791.856480	2532.925229
792.178888	2533.378933
792.501249	2536.033101
792.823566	2533.305837
793.145836	2533.888090
793.468062	2535.521424
793.790241	2534.462781
794.112375	2537.316074
794.434464	2536.706095
794.756507	2532.184180
795.078505	2533.305837
795.400457	2532.869777
795.722364	2532.007739
796.044226	2532.040507
796.366042	2531.538912
796.687812	2529.346010
797.009538	2533.943543
797.331218	2532.642925
797.652852	2534.054448
797.974442	2536.035621
798.295986	2535.203831
798.617484	2534.024201
798.938938	2536.509490
799.260346	2538.263811
799.581709	2533.391536
799.903026	2535.738193
800.224299	2531.869108
800.545526	2537.205169
800.866708	2532.189221
801.187845	2534.238450
801.508936	2534.233409
801.829983	2533.230219
802.150984	2531.307019
802.471940	2534.314067
802.792851	2533.694005
803.113717	2533.915816
803.434538	2532.751310
803.755314	2534.697195
804.076045	2533.762061
804.396731	2535.060158
804.717372	2533.809952
805.037967	2534.893800
805.358518	2532.862215
805.679024	2533.719211
805.999485	2533.326001
806.319901	2535.085364
806.640272	2533.520086
806.960598	2536.113759
807.280879	2532.325332
807.601115	2533.212575
807.921306	2532.983203
808.241453	2533.835158
808.561554	2532.179139
808.881611	2533.247863
809.201623	2534.533358
809.521590	2533.583100
809.841513	2533.396577
810.161390	2533.515044
810.481223	2534.616537
810.801011	2533.699047
811.120755	2533.404139
811.440453	2532.267359
811.760107	2533.220137
812.079716	2532.985723
812.399281	2531.581762
812.718801	2530.719725
813.038276	2526.046575
813.357707	2532.993285
813.677093	2533.086546
813.996434	2532.574869
814.315731	2533.237781
814.634983	2534.586290
814.954191	2532.877338
815.273354	2532.345497
815.592473	2529.252749
815.911547	2533.898172
816.230577	2533.968748
816.549562	2533.141999
816.868502	2534.639222
817.187399	2532.181659
817.506250	2533.043697
817.825058	2531.506145
818.143821	2534.898841
818.462539	2534.248532
818.781213	2532.988244
819.099843	2534.011598
819.418429	2533.941022
819.736970	2536.108718
820.055466	2535.602082
820.373919	2534.213244
820.692327	2535.602082
821.010691	2536.093595
821.329011	2540.698689
821.647286	2542.669780
821.965517	2542.697506
822.283704	2547.799154
822.601847	2547.476520
822.919945	2545.265974
823.237999	2542.430325
823.556010	2543.083154
823.873976	2539.788760
824.191897	2539.670293
824.509775	2538.384799
824.827609	2539.478729
825.145398	2534.919006
825.463144	2537.500077
825.780845	2535.634850
826.098502	2535.755837
826.416116	2540.902855
826.733685	2537.278266
827.051210	2537.769778
827.368692	2537.293389
827.686129	2537.255581
828.003522	2536.257432
828.320872	2536.025539
828.638177	2532.569828
828.955439	2530.376926
829.272656	2530.087060
829.589830	2531.680064
829.906960	2534.553522
830.224046	2533.769623
830.541088	2535.677699
830.858086	2535.334901
831.175041	2532.411032
831.491952	2532.710980
831.808819	2534.573687
832.125642	2531.654859
832.442421	2533.464633
832.759157	2534.629139
833.075849	2534.495549
833.392497	2534.636701
833.709101	2536.955632
834.025662	2535.002185
834.342179	2537.328677
834.658653	2533.666279
834.975083	2533.255425
835.291469	2536.529654
835.607811	2537.164840
835.924110	2530.959179
836.240366	2535.695343
836.556578	2532.582431
836.872746	2532.073274
837.188871	2531.937163
837.504952	2534.455220
837.820990	2531.158305
838.136984	2530.908768
838.452935	2530.994467
838.768842	2532.579910
839.084706	2531.556556
839.400526	2532.854653
839.716303	2532.721063
840.032037	2533.121834
840.347727	2533.545291
840.663373	2534.029242
840.978977	2532.239633
841.294537	2530.684437
841.610054	2531.901875
841.925527	2530.051772
842.240957	2532.431196
842.556344	2531.712832
842.871687	2531.130579
843.186987	2533.812472
843.502244	2532.252235
843.817458	2530.936494
844.132629	2531.584283
844.447756	2532.128727
844.762840	2527.521112
845.077881	2529.489683
845.392879	2528.408356
845.707833	2531.309540
846.022745	2527.742923
846.337613	2530.810465
846.652438	2529.479601
846.967221	2533.827596
847.281960	2532.050589
847.596656	2531.458254
847.911309	2530.996988
848.225919	2529.603109
848.540485	2530.412214
848.855009	2534.651825
849.169490	2530.802904
849.483928	2530.530681
849.798323	2532.010260
850.112675	2533.467153
850.426984	2530.956659
850.741251	2530.076977
851.055474	2534.046886
851.369654	2530.797863
851.683792	2530.092101
851.997887	2534.644263
852.311938	2532.670651
852.625947	2531.811134
852.939914	2529.880373
853.253837	2532.708460
853.567718	2533.008408
853.881555	2529.862728
854.195350	2531.869108
854.509103	2531.170908
854.822812	2530.046731
855.136479	2531.730476
855.450103	2529.991278
855.763685	2528.415917
856.077224	2530.639066
856.390720	2532.637884
856.704173	2530.210568
857.017584	2531.569159
857.330953	2531.412883
857.644278	2531.584283
857.957561	2533.588141
858.270802	2532.915147
858.584000	2529.363654
858.897155	2534.215765
859.210268	2530.439941
859.523339	2531.758202
859.836367	2530.447502
860.149352	2534.044366
860.462295	2535.314736
860.775195	2527.768129
861.088054	2528.055475
861.400869	2528.166380
861.713642	2527.858870
862.026373	2529.759385
862.339062	2530.639066
862.651708	2529.940866
862.964312	2530.802904
863.276873	2532.746268
863.589392	2530.588655
863.901869	2530.011443
864.214303	2529.590506
864.526696	2532.244674
864.839045	2530.253418
865.151353	2532.388347
865.463619	2530.661751
865.775842	2533.802390
866.088023	2530.835671
866.400162	2533.557894
866.712258	2531.206196
867.024313	2531.707791
867.336325	2533.424304
867.648296	2532.481608
867.960224	2531.133099
868.272110	2531.496062
868.583954	2529.766947
868.895755	2529.575383
869.207515	2531.175949
869.519233	2529.575383
869.830909	2532.968079
870.142542	2530.790301
870.454134	2529.724097
870.765684	2534.656866
871.077191	2530.744930
871.388657	2531.735517
871.700081	2531.581762
872.011463	2531.385157
872.322803	2532.116124
872.634101	2534.258615
872.945357	2529.015815
873.256571	2533.696526
873.567744	2532.196783
873.878874	2530.780218
874.189963	2531.312060
874.501010	2533.134437
874.812015	2532.277441
875.122979	2533.121834
875.433900	2530.898686
875.744780	2532.191742
876.055618	2529.613191
876.366415	2531.541433
876.677169	2529.630835
876.987882	2530.323994
877.298554	2528.700742
877.609183	2530.654190
877.919771	2526.560773
878.230317	2526.923736
878.540822	2532.605116
878.851285	2531.294416
879.161707	2531.513706
879.472087	2529.600588
879.782425	2532.917668
880.092722	2530.626463
880.402977	2534.349355
880.713191	2537.832793
881.023363	2537.540406
881.333494	2538.679707
881.643583	2538.679707
881.953631	2540.313040
882.263637	2535.859181
882.573602	2538.256250
882.883526	2534.722401
883.193408	2535.042514
883.503248	2535.342463
883.813048	2534.520755
884.122806	2534.603934
884.432522	2535.221475
884.742197	2530.308871
885.051831	2530.349200
885.361424	2533.189890
885.670975	2530.634025
885.980485	2534.891279
886.289954	2535.095446
886.599382	2530.417255
886.908768	2531.264169
887.218113	2531.874149
887.527417	2532.998326
887.836680	2533.464633
888.145901	2528.536905
888.455082	2527.508510
888.764221	2532.761392
889.073319	2533.338604
889.382376	2530.810465
889.691392	2527.750485
890.000366	2530.321473
890.309300	2527.921884
890.618193	2530.119827
890.927044	2529.681247
891.235855	2531.133099
891.544625	2529.381298
891.853353	2530.518078
892.162041	2529.272913
892.470687	2530.450023
892.779293	2533.285672
893.087858	2527.947090
893.396381	2527.775691
893.704864	2527.425331
894.013306	2526.086904
894.321707	2530.013963
894.630068	2531.604447
894.938387	2534.440096
895.246665	2531.198634
895.554903	2533.136958
895.863100	2532.647966
896.171256	2531.964890
896.479371	2531.506145
896.787446	2530.802904
897.095480	2530.966741
897.403473	2531.561597
897.711425	2530.321473
898.019336	2529.288037
898.327207	2530.253418
898.635038	2530.523120
898.942827	2530.407173
899.250576	2531.228881
899.558284	2528.350382
899.865952	2531.032276
900.173579	2529.693850
900.481165	2529.356093
900.788711	2530.659231
901.096216	2530.628984
901.403681	2529.000691
901.711105	2531.249046
902.018489	2533.351207
902.325832	2532.448840
902.633135	2529.809796
902.940397	2531.944725
903.247619	2530.712163
903.554800	2531.107893
903.861941	2531.773326
904.169041	2534.762730
904.476101	2534.785415
904.783121	2533.779705
905.090100	2534.397246
905.397039	2529.353572
905.703938	2531.591844
906.010796	2532.355579
906.317614	2529.136802
906.624391	2531.395239
906.931129	2529.270393
907.237826	2530.939015
907.544483	2530.013963
907.851099	2531.649817
908.157675	2529.613191
908.464211	2530.961700
908.770707	2524.977850
909.077163	2526.999353
909.383578	2524.582120
909.689954	2525.663447
909.996289	2523.876358
910.302584	2528.836854
910.608839	2529.146885
910.915054	2530.505476
911.221229	2528.589837
911.527363	2530.911288
911.833458	2529.466998
912.139513	2530.016484
912.445527	2528.930115
912.751502	2529.862728
913.057436	2526.495238
913.363331	2528.612522
913.669186	2531.949766
913.975000	2529.376257
914.280775	2528.531864
914.586510	2531.218799
914.892205	2531.349869
915.197859	2530.860877
915.503475	2531.801052
915.809050	2533.031094
916.114585	2531.110414
916.420081	2533.502442
916.725536	2535.173584
917.030952	2532.806762
917.336328	2531.445651
917.641665	2533.562935
917.946961	2531.017153
918.252218	2530.200486
918.557435	2530.351720
918.862612	2530.321473
919.167750	2528.047913
919.472848	2530.883562
919.777906	2529.149405
920.082925	2530.437420
920.387904	2528.693181
920.692843	2528.882224
920.997743	2529.156967
921.302603	2531.112935
921.607423	2531.614529
921.912204	2527.674868
922.216946	2531.276772
922.521647	2530.989426
922.826310	2528.297450
923.130932	2530.944056
923.435516	2528.975485
923.740059	2529.184693
924.044564	2527.422810
924.349028	2528.967924
924.653454	2522.094310
924.957840	2526.223015
925.262186	2527.316946
925.566493	2528.037831
925.870761	2526.364168
926.174989	2528.282327
926.479178	2526.457429
926.783328	2531.012112
927.087438	2530.258459
927.391509	2529.968593
927.695541	2528.809127
927.999533	2527.664785
928.303486	2530.175280
928.607400	2529.111597
928.911275	2526.462470
929.215110	2529.126720
929.518906	2524.607326
929.822663	2527.669827
930.126381	2527.803417
930.430060	2529.696370
930.733699	2526.880886
931.037299	2531.523789
931.340861	2529.401463
931.644383	2524.680422
931.947866	2529.764426
932.251309	2531.354910
932.554714	2530.502955
932.858080	2531.216278
933.161407	2530.071936
933.464694	2528.960362
933.767943	2524.352747
934.071153	2527.218643
934.374323	2529.146885
934.677455	2530.137471
934.980548	2531.062523
935.283602	2530.634025
935.586617	2528.902389
935.889593	2528.733510
936.192530	2529.532533
936.495428	2527.294261
936.798287	2526.633869
937.101108	2529.240146
937.403890	2529.013294
937.706632	2530.608819
938.009336	2529.754344
938.312002	2530.273583
938.614628	2528.577234
938.917216	2529.219981
939.219765	2530.477749
939.522275	2529.373737
939.824747	2530.969262
940.127179	2526.893489
940.429573	2527.077491
940.731929	2527.014477
941.034246	2523.621780
941.336524	2526.205371
941.638763	2527.097656
941.940964	2529.247708
942.243126	2525.703777
942.545250	2529.298119
942.847335	2528.635208
943.149381	2530.099663
943.451389	2529.603109
943.753359	2529.852646
944.055290	2527.579086
944.357182	2528.448685
944.659036	2530.780218
944.960851	2528.219312
945.262628	2527.432892
945.564367	2525.986081
945.866067	2529.346010
946.167729	2528.889786
946.469352	2529.439272
946.770937	2525.214785
947.072484	2528.267203
947.373992	2527.369878
947.675462	2528.879703
947.976893	2531.183511
948.278286	2525.439116
948.579641	2529.076308
948.880958	2528.857018
949.182236	2527.526154
949.483476	2528.378109
949.784678	2526.096987
950.085841	2527.521113
950.386967	2530.082019
950.688054	2531.380116
950.989103	2529.192255
951.290114	2529.126720
951.591087	2527.382481
951.892021	2527.581606
952.192917	2525.986081
952.493776	2527.657224
952.794596	2529.328366
953.095378	2527.730320
953.396122	2528.962882
953.696828	2528.670496
953.997496	2531.760723
954.298126	2529.812317
954.598718	2529.693850
954.899272	2527.029600
955.199788	2527.417769
955.500266	2527.390043
955.800706	2525.920546
956.101108	2523.316790
956.401472	2523.906605
956.701798	2521.680936
957.002087	2527.286699
957.302337	2526.132275
957.602550	2528.095804
957.902724	2528.705784
958.202861	2528.688140
958.502960	2528.221833
958.803022	2528.486493
959.103045	2528.206709
959.403031	2528.514220
959.702979	2528.849457
960.002889	2526.273427
960.302762	2526.291071
960.602596	2526.573376
960.902393	2525.353416
961.202153	2525.986081
961.501875	2527.274096
961.801559	2527.417769
962.101205	2528.052954
962.400814	2528.199148
962.700385	2529.411545
962.999918	2529.343490
963.299414	2526.374250
963.598873	2528.816689
963.898293	2529.623274
964.197677	2529.416586
964.497022	2524.415762
964.796331	2528.073119
965.095601	2529.409025
965.394835	2527.798376
965.694030	2525.197141
965.993189	2528.950280
966.292309	2531.072605
966.591393	2527.521113
966.890439	2527.442975
967.189447	2527.611853
967.488419	2526.462470
967.787353	2528.660413
968.086249	2526.086904
968.385108	2525.555062
968.683930	2527.841226
968.982714	2528.841895
969.281462	2527.858870
969.580172	2529.711494
969.878844	2527.720238
970.177480	2529.393901
970.476078	2527.455577
970.774639	2529.966072
971.073162	2527.095135
971.371649	2525.781914
971.670098	2523.054650
971.968510	2525.653365
972.266885	2523.341996
972.565223	2526.500279
972.863524	2527.037162
973.161788	2527.059847
973.460014	2525.255114
973.758204	2525.212264
974.056356	2528.703263
974.354471	2527.838705
974.652550	2526.401976
974.950591	2527.105217
975.248595	2529.164529
975.546563	2529.320804
975.844493	2529.968593
976.142386	2526.480114
976.440243	2526.462470
976.738062	2526.543129
977.035845	2526.618746
977.333590	2528.630166
977.631299	2527.931967
977.928971	2526.853160
978.226606	2525.376102
978.524204	2528.274765
978.821765	2525.562624
979.119290	2528.741072
979.416777	2529.078829
979.714228	2525.857532
980.011642	2525.542460
980.309020	2529.066226
980.606360	2526.051616
980.903664	2528.322656
981.200931	2526.999353
981.498162	2524.130937
981.795356	2530.291227
982.092513	2530.104704
982.389633	2529.484642
982.686717	2530.041689
982.983764	2525.663447
983.280775	2527.440454
983.577749	2528.161339
983.874686	2527.195958
984.171587	2528.151257
984.468451	2526.613705
984.765279	2525.055988
985.062070	2527.085053
985.358824	2523.863755
985.655543	2528.509179
985.952224	2525.499610
986.248869	2526.033972
986.545478	2521.229752
986.842050	2526.608664
987.138586	2521.028106
987.435086	2523.311749
987.731549	2521.620442
988.027975	2528.078160
988.324366	2525.555062
988.620719	2527.977337
988.917037	2526.096987
989.213318	2523.377284
989.509563	2526.081863
989.805772	2527.657224
990.101944	2526.162522
990.398080	2524.554393
990.694180	2524.781245
990.990244	2528.330218
991.286271	2529.159488
991.582262	2523.730165
991.878217	2530.127389
992.174136	2527.367357
992.470019	2528.362985
992.765865	2525.842408
993.061676	2527.700073
993.357450	2527.740403
993.653188	2525.038344
993.948890	2526.449867
994.244556	2529.966072
994.540186	2527.334590
994.835780	2527.846267
995.131337	2528.037831
995.426859	2525.643283
995.722345	2528.824251
996.017795	2527.735362
996.313208	2526.764939
996.608586	2526.896009
996.903928	2527.800897
997.199234	2524.118334
997.494504	2526.636390
997.789738	2524.728313
998.084936	2526.079342
998.380099	2524.330062
998.675225	2530.046731
998.970316	2525.638242
999.265371	2527.609333
999.560390	2526.596061
999.855373	2528.373067
1000.150320	2525.176976
1000.445232	2529.651000
1000.740108	2525.993643
1001.034948	2524.914836
1001.329752	2525.209743
1001.624521	2526.901051
1001.919254	2521.764115
1002.213951	2524.357788
1002.508613	2523.278982
1002.803239	2523.185720
1003.097829	2521.370905
1003.392384	2528.057995
1003.686903	2526.212933
1003.981386	2528.700742
1004.275834	2524.531708
1004.570246	2526.646472
1004.864623	2527.374919
1005.158964	2528.683098
1005.453270	2527.490866
1005.747540	2527.289219
1006.041775	2529.451874
1006.335974	2525.524816
1006.630138	2526.109589
1006.924266	2526.217974
1007.218359	2528.239477
1007.512416	2529.666123
1007.806438	2525.522295
1008.100425	2527.921884
1008.394376	2525.794517
1008.688292	2524.705628
1008.982172	2527.536236
1009.276017	2526.913653
1009.569827	2526.785104
1009.863602	2526.565814
1010.157341	2527.934487
1010.451045	2527.332069
1010.744714	2525.640762
1011.038347	2526.999353
1011.331945	2526.258303
1011.625508	2528.463808
1011.919036	2528.075639
1012.212528	2528.799045
1012.505986	2525.671009
1012.799408	2527.866432
1013.092795	2525.290402
1013.386147	2527.122861
1013.679464	2524.940042
1013.972745	2524.778725
1014.265992	2528.264683
1014.559204	2526.838036
1014.852380	2525.073632
1015.145521	2526.238139
1015.438628	2527.652183
1015.731699	2525.239990
1016.024736	2524.657737
1016.317737	2526.548170
1016.610703	2529.164529
1016.903635	2523.972140
1017.196531	2523.084897
1017.489393	2523.523478
1017.782219	2520.874351
1018.075011	2527.493386
1018.367768	2523.770494
1018.660490	2527.770650
1018.953177	2527.770650
1019.245829	2527.770650
