Dividing Wavelength (nm)	Counts (n)	Blue Motor Position (mm): 28.500000	Red Motor Position (mm): 0.000000	
326.493990	2207.286856
326.888308	2207.286856
327.282561	2207.286856
327.676750	2166.161123
328.070874	2165.578869
328.464933	2163.559887
328.858929	2167.066010
329.252859	2175.625889
329.646726	2181.529080
330.040528	2194.177335
330.434265	2207.914479
330.827938	2226.392829
331.221547	2244.112484
331.615091	2259.450195
332.008571	2278.203287
332.401986	2295.741462
332.795338	2317.983032
333.188625	2334.197904
333.581847	2351.279853
333.975006	2371.542771
334.368100	2391.573796
334.761129	2409.003586
335.154095	2425.740216
335.546996	2450.986315
335.939833	2487.355719
336.332606	2505.806342
336.725315	2515.102230
337.117960	2532.746268
337.510540	2539.488812
337.903056	2553.409958
338.295508	2559.557645
338.687896	2572.394943
339.080220	2576.584142
339.472480	2584.692838
339.864676	2589.996132
340.256807	2594.076946
340.648875	2597.986361
341.040879	2602.402412
341.432818	2604.996085
341.824694	2607.872064
342.216506	2608.187136
342.608253	2606.768051
342.999937	2611.743670
343.391557	2608.920624
343.783113	2609.054214
344.174605	2606.939450
344.566033	2605.734614
344.957397	2607.171343
345.348697	2606.037084
345.739934	2603.428287
346.131106	2601.207658
346.522215	2600.887545
346.913260	2598.797987
347.304241	2597.628439
347.695159	2595.367482
348.086012	2594.802872
348.476802	2591.553849
348.867528	2585.859865
349.258191	2583.309042
349.648789	2581.252251
350.039324	2577.627661
350.429796	2582.709144
350.820203	2580.579257
351.210548	2581.466500
351.600828	2578.343505
351.991045	2578.724112
352.381198	2581.128742
352.771288	2577.657908
353.161314	2578.177147
353.551276	2576.359811
353.941175	2576.891653
354.331010	2573.652711
354.720782	2573.045252
355.110490	2576.813515
355.500135	2573.602300
355.889717	2572.843606
356.279235	2577.017682
356.668689	2575.966601
357.058080	2574.048442
357.447408	2574.018195
357.836672	2574.154306
358.225873	2575.477609
358.615010	2575.994327
359.004084	2575.737228
359.393095	2577.483988
359.782043	2579.162693
360.170927	2577.627661
360.559748	2574.683627
360.948505	2581.791654
361.337199	2580.521283
361.725830	2578.799729
362.114398	2577.768813
362.502903	2580.697724
362.891344	2582.192426
363.279722	2582.389031
363.668037	2581.925245
364.056289	2583.934145
364.444478	2584.897005
364.832603	2584.370204
365.220665	2583.268712
365.608665	2582.749473
365.996601	2586.343816
366.384474	2586.008579
366.772284	2585.721234
367.160031	2583.445153
367.547715	2586.424475
367.935336	2586.343816
368.322893	2586.905905
368.710388	2583.903898
369.097820	2585.958168
369.485189	2581.552199
369.872495	2589.363467
370.259738	2591.095104
370.646918	2592.287337
371.034035	2591.591657
371.421090	2590.235587
371.808081	2591.674836
372.195010	2592.491503
372.581875	2592.940166
372.968678	2593.479569
373.355418	2590.996801
373.742096	2591.808427
374.128710	2592.388160
374.515262	2592.380598
374.901751	2589.431523
375.288177	2594.941504
375.674540	2593.678695
376.060841	2591.836153
376.447079	2593.151894
376.833254	2594.921339
377.219367	2593.915629
377.605417	2593.691298
377.991404	2595.216247
378.377329	2596.602564
378.763191	2595.972420
379.148991	2596.741196
379.534727	2596.758840
379.920402	2596.998295
380.306013	2595.606936
380.691563	2596.963007
381.077049	2599.045003
381.462474	2596.547112
381.847835	2598.359406
382.233134	2597.421752
382.618371	2598.707246
383.003545	2599.821341
383.388657	2598.208172
383.773706	2599.206320
384.158693	2599.791094
384.543618	2598.346803
384.928480	2600.398553
385.313280	2597.184817
385.698017	2602.215889
386.082692	2601.366455
386.467305	2602.951897
386.851856	2604.759151
387.236344	2600.501897
387.620770	2599.382761
388.005133	2598.306474
388.389435	2600.648090
388.773674	2601.527772
389.157851	2603.864346
389.541965	2605.227978
389.926018	2604.398709
390.310008	2603.851743
390.693936	2606.226127
391.077802	2605.240581
391.461606	2606.241250
391.845348	2606.432814
392.229027	2606.205962
392.612645	2605.449789
392.996200	2606.742845
393.379694	2608.628237
393.763125	2608.343412
394.146494	2608.930706
394.529801	2609.588577
394.913047	2606.972218
395.296230	2607.912393
395.679351	2608.013216
396.062410	2608.121601
396.445408	2608.585387
396.828343	2610.127980
397.211217	2609.661673
397.594028	2610.760645
397.976778	2609.137393
398.359466	2611.637806
398.742092	2609.041611
399.124656	2611.060593
399.507158	2609.906169
399.889598	2614.140738
400.271977	2613.979422
400.654294	2612.560337
401.036549	2614.251644
401.418742	2612.449431
401.800874	2614.531428
402.182944	2613.777775
402.564952	2612.714092
402.946898	2614.541510
403.328783	2615.411109
403.710606	2617.367077
404.092367	2616.865482
404.474067	2615.728702
404.855705	2619.068466
405.237282	2615.947992
405.618797	2617.435132
406.000250	2617.687190
406.381642	2618.387911
406.762972	2618.213991
407.144240	2615.446397
407.525447	2617.248610
407.906593	2615.186778
408.287677	2619.023096
408.668700	2620.356481
409.049661	2620.026286
409.430560	2620.941255
409.811399	2623.121554
410.192176	2620.275823
410.572891	2620.880761
410.953545	2622.435957
411.334138	2621.747840
411.714669	2620.583333
412.095139	2621.223560
412.475547	2623.638272
412.855894	2625.412758
413.236180	2624.260855
413.616405	2625.569034
413.996568	2623.928139
414.376670	2628.381998
414.756711	2626.305043
415.136691	2623.252624
415.516609	2628.329066
415.896466	2630.559777
416.276262	2629.105404
416.655997	2627.013325
417.035670	2630.360651
417.415283	2630.877369
417.794834	2631.651186
418.174324	2631.338635
418.553753	2630.854684
418.933121	2634.068420
419.312428	2635.490025
419.691674	2634.542288
420.070859	2633.811321
420.449983	2633.954994
420.829045	2637.279635
421.208047	2636.261322
421.586988	2636.919192
421.965867	2639.331384
422.344686	2638.214769
422.723444	2639.575880
423.102141	2638.398771
423.480777	2642.461941
423.859352	2638.204686
424.237866	2642.295583
424.616319	2643.399595
424.994712	2646.666263
425.373044	2645.211890
425.751314	2643.467651
426.129524	2642.250212
426.507673	2642.507311
426.885762	2640.518576
427.263789	2648.312200
427.641756	2649.930410
428.019662	2650.278250
428.397508	2651.314207
428.775292	2654.225473
429.153016	2656.471307
429.530679	2656.793941
429.908282	2659.627070
430.285824	2658.457522
430.663305	2666.813234
431.040726	2667.607216
431.418086	2674.296827
431.795385	2679.703465
432.172624	2687.197140
432.549802	2693.705270
432.926920	2704.004347
433.303977	2709.375696
433.680974	2726.687019
434.057910	2738.937022
434.434786	2753.735330
434.811601	2765.665220
435.188355	2794.871145
435.565050	2808.515028
435.941683	2829.511434
436.318257	2869.444934
436.694770	2906.000861
437.071222	2940.661314
437.447614	2970.492342
437.823946	3005.803104
438.200218	3060.219839
438.576429	3089.884509
438.952580	3157.887154
439.328670	3215.126935
439.704700	3259.877258
440.080670	3318.299190
440.456580	3432.052827
440.832429	3481.279694
441.208218	3502.313908
441.583947	3612.241309
441.959616	3709.666648
442.335224	3762.205554
442.710773	3865.634907
443.086261	3985.505984
443.461689	3950.648926
443.837057	4145.726456
444.212365	4291.569557
444.587612	4324.841173
444.962800	4473.973627
445.337927	4526.515053
445.712995	4527.311555
446.088002	4893.924427
446.462949	4916.095422
446.837837	5019.494529
447.212664	5139.262262
447.587431	5399.032919
447.962139	5747.409418
448.336786	6583.905719
448.711374	6985.486555
449.085901	6384.802828
449.460369	6365.583429
449.834776	6309.142670
450.209124	6773.140553
450.583412	7080.819816
450.957640	7647.485837
451.331808	7456.025335
451.705917	7146.884137
452.079965	6968.951571
452.453954	7545.916670
452.827883	7502.600555
453.201752	7793.333980
453.575562	7678.420878
453.949311	8034.679220
454.323001	8148.382445
454.696632	8405.362824
455.070202	8719.184733
455.443713	8992.017021
455.817164	9420.469727
456.190556	9562.133712
456.563888	9939.935425
456.937160	10204.149860
457.310373	9911.175643
457.683526	10097.345454
458.056619	9949.062434
458.429653	10160.574126
458.802628	9928.837325
459.175542	10289.587336
459.548398	11086.591238
459.921194	11457.574791
460.293930	11600.128539
460.666607	12395.892318
461.039224	13301.616265
461.411782	13976.616682
461.784280	14079.859513
462.156719	14292.205516
462.529099	14185.443960
462.901419	13447.532463
463.273680	13409.864961
463.645882	13393.093042
464.018024	13277.567440
464.390106	13562.606882
464.762130	14298.592658
465.134094	14991.063194
465.505999	16682.713108
465.877845	19615.779924
466.249631	22287.984673
466.621358	22281.857150
466.993026	21181.277484
467.364634	20818.780713
467.736184	19611.008472
468.107674	18946.695301
468.479105	19153.090221
468.850477	18724.839161
469.221790	18400.077948
469.593043	17823.087643
469.964238	17363.024382
470.335373	17112.002646
470.706449	17528.845576
471.077467	17137.457953
471.448425	18918.958872
471.819324	22761.558227
472.190164	24909.664457
472.560945	21622.275102
472.931667	19285.128123
473.302330	18679.630093
473.672934	18172.946241
474.043479	18592.758410
474.413965	18434.569522
474.784393	18100.202391
475.154761	18757.178163
475.525070	18806.967119
475.895321	18472.128639
476.265513	19050.011228
476.635645	19631.374734
477.005719	19452.360840
477.375734	19653.649072
477.745691	20139.379368
478.115588	20656.402627
478.485427	21171.520330
478.855207	22211.777550
479.224928	23940.626138
479.594591	26138.664997
479.964194	26268.953618
480.333739	26486.970919
480.703226	26042.658743
481.072653	25722.064043
481.442022	26257.832833
481.811333	27173.356783
482.180584	27133.095608
482.549777	26188.753902
482.918912	25824.389384
483.287988	25937.611179
483.657005	25653.219526
484.025964	25362.493663
484.394864	25316.460366
484.763706	25019.546487
485.132489	24431.851292
485.501213	24596.616365
485.869879	24531.255284
486.238487	24316.250073
486.607036	24476.541121
486.975527	24155.112111
487.343959	24497.913093
487.712333	24465.541323
488.080648	24140.245748
488.448905	24598.035449
488.817104	24329.478061
489.185244	24996.299206
489.553326	24989.355017
489.921350	25929.409221
490.289315	28169.486262
490.657222	29990.766927
491.025070	30481.724900
491.392861	30279.196544
491.760593	29460.258581
492.128267	28578.684282
492.495883	27547.017188
492.863440	26664.527919
493.230939	25776.851303
493.598380	25627.953262
493.965763	25232.149589
494.333088	24795.875532
494.700354	24706.815988
495.067563	24609.972902
495.434713	24356.712894
495.801805	24499.034750
496.168839	24333.982332
496.535815	24147.837726
496.902733	24352.742986
497.269593	24020.876266
497.636395	24201.324368
498.003139	24208.704617
498.369825	23953.130720
498.736453	24130.060097
499.103023	24022.386092
499.469535	24032.423029
499.835989	24246.349434
500.202385	24269.848772
500.568723	23779.798207
500.935003	24046.412231
501.301226	23627.661225
501.667390	24452.588079
502.033497	24702.092427
502.399546	24417.058026
502.765537	24018.988354
503.131470	24401.001951
503.497345	24535.409195
503.863163	23735.274736
504.228923	24375.791141
504.594625	24549.501741
504.960269	24071.350819
505.325856	24577.772532
505.691385	23987.871832
506.056856	24588.336269
506.422270	24557.630601
506.787625	24157.746114
507.152924	24542.905391
507.518164	24579.143725
507.883347	24385.381936
508.248472	24068.875613
508.613540	24846.559293
508.978550	24638.291583
509.343503	24624.307423
509.708398	24889.474636
510.073236	25049.254007
510.438016	25256.546253
510.802738	24932.770585
511.167403	25185.894482
511.532010	24871.228179
511.896561	25663.135475
512.261053	25639.782330
512.625488	25465.436545
512.989866	25370.511618
513.354186	25214.190478
513.718449	25312.697145
514.082655	25691.534815
514.446803	25443.482320
514.810894	25885.253755
515.174927	25375.550251
515.538904	25406.066876
515.902822	25891.706432
516.266684	25654.568034
516.630488	25547.980398
516.994235	25536.887339
517.357925	25836.460427
517.721558	26019.441708
518.085133	26101.978000
518.448651	26027.005960
518.812112	25742.473154
519.175516	25936.933143
519.538863	26112.367818
519.902152	25888.369188
520.265385	26178.381728
520.628560	25961.113038
520.991678	25978.578115
521.354739	26051.873972
521.717743	26116.037778
522.080690	25900.099953
522.443580	26238.696613
522.806413	26237.201911
523.169189	26326.906723
523.531908	26388.731433
523.894569	25983.276471
524.257174	26052.904888
524.619722	26251.047440
524.982213	25933.951301
525.344647	26001.417063
525.707025	26128.111341
526.069345	26123.876772
526.431608	26075.433804
526.793815	26260.829799
527.155964	25721.910288
527.518057	25891.270372
527.880093	25803.040097
528.242072	26044.967591
528.603995	25741.986683
528.965860	25545.212804
529.327669	25604.111125
529.689421	25584.097745
530.051117	25419.315028
530.412755	25598.195331
530.774337	25402.727112
531.135862	25264.894404
531.497331	25465.388654
531.858743	25024.627970
532.220098	25504.134962
532.581396	25176.737226
532.942638	25129.307530
533.303824	25213.605704
533.664953	25230.417953
534.026025	24899.448558
534.387040	25140.226669
534.747999	25202.260588
535.108902	25363.355700
535.469748	24846.970147
535.830537	25039.297728
536.191270	25155.287116
536.551947	25036.290680
536.912567	24692.990623
537.273131	25026.150399
537.633638	24736.548713
537.994089	24946.316166
538.354483	24484.110414
538.714821	24978.514015
539.075103	25038.196236
539.435328	24832.786861
539.795497	24377.006059
540.155609	24776.139415
540.515665	25067.686986
540.875665	24314.936852
541.235609	24598.317754
541.595496	24575.556944
541.955328	24921.445633
542.315102	24833.565719
542.674821	24394.317381
543.034483	24263.380972
543.394090	24433.345994
543.753640	24225.423604
544.113134	24851.497103
544.472571	24457.843482
544.831953	24741.423509
545.191278	24345.791234
545.550548	24283.918633
545.909761	24484.649817
546.268918	24723.033380
546.628019	24687.725138
546.987064	24386.042327
547.346053	24152.667151
547.704986	24272.326499
548.063863	24435.564102
548.422684	24429.676034
548.781449	23982.349248
549.140158	24369.729153
549.498811	23948.381953
549.857408	23692.745042
550.215949	24125.079437
550.574434	23804.313338
550.932864	24026.600496
551.291237	24174.931407
551.649555	24042.825450
552.007817	24091.069292
552.366022	23966.958605
552.724173	24012.409648
553.082267	23949.208702
553.440305	24424.965076
553.798288	23680.731972
554.156215	24200.873185
554.514086	24297.373472
554.871902	23669.530528
555.229661	23956.682213
555.587365	23823.593231
555.945014	23666.127749
556.302606	23927.219189
556.660143	23861.686710
557.017625	24121.429641
557.375050	23652.705677
557.732421	24045.678743
558.089735	23855.130689
558.446994	23913.103959
558.804197	23938.372742
559.161345	23903.487958
559.518437	23651.591582
559.875474	23849.509803
560.232455	24013.682540
560.589381	23849.676161
560.946251	23830.348377
561.303065	24147.517612
561.659825	24227.084664
562.016528	23844.395552
562.373177	23582.512651
562.729770	23927.362862
563.086307	23795.640033
563.442789	23974.066632
563.799216	23800.920642
564.155587	23818.431089
564.511904	23789.474702
564.868164	23715.962076
565.224370	23703.573440
565.580520	23610.783442
565.936615	23742.826385
566.292654	23420.119442
566.648638	23723.619588
567.004567	23548.512589
567.360441	23502.093644
567.716260	23227.330595
568.072023	23562.055649
568.427732	23318.575480
568.783385	23098.345112
569.138982	23324.130831
569.494525	23370.312842
569.850013	23114.554942
570.205445	23208.416186
570.560823	23011.687678
570.916145	22785.508749
571.271412	22955.441004
571.626625	22711.492007
571.981782	22821.696672
572.336884	22632.159369
572.691931	22760.451693
573.046923	22496.239779
573.401860	22373.757385
573.756743	22385.223489
574.111570	22297.356178
574.466342	22239.831571
574.821059	22317.054486
575.175722	22020.959795
575.530330	22019.863344
575.884882	22038.848329
576.239380	21944.203186
576.593823	21828.753201
576.948211	21810.105973
577.302544	21662.594250
577.656823	21526.299094
578.011047	21617.571705
578.365216	21490.401038
578.719330	21383.722660
579.073389	21285.021909
579.427394	21429.531625
579.781344	21195.906912
580.135239	21078.937019
580.489080	21046.121628
580.842866	20818.518573
581.196597	21013.316320
581.550273	20988.148359
581.903895	20879.390506
582.257463	21187.417609
582.610975	20723.893595
582.964434	21032.147550
583.317837	20734.399360
583.671186	20824.275571
584.024481	20795.162908
584.377721	20556.953265
584.730906	20623.320055
585.084037	20655.442288
585.437113	20545.630833
585.790135	20766.975296
586.143103	20235.763709
586.496016	20225.978830
586.848874	20466.025973
587.201679	20416.998231
587.554428	20082.537838
587.907124	20413.968498
588.259765	20189.357368
588.612352	20263.928636
588.964884	19841.048925
589.317362	20012.543938
589.669786	20052.490041
590.022155	20108.895511
590.374470	20301.535644
590.726731	20105.674214
591.078937	19852.215081
591.431090	19949.360636
591.783188	19700.012564
592.135232	19684.034627
592.487222	19773.789850
592.839157	19798.068047
593.191038	19673.208749
593.542866	19559.850843
593.894639	19287.789852
594.246358	19503.193315
594.598022	19413.143184
594.949633	19160.311674
595.301190	19113.872565
595.652692	19290.688516
596.004141	19529.961842
596.355535	18850.885651
596.706876	18871.546820
597.058162	18758.330067
597.409395	18987.332042
597.760573	19076.961237
598.111698	18854.472432
598.462768	18791.636970
598.813785	18745.843128
599.164748	18567.789575
599.515657	18604.927755
599.866511	18400.985356
600.217312	18756.396784
600.568060	18274.923742
600.918753	18586.751875
601.269392	18490.082709
601.619978	18272.325027
601.970510	18474.601325
602.320988	18428.119366
602.671412	18634.415984
603.021783	18535.982414
603.372100	18275.463145
603.722363	18412.191841
604.072572	18357.523048
604.422728	18490.372575
604.772830	18255.028828
605.122878	18198.078913
605.472872	18183.777160
605.822813	18170.952464
606.172701	18145.010687
606.522534	18346.513168
606.872314	18368.520325
607.222041	18203.052012
607.571714	18411.244104
607.921333	18238.559379
608.270899	18322.698757
608.620411	18511.495010
608.969870	18265.824459
609.319276	18277.391387
609.668627	18307.671077
610.017926	18442.085883
610.367171	18552.837512
610.716362	18602.583618
611.065500	18414.094876
611.414585	18548.078663
611.763616	18528.224079
612.112594	18481.469897
612.461518	18447.507644
612.810389	18642.224732
613.159207	18498.007403
613.507971	18397.141476
613.856682	18678.357202
614.205340	18618.107852
614.553945	18752.260517
614.902496	18494.952463
615.250994	18742.387418
615.599439	18683.564714
615.947830	18663.924378
616.296169	18707.285863
616.644454	18672.345626
616.992686	18652.019694
617.340864	18864.632878
617.688990	18614.538715
618.037063	18790.953894
618.385082	18640.538466
618.733048	18920.234284
619.080961	18787.543553
619.428821	18828.424790
619.776628	18720.934787
620.124382	18644.909146
620.472083	18682.203602
620.819731	18706.317962
621.167326	18393.683244
621.514868	18431.065921
621.862357	18205.013020
622.209793	18216.426193
622.557176	18046.612405
622.904506	17873.738637
623.251783	17773.253317
623.599007	17542.053399
623.946179	17488.196232
624.293297	17432.609949
624.640363	17185.628698
624.987376	17204.412038
625.334336	17003.091038
625.681243	16845.459198
626.028097	16856.953029
626.374899	16786.457534
626.721647	16652.536761
627.068343	16475.234339
627.414987	16415.325267
627.761577	16390.802574
628.108115	16426.793892
628.454600	16147.821479
628.801032	16248.803353
629.147412	16180.064699
629.493739	16200.194027
629.840014	16008.824265
630.186236	16108.361848
630.532405	15868.579365
630.878521	16066.328707
631.224585	15964.134436
631.570597	15787.971315
631.916556	15823.614793
632.262462	15781.982424
632.608316	15707.229674
632.954117	15656.399720
633.299866	15643.010416
633.645562	15565.643827
633.991206	15327.557693
634.336797	15191.610377
634.682336	15165.562735
635.027823	15049.404468
635.373257	14932.358958
635.718639	14829.799203
636.063968	14782.548468
636.409245	14537.992013
636.754470	14557.450867
637.099642	14402.773143
637.444762	14178.078834
637.789829	14222.166245
638.134845	14062.800249
638.479808	14094.965331
638.824719	14035.409139
639.169577	13889.281213
639.514383	13933.015743
639.859137	13754.329524
640.203839	13838.211804
640.548489	13672.178881
640.893086	13670.648891
641.237632	13528.899207
641.582125	13687.728320
641.926566	13524.251263
642.270955	13529.645297
642.615292	13489.515192
642.959576	13497.623888
643.303809	13532.405329
643.647990	13462.731542
643.992118	13526.764278
644.336195	13288.501703
644.680219	13503.012882
645.024192	13424.391046
645.368112	13665.269980
645.711981	13721.504051
646.055797	13905.105395
646.399562	13866.739693
646.743274	14130.835661
647.086935	14410.755811
647.430544	14379.488054
647.774101	14403.567125
648.117606	14559.197627
648.461059	14522.215722
648.804460	14520.380742
649.147810	14250.971398
649.491108	14153.782993
649.834354	14165.874201
650.177548	13860.622253
650.520690	13674.321372
650.863781	13585.831478
651.206820	13646.726095
651.549807	13458.764154
651.892742	13272.427984
652.235626	13201.312427
652.578458	13208.233931
652.921238	12896.035273
653.263967	13089.469388
653.606644	12923.970827
653.949269	12903.372673
654.291843	12708.476624
654.634365	12854.460877
654.976836	12709.744474
655.319255	12718.609343
655.661622	12677.942355
656.003938	12585.474991
656.346203	12520.865042
656.688416	12591.426073
657.030577	12551.182542
657.372687	12471.454173
657.714746	12440.083072
658.056753	12628.012247
658.398708	12451.299640
658.740612	12456.580248
659.082465	12553.221688
659.424266	12515.370185
659.766016	12550.746482
660.107715	12455.662758
660.449362	12526.022143
660.790958	12478.549597
661.132503	12429.930189
661.473996	12496.296979
661.815438	12510.674350
662.156829	12527.753779
662.498168	12511.924556
662.839456	12506.941375
663.180693	12524.976103
663.521879	12617.856842
663.863013	12590.690064
664.204097	12563.190570
664.545129	12686.126668
664.886110	12653.500321
665.227040	12748.137902
665.567918	12752.332142
665.908746	12781.759877
666.249522	12766.074327
666.590248	12818.353613
666.930922	12933.596911
667.271545	12908.638158
667.612118	12991.313081
667.952639	12904.174216
668.293109	12904.474165
668.633528	12866.100902
668.973896	12832.647805
669.314213	12927.855036
669.654480	12658.695230
669.994695	12729.215931
670.334859	12750.083787
670.674973	12704.625182
671.015035	12728.290879
671.355047	12669.866427
671.695008	12645.116882
672.034918	12648.746513
672.374777	12692.977596
672.714585	12611.376439
673.054342	12637.598001
673.394049	12592.088984
673.733705	12689.768902
674.073310	12598.597114
674.412864	12614.446502
674.752368	12479.396511
675.091820	12494.693892
675.431223	12485.261893
675.770574	12360.803367
676.109875	12274.791200
676.449125	12244.335069
676.788324	12178.595902
677.127473	12017.422652
677.466571	12008.020900
677.805619	11905.269582
678.144616	11820.406798
678.483562	11792.733384
678.822458	11667.531287
679.161303	11642.380970
679.500098	11630.158693
679.838842	11583.303688
680.177535	11606.939138
680.516179	11668.605053
680.854771	11618.301899
681.193314	11829.982469
681.531805	11983.248670
681.870247	12399.544634
682.208638	12815.475114
682.546978	13123.469450
682.885268	13180.822657
683.223508	12875.066594
683.561697	12707.838918
683.899836	12608.934000
684.237925	12408.291036
684.575963	12333.553409
684.913951	12251.581727
685.251889	12196.638192
685.589776	12294.257615
685.927614	12220.624002
686.265401	12184.305009
686.603137	12234.182185
686.940824	12380.330276
687.278460	12506.275943
687.616046	12556.684961
687.953582	12727.998492
688.291068	12646.286429
688.628504	12880.473231
688.965889	12891.868760
689.303224	12869.349925
689.640510	12753.032862
689.977745	12444.499123
690.314930	12216.767519
690.652065	12130.160496
690.989150	11840.503358
691.326185	11607.261772
691.663170	11406.986812
692.000105	11162.137970
692.336990	11049.584128
692.673825	10799.416868
693.010610	10682.235247
693.347345	10469.700201
693.684030	10273.516137
694.020665	10219.331295
694.357251	10017.803608
694.693786	9964.009456
695.030272	9802.700094
695.366707	9676.545219
695.703093	9610.306978
696.039429	9611.353018
696.375716	9533.333600
696.711952	9397.862673
697.048139	9435.910782
697.384276	9396.728413
697.720363	9412.736597
698.056400	9344.653294
698.392388	9293.528432
698.728326	9261.587682
699.064214	9201.260193
699.400053	9240.392150
699.735842	9062.099142
700.071581	9021.008697
700.407270	8947.246533
700.742910	8864.022125
701.078501	8769.155171
701.414042	8647.156727
701.749533	8583.681039
702.084974	8446.448228
702.420366	8553.542500
702.755709	8445.412271
703.091002	8307.745921
703.426246	8337.392947
703.761440	8290.790000
704.096584	8237.598265
704.431679	8173.928492
704.766725	8157.726224
705.101721	8110.977084
705.436668	8150.187178
705.771565	8042.034264
706.106413	8125.256152
706.441212	8166.777616
706.775961	8125.162891
707.110661	8157.398549
707.445311	8300.925240
707.779913	8201.914458
708.114465	8332.916402
708.448967	8371.882001
708.783421	8512.396603
709.117825	8690.558541
709.452180	8730.852484
709.786485	8820.733737
710.120742	9100.260676
710.454949	9098.541643
710.789107	9194.217702
711.123216	9408.491946
711.457275	9578.020908
711.791286	9739.645342
712.125247	9734.672244
712.459159	9723.264112
712.793023	9972.055137
713.126837	9552.827742
713.460602	9705.962872
713.794318	9523.011838
714.127985	9559.570285
714.461602	9233.195903
714.795171	9179.303448
715.128691	8941.131614
715.462162	8689.401597
715.795584	8631.662741
716.128957	8487.642017
716.462281	8318.813774
716.795556	8362.966720
717.128782	8160.216554
717.461960	7897.847181
717.795088	7961.159032
718.128167	7871.454220
718.461198	7702.661266
718.794180	7646.044067
719.127113	7644.803943
719.459997	7485.052299
719.792833	7252.801300
720.125619	7321.461815
720.458357	7176.369846
720.791046	7166.761407
721.123686	7161.258987
721.456278	6999.604307
721.788821	7022.763367
722.121315	6921.748727
722.453761	6982.623180
722.786158	6924.639828
723.118506	6936.113495
723.450805	6904.699544
723.783056	6972.745039
724.115259	6881.338837
724.447412	6876.937910
724.779518	6922.265445
725.111574	6925.655621
725.443582	7006.356932
725.775542	6985.423541
726.107453	7177.113416
726.439315	7086.208809
726.771129	7144.981101
727.102895	7313.153994
727.434612	7426.958042
727.766281	7461.767209
728.097901	7540.918366
728.429473	7526.730038
728.760996	7506.799836
729.092471	7483.807134
729.423897	7428.770337
729.755276	7441.743746
730.086606	7370.219855
730.417887	7469.399516
730.749120	7659.692991
731.080305	7858.445523
731.411442	7977.573029
731.742530	7972.867112
732.073570	8077.009789
732.404562	8163.579003
732.735506	8012.356991
733.066401	8154.391501
733.397249	8086.691325
733.728048	7851.823967
734.058798	7519.188472
734.389501	7289.579038
734.720156	7110.716379
735.050762	6879.370267
735.381320	6782.721265
735.711831	6736.733339
736.042293	6621.595906
736.372707	6644.921325
736.703073	6508.638772
737.033391	6541.164297
737.363661	6556.726338
737.693883	6585.806234
738.024056	6667.914028
738.354182	6714.025462
738.684260	6745.593167
739.014290	6859.399736
739.344272	6971.966181
739.674207	7002.608834
740.004093	7070.245996
740.333931	7076.640699
740.663722	7093.185766
740.993464	7171.139649
741.323159	7157.205899
741.652806	6904.702065
741.982405	6919.419714
742.311956	6980.500854
742.641460	6816.053375
742.970915	6619.700432
743.300323	6613.736747
743.629683	6555.430762
743.958996	6428.925527
744.288260	6340.380180
744.617477	6288.405884
744.946647	6288.952849
745.275768	6122.688033
745.604842	6080.145736
745.933869	6064.616462
746.262847	6017.995871
746.591778	6007.356516
746.920662	5963.193488
747.249498	5963.296831
747.578286	6009.493965
747.907027	6082.673875
748.235720	6142.015817
748.564365	6114.977589
748.892963	6140.327031
749.221514	6291.571728
749.550017	6128.079548
749.878473	6003.172358
750.206881	6056.253188
750.535242	6001.211349
750.863555	5931.295587
751.191821	5951.366941
751.520039	5950.220078
751.848210	5861.379824
752.176334	5879.180138
752.504411	5931.834990
752.832440	5855.295151
753.160421	5784.608092
753.488356	5832.935113
753.816243	5861.107602
754.144082	5714.959510
754.471875	5685.304923
754.799620	5730.803857
755.127318	5742.206947
755.454969	5694.018557
755.782572	5659.030429
756.110129	5701.809661
756.437638	5688.498494
756.765100	5629.214525
757.092515	5627.137569
757.419882	5677.223953
757.747203	5658.178474
758.074477	5725.132559
758.401703	5713.089242
758.728882	5662.839021
759.056014	5717.535540
759.383099	5848.129151
759.710138	5850.904306
760.037129	5844.350806
760.364073	5842.737637
760.690970	5925.349546
761.017820	5908.806999
761.344623	5866.708323
761.671379	5963.649712
761.998088	6087.011788
762.324751	6329.163613
762.651366	6921.305105
762.977935	8223.672078
763.304456	9851.279173
763.630931	10765.152145
763.957359	10368.728410
764.283740	9433.846429
764.610074	8604.329605
764.936362	7604.134435
765.262602	7009.321131
765.588796	6468.261650
765.914943	6134.940558
766.241044	5974.442822
766.567097	5772.274909
766.893104	5513.469632
767.219064	5331.952806
767.544978	5266.627014
767.870845	5195.652609
768.196665	5089.846351
768.522438	5015.383468
768.848165	4980.864167
769.173846	4919.117594
769.499479	4876.282910
769.825066	4820.318540
770.150607	4763.020786
770.476101	4736.171600
770.801548	4731.216146
771.126949	4660.783665
771.452303	4605.209985
771.777611	4560.658788
772.102872	4580.039504
772.428087	4540.917629
772.753256	4503.116537
773.078378	4452.599135
773.403453	4388.964650
773.728482	4374.325139
774.053465	4331.150177
774.378401	4315.459585
774.703291	4318.484278
775.028135	4246.746138
775.352932	4197.930125
775.677683	4180.903628
776.002388	4204.246690
776.327046	4211.768092
776.651658	4137.663130
776.976224	4077.870005
777.300743	4082.485181
777.625216	4103.108541
777.949643	4096.688632
778.274024	4053.322106
778.598359	4005.894931
778.922647	4028.421327
779.246889	4024.958054
779.571086	4021.759442
779.895236	4003.565917
780.219339	3991.948578
780.543397	3984.938854
780.867409	4032.383673
781.191374	4049.813463
781.515294	3986.720902
781.839167	3979.769151
782.162995	4000.815968
782.486776	3986.725943
782.810511	3994.058301
783.134201	3994.118795
783.457844	3948.725725
783.781441	3893.129360
784.104993	3899.272006
784.428498	3919.106426
784.751958	3914.448400
785.075372	3891.422930
785.398739	3858.917570
785.722061	3864.770349
786.045337	3908.482194
786.368568	3943.349335
786.691752	3854.067980
787.014891	3905.192841
787.337983	4032.519785
787.661030	4194.865103
787.984031	4351.445862
788.306987	4523.611348
788.629897	4605.036065
788.952760	4561.830856
789.275579	4493.268643
789.598351	4428.976288
789.921078	4289.868168
790.243759	4088.484154
790.566395	4068.438006
790.888984	4064.894075
791.211529	3961.013538
791.534027	3896.602715
791.856480	3888.534348
792.178888	3830.445133
792.501249	3774.405146
792.823566	3789.654636
793.145836	3819.042043
793.468062	3764.630349
793.790241	3720.517732
794.112375	3749.895056
794.434464	3812.859068
794.756507	3835.214064
795.078505	3817.726302
795.400457	3848.373996
795.722364	3989.359946
796.044226	4094.079835
796.366042	4164.683715
796.687812	4146.255777
797.009538	4149.976149
797.331218	4109.856126
797.652852	4086.823094
797.974442	4065.395669
798.295986	4064.828540
798.617484	3981.223524
798.938938	3896.655647
799.260346	3936.437913
799.581709	3933.153601
799.903026	3860.976881
800.224299	3824.824246
800.545526	3815.503153
800.866708	3778.382616
801.187845	3718.881877
801.508936	3755.175665
801.829983	3747.533275
802.150984	3674.499559
802.471940	3660.477590
802.792851	3672.155423
803.113717	3670.224661
803.434538	3676.258922
803.755314	3616.528810
804.076045	3593.490737
804.396731	3610.539920
804.717372	3637.714259
805.037967	3622.074080
805.358518	3610.686113
805.679024	3637.532778
805.999485	3652.323523
806.319901	3654.511384
806.640272	3671.278262
806.960598	3681.849561
807.280879	3660.359122
807.601115	3666.683250
807.921306	3686.782330
808.241453	3725.440419
808.561554	3701.583158
808.881611	3637.124444
809.201623	3673.125845
809.521590	3687.104964
809.841513	3658.670336
810.161390	3686.530273
810.481223	3668.777849
810.801011	3613.834314
811.120755	3604.619084
811.440453	3637.376502
811.760107	3639.972696
812.079716	3600.533229
812.399281	3569.363775
812.718801	3590.783638
813.038276	3564.315059
813.357707	3561.844894
813.677093	3579.083120
813.996434	3528.459853
814.315731	3533.838764
814.634983	3539.825134
814.954191	3556.859193
815.273354	3582.037236
815.592473	3575.821493
815.911547	3581.177719
816.230577	3623.987197
816.549562	3671.845392
816.868502	3716.066393
817.187399	3740.430290
817.506250	3738.804518
817.825058	3710.863922
818.143821	3803.175011
818.462539	3905.472625
818.781213	3950.288483
819.099843	4001.524250
819.418429	4252.951798
819.736970	4492.709075
820.055466	4734.946600
820.373919	5099.870686
820.692327	5507.793293
821.010691	5949.163956
821.329011	7316.602143
821.647286	10056.121419
821.965517	14601.497949
822.283704	18639.983939
822.601847	20815.042698
822.919945	19008.966153
823.237999	16430.710869
823.556010	13946.150469
823.873976	11853.882580
824.191897	9758.375749
824.509775	8409.247033
824.827609	7281.664426
825.145398	6735.513380
825.463144	6620.312933
825.780845	6729.617751
826.098502	6918.529950
826.416116	7787.390459
826.733685	9111.343653
827.051210	10222.386234
827.368692	10271.945818
827.686129	9018.505764
828.003522	7506.404106
828.320872	6495.748542
828.638177	5791.295183
828.955439	5230.832301
829.272656	4735.218822
829.589830	4451.540492
829.906960	4280.330305
830.224046	4092.471707
830.541088	3966.483190
830.858086	3919.207249
831.175041	3843.985672
831.491952	3827.075121
831.808819	3835.151050
832.125642	3906.622008
832.442421	4057.407961
832.759157	4328.853931
833.075849	4874.909195
833.392497	5739.847687
833.709101	6514.196644
834.025662	6851.391863
834.342179	6489.217727
834.658653	5832.977963
834.975083	5185.643398
835.291469	4611.213999
835.607811	4198.645968
835.924110	4058.648085
836.240366	3863.860421
836.556578	3658.236797
836.872746	3549.105898
837.188871	3510.478057
837.504952	3440.675720
837.820990	3357.731095
838.136984	3314.828356
838.452935	3338.332735
838.768842	3333.745285
839.084706	3355.785210
839.400526	3514.745394
839.716303	3852.447249
840.032037	4373.677351
840.347727	4640.936642
840.663373	4359.980536
840.978977	3985.150582
841.294537	3678.320754
841.610054	3448.928089
841.925527	3339.996316
842.240957	3273.334618
842.556344	3216.669528
842.871687	3161.166425
843.186987	3110.485184
843.502244	3072.852971
843.817458	3035.593803
844.132629	3006.561798
844.447756	3016.535721
844.762840	3002.317146
845.077881	2970.562918
845.392879	2952.061884
845.707833	2951.252778
846.022745	2947.247582
846.337613	2945.115174
846.652438	2935.854574
846.967221	2933.374326
847.281960	2920.786565
847.596656	2914.936306
847.911309	2915.062335
848.225919	2909.312899
848.540485	2902.580438
848.855009	2901.917526
849.169490	2892.392266
849.483928	2884.984291
849.798323	2882.950185
850.112675	2877.183105
850.426984	2891.074004
850.741251	2890.801782
851.055474	2874.581870
851.369654	2872.537682
851.683792	2877.460368
851.997887	2885.546379
852.311938	2888.356823
852.625947	2876.283259
852.939914	2879.759135
853.253837	2885.208622
853.567718	2871.519369
853.881555	2869.182794
854.195350	2882.869527
854.509103	2879.691079
854.822812	2870.112887
855.136479	2868.880325
855.450103	2871.945346
855.763685	2864.905375
856.077224	2860.685929
856.390720	2875.350646
856.704173	2885.932028
857.017584	2876.426932
857.330953	2870.584235
857.644278	2886.053015
857.957561	2889.231463
858.270802	2892.528377
858.584000	2890.832029
858.897155	2883.514794
859.210268	2878.695451
859.523339	2876.933568
859.836367	2877.384751
860.149352	2874.967518
860.462295	2867.599872
860.775195	2875.811911
861.088054	2875.060779
861.400869	2858.868593
861.713642	2857.494879
862.026373	2870.947198
862.339062	2873.041797
862.651708	2878.745863
862.964312	2882.529249
863.276873	2873.324102
863.589392	2884.477655
863.901869	2897.430899
864.214303	2920.408479
864.526696	2934.712753
864.839045	2929.908533
865.151353	2928.814603
865.463619	2926.682195
865.775842	2927.115734
866.088023	2947.250102
866.400162	2956.934159
866.712258	2923.944848
867.024313	2916.844383
867.336325	2922.908891
867.648296	2944.250616
867.960224	2938.037394
868.272110	2924.827050
868.583954	2928.519695
868.895755	2944.356480
869.207515	2931.075560
869.519233	2932.361054
869.830909	2944.797581
870.142542	2954.811833
870.454134	2953.818726
870.765684	2955.361319
871.077191	2955.820064
871.388657	2965.609985
871.700081	2979.939464
872.011463	2988.252327
872.322803	2992.373470
872.634101	2990.331803
872.945357	3004.588186
873.256571	3028.483255
873.567744	3022.126360
873.878874	3015.771986
874.189963	3040.579504
874.501010	3040.445913
874.812015	3031.210520
875.122979	3032.317053
875.433900	3026.892771
875.744780	3034.580531
876.055618	3042.081768
876.366415	3039.573794
876.677169	3049.875392
876.987882	3046.104609
877.298554	3040.453475
877.609183	3061.807803
877.919771	3087.041298
878.230317	3112.489043
878.540822	3160.649706
878.851285	3201.261242
879.161707	3243.730442
879.472087	3344.606451
879.782425	3569.890576
880.092722	4009.068337
880.402977	4531.967061
880.713191	5160.898894
881.023363	6317.021994
881.333494	7601.218127
881.643583	8157.849732
881.953631	7856.970985
882.263637	7233.191211
882.573602	6644.999463
882.883526	6064.114867
883.193408	5494.461962
883.503248	5032.488103
883.813048	4727.891505
884.122806	4425.374383
884.432522	4108.752113
884.742197	3870.469374
885.051831	3676.853778
885.361424	3544.037018
885.670975	3470.116059
885.980485	3388.572875
886.289954	3307.309475
886.599382	3263.607712
886.908768	3225.799058
887.218113	3181.051256
887.527417	3126.085035
887.836680	3077.072417
888.145901	3068.389029
888.455082	3059.440981
888.764221	3009.203363
889.073319	2978.810246
889.382376	2979.382417
889.691392	2980.133549
890.000366	2981.620689
890.309300	2969.060654
890.618193	2980.955257
890.927044	2997.268431
891.235855	2996.844974
891.544625	2982.323930
891.853353	2995.367916
892.162041	3012.643950
892.470687	3052.756411
892.779293	3101.728700
893.087858	3151.709220
893.396381	3222.817216
893.704864	3343.373889
894.013306	3581.404571
894.321707	3882.782392
894.630068	4087.838886
894.938387	4082.878391
895.246665	4038.826268
895.554903	3920.888474
895.863100	3719.854820
896.171256	3554.653688
896.479371	3412.162954
896.787446	3291.276085
897.095480	3187.266999
897.403473	3125.772483
897.711425	3089.012390
898.019336	3078.554516
898.327207	3050.066956
898.635038	3015.734177
898.942827	3000.998885
899.250576	2987.753253
899.558284	2957.536577
899.865952	2935.433638
900.173579	2915.967222
900.481165	2911.783064
900.788711	2895.212792
901.096216	2872.371324
901.403681	2860.690970
901.711105	2866.752958
902.018489	2866.662217
902.325832	2864.043337
902.633135	2875.464072
902.940397	2908.826428
903.247619	2993.333810
903.554800	3180.801719
903.861941	3526.027496
904.169041	3949.222279
904.476101	4249.624637
904.783121	4205.880024
905.090100	3966.946976
905.397039	3691.647044
905.703938	3441.683951
906.010796	3256.817278
906.317614	3146.327788
906.624391	3052.348078
906.931129	2980.430977
907.237826	2916.725916
907.544483	2872.194883
907.851099	2841.859740
908.157675	2818.700679
908.464211	2800.257618
908.770707	2788.521812
909.077163	2775.739966
909.383578	2755.676174
909.689954	2747.322982
909.996289	2746.632344
910.302584	2747.524628
910.608839	2748.212746
910.915054	2739.186560
911.221229	2733.921074
911.527363	2736.033318
911.833458	2744.081520
912.139513	2750.592170
912.445527	2752.885895
912.751502	2760.377050
913.057436	2768.926847
913.363331	2782.411933
913.669186	2804.333391
913.975000	2836.332115
914.280775	2897.072978
914.586510	2968.795994
914.892205	3048.133673
915.197859	3174.041532
915.503475	3366.903475
915.809050	3578.664704
916.114585	3723.066035
916.420081	3749.385899
916.725536	3686.147145
917.030952	3570.815627
917.336328	3441.371399
917.641665	3312.935402
917.946961	3207.870194
918.252218	3141.732777
918.557435	3061.976682
918.862612	3004.779750
919.167750	2951.736729
919.472848	2916.410844
919.777906	2888.893705
920.082925	2860.375898
920.387904	2830.398677
920.692843	2813.533497
920.997743	2801.984213
921.302603	2790.807975
921.607423	2781.323044
921.912204	2767.948863
922.216946	2757.896802
922.521647	2746.465986
922.826310	2740.146899
923.130932	2734.992320
923.435516	2724.657954
923.740059	2717.683518
924.044564	2710.260419
924.349028	2703.817824
924.653454	2696.238449
924.957840	2691.489682
925.262186	2687.297963
925.566493	2684.260668
925.870761	2678.712878
926.174989	2671.854388
926.479178	2668.948163
926.783328	2662.747544
927.087438	2663.549087
927.391509	2662.949190
927.695541	2659.717810
927.999533	2659.251504
928.303486	2651.175575
928.607400	2652.864362
928.911275	2652.309835
929.215110	2649.567447
929.518906	2648.602066
929.822663	2649.995945
930.126381	2648.158445
930.430060	2649.998466
930.733699	2650.326141
931.037299	2652.609783
931.340861	2650.326141
931.644383	2654.401914
931.947866	2651.354536
932.251309	2650.583240
932.554714	2649.592653
932.858080	2647.097282
933.161407	2646.623413
933.464694	2645.521921
933.767943	2642.247692
934.071153	2646.787251
934.374323	2644.090233
934.677455	2642.570326
934.980548	2642.605614
935.283602	2640.558905
935.586617	2639.452372
935.889593	2642.179636
936.192530	2640.508494
936.495428	2646.026037
936.798287	2643.946561
937.101108	2646.363794
937.403890	2651.180616
937.706632	2657.141781
938.009336	2664.002791
938.312002	2672.222392
938.614628	2678.178516
938.917216	2687.907943
939.219765	2687.928107
939.522275	2683.978363
939.824747	2685.828467
940.127179	2681.387210
940.429573	2677.558454
940.731929	2673.830521
941.034246	2672.522341
941.336524	2668.912875
941.638763	2668.985972
941.940964	2662.613953
942.243126	2664.736279
942.545250	2663.334838
942.847335	2658.860814
943.149381	2654.031389
943.451389	2653.917963
943.753359	2649.985863
944.055290	2650.253044
944.357182	2646.673825
944.659036	2644.680048
944.960851	2645.163999
945.262628	2641.332722
945.564367	2644.110398
945.866067	2642.978659
946.167729	2644.173412
946.469352	2645.731129
946.770937	2645.670635
947.072484	2642.923206
947.373992	2643.253402
947.675462	2639.848102
947.976893	2636.503297
948.278286	2633.206382
948.579641	2634.781743
948.880958	2630.975672
949.182236	2635.611013
949.483476	2634.227216
949.784678	2634.645632
950.085841	2635.621095
950.386967	2636.500776
950.688054	2636.273924
950.989103	2636.790643
951.290114	2636.485653
951.591087	2642.524955
951.892021	2642.671149
952.192917	2645.673156
952.493776	2647.021664
952.794596	2648.826397
953.095378	2648.206336
953.396122	2644.518732
953.696828	2644.322127
953.997496	2644.662404
954.298126	2640.475726
954.598718	2641.239461
954.899272	2637.032618
955.199788	2634.486835
955.500266	2633.551701
955.800706	2629.843933
956.101108	2624.898561
956.401472	2625.775722
956.701798	2623.567696
957.002087	2621.127778
957.302337	2621.465535
957.602550	2618.622324
957.902724	2619.882613
958.202861	2620.744650
958.502960	2614.173506
958.803022	2615.670729
959.103045	2612.709051
959.403031	2613.561006
959.702979	2612.051180
960.002889	2615.111161
960.302762	2613.835749
960.602596	2612.295676
960.902393	2610.334667
961.202153	2610.175871
961.501875	2608.603031
961.801559	2607.113370
962.101205	2608.091354
962.400814	2610.304420
962.700385	2609.129832
962.999918	2608.093874
963.299414	2605.837958
963.598873	2604.199583
963.898293	2602.087340
964.197677	2607.062958
964.497022	2606.800818
964.796331	2610.909359
965.095601	2608.003134
965.394835	2606.939450
965.694030	2610.339708
965.993189	2607.428442
966.292309	2609.850717
966.591393	2607.004985
966.890439	2606.576487
967.189447	2607.035232
967.488419	2607.151179
967.787353	2607.405757
968.086249	2607.030191
968.385108	2605.031373
968.683930	2607.488936
968.982714	2609.868361
969.281462	2605.631271
969.580172	2604.015581
969.878844	2607.375510
970.177480	2606.236209
970.476078	2605.976590
970.774639	2606.710078
971.073162	2606.221086
971.371649	2605.485077
971.670098	2607.398195
971.968510	2607.730911
972.266885	2606.160592
972.565223	2608.459358
972.863524	2607.851899
973.161788	2609.172681
973.460014	2607.345263
973.758204	2606.954574
974.056356	2606.503390
974.354471	2604.786877
974.652550	2609.200408
974.950591	2607.700664
975.248595	2608.028339
975.546563	2606.558843
975.844493	2607.068000
976.142386	2605.359048
976.440243	2605.805191
976.738062	2605.515324
977.035845	2610.072527
977.333590	2609.618823
977.631299	2605.172526
977.928971	2602.205807
978.226606	2602.115066
978.524204	2600.320415
978.821765	2599.546598
979.119290	2607.277207
979.416777	2607.556992
979.714228	2605.810232
980.011642	2603.942484
980.309020	2605.021291
980.606360	2604.862495
980.903664	2604.771754
981.200931	2606.198401
981.498162	2603.335025
981.795356	2605.525407
982.092513	2605.515324
982.389633	2609.293669
982.686717	2614.183588
982.983764	2615.307766
983.280775	2624.258334
983.577749	2625.009466
983.874686	2623.615587
984.171587	2620.724485
984.468451	2617.949330
984.765279	2613.548403
985.062070	2610.947167
985.358824	2611.148814
985.655543	2612.139400
985.952224	2609.898607
986.248869	2605.699326
986.545478	2605.830396
986.842050	2603.866867
987.138586	2605.086826
987.435086	2604.217227
987.731549	2605.633791
988.027975	2603.967690
988.324366	2601.121959
988.620719	2602.346959
988.917037	2602.082298
989.213318	2602.392329
989.509563	2601.772267
989.805772	2602.341918
990.101944	2602.276383
990.398080	2603.055241
990.694180	2603.750920
990.990244	2601.444593
991.286271	2601.099273
991.582262	2597.754468
991.878217	2599.012236
992.174136	2603.597165
992.470019	2600.373347
992.765865	2597.076433
993.061676	2596.181628
993.357450	2599.130703
993.653188	2598.021649
993.948890	2602.626743
994.244556	2602.709922
994.540186	2601.724377
994.835780	2602.500714
995.131337	2603.272011
995.426859	2600.953080
995.722345	2601.714294
996.017795	2603.135900
996.313208	2608.774430
996.608586	2607.269646
996.903928	2607.141096
997.199234	2609.606221
997.494504	2605.878287
997.789738	2605.933740
998.084936	2605.089347
998.380099	2602.195724
998.675225	2604.111363
998.970316	2602.861157
999.265371	2604.557505
999.560390	2600.222113
999.855373	2601.681527
1000.150320	2601.747062
1000.445232	2601.177411
1000.740108	2603.569439
1001.034948	2602.104984
1001.329752	2599.506269
1001.624521	2600.264962
1001.919254	2601.013574
1002.213951	2599.657503
1002.508613	2601.220261
1002.803239	2599.745724
1003.097829	2598.634149
1003.392384	2599.206320
1003.686903	2600.035590
1003.981386	2601.124479
1004.275834	2597.089036
1004.570246	2601.900817
1004.864623	2598.455188
1005.158964	2600.043152
1005.453270	2598.992071
1005.747540	2600.900148
1006.041775	2599.629777
1006.335974	2599.959973
1006.630138	2596.463932
1006.924266	2600.012905
1007.218359	2601.237905
1007.512416	2597.081474
1007.806438	2595.158274
1008.100425	2596.927719
1008.394376	2592.310022
1008.688292	2599.208841
1008.982172	2597.325970
1009.276017	2598.656834
1009.569827	2597.121803
1009.863602	2596.957966
1010.157341	2598.248501
1010.451045	2598.981989
1010.744714	2600.887545
1011.038347	2598.180445
1011.331945	2596.226998
1011.625508	2600.862339
1011.919036	2598.936618
1012.212528	2596.531988
1012.505986	2599.455857
1012.799408	2600.620364
1013.092795	2598.437544
1013.386147	2599.108018
1013.679464	2596.010229
1013.972745	2598.455188
1014.265992	2596.537029
1014.559204	2597.368820
1014.852380	2598.198089
1015.145521	2598.530806
1015.438628	2596.859663
1015.731699	2594.278592
1016.024736	2599.828903
1016.317737	2596.053078
1016.610703	2598.377050
1016.903635	2598.679520
1017.196531	2599.397884
1017.489393	2600.275045
1017.782219	2598.213213
1018.075011	2598.024170
1018.367768	2599.808738
1018.660490	2598.193048
1018.953177	2598.193048
1019.245829	2598.193048
