Dividing Wavelength (nm)	Counts (n)	Blue Motor Position (mm): 0.000000	Red Motor Position (mm): 25.000000	
326.493990	2144.398461
326.888308	2144.398461
327.282561	2144.398461
327.676750	2120.667230
328.070874	2121.342744
328.464933	2128.221399
328.858929	2132.854219
329.252859	2144.509367
329.646726	2160.457057
330.040528	2171.729077
330.434265	2193.680781
330.827938	2211.652495
331.221547	2232.142265
331.615091	2251.344020
332.008571	2271.138110
332.401986	2293.934208
332.795338	2313.070428
333.188625	2332.705722
333.581847	2353.611387
333.975006	2368.729808
334.368100	2392.221584
334.761129	2406.102402
335.154095	2424.225350
335.546996	2440.669593
335.939833	2456.564352
336.332606	2471.055148
336.725315	2479.491519
337.117960	2486.513847
337.510540	2497.793428
337.903056	2505.123266
338.295508	2512.730367
338.687896	2518.593229
339.080220	2530.447502
339.472480	2534.533357
339.864676	2537.419418
340.256807	2539.140972
340.648875	2542.122815
341.040879	2546.213711
341.432818	2544.605583
341.824694	2545.001313
342.216506	2544.950902
342.608253	2546.775800
342.999937	2543.887218
343.391557	2543.728422
343.783113	2542.442928
344.174605	2540.239944
344.566033	2535.292051
344.957397	2538.283976
345.348697	2534.364479
345.739934	2535.675179
346.131106	2531.223840
346.522215	2530.339118
346.913260	2527.218643
347.304241	2526.459950
347.695159	2524.849301
348.086012	2524.352747
348.476802	2523.120185
348.867528	2521.804444
349.258191	2518.573064
349.648789	2519.793024
350.039324	2515.999555
350.429796	2520.612211
350.820203	2517.781603
351.210548	2517.030471
351.600828	2517.476613
351.991045	2515.266067
352.381198	2513.778927
352.771288	2513.597446
353.161314	2513.516787
353.551276	2516.332272
353.941175	2515.664319
354.331010	2515.465193
354.720782	2515.286232
355.110490	2512.332116
355.500135	2515.835718
355.889717	2512.687517
356.279235	2515.807992
356.668689	2516.748167
357.058080	2516.768331
357.447408	2512.485871
357.836672	2514.464524
358.225873	2515.495440
358.615010	2514.772034
359.004084	2516.818743
359.393095	2515.994514
359.782043	2519.112468
360.170927	2519.503157
360.559748	2518.908301
360.948505	2517.532066
361.337199	2523.468025
361.725830	2522.593385
362.114398	2523.437778
362.502903	2521.050792
362.891344	2522.147243
363.279722	2521.456604
363.668037	2523.168076
364.056289	2524.284692
364.444478	2525.444157
364.832603	2524.062881
365.220665	2526.223015
365.608665	2524.859383
365.996601	2523.389887
366.384474	2525.487007
366.772284	2527.868952
367.160031	2527.243849
367.547715	2524.282171
367.935336	2527.745444
368.322893	2526.994312
368.710388	2524.698066
369.097820	2532.307688
369.485189	2530.001360
369.872495	2530.071936
370.259738	2530.064375
370.646918	2528.937677
371.034035	2530.218130
371.421090	2530.117307
371.808081	2533.124355
372.195010	2530.271062
372.581875	2534.495549
372.968678	2532.227030
373.355418	2535.990251
373.742096	2533.474715
374.128710	2536.300282
374.515262	2537.235416
374.901751	2538.321785
375.288177	2539.163657
375.674540	2541.197763
376.060841	2541.603576
376.447079	2542.594162
376.833254	2547.363094
377.219367	2544.111550
377.605417	2547.864689
377.991404	2549.520708
378.377329	2551.171686
378.763191	2552.895760
379.148991	2560.588561
379.534727	2564.964283
379.920402	2567.033676
380.306013	2570.532237
380.691563	2577.428536
381.077049	2581.768969
381.462474	2585.113775
381.847835	2587.238621
382.233134	2597.391505
382.618371	2600.610282
383.003545	2607.052876
383.388657	2612.323402
383.773706	2618.536625
384.158693	2626.199178
384.543618	2633.105559
384.928480	2639.959008
385.313280	2649.080976
385.698017	2652.708086
386.082692	2661.454488
386.467305	2668.111332
386.851856	2677.490398
387.236344	2686.945082
387.620770	2694.383305
388.005133	2704.049717
388.389435	2712.087837
388.773674	2718.298539
389.157851	2728.007801
389.541965	2741.303844
389.926018	2742.284349
390.310008	2756.901174
390.693936	2766.554984
391.077802	2771.374327
391.461606	2784.564506
391.845348	2793.469704
392.229027	2802.442958
392.612645	2818.110864
392.996200	2826.290136
393.379694	2838.938391
393.763125	2855.385156
394.146494	2861.185003
394.529801	2873.311499
394.913047	2890.138870
395.296230	2891.494941
395.679351	2895.313615
396.062410	2917.363622
396.445408	2911.762900
396.828343	2922.460228
397.211217	2930.699994
397.594028	2925.242945
397.976778	2939.443876
398.359466	2953.884261
398.742092	2948.704475
399.124656	2967.011425
399.507158	2979.062304
399.889598	2983.942141
400.271977	2999.027793
400.654294	3007.496932
401.036549	3017.944723
401.418742	3022.597708
401.800874	3046.039074
402.182944	3052.761452
402.564952	3083.855289
402.946898	3073.220975
403.328783	3083.003334
403.710606	3095.638986
404.092367	3119.443315
404.474067	3147.265443
404.855705	3141.306799
405.237282	3139.605410
405.618797	3166.910819
406.000250	3190.238759
406.381642	3221.680435
406.762972	3225.249572
407.144240	3214.890001
407.525447	3238.999319
407.906593	3241.756831
408.287677	3259.650406
408.668700	3280.051956
409.049661	3278.471554
409.430560	3293.728606
409.811399	3294.527629
410.192176	3315.070331
410.572891	3325.233297
410.953545	3365.345758
411.334138	3332.726972
411.714669	3382.180692
412.095139	3329.649348
412.475547	3379.322357
412.855894	3371.737941
413.236180	3399.582755
413.616405	3379.652553
413.996568	3401.715163
414.376670	3409.193714
414.756711	3406.196748
415.136691	3426.207609
415.516609	3451.683080
415.896466	3458.450829
416.276262	3485.476454
416.655997	3512.958305
417.035670	3525.805685
417.415283	3589.261209
417.794834	3611.981690
418.174324	3591.633072
418.553753	3595.431582
418.933121	3639.629898
419.312428	3626.379225
419.691674	3624.335037
420.070859	3660.717044
420.449983	3641.845485
420.829045	3689.000438
421.208047	3674.106349
421.586988	3721.019327
421.965867	3751.488061
422.344686	3758.228083
422.723444	3799.111841
423.102141	3705.663972
423.480777	3805.695588
423.859352	3773.265845
424.237866	3872.526164
424.616319	3857.465717
424.994712	3912.923451
425.373044	3902.004312
425.751314	3969.155001
426.129524	3901.923653
426.507673	4005.161443
426.885762	3977.712360
427.263789	4002.784539
427.641756	4003.737317
428.019662	4033.732182
428.397508	4040.646125
428.775292	4074.658790
429.153016	4081.865119
429.530679	4092.217128
429.908282	4099.105865
430.285824	4083.034667
430.663305	4153.285666
431.040726	4111.882670
431.418086	4099.824230
431.795385	4173.399870
432.172624	4208.723235
432.549802	4175.426414
432.926920	4198.855176
433.303977	4188.601469
433.680974	4227.095720
434.057910	4250.829473
434.434786	4255.162344
434.811601	4252.863578
435.188355	4357.515411
435.565050	4326.829908
435.941683	4321.385462
436.318257	4413.568001
436.694770	4419.234258
437.071222	4469.464315
437.447614	4409.220006
437.823946	4411.720418
438.200218	4430.279426
438.576429	4410.092125
438.952580	4435.444088
439.328670	4440.432310
439.704700	4480.726253
440.080670	4442.345428
440.456580	4503.383718
440.832429	4539.125499
441.208218	4442.373154
441.583947	4487.158765
441.959616	4509.838916
442.335224	4531.871279
442.710773	4556.121749
443.086261	4606.760140
443.461689	4557.278694
443.837057	4567.025765
444.212365	4643.147188
444.587612	4641.103000
444.962800	4609.288278
445.337927	4649.567098
445.712995	4534.732134
446.088002	4720.816246
446.462949	4744.925564
446.837837	4757.412502
447.212664	4742.601592
447.587431	4959.663594
447.962139	5250.132358
448.336786	5573.126647
448.711374	5555.525458
449.085901	5206.027303
449.460369	5138.596829
449.834776	5071.226849
450.209124	5291.631137
450.583412	5293.279594
450.957640	5407.963323
451.331808	5264.295480
451.705917	5118.686792
452.079965	5095.467238
452.453954	5125.507473
452.827883	5086.499025
453.201752	5084.716977
453.575562	5110.371409
453.949311	5217.793356
454.323001	5215.262697
454.696632	5195.675294
455.070202	5325.069110
455.443713	5343.781873
455.817164	5409.334517
456.190556	5458.679852
456.563888	5422.552423
456.937160	5476.863294
457.310373	5321.754552
457.683526	5356.107494
458.056619	5333.258465
458.429653	5297.768742
458.802628	5323.574408
459.175542	5328.078679
459.548398	5428.705151
459.921194	5560.606941
460.293930	5586.168112
460.666607	5769.777017
461.039224	5923.396098
461.411782	6001.077759
461.784280	5911.193986
462.156719	5886.341097
462.529099	5830.684238
462.901419	5692.130645
463.273680	5548.515734
463.645882	5512.859653
464.018024	5484.624150
464.390106	5499.944217
464.762130	5660.280635
465.134094	5907.972688
465.505999	6316.230532
465.877845	6771.905470
466.249631	6984.289281
466.621358	6892.295785
466.993026	6716.679629
467.364634	6519.575555
467.736184	6283.503362
468.107674	6122.791377
468.479105	6016.004615
468.850477	5922.274442
469.221790	5767.258961
469.593043	5582.152833
469.964238	5467.980781
470.335373	5408.016256
470.706449	5451.138286
471.077467	5505.529815
471.448425	5827.233568
471.819324	6112.983812
472.190164	6083.777888
472.560945	5762.976501
472.931667	5448.002688
473.302330	5288.631650
473.672934	5171.933980
474.043479	5153.667359
474.413965	5053.182039
474.784393	4978.827541
475.154761	5001.666488
475.525070	4952.495073
475.895321	4879.345411
476.265513	4870.445253
476.635645	4893.206063
477.005719	4835.469728
477.375734	4813.913754
477.745691	4807.718176
478.115588	4835.091642
478.485427	4870.757805
478.855207	4994.871013
479.224928	5092.873564
479.594591	5168.301828
479.964194	5104.367395
480.333739	5063.947423
480.703226	4995.977546
481.072653	4957.962205
481.442022	4930.288791
481.811333	4909.546963
482.180584	4795.783244
482.549777	4710.078588
482.918912	4626.181185
483.287988	4564.442174
483.657005	4478.092250
484.025964	4395.321545
484.394864	4350.515769
484.763706	4284.264925
485.132489	4199.490362
485.501213	4142.437103
485.869879	4098.200978
486.238487	4031.259496
486.607036	3995.129547
486.975527	3934.171914
487.343959	3892.867220
487.712333	3855.590408
488.080648	3814.850323
488.448905	3788.522897
488.817104	3735.200093
489.185244	3713.329047
489.553326	3704.781770
489.921350	3731.295719
490.289315	3778.964870
490.657222	3772.872635
491.025070	3751.321702
491.392861	3689.532280
491.760593	3622.106847
492.128267	3544.767985
492.495883	3475.870536
492.863440	3409.665062
493.230939	3346.703571
493.598380	3296.334883
493.965763	3256.262751
494.333088	3218.814539
494.700354	3184.199457
495.067563	3153.922287
495.434713	3129.293729
495.801805	3109.313116
496.168839	3083.111719
496.535815	3055.017369
496.902733	3030.441744
497.269593	3010.957684
497.636395	2992.502020
498.003139	2974.736994
498.369825	2951.640947
498.736453	2938.140737
499.103023	2916.914959
499.469535	2901.257135
499.835989	2889.544014
500.202385	2869.472660
500.568723	2855.070084
500.935003	2849.202181
501.301226	2833.100735
501.667390	2825.349961
502.033497	2817.667243
502.399546	2805.462609
502.765537	2790.112296
503.131470	2779.782972
503.497345	2778.426901
503.863163	2762.028028
504.228923	2755.320772
504.594625	2752.651482
504.960269	2738.775706
505.325856	2734.231105
505.691385	2723.569065
506.056856	2720.357850
506.422270	2715.152859
506.787625	2711.805532
507.152924	2702.804552
507.518164	2702.514686
507.883347	2691.789631
508.248472	2689.571523
508.613540	2688.512881
508.978550	2683.781758
509.343503	2680.008455
509.708398	2677.071982
510.073236	2674.022084
510.438016	2672.660973
510.802738	2666.639315
511.167403	2665.651248
511.532010	2660.514313
511.896561	2660.015238
512.261053	2662.089673
512.625488	2656.773777
512.989866	2652.052736
513.354186	2650.999135
513.718449	2645.925213
514.082655	2646.814977
514.446803	2649.123826
514.810894	2645.831952
515.174927	2647.886222
515.538904	2644.493526
515.902822	2645.489154
516.266684	2639.890952
516.630488	2638.809625
516.994235	2640.669811
517.357925	2642.608134
517.721558	2636.873822
518.085133	2637.874491
518.448651	2637.151085
518.812112	2636.112607
519.175516	2635.658904
519.538863	2636.742752
519.902152	2634.446506
520.265385	2635.517751
520.628560	2634.572535
520.991678	2631.888121
521.354739	2632.641773
521.717743	2632.757720
522.080690	2630.469036
522.443580	2633.166053
522.806413	2631.066413
523.169189	2627.048613
523.531908	2631.807462
523.894569	2628.210599
524.257174	2630.610188
524.619722	2630.355610
524.982213	2629.370064
525.344647	2628.820578
525.707025	2625.805968
526.069345	2628.097173
526.431608	2627.033489
526.793815	2626.753705
527.155964	2626.877214
527.518057	2625.160701
527.880093	2627.416617
528.242072	2626.088273
528.603995	2628.147584
528.965860	2623.177007
529.327669	2624.028962
529.689421	2622.831688
530.051117	2624.931328
530.412755	2623.628190
530.774337	2623.318159
531.135862	2621.644496
531.497331	2619.743981
531.858743	2617.621655
532.220098	2618.897067
532.581396	2620.270782
532.942638	2618.213991
533.303824	2622.186420
533.664953	2620.626183
534.026025	2622.118364
534.387040	2622.204064
534.747999	2618.980246
535.108902	2620.285905
535.469748	2620.721965
535.830537	2619.870010
536.191270	2620.716924
536.551947	2620.459825
536.912567	2620.336317
537.273131	2618.776079
537.633638	2619.794392
537.994089	2617.472941
538.354483	2617.934207
538.714821	2618.639968
539.075103	2618.440843
539.435328	2619.270112
539.795497	2616.822632
540.155609	2615.547220
540.515665	2616.865482
540.875665	2617.409927
541.235609	2615.927827
541.595496	2617.873713
541.955328	2616.421861
542.315102	2616.749536
542.674821	2617.178034
543.034483	2616.658795
543.394090	2616.202570
543.753640	2615.937910
544.113134	2616.371449
544.472571	2611.620162
544.831953	2614.168465
545.191278	2613.087137
545.550548	2613.828187
545.909761	2614.493619
546.268918	2618.672736
546.628019	2616.903291
546.987064	2612.567898
547.346053	2615.138887
547.704986	2613.790378
548.063863	2614.125615
548.422684	2612.915738
548.781449	2614.682662
549.140158	2615.474124
549.498811	2616.041253
549.857408	2614.049998
550.215949	2611.665532
550.574434	2610.516149
550.932864	2609.976745
551.291237	2611.925151
551.649555	2614.095368
552.007817	2614.569237
552.366022	2613.324072
552.724173	2611.574791
553.082267	2613.447580
553.440305	2615.688373
553.798288	2613.855913
554.156215	2612.547734
554.514086	2614.402878
554.871902	2615.073352
555.229661	2612.860285
555.587365	2613.256016
555.945014	2615.496809
556.302606	2611.267281
556.660143	2614.281891
557.017625	2616.442025
557.375050	2613.959257
557.732421	2611.970522
558.089735	2614.360029
558.446994	2611.836931
558.804197	2617.099896
559.161345	2613.382045
559.518437	2613.535800
559.875474	2612.683845
560.232455	2615.171654
560.589381	2615.224587
560.946251	2616.532766
561.303065	2611.277363
561.659825	2613.654267
562.016528	2613.800461
562.373177	2613.122425
562.729770	2615.040584
563.086307	2613.520677
563.442789	2614.057559
563.799216	2613.273660
564.155587	2613.515635
564.511904	2615.806840
564.868164	2613.876078
565.224370	2616.106788
565.580520	2613.634102
565.936615	2613.046808
566.292654	2613.656788
566.648638	2615.106119
567.004567	2614.362549
567.360441	2614.347426
567.716260	2611.201746
568.072023	2613.445059
568.427732	2611.605038
568.783385	2612.469596
569.138982	2611.295007
569.494525	2613.437497
569.850013	2612.472117
570.205445	2614.100409
570.560823	2612.724174
570.916145	2611.577312
571.271412	2610.463217
571.626625	2611.708382
571.981782	2613.772734
572.336884	2611.579832
572.691931	2611.446242
573.046923	2611.448762
573.401860	2613.445059
573.756743	2613.941613
574.111570	2613.021602
574.466342	2614.670060
574.821059	2616.716768
575.175722	2614.992693
575.530330	2611.209308
575.884882	2614.266767
576.239380	2615.547220
576.593823	2611.567229
576.948211	2609.434821
577.302544	2613.699637
577.656823	2612.978752
578.011047	2613.639144
578.365216	2611.995728
578.719330	2611.103443
579.073389	2609.465068
579.427394	2608.855089
579.781344	2609.369286
580.135239	2611.940275
580.489080	2612.572940
580.842866	2609.013885
581.196597	2611.877260
581.550273	2611.423557
581.903895	2611.544544
582.257463	2612.028495
582.610975	2611.748711
582.964434	2612.063783
583.317837	2608.900459
583.671186	2608.696292
584.024481	2608.640840
584.377721	2612.557816
584.730906	2610.518669
585.084037	2608.855089
585.437113	2607.914913
585.790135	2611.408433
586.143103	2609.099585
586.496016	2610.783330
586.848874	2608.978597
587.201679	2606.841148
587.554428	2606.926847
587.907124	2608.156889
588.259765	2605.195211
588.612352	2611.894904
588.964884	2610.463217
589.317362	2606.382403
589.669786	2607.889708
590.022155	2609.457507
590.374470	2608.421549
590.726731	2608.792074
591.078937	2609.182764
591.431090	2607.977928
591.783188	2609.553288
592.135232	2607.559512
592.487222	2608.013216
592.839157	2609.117229
593.191038	2606.649584
593.542866	2610.473299
593.894639	2608.290479
594.246358	2608.862650
594.598022	2607.148658
594.949633	2607.652773
595.301190	2606.321909
595.652692	2606.377362
596.004141	2606.052207
596.355535	2605.089347
596.706876	2605.855602
597.058162	2606.596652
597.409395	2604.887701
597.760573	2607.262084
598.111698	2605.941302
598.462768	2609.029008
598.813785	2607.907352
599.164748	2603.539192
599.515657	2606.185798
599.866511	2605.243102
600.217312	2609.099585
600.568060	2607.478854
600.918753	2608.159409
601.269392	2604.733945
601.619978	2605.767382
601.970510	2605.389295
602.320988	2605.916096
602.671412	2606.828545
603.021783	2607.254522
603.372100	2606.180757
603.722363	2605.699326
604.072572	2605.285952
604.422728	2605.951384
604.772830	2600.942998
605.122878	2599.954932
605.472872	2603.040118
605.822813	2601.991558
606.172701	2601.258070
606.522534	2604.174377
606.872314	2607.131014
607.222041	2608.237547
607.571714	2604.161774
607.921333	2605.853082
608.270899	2603.390478
608.620411	2606.102619
608.969870	2607.204111
609.319276	2602.851074
609.668627	2606.420211
610.017926	2606.576487
610.367171	2606.606734
610.716362	2607.194028
611.065500	2605.991713
611.414585	2606.367279
611.763616	2604.590272
612.112594	2607.438524
612.461518	2605.341404
612.810389	2603.667741
613.159207	2605.981631
613.507971	2607.002465
613.856682	2605.855602
614.205340	2605.162443
614.553945	2604.771754
614.902496	2606.974738
615.250994	2606.536158
615.599439	2606.626899
615.947830	2607.085644
616.296169	2604.713781
616.644454	2609.432301
616.992686	2607.264605
617.340864	2609.477671
617.688990	2606.027001
618.037063	2605.601024
618.385082	2608.819801
618.733048	2606.815942
619.080961	2606.279059
619.428821	2606.243771
619.776628	2605.162443
620.124382	2607.574636
620.472083	2605.994234
620.819731	2607.622527
621.167326	2606.853751
621.514868	2605.177567
621.862357	2606.687392
622.209793	2602.750251
622.557176	2605.676641
622.904506	2600.854778
623.251783	2604.224789
623.599007	2601.250508
623.946179	2601.747062
624.293297	2599.720518
624.640363	2605.361569
624.987376	2606.478185
625.334336	2601.585745
625.681243	2602.435179
626.028097	2604.484408
626.374899	2605.301075
626.721647	2602.805704
627.068343	2600.030549
627.414987	2600.630446
627.761577	2600.776640
628.108115	2602.956939
628.454600	2602.520879
628.801032	2603.156064
629.147412	2603.014912
629.493739	2601.610951
629.840014	2602.359562
630.186236	2600.564911
630.532405	2598.114910
630.878521	2601.429469
631.224585	2601.689088
631.570597	2601.366455
631.916556	2603.360231
632.262462	2598.712287
632.608316	2602.115066
632.954117	2600.101125
633.299866	2597.668768
633.645562	2601.983996
633.991206	2601.805035
634.336797	2598.142637
634.682336	2601.721856
635.027823	2598.782863
635.373257	2599.458378
635.718639	2597.814962
636.063968	2598.235898
636.409245	2600.464088
636.754470	2597.633480
637.099642	2599.579366
637.444762	2598.059458
637.789829	2599.158429
638.134845	2597.104159
638.479808	2596.721031
638.824719	2597.913264
639.169577	2595.942173
639.514383	2596.390836
639.859137	2597.603233
640.203839	2595.037286
640.548489	2594.558376
640.893086	2593.124168
641.237632	2591.359764
641.582125	2591.304312
641.926566	2595.271700
642.270955	2596.158943
642.615292	2595.924529
642.959576	2595.886720
643.303809	2594.565938
643.647990	2595.622060
643.992118	2596.020311
644.336195	2592.751123
644.680219	2596.821854
645.024192	2596.345465
645.368112	2596.821854
645.711981	2596.834457
646.055797	2596.715990
646.399562	2597.520054
646.743274	2597.426793
647.086935	2597.522575
647.430544	2598.722369
647.774101	2599.065168
648.117606	2598.228336
648.461059	2595.339755
648.804460	2600.522061
649.147810	2595.748089
649.491108	2597.585589
649.834354	2598.770260
650.177548	2595.949735
650.520690	2594.722214
650.863781	2595.206165
651.206820	2596.284972
651.549807	2593.938314
651.892742	2595.458222
652.235626	2596.194231
652.578458	2593.822368
652.921238	2593.948397
653.263967	2596.121134
653.606644	2594.190372
653.949269	2595.259097
654.291843	2592.471339
654.634365	2597.227667
654.976836	2593.424117
655.319255	2594.742378
655.661622	2595.191041
656.003938	2593.048551
656.346203	2594.626432
656.688416	2593.744230
657.030577	2593.948397
657.372687	2591.664754
657.714746	2591.510999
658.056753	2592.272213
658.398708	2589.872624
658.740612	2589.038313
659.082465	2587.667119
659.424266	2590.936307
659.766016	2588.808940
660.107715	2593.033427
660.449362	2591.402614
660.790958	2591.100145
661.132503	2593.562748
661.473996	2592.448653
661.815438	2593.290526
662.156829	2593.298088
662.498168	2592.494024
662.839456	2591.720207
663.180693	2589.867583
663.521879	2593.877821
663.863013	2593.285485
664.204097	2593.824888
664.545129	2595.178438
664.886110	2593.761874
665.227040	2594.313880
665.567918	2593.973602
665.908746	2592.864549
666.249522	2595.259097
666.590248	2593.146853
666.930922	2592.312542
667.271545	2593.484611
667.612118	2592.965372
667.952639	2592.451174
668.293109	2593.650969
668.633528	2593.850094
668.973896	2592.148705
669.314213	2592.451174
669.654480	2594.044179
669.994695	2594.485280
670.334859	2592.047882
670.674973	2589.451688
671.015035	2591.760536
671.355047	2592.219281
671.695008	2593.774477
672.034918	2591.400093
672.374777	2592.209199
672.714585	2593.240115
673.054342	2594.157605
673.394049	2591.284147
673.733705	2592.365474
674.073310	2590.835484
674.412864	2592.773808
674.752368	2590.159970
675.091820	2592.312542
675.431223	2591.296750
675.770574	2593.184662
676.109875	2589.245000
676.449125	2590.699373
676.788324	2590.648962
677.127473	2586.810123
677.466571	2585.464135
677.805619	2589.842377
678.144616	2591.339600
678.483562	2592.551997
678.822458	2589.696183
679.161303	2592.199116
679.500098	2591.634507
679.838842	2590.200299
680.177535	2590.628797
680.516179	2592.156267
680.854771	2588.251893
681.193314	2593.706421
681.531805	2591.238777
681.870247	2590.021338
682.208638	2592.955289
682.546978	2588.849270
682.885268	2593.038468
683.223508	2594.853284
683.561697	2593.645928
683.899836	2592.743561
684.237925	2590.613673
684.575963	2592.519230
684.913951	2593.192224
685.251889	2592.332707
685.589776	2592.042841
685.927614	2589.176945
686.265401	2590.890937
686.603137	2590.958993
686.940824	2593.492172
687.278460	2593.643407
687.616046	2592.395721
687.953582	2593.167018
688.291068	2595.047368
688.628504	2591.342120
688.965889	2591.586616
689.303224	2590.800196
689.640510	2593.703901
689.977745	2592.070567
690.314930	2592.920001
690.652065	2590.676688
690.989150	2592.869590
691.326185	2591.074939
691.663170	2589.232397
692.000105	2591.735330
692.336990	2588.511512
692.673825	2589.620566
693.010610	2587.601584
693.347345	2583.054463
693.684030	2583.727457
694.020665	2585.179310
694.357251	2582.683938
694.693786	2583.994638
695.030272	2588.587130
695.366707	2587.626790
695.703093	2584.924731
696.039429	2585.179310
696.375716	2583.966912
696.711952	2584.576892
697.048139	2582.131932
697.384276	2583.732498
697.720363	2585.474217
698.056400	2587.369691
698.392388	2583.367015
698.728326	2585.567478
699.064214	2583.729978
699.400053	2584.624783
699.735842	2585.081007
700.071581	2583.067066
700.407270	2583.505647
700.742910	2582.575554
701.078501	2584.760894
701.414042	2582.026068
701.749533	2582.620924
702.084974	2583.278795
702.420366	2585.058322
702.755709	2583.639237
703.091002	2581.098496
703.426246	2585.259968
703.761440	2583.661922
704.096584	2583.470358
704.431679	2580.422981
704.766725	2584.178641
705.101721	2582.835173
705.436668	2584.065215
705.771565	2581.935327
706.106413	2583.629155
706.441212	2582.184864
706.775961	2583.210739
707.110661	2583.291398
707.445311	2584.526480
707.779913	2582.356263
708.114465	2585.743919
708.448967	2582.996490
708.783421	2583.729978
709.117825	2582.694021
709.452180	2583.636717
709.786485	2583.881212
710.120742	2584.927252
710.454949	2583.361974
710.789107	2582.497416
711.123216	2582.797364
711.457275	2582.126891
711.791286	2583.276274
712.125247	2581.955492
712.459159	2585.249886
712.793023	2586.104361
713.126837	2587.135277
713.460602	2587.273909
713.794318	2584.423137
714.127985	2585.073445
714.461602	2582.749473
714.795171	2584.415575
715.128691	2584.329875
715.462162	2584.839032
715.795584	2583.109916
716.128957	2581.123701
716.462281	2584.050091
716.795556	2582.104206
717.128782	2580.727971
717.461960	2581.988259
717.795088	2581.632858
718.128167	2583.558579
718.461198	2583.160327
718.794180	2583.329206
719.127113	2580.634709
719.459997	2582.089082
719.792833	2580.901891
720.125619	2583.147725
720.458357	2582.993969
720.791046	2581.738722
721.123686	2581.567323
721.456278	2581.383321
721.788821	2580.690162
722.121315	2581.400965
722.453761	2578.088927
722.786158	2579.263516
723.118506	2577.178998
723.450805	2581.499267
723.783056	2580.750656
724.115259	2579.152610
724.447412	2578.855182
724.779518	2581.942889
725.111574	2579.071952
725.443582	2579.843248
725.775542	2579.626479
726.107453	2580.755697
726.439315	2581.847107
726.771129	2584.879361
727.102895	2579.444997
727.434612	2582.222673
727.766281	2582.741912
728.097901	2579.568505
728.429473	2577.403330
728.760996	2578.184709
729.092471	2579.497929
729.423897	2581.590008
729.755276	2582.157138
730.086606	2581.796695
730.417887	2579.213104
730.749120	2583.679566
731.080305	2584.589495
731.411442	2583.039340
731.742530	2583.462797
732.073570	2584.995308
732.404562	2584.579412
732.735506	2583.702252
733.066401	2583.896336
733.397249	2582.099165
733.728048	2583.896336
734.058798	2582.815008
734.389501	2583.545976
734.720156	2583.276274
735.050762	2581.892477
735.381320	2578.724112
735.711831	2581.111098
736.042293	2580.914493
736.372707	2577.637743
736.703073	2579.954154
737.033391	2579.215625
737.363661	2580.823753
737.693883	2578.154462
738.024056	2582.099165
738.354182	2579.966757
738.684260	2582.068918
739.014290	2579.422312
739.344272	2578.829976
739.674207	2580.448187
740.004093	2581.476582
740.333931	2580.541448
740.663722	2580.783423
740.993464	2581.814339
741.323159	2581.103537
741.652806	2582.189905
741.982405	2580.854000
742.311956	2580.662436
742.641460	2582.101685
742.970915	2580.861561
743.300323	2582.431881
743.629683	2578.421643
743.958996	2578.708989
744.288260	2579.946592
744.617477	2580.339802
744.946647	2576.271591
745.275768	2578.393917
745.604842	2574.471899
745.933869	2574.615572
746.262847	2572.853688
746.591778	2579.611355
746.920662	2578.038515
747.249498	2578.668659
747.578286	2578.421643
747.907027	2579.969277
748.235720	2579.296283
748.564365	2582.368866
748.892963	2578.711509
749.221514	2579.606314
749.550017	2578.703947
749.878473	2578.275449
750.206881	2579.928948
750.535242	2580.087744
750.863555	2575.953998
751.191821	2580.319637
751.520039	2579.971798
751.848210	2577.776375
752.176334	2577.731005
752.504411	2580.284349
752.832440	2576.125397
753.160421	2577.806622
753.488356	2576.044739
753.816243	2576.788309
754.144082	2574.492063
754.471875	2580.317117
754.799620	2578.545151
755.127318	2577.496591
755.454969	2575.754872
755.782572	2577.788978
756.110129	2576.914338
756.437638	2577.423494
756.765100	2575.621282
757.092515	2577.670511
757.419882	2578.535069
757.747203	2577.771334
758.074477	2576.183371
758.401703	2577.110943
758.728882	2577.531879
759.056014	2577.191601
759.383099	2577.050449
759.710138	2580.692683
760.037129	2577.514235
760.364073	2581.055646
760.690970	2579.649164
761.017820	2577.473906
761.344623	2579.807960
761.671379	2580.286870
761.998088	2577.892322
762.324751	2578.005748
762.651366	2581.247210
762.977935	2582.714185
763.304456	2586.235431
763.630931	2588.566965
763.957359	2589.625607
764.283740	2588.229208
764.610074	2587.228539
764.936362	2587.762901
765.262602	2581.958012
765.588796	2582.827611
765.914943	2579.591191
766.241044	2582.174782
766.567097	2578.721592
766.893104	2575.727146
767.219064	2577.420974
767.544978	2574.015674
767.870845	2575.233113
768.196665	2575.349060
768.522438	2576.354770
768.848165	2576.001889
769.173846	2575.722105
769.499479	2578.900553
769.825066	2574.711354
770.150607	2576.379976
770.476101	2576.531210
770.801548	2574.976014
771.126949	2573.826631
771.452303	2577.937692
771.777611	2575.991807
772.102872	2574.252609
772.428087	2572.994841
772.753256	2575.903587
773.078378	2574.199677
773.403453	2571.190108
773.728482	2571.767320
774.053465	2573.314954
774.378401	2571.769840
774.703291	2574.111456
775.028135	2571.880746
775.352932	2573.287228
775.677683	2572.112639
776.002388	2572.190777
776.327046	2572.339491
776.651658	2572.097515
776.976224	2571.729511
777.300743	2573.224213
777.625216	2572.077351
777.949643	2571.520303
778.274024	2572.493246
778.598359	2567.565518
778.922647	2570.038204
779.246889	2570.678431
779.571086	2570.940571
779.895236	2570.733883
780.219339	2570.794377
780.543397	2573.841755
780.867409	2572.352094
781.191374	2573.637588
781.515294	2571.784964
781.839167	2569.007288
782.162995	2570.123904
782.486776	2575.540623
782.810511	2571.500139
783.134201	2572.165571
783.457844	2571.744635
783.781441	2572.823442
784.104993	2571.177505
784.428498	2568.465364
784.751958	2572.904100
785.075372	2571.863102
785.398739	2572.213462
785.722061	2570.948132
786.045337	2571.311095
786.368568	2573.221693
786.691752	2570.507031
787.014891	2574.224882
787.337983	2573.191446
787.661030	2572.891497
787.984031	2575.076837
788.306987	2573.262022
788.629897	2574.708833
788.952760	2574.308061
789.275579	2573.337639
789.598351	2574.456775
789.921078	2573.763617
790.243759	2573.302351
790.566395	2573.267063
790.888984	2572.236147
791.211529	2571.411918
791.534027	2573.541806
791.856480	2570.035683
792.178888	2572.883935
792.501249	2573.803946
792.823566	2571.422001
793.145836	2572.105077
793.468062	2570.358317
793.790241	2572.150447
794.112375	2573.161199
794.434464	2571.144737
794.756507	2570.963256
795.078505	2571.946281
795.400457	2570.464182
795.722364	2569.075344
796.044226	2570.179356
796.366042	2569.541650
796.687812	2568.533420
797.009538	2571.825293
797.331218	2573.292269
797.652852	2573.473750
797.974442	2573.493915
798.295986	2573.493915
798.617484	2574.025757
798.938938	2573.657752
799.260346	2573.957701
799.581709	2574.734039
799.903026	2571.764799
800.224299	2570.159192
800.545526	2572.306723
800.866708	2572.261353
801.187845	2573.042732
801.508936	2570.988462
801.829983	2569.675241
802.150984	2571.401836
802.471940	2571.099367
802.792851	2571.802608
803.113717	2571.364028
803.434538	2570.454099
803.755314	2571.863102
804.076045	2571.187587
804.396731	2571.648853
804.717372	2570.222206
805.037967	2571.931157
805.358518	2571.734552
805.679024	2572.805797
805.999485	2569.060220
806.319901	2568.271280
806.640272	2568.742628
806.960598	2570.199521
807.280879	2571.318657
807.601115	2572.513411
807.921306	2568.586352
808.241453	2571.699264
808.561554	2570.738924
808.881611	2570.353276
809.201623	2568.193142
809.521590	2573.574573
809.841513	2571.548030
810.161390	2569.886969
810.481223	2569.733214
810.801011	2572.188256
811.120755	2570.413770
811.440453	2572.304203
811.760107	2571.994172
812.079716	2569.912175
812.399281	2565.801114
812.718801	2568.263718
813.038276	2565.763306
813.357707	2571.351425
813.677093	2570.358317
813.996434	2570.968297
814.315731	2572.730180
814.634983	2567.595765
814.954191	2569.571897
815.273354	2572.251271
815.592473	2569.032494
815.911547	2566.423697
816.230577	2570.370920
816.549562	2569.942422
816.868502	2569.748338
817.187399	2572.541137
817.506250	2572.773030
817.825058	2570.776733
818.143821	2572.468040
818.462539	2574.446693
818.781213	2572.407546
819.099843	2575.225551
819.418429	2574.033318
819.736970	2573.937537
820.055466	2575.550706
820.373919	2579.003896
820.692327	2579.747466
821.010691	2585.196954
821.329011	2592.370516
821.647286	2608.262753
821.965517	2624.041565
822.283704	2638.232413
822.601847	2642.653505
822.919945	2640.327012
823.237999	2635.928605
823.556010	2630.204375
823.873976	2619.673405
824.191897	2613.810543
824.509775	2607.504059
824.827609	2601.663883
825.145398	2597.527616
825.463144	2594.863366
825.780845	2592.526791
826.098502	2596.370671
826.416116	2596.017790
826.733685	2598.339242
827.051210	2602.946856
827.368692	2601.946187
827.686129	2597.507451
828.003522	2597.230188
828.320872	2586.568147
828.638177	2583.629155
828.955439	2580.700244
829.272656	2576.223700
829.589830	2573.730849
829.906960	2575.180181
830.224046	2575.646488
830.541088	2575.447362
830.858086	2576.226220
831.175041	2570.184398
831.491952	2573.624985
831.808819	2572.573904
832.125642	2573.786302
832.442421	2571.424521
832.759157	2575.694379
833.075849	2580.301993
833.392497	2581.716037
833.709101	2586.278281
834.025662	2585.121336
834.342179	2584.372725
834.658653	2580.425502
834.975083	2580.062538
835.291469	2583.503126
835.607811	2576.266550
835.924110	2577.310068
836.240366	2573.609862
836.556578	2572.215982
836.872746	2574.280335
837.188871	2571.923596
837.504952	2570.905282
837.820990	2570.028122
838.136984	2567.275652
838.452935	2568.737586
838.768842	2573.849316
839.084706	2568.495611
839.400526	2568.798080
839.716303	2572.077351
840.032037	2573.158678
840.347727	2574.635736
840.663373	2575.714543
840.978977	2572.929306
841.294537	2572.914182
841.610054	2571.598441
841.925527	2568.772874
842.240957	2571.953842
842.556344	2569.269428
842.871687	2570.938050
843.186987	2571.621126
843.502244	2569.453430
843.817458	2569.758420
844.132629	2566.650549
844.447756	2570.449058
844.762840	2562.693243
845.077881	2564.026628
845.392879	2562.635270
845.707833	2564.828172
846.022745	2564.656772
846.337613	2565.387740
846.652438	2564.981927
846.967221	2568.024263
847.281960	2566.960580
847.596656	2567.421845
847.911309	2564.860939
848.225919	2567.300857
848.540485	2565.047462
848.855009	2567.028635
849.169490	2567.976372
849.483928	2566.375806
849.798323	2567.210117
850.112675	2566.058213
850.426984	2565.980075
850.741251	2565.861608
851.055474	2565.317163
851.369654	2566.474108
851.683792	2566.569890
851.997887	2570.093657
852.311938	2565.438151
852.625947	2565.294478
852.939914	2566.204407
853.253837	2568.755230
853.567718	2567.164746
853.881555	2566.582493
854.195350	2563.683830
854.509103	2564.520661
854.822812	2564.981927
855.136479	2566.539643
855.450103	2566.098542
855.763685	2569.294634
856.077224	2565.312122
856.390720	2566.872359
856.704173	2565.599468
857.017584	2565.299519
857.330953	2565.042421
857.644278	2568.742628
857.957561	2567.399160
858.270802	2565.816238
858.584000	2565.733059
858.897155	2564.074519
859.210268	2567.169788
859.523339	2565.690209
859.836367	2564.755075
860.149352	2564.500497
860.462295	2567.187432
860.775195	2561.516133
861.088054	2563.078891
861.400869	2562.395815
861.713642	2560.878427
862.026373	2562.955383
862.339062	2564.329097
862.651708	2566.166598
862.964312	2565.027297
863.276873	2564.135013
863.589392	2565.977555
863.901869	2566.181721
864.214303	2564.898748
864.526696	2566.337997
864.839045	2565.344890
865.151353	2568.939232
865.463619	2566.310271
865.775842	2569.302196
866.088023	2563.313305
866.400162	2567.341187
866.712258	2565.060065
867.024313	2568.727504
867.336325	2567.545353
867.648296	2567.220199
867.960224	2568.180539
868.272110	2567.462174
868.583954	2566.862277
868.895755	2567.739438
869.207515	2565.697771
869.519233	2566.330435
869.830909	2565.453275
870.142542	2565.748182
870.454134	2567.673903
870.765684	2569.279510
871.077191	2566.504355
871.388657	2568.591393
871.700081	2568.412432
872.011463	2566.484191
872.322803	2568.167936
872.634101	2566.849674
872.945357	2564.092163
873.256571	2566.514437
873.567744	2566.378326
873.878874	2565.901937
874.189963	2567.406722
874.501010	2568.026784
874.812015	2568.162895
875.122979	2568.697257
875.433900	2565.675085
875.744780	2568.586352
876.055618	2569.143399
876.366415	2569.100549
876.677169	2569.488718
876.987882	2566.743810
877.298554	2565.712894
877.609183	2565.367575
877.919771	2563.220043
878.230317	2565.458316
878.540822	2568.427555
878.851285	2570.958215
879.161707	2568.906465
879.472087	2569.667679
879.782425	2573.924934
880.092722	2574.562640
880.402977	2581.088413
880.713191	2589.706266
881.023363	2594.928901
881.333494	2601.401743
881.643583	2604.928030
881.953631	2606.392485
882.263637	2602.568770
882.573602	2601.658842
882.883526	2602.437700
883.193408	2598.213213
883.503248	2595.473346
883.813048	2591.939497
884.122806	2589.101327
884.432522	2586.648806
884.742197	2585.925400
885.051831	2582.116809
885.361424	2580.531366
885.670975	2579.059349
885.980485	2577.718402
886.289954	2575.248237
886.599382	2573.677917
886.908768	2574.159347
887.218113	2571.575756
887.527417	2568.591393
887.836680	2570.212124
888.145901	2567.608368
888.455082	2567.074006
888.764221	2567.752041
889.073319	2566.489232
889.382376	2567.623491
889.691392	2568.107442
890.000366	2569.657597
890.309300	2567.454613
890.618193	2569.014850
890.927044	2568.414952
891.235855	2568.183059
891.544625	2566.370765
891.853353	2568.924109
892.162041	2565.632236
892.470687	2569.466033
892.779293	2566.998388
893.087858	2565.886814
893.396381	2565.496124
893.704864	2569.203893
894.013306	2567.018553
894.321707	2574.900397
894.630068	2575.459965
894.938387	2578.308217
895.246665	2578.686303
895.554903	2579.104719
895.863100	2576.165727
896.171256	2575.273442
896.479371	2574.983576
896.787446	2574.252609
897.095480	2573.808987
897.403473	2573.670355
897.711425	2570.345714
898.019336	2570.849830
898.327207	2570.169274
898.635038	2571.613565
898.942827	2570.060889
899.250576	2568.886300
899.558284	2571.401836
899.865952	2569.917216
900.173579	2569.881928
900.481165	2570.108780
900.788711	2564.427400
901.096216	2569.438307
901.403681	2566.708522
901.711105	2569.665159
902.018489	2563.840105
902.325832	2570.938050
902.633135	2568.079716
902.940397	2566.063254
903.247619	2571.142217
903.554800	2567.285734
903.861941	2576.556416
904.169041	2578.245202
904.476101	2581.463979
904.783121	2584.690318
905.090100	2580.019689
905.397039	2578.860223
905.703938	2577.448700
906.010796	2575.245716
906.317614	2572.410067
906.624391	2573.975345
906.931129	2571.585838
907.237826	2570.622978
907.544483	2569.687844
907.851099	2570.993503
908.157675	2568.344376
908.464211	2567.489901
908.770707	2563.106618
909.077163	2563.416648
909.383578	2564.477811
909.689954	2561.717780
909.996289	2562.088304
910.302584	2565.072668
910.608839	2566.963100
910.915054	2562.181566
911.221229	2563.777091
911.527363	2568.092319
911.833458	2564.702143
912.139513	2566.060734
912.445527	2566.645508
912.751502	2564.006463
913.057436	2565.672565
913.363331	2566.406053
913.669186	2563.406566
913.975000	2568.057031
914.280775	2564.387071
914.586510	2569.776064
914.892205	2572.344532
915.197859	2572.057186
915.503475	2573.960222
915.809050	2576.778227
916.114585	2580.639751
916.420081	2580.846438
916.725536	2580.307034
917.030952	2579.961715
917.336328	2576.274111
917.641665	2579.324009
917.946961	2578.424163
918.252218	2577.446180
918.557435	2574.587845
918.862612	2574.219841
919.167750	2573.055335
919.472848	2574.058524
919.777906	2572.490725
920.082925	2572.634398
920.387904	2570.106260
920.692843	2567.338666
920.997743	2565.662482
921.302603	2567.885631
921.607423	2566.312791
921.912204	2565.667524
922.216946	2566.557287
922.521647	2567.099211
922.826310	2567.749520
923.130932	2568.296485
923.435516	2566.461505
923.740059	2566.358162
924.044564	2564.283727
924.349028	2562.484035
924.653454	2560.613767
924.957840	2559.603016
925.262186	2560.152501
925.566493	2563.371278
925.870761	2558.980433
926.174989	2566.436300
926.479178	2563.260373
926.783328	2566.882442
927.087438	2566.582493
927.391509	2565.307081
927.695541	2562.650393
927.999533	2563.222564
928.303486	2564.215671
928.607400	2565.942267
928.911275	2562.007646
929.215110	2561.601833
929.518906	2561.601833
929.822663	2563.204920
930.126381	2564.487894
930.430060	2563.769529
930.733699	2564.379509
931.037299	2563.003274
931.340861	2563.681309
931.644383	2563.802297
931.947866	2561.246432
932.251309	2562.055537
932.554714	2561.780794
932.858080	2564.064437
933.161407	2560.185269
933.464694	2562.733572
933.767943	2563.935887
934.071153	2563.693912
934.374323	2561.947152
934.677455	2562.476473
934.980548	2563.267934
935.283602	2564.172822
935.586617	2562.352965
935.889593	2564.593758
936.192530	2561.228788
936.495428	2562.668037
936.798287	2562.708366
937.101108	2563.719118
937.403890	2561.944632
937.706632	2565.440672
938.009336	2562.521844
938.312002	2563.580486
938.614628	2562.017728
938.917216	2564.981927
939.219765	2562.947821
939.522275	2564.969324
939.824747	2559.701318
940.127179	2561.722821
940.429573	2558.635114
940.731929	2558.748540
941.034246	2562.660475
941.336524	2561.785835
941.638763	2563.025959
941.940964	2565.702812
942.243126	2564.845816
942.545250	2562.998233
942.847335	2564.485373
943.149381	2562.854560
943.451389	2562.342883
943.753359	2563.567883
944.055290	2563.953531
944.357182	2562.695763
944.659036	2563.847667
944.960851	2563.882955
945.262628	2561.748027
945.564367	2562.499158
945.866067	2561.322049
946.167729	2561.629559
946.469352	2561.932029
946.770937	2563.668706
947.072484	2561.231308
947.373992	2561.954714
947.675462	2560.361709
947.976893	2564.359344
948.278286	2561.145609
948.579641	2562.844477
948.880958	2562.857080
949.182236	2560.828016
949.483476	2563.676268
949.784678	2563.940928
950.085841	2560.704508
950.386967	2562.897410
950.688054	2564.077040
950.989103	2563.386402
951.290114	2561.604354
951.591087	2564.238357
951.892021	2561.077553
952.192917	2562.058057
952.493776	2565.095353
952.794596	2563.358675
953.095378	2564.129972
953.396122	2564.059396
953.696828	2563.996381
953.997496	2565.188614
954.298126	2564.293809
954.598718	2563.812379
954.899272	2560.762481
955.199788	2564.366906
955.500266	2561.163253
955.800706	2559.499672
956.101108	2558.103272
956.401472	2557.538663
956.701798	2559.265258
957.002087	2556.033879
957.302337	2561.107800
957.602550	2562.368088
957.902724	2561.211144
958.202861	2562.473953
958.502960	2560.028993
958.803022	2559.212326
959.103045	2559.368602
959.403031	2564.250959
959.702979	2559.303067
960.002889	2563.217523
960.302762	2560.676781
960.602596	2560.351627
960.902393	2560.379353
961.202153	2561.468242
961.501875	2562.030331
961.801559	2560.449929
962.101205	2562.869683
962.400814	2560.152501
962.700385	2561.427913
962.999918	2563.981258
963.299414	2559.542522
963.598873	2560.454971
963.898293	2559.882800
964.197677	2563.303222
964.497022	2562.872204
964.796331	2560.976730
965.095601	2563.028480
965.394835	2565.783470
965.694030	2561.586710
965.993189	2563.005794
966.292309	2559.071174
966.591393	2561.639642
966.890439	2560.311298
967.189447	2560.321380
967.488419	2561.415310
967.787353	2560.911195
968.086249	2559.015721
968.385108	2559.968499
968.683930	2560.084446
968.982714	2561.901782
969.281462	2559.378684
969.580172	2558.746019
969.878844	2564.192986
970.177480	2557.190823
970.476078	2563.109138
970.774639	2559.313149
971.073162	2562.688202
971.371649	2557.805844
971.670098	2558.307439
971.968510	2556.628735
972.266885	2556.429609
972.565223	2562.632749
972.863524	2561.664847
973.161788	2562.562173
973.460014	2560.187789
973.758204	2561.364899
974.056356	2558.851884
974.354471	2561.243911
974.652550	2560.553273
974.950591	2563.416648
975.248595	2562.131154
975.546563	2563.222564
975.844493	2562.005125
976.142386	2561.024621
976.440243	2557.889023
976.738062	2559.398849
977.035845	2559.683674
977.333590	2559.847512
977.631299	2559.976061
977.928971	2562.610064
978.226606	2559.774415
978.524204	2560.316339
978.821765	2562.897410
979.119290	2560.568397
979.416777	2562.892368
979.714228	2561.594271
980.011642	2559.197203
980.309020	2562.698284
980.606360	2562.363047
980.903664	2558.902295
981.200931	2558.138560
981.498162	2559.774415
981.795356	2562.695763
982.092513	2562.431103
982.389633	2561.223747
982.686717	2561.664847
982.983764	2564.893707
983.280775	2559.272820
983.577749	2562.998233
983.874686	2564.099725
984.171587	2561.432954
984.468451	2564.865980
984.765279	2562.471432
985.062070	2565.299519
985.358824	2564.031669
985.655543	2561.100238
985.952224	2561.495969
986.248869	2564.261042
986.545478	2556.343910
986.842050	2558.090669
987.138586	2555.101265
987.435086	2556.981616
987.731549	2556.467418
988.027975	2562.103428
988.324366	2558.579661
988.620719	2561.412790
988.917037	2559.033365
989.213318	2563.157029
989.509563	2557.147974
989.805772	2561.410269
990.101944	2556.971533
990.398080	2560.747358
990.694180	2556.684187
990.990244	2561.755588
991.286271	2557.831050
991.582262	2559.494631
991.878217	2561.543860
992.174136	2560.457491
992.470019	2560.344065
992.765865	2561.538819
993.061676	2560.822975
993.357450	2558.478838
993.653188	2558.229301
993.948890	2560.339024
994.244556	2561.506051
994.540186	2559.373643
994.835780	2555.431461
995.131337	2559.963458
995.426859	2561.904302
995.722345	2561.077553
996.017795	2559.585372
996.313208	2562.335321
996.608586	2561.168294
996.903928	2563.522513
997.199234	2561.992523
997.494504	2559.383725
997.789738	2560.596123
998.084936	2564.306412
998.380099	2561.687533
998.675225	2561.657286
998.970316	2561.755588
999.265371	2561.037224
999.560390	2560.359189
999.855373	2561.259035
1000.150320	2557.843653
1000.445232	2561.632080
1000.740108	2560.031514
1001.034948	2557.599157
1001.329752	2561.367419
1001.624521	2560.260886
1001.919254	2553.107489
1002.213951	2554.594629
1002.508613	2559.257697
1002.803239	2556.870710
1003.097829	2555.829712
1003.392384	2561.153170
1003.686903	2559.761812
1003.981386	2560.815413
1004.275834	2558.821637
1004.570246	2558.940104
1004.864623	2560.301215
1005.158964	2559.976061
1005.453270	2557.952038
1005.747540	2560.185269
1006.041775	2556.855587
1006.335974	2561.876576
1006.630138	2558.967830
1006.924266	2561.437996
1007.218359	2559.673592
1007.512416	2560.228119
1007.806438	2558.665361
1008.100425	2558.766184
1008.394376	2558.809034
1008.688292	2557.284085
1008.982172	2557.805844
1009.276017	2557.319373
1009.569827	2557.558828
1009.863602	2560.084446
1010.157341	2558.241904
1010.451045	2560.472615
1010.744714	2558.025134
1011.038347	2561.243911
1011.331945	2555.315514
1011.625508	2561.717780
1011.919036	2556.631255
1012.212528	2557.644527
1012.505986	2560.452450
1012.799408	2558.902295
1013.092795	2557.783159
1013.386147	2556.565720
1013.679464	2558.410783
1013.972745	2556.112017
1014.265992	2557.624363
1014.559204	2558.869528
1014.852380	2558.861966
1015.145521	2558.672923
1015.438628	2559.698798
1015.731699	2559.567727
1016.024736	2559.240053
1016.317737	2562.317677
1016.610703	2560.180228
1016.903635	2555.597819
1017.196531	2556.764846
1017.489393	2552.696635
1017.782219	2553.843497
1018.075011	2558.004970
1018.367768	2560.986812
1018.660490	2559.368602
1018.953177	2559.368602
1019.245829	2559.368602
