Dividing Wavelength (nm)	Counts (n)	Blue Motor Position (mm): 0.000000	Red Motor Position (mm): 41.500000	
326.493990	2126.754423
326.888308	2126.754423
327.282561	2126.754423
327.676750	2094.372571
328.070874	2093.223188
328.464933	2095.650504
328.858929	2102.277100
329.252859	2114.264964
329.646726	2124.110338
330.040528	2136.030146
330.434265	2156.552683
330.827938	2171.303099
331.221547	2187.273475
331.615091	2208.849613
332.008571	2226.864177
332.401986	2246.943092
332.795338	2267.286669
333.188625	2287.524381
333.581847	2306.370734
333.975006	2324.486121
334.368100	2342.951867
334.761129	2359.806965
335.154095	2374.257433
335.546996	2394.180073
335.939833	2419.206881
336.332606	2431.119128
336.725315	2445.713268
337.117960	2455.125102
337.510540	2461.933180
337.903056	2474.253760
338.295508	2478.390027
338.687896	2489.495689
339.080220	2499.693943
339.472480	2508.465551
339.864676	2507.520335
340.256807	2513.242044
340.648875	2516.501150
341.040879	2520.403003
341.432818	2519.951820
341.824694	2519.800585
342.216506	2523.089938
342.608253	2520.650020
342.999937	2523.420134
343.391557	2524.272089
343.783113	2521.847294
344.174605	2522.452232
344.566033	2519.291429
344.957397	2516.193640
345.348697	2515.709689
345.739934	2515.560975
346.131106	2511.490243
346.522215	2514.489730
346.913260	2508.639471
347.304241	2510.149296
347.695159	2505.501353
348.086012	2502.842144
348.476802	2502.093533
348.867528	2500.339211
349.258191	2498.385764
349.648789	2498.826865
350.039324	2498.204282
350.429796	2498.080774
350.820203	2492.825371
351.210548	2495.081287
351.600828	2490.763539
351.991045	2489.888899
352.381198	2494.330156
352.771288	2491.776811
353.161314	2489.604074
353.551276	2488.174907
353.941175	2491.093735
354.331010	2491.126502
354.720782	2491.973416
355.110490	2493.510968
355.500135	2492.225474
355.889717	2491.176914
356.279235	2491.610453
356.668689	2495.618170
357.058080	2490.839157
357.447408	2493.178252
357.836672	2488.978971
358.225873	2494.287306
358.615010	2486.818836
359.004084	2495.630773
359.393095	2493.674806
359.782043	2496.210506
360.170927	2495.156905
360.559748	2497.732934
360.948505	2496.974241
361.337199	2497.221257
361.725830	2497.561535
362.114398	2501.057575
362.502903	2500.293841
362.891344	2503.316012
363.279722	2501.448265
363.668037	2505.607217
364.056289	2500.866012
364.444478	2504.273832
364.832603	2505.352638
365.220665	2503.966321
365.608665	2507.580828
365.996601	2506.658297
366.384474	2504.989675
366.772284	2510.902949
367.160031	2510.950840
367.547715	2510.522342
367.935336	2516.707837
368.322893	2515.228259
368.710388	2521.645648
369.097820	2524.740916
369.485189	2528.655372
369.872495	2535.430683
370.259738	2542.516025
370.646918	2551.917777
371.034035	2555.827191
371.421090	2569.145920
371.808081	2577.055490
372.195010	2587.830957
372.581875	2599.874273
372.968678	2612.782147
373.355418	2623.862604
373.742096	2641.736015
374.128710	2658.482728
374.515262	2674.291786
374.901751	2685.397448
375.288177	2697.944880
375.674540	2724.025289
376.060841	2740.590521
376.447079	2761.027359
376.833254	2781.141562
377.219367	2789.943417
377.605417	2827.444561
377.991404	2839.815552
378.377329	2859.642410
378.763191	2878.871892
379.148991	2918.049219
379.534727	2944.401850
379.920402	2969.862198
380.306013	2982.263436
380.691563	3030.809748
381.077049	3051.538973
381.462474	3070.032445
381.847835	3112.788992
382.233134	3135.582569
382.618371	3129.465129
383.003545	3199.622867
383.388657	3204.898434
383.773706	3238.946387
384.158693	3257.056733
384.543618	3280.866102
384.928480	3315.771051
385.313280	3363.397352
385.698017	3364.667723
386.082692	3417.327616
386.467305	3422.736774
386.851856	3458.060139
387.236344	3475.278200
387.620770	3505.421780
388.005133	3532.490255
388.389435	3558.628638
388.773674	3571.057603
389.157851	3614.625775
389.541965	3628.975419
389.926018	3594.829164
390.310008	3667.111748
390.693936	3684.576826
391.077802	3725.536201
391.461606	3714.150755
391.845348	3775.713325
392.229027	3772.761730
392.612645	3790.448618
392.996200	3867.232953
393.379694	3908.741814
393.763125	3966.694918
394.146494	3937.330197
394.529801	4000.233715
394.913047	4048.681724
395.296230	4016.463710
395.679351	4068.062440
396.062410	4092.600256
396.445408	4073.380857
396.828343	4106.952421
397.211217	4130.756750
397.594028	4052.502918
397.976778	4114.899800
398.359466	4143.624295
398.742092	4171.794263
399.124656	4095.360288
399.507158	4172.689067
399.889598	4197.778890
400.271977	4263.099641
400.654294	4232.724168
401.036549	4244.258328
401.418742	4212.052917
401.800874	4312.979338
402.182944	4332.884334
402.564952	4396.269282
402.946898	4387.628744
403.328783	4382.131366
403.710606	4299.537101
404.092367	4486.677335
404.474067	4450.496973
404.855705	4461.353098
405.237282	4389.194022
405.618797	4499.653265
406.000250	4530.779869
406.381642	4612.093681
406.762972	4577.627312
407.144240	4588.324640
407.525447	4584.384978
407.906593	4642.456550
408.287677	4688.446997
408.668700	4617.802787
409.049661	4672.746323
409.430560	4710.892734
409.811399	4638.269872
410.192176	4798.376918
410.572891	4737.976333
410.953545	4841.259493
411.334138	4717.617633
411.714669	4785.209424
412.095139	4681.999361
412.475547	4823.522193
412.855894	4803.113082
413.236180	4815.446265
413.616405	4768.278709
413.996568	4856.687945
414.376670	4795.422802
414.756711	4749.704578
415.136691	4785.660607
415.516609	4864.400910
415.896466	4898.708483
416.276262	4935.944965
416.655997	4913.169032
417.035670	5096.404892
417.415283	5185.535013
417.794834	5131.055263
418.174324	5082.138427
418.553753	4991.584180
418.933121	5176.213919
419.312428	5245.459209
419.691674	5180.390515
420.070859	5309.441533
420.449983	5223.452052
420.829045	5335.295091
421.208047	5242.293364
421.586988	5317.961083
421.965867	5331.557075
422.344686	5459.622547
422.723444	5312.095701
423.102141	5134.321931
423.480777	5427.802784
423.859352	5197.323751
424.237866	5459.047856
424.616319	5447.201144
424.994712	5554.791970
425.373044	5437.491882
425.751314	5582.172997
426.129524	5385.199993
426.507673	5575.501030
426.885762	5660.300800
427.263789	5588.421508
427.641756	5473.964630
428.019662	5596.971305
428.397508	5603.489517
428.775292	5545.846443
429.153016	5646.298995
429.530679	5573.348458
429.908282	5657.603782
430.285824	5529.150141
430.663305	5802.771369
431.040726	5538.516605
431.418086	5537.929311
431.795385	5644.675743
432.172624	5656.744266
432.549802	5646.883769
432.926920	5661.170399
433.303977	5672.205485
433.680974	5710.745106
434.057910	5727.905193
434.434786	5737.375001
434.811601	5700.166244
435.188355	5938.333037
435.565050	5811.167411
435.941683	5792.953722
436.318257	6008.286609
436.694770	5992.606100
437.071222	6023.120204
437.447614	5954.469771
437.823946	5865.266553
438.200218	6021.617940
438.576429	5889.280090
438.952580	5989.243650
439.328670	6029.950967
439.704700	5943.013749
440.080670	5927.928096
440.456580	6195.348704
440.832429	6080.634728
441.208218	5927.605462
441.583947	6077.463842
441.959616	6088.251912
442.335224	6008.268965
442.710773	6149.035624
443.086261	6174.659809
443.461689	5969.331092
443.837057	6121.271469
444.212365	6275.364419
444.587612	6170.833573
444.962800	6322.426111
445.337927	6296.524662
445.712995	5912.797073
446.088002	6487.788560
446.462949	6315.315563
446.837837	6246.466004
447.212664	6421.809938
447.587431	6565.538275
447.962139	7105.002231
448.336786	8035.180815
448.711374	7778.326465
449.085901	6854.338418
449.460369	6772.492764
449.834776	6699.055756
450.209124	7097.087619
450.583412	7245.705876
450.957640	7390.974286
451.331808	7157.957031
451.705917	6712.714762
452.079965	6634.896991
452.453954	6843.494896
452.827883	6720.334466
453.201752	6813.898281
453.575562	6610.412106
453.949311	6817.202758
454.323001	6707.313166
454.696632	6780.616584
455.070202	6917.930053
455.443713	7072.118784
455.817164	7176.369846
456.190556	7256.320025
456.563888	7335.549320
456.937160	7376.561627
457.310373	7031.928185
457.683526	7052.513737
458.056619	6948.494568
458.429653	6933.938237
458.802628	6871.727878
459.175542	6975.742005
459.548398	7334.382293
459.921194	7496.256263
460.293930	7497.904720
460.666607	8025.935339
461.039224	8331.804828
461.411782	8457.881565
461.784280	8479.709761
462.156719	8371.972742
462.529099	8252.404134
462.901419	7841.020775
463.273680	7733.281235
463.645882	7743.164417
464.018024	7612.991742
464.390106	7783.135726
464.762130	8168.539499
465.134094	8628.391032
465.505999	9650.311055
465.877845	10875.482838
466.249631	11523.999554
466.621358	11141.983437
466.993026	10517.828097
467.364634	10257.523077
467.736184	9894.479341
468.107674	9564.742509
468.479105	9601.865566
468.850477	9354.014717
469.221790	9132.899627
469.593043	8806.774782
469.964238	8661.771032
470.335373	8674.580604
470.706449	8731.893482
471.077467	8714.763642
471.448425	10027.185196
471.819324	11096.373597
472.190164	11130.744184
472.560945	9875.325477
472.931667	9095.504348
473.302330	8946.913817
473.672934	8594.101104
474.043479	8950.729971
474.413965	8893.260817
474.784393	8777.178167
475.154761	8938.333773
475.525070	9021.308645
475.895321	8846.609979
476.265513	9024.179582
476.635645	9186.066156
477.005719	9188.090179
477.375734	9309.017378
477.745691	9542.490856
478.115588	9677.187966
478.485427	9917.358618
478.855207	10456.532707
479.224928	11263.626479
479.594591	11893.344732
479.964194	11715.160108
480.333739	11655.225830
480.703226	11567.940772
481.072653	11660.340081
481.442022	11898.375804
481.811333	12088.071902
482.180584	11892.573436
482.549777	11599.392531
482.918912	11426.569174
483.287988	11443.988881
483.657005	11460.113012
484.025964	11137.063270
484.394864	11275.463108
484.763706	11242.965310
485.132489	11002.225008
485.501213	10961.779831
485.869879	11033.820440
486.238487	10874.615760
486.607036	10989.160858
486.975527	10767.466035
487.343959	10959.183636
487.712333	11002.892961
488.080648	10936.432909
488.448905	10973.107303
488.817104	10916.414487
489.185244	11179.708911
489.553326	11340.882162
489.921350	11879.307639
490.289315	12935.497426
490.657222	13277.363274
491.025070	13189.884131
491.392861	13061.924523
491.760593	12690.809900
492.128267	12338.644975
492.495883	12007.635252
492.863440	11672.670743
493.230939	11336.266985
493.598380	11265.766449
493.965763	11130.356015
494.333088	11037.230780
494.700354	10959.042484
495.067563	11019.392657
495.434713	10843.423621
495.801805	10978.826492
496.168839	10896.718699
496.535815	10836.721407
496.902733	10835.887096
497.269593	10768.887640
497.636395	10868.594102
498.003139	10848.893272
498.369825	10718.672707
498.736453	10884.322502
499.103023	10806.547580
499.469535	10830.651857
499.835989	10826.170272
500.202385	10785.709971
500.568723	10630.303801
500.935003	10851.751607
501.301226	10665.312093
501.667390	10920.538151
502.033497	11020.368121
502.399546	10880.912161
502.765537	10780.855340
503.131470	10861.218894
503.497345	11035.811695
503.863163	10642.195882
504.228923	10954.485281
504.594625	11027.229131
504.960269	10770.357137
505.325856	10992.969449
505.691385	10787.618048
506.056856	10942.656213
506.422270	10961.787392
506.787625	10852.510300
507.152924	10971.688218
507.518164	10948.962697
507.883347	10868.710048
508.248472	10792.326485
508.613540	11020.509273
508.978550	10903.761191
509.343503	10879.974507
509.708398	11001.562096
510.073236	11113.435382
510.438016	11119.656166
510.802738	11063.091899
511.167403	11116.444951
511.532010	11011.725062
511.896561	11242.562017
512.261053	11316.598923
512.625488	11181.614467
512.989866	11170.894454
513.354186	11162.258957
513.718449	11059.580736
514.082655	11247.719118
514.446803	11146.840588
514.810894	11267.964392
515.174927	11134.109154
515.538904	11161.860706
515.902822	11318.456589
516.266684	11194.252640
516.630488	11144.904785
516.994235	11205.975843
517.357925	11259.500294
517.721558	11349.641166
518.085133	11366.503826
518.448651	11377.768284
518.812112	11255.663976
519.175516	11266.010945
519.538863	11393.476520
519.902152	11310.746144
520.265385	11467.924280
520.628560	11376.818027
520.991678	11357.646519
521.354739	11422.226220
521.717743	11356.265243
522.080690	11330.015954
522.443580	11461.852210
522.806413	11416.890159
523.169189	11447.242946
523.531908	11506.375681
523.894569	11330.245327
524.257174	11324.153093
524.619722	11448.810745
524.982213	11397.854762
525.344647	11447.825199
525.707025	11399.949361
526.069345	11494.130718
526.431608	11401.575133
526.793815	11523.845799
527.155964	11311.217492
527.518057	11362.402847
527.880093	11309.669858
528.242072	11375.277954
528.603995	11279.685074
528.965860	11204.783611
529.327669	11255.207752
529.689421	11202.336130
530.051117	11171.539722
530.412755	11281.978799
530.774337	11172.638693
531.135862	11148.783953
531.497331	11175.497027
531.858743	11029.154852
532.220098	11191.618637
532.581396	11064.374873
532.942638	11045.967100
533.303824	11005.380770
533.664953	11027.788699
534.026025	10942.268045
534.387040	11030.551251
534.747999	11031.446056
535.108902	11095.393093
535.469748	10846.947387
535.830537	10951.682399
536.191270	10938.383836
536.551947	10954.429828
536.912567	10949.658376
537.273131	10880.755885
537.633638	10857.251506
537.994089	10843.610143
538.354483	10795.633482
538.714821	10936.102713
539.075103	10954.376896
539.435328	10912.195041
539.795497	10746.003323
540.155609	10892.158975
540.515665	10989.312092
540.875665	10724.273429
541.235609	10789.947061
541.595496	10789.770620
541.955328	10944.917171
542.315102	10827.798564
542.674821	10773.023907
543.034483	10776.046079
543.394090	10778.924578
543.753640	10702.321724
544.113134	10930.917887
544.472571	10787.620568
544.831953	10927.988976
545.191278	10732.780376
545.550548	10756.551937
545.909761	10895.090406
546.268918	10872.228774
546.628019	10953.330857
546.987064	10816.897069
547.346053	10736.089893
547.704986	10841.145019
548.063863	10827.848976
548.422684	10818.021246
548.781449	10736.047044
549.140158	10835.735861
549.498811	10715.060720
549.857408	10568.055633
550.215949	10794.438729
550.574434	10648.388940
550.932864	10749.118756
551.291237	10801.826540
551.649555	10752.226627
552.007817	10764.726168
552.366022	10731.174768
552.724173	10725.150590
553.082267	10703.695439
553.440305	10844.630977
553.798288	10645.681840
554.156215	10798.706065
554.514086	10776.759402
554.871902	10629.802206
555.229661	10664.765128
555.587365	10635.171035
555.945014	10537.395335
556.302606	10661.770683
556.660143	10551.447552
557.017625	10708.350944
557.375050	10609.224216
557.732421	10740.737837
558.089735	10654.110650
558.446994	10654.798767
558.804197	10690.512822
559.161345	10691.629437
559.518437	10539.096725
559.875474	10633.109203
560.232455	10661.874027
560.589381	10614.194793
560.946251	10606.247414
561.303065	10718.960053
561.659825	10647.526903
562.016528	10577.918650
562.373177	10454.453231
562.729770	10574.349513
563.086307	10489.564867
563.442789	10579.806562
563.799216	10458.208891
564.155587	10501.020890
564.511904	10460.061515
564.868164	10449.550709
565.224370	10470.080808
565.580520	10387.700792
565.936615	10394.105578
566.292654	10265.611608
566.648638	10396.724458
567.004567	10349.037663
567.360441	10339.792187
567.716260	10242.414738
568.072023	10337.281692
568.427732	10291.344178
568.783385	10203.060971
569.138982	10272.137382
569.494525	10288.319485
569.850013	10168.947483
570.205445	10242.835675
570.560823	10144.399584
570.916145	10056.620493
571.271412	10129.220670
571.626625	10069.571217
571.981782	10046.029029
572.336884	10021.866778
572.691931	10033.627790
573.046923	9980.594852
573.401860	9927.816492
573.756743	9870.944714
574.111570	9909.345704
574.466342	9894.958251
574.821059	9922.493033
575.175722	9813.467999
575.530330	9825.697838
575.884882	9817.596704
576.239380	9742.934695
576.593823	9719.800840
576.948211	9732.887675
577.302544	9611.277400
577.656823	9633.261872
578.011047	9634.166759
578.365216	9605.812790
578.719330	9528.809165
579.073389	9536.176811
579.427394	9483.642947
579.781344	9464.791552
580.135239	9407.455989
580.489080	9423.585160
580.842866	9320.433070
581.196597	9322.447011
581.550273	9360.243062
581.903895	9331.556376
582.257463	9394.109534
582.610975	9274.631667
582.964434	9302.814238
583.317837	9222.246517
583.671186	9204.022746
584.024481	9198.858084
584.377721	9111.988921
584.730906	9091.587371
585.084037	9115.406823
585.437113	9061.179131
585.790135	9081.210156
586.143103	8975.910534
586.496016	8952.242317
586.848874	9004.640070
587.201679	8994.605653
587.554428	8877.179536
587.907124	8920.780476
588.259765	8893.192761
588.612352	8897.560921
588.964884	8775.338146
589.317362	8782.980535
589.669786	8780.447356
590.022155	8832.708997
590.374470	8848.074434
590.726731	8776.948795
591.078937	8631.035117
591.431090	8745.476871
591.783188	8615.016851
592.135232	8606.204914
592.487222	8601.491435
592.839157	8656.422368
593.191038	8593.952390
593.542866	8533.319912
593.894639	8431.866691
594.246358	8478.331006
594.598022	8493.451947
594.949633	8381.727374
595.301190	8362.739868
595.652692	8386.886995
596.004141	8495.992688
596.355535	8273.365252
596.706876	8253.482941
597.058162	8183.272271
597.409395	8253.803054
597.760573	8314.392683
598.111698	8224.231646
598.462768	8204.130045
598.813785	8169.479674
599.164748	8138.806773
599.515657	8130.186400
599.866511	8027.626646
600.217312	8158.290833
600.568060	8017.715737
600.918753	8113.225438
601.269392	8081.312414
601.619978	7989.707087
601.970510	8048.113895
602.320988	8047.156076
602.671412	8100.725897
603.021783	8027.838374
603.372100	8003.255188
603.722363	7998.655135
604.072572	7972.715878
604.422728	7979.249213
604.772830	7903.145434
605.122878	7906.149962
605.472872	7905.489571
605.822813	7928.746934
606.172701	7869.399950
606.522534	7940.633975
606.872314	7931.365813
607.222041	7897.985813
607.571714	7950.136550
607.921333	7904.907317
608.270899	7899.329281
608.620411	7980.791806
608.969870	7887.701859
609.319276	7867.930454
609.668627	7884.253710
610.017926	7917.411899
610.367171	7951.545552
610.716362	7926.624608
611.065500	7909.991321
611.414585	7923.380626
611.763616	7905.126607
612.112594	7881.486117
612.461518	7889.657827
612.810389	7943.121784
613.159207	7880.349336
613.507971	7818.101169
613.856682	7923.715862
614.205340	7867.953139
614.553945	7944.160262
614.902496	7830.053744
615.250994	7872.543110
615.599439	7847.970005
615.947830	7851.796241
616.296169	7812.896177
616.644454	7819.046385
616.992686	7805.034498
617.340864	7851.455963
617.688990	7752.949296
618.037063	7828.410328
618.385082	7762.010770
618.733048	7830.585586
619.080961	7763.870956
619.428821	7772.796319
619.776628	7760.516068
620.124382	7707.493212
620.472083	7683.565375
620.819731	7700.067593
621.167326	7586.661796
621.514868	7586.450067
621.862357	7477.321689
622.209793	7482.866958
622.557176	7413.835918
622.904506	7379.641772
623.251783	7311.245917
623.599007	7258.419666
623.946179	7255.158039
624.293297	7208.630710
624.640363	7129.925695
624.987376	7107.658919
625.334336	7048.397635
625.681243	6989.680795
626.028097	6966.068031
626.374899	6943.239166
626.721647	6918.784528
627.068343	6850.033272
627.414987	6813.338713
627.761577	6768.331292
628.108115	6789.519261
628.454600	6685.139650
628.801032	6711.923301
629.147412	6668.531569
629.493739	6648.089690
629.840014	6577.483289
630.186236	6615.506192
630.532405	6500.842627
630.878521	6536.420571
631.224585	6487.332335
631.570597	6411.468011
631.916556	6423.622233
632.262462	6411.747795
632.608316	6360.811977
632.954117	6329.607234
633.299866	6311.655685
633.645562	6291.365041
633.991206	6214.714297
634.336797	6159.919475
634.682336	6115.663186
635.027823	6076.163225
635.373257	6065.400361
635.718639	5992.641388
636.063968	5996.833107
636.409245	5897.759311
636.754470	5889.953084
637.099642	5842.241083
637.444762	5785.029028
637.789829	5782.140447
638.134845	5728.429473
638.479808	5700.166244
638.824719	5695.019226
639.169577	5629.390965
639.514383	5636.148632
639.859137	5566.000976
640.203839	5567.462911
640.548489	5537.115164
640.893086	5510.636504
641.237632	5475.373633
641.582125	5483.116845
641.926566	5443.314415
642.270955	5448.612667
642.615292	5433.516932
642.959576	5430.514925
643.303809	5413.541360
643.647990	5401.472838
643.992118	5391.975304
644.336195	5343.234908
644.680219	5340.144681
645.024192	5330.591694
645.368112	5380.320156
645.711981	5388.552361
646.055797	5432.715389
646.399562	5384.179160
646.743274	5457.805212
647.086935	5481.826310
647.430544	5465.805523
647.774101	5465.661850
648.117606	5463.063135
648.461059	5443.561431
648.804460	5404.825205
649.147810	5331.426005
649.491108	5300.180934
649.834354	5268.986274
650.177548	5200.545048
650.520690	5133.326303
650.863781	5107.767653
651.206820	5103.379329
651.549807	5045.206934
651.892742	4991.213656
652.235626	4984.881966
652.578458	4962.882371
652.921238	4891.212287
653.263967	4908.639556
653.606644	4860.680538
653.949269	4845.171429
654.291843	4804.338082
654.634365	4823.149148
654.976836	4780.011995
655.319255	4772.397332
655.661622	4745.898507
656.003938	4726.169951
656.346203	4700.956620
656.688416	4702.531981
657.030577	4665.018234
657.372687	4634.297443
657.714746	4621.505515
658.056753	4632.364160
658.398708	4582.774330
658.740612	4578.000357
659.082465	4585.211728
659.424266	4577.944904
659.766016	4565.652051
660.107715	4538.235736
660.449362	4539.932084
660.790958	4522.444321
661.132503	4506.612577
661.473996	4513.965100
661.815438	4497.036906
662.156829	4488.426615
662.498168	4470.260817
662.839456	4455.407057
663.180693	4458.658602
663.521879	4449.531593
663.863013	4433.359571
664.204097	4423.473868
664.545129	4449.037559
664.886110	4427.766411
665.227040	4432.742030
665.567918	4411.188576
665.908746	4412.811828
666.249522	4404.259510
666.590248	4392.022109
666.930922	4396.163417
667.271545	4388.810894
667.612118	4381.067682
667.952639	4362.002038
668.293109	4355.047767
668.633528	4326.086338
668.973896	4321.226665
669.314213	4309.737876
669.654480	4282.210655
669.994695	4272.355199
670.334859	4257.758538
670.674973	4237.185590
671.015035	4235.990836
671.355047	4216.877301
671.695008	4201.789128
672.034918	4188.835883
672.374777	4182.874719
672.714585	4167.766381
673.054342	4156.421264
673.394049	4144.133451
673.733705	4145.391219
674.073310	4130.822285
674.412864	4110.745889
674.752368	4091.468517
675.091820	4081.045932
675.431223	4046.183832
675.770574	4032.653375
676.109875	4004.261597
676.449125	3993.428157
676.788324	3968.723983
677.127473	3940.501083
677.466571	3920.301179
677.805619	3908.623347
678.144616	3893.169689
678.483562	3875.157647
678.822458	3856.646530
679.161303	3842.632122
679.500098	3830.409845
679.838842	3819.682269
680.177535	3813.879901
680.516179	3815.241013
680.854771	3808.566525
681.193314	3835.579548
681.531805	3880.060169
681.870247	3929.443312
682.208638	3968.786997
682.546978	3968.764312
682.885268	3947.631795
683.223508	3898.929208
683.561697	3872.440465
683.899836	3851.749049
684.237925	3823.369873
684.575963	3805.062923
684.913951	3783.259933
685.251889	3791.335861
685.589776	3779.060652
685.927614	3766.034310
686.265401	3780.812453
686.603137	3773.066720
686.940824	3792.518012
687.278460	3797.322231
687.616046	3796.999598
687.953582	3823.644616
688.291068	3810.134324
688.628504	3823.450532
688.965889	3804.992347
689.303224	3778.546454
689.640510	3747.286259
689.977745	3709.391905
690.314930	3663.436747
690.652065	3636.927839
690.989150	3595.822271
691.326185	3555.475396
691.663170	3522.851569
692.000105	3488.702793
692.336990	3454.007052
692.673825	3438.245884
693.010610	3411.913417
693.347345	3380.396123
693.684030	3359.719831
694.020665	3339.819876
694.357251	3310.356852
694.693786	3307.793425
695.030272	3294.966209
695.366707	3274.816718
695.703093	3258.438009
696.039429	3257.830550
696.375716	3243.221286
696.711952	3233.663258
697.048139	3225.660426
697.384276	3219.114488
697.720363	3220.147925
698.056400	3210.138714
698.392388	3193.765046
698.728326	3190.475693
699.064214	3176.436080
699.400053	3167.765295
699.735842	3147.247799
700.071581	3140.306130
700.407270	3123.708131
700.742910	3109.958384
701.078501	3096.927001
701.414042	3088.931731
701.749533	3072.031263
702.084974	3055.834036
702.420366	3060.194634
702.755709	3041.832231
703.091002	3022.295239
703.426246	3026.953265
703.761440	3016.704599
704.096584	3006.884432
704.431679	3002.281858
704.766725	2996.789521
705.101721	2989.807523
705.436668	2990.931700
705.771565	2976.360245
706.106413	2979.962150
706.441212	2982.868375
706.775961	2981.834938
707.110661	2976.433342
707.445311	2983.254023
707.779913	2979.445431
708.114465	2983.601863
708.448967	2987.261740
708.783421	2999.725993
709.117825	3006.476098
709.452180	3006.511386
709.786485	3018.100999
710.120742	3040.710574
710.454949	3039.372148
710.789107	3050.099723
711.123216	3067.544636
711.457275	3068.429358
711.791286	3083.139445
712.125247	3082.042994
712.459159	3067.811817
712.793023	3083.111719
713.126837	3058.621794
713.460602	3051.854045
713.794318	3035.709749
714.127985	3025.428316
714.461602	2998.185921
714.795171	2986.200578
715.128691	2965.231898
715.462162	2947.834876
715.795584	2933.447423
716.128957	2919.387645
716.462281	2906.913310
716.795556	2895.399314
717.128782	2884.830535
717.461960	2867.514172
717.795088	2864.008049
718.128167	2856.466483
718.461198	2841.285048
718.794180	2837.252125
719.127113	2829.282061
719.459997	2822.577327
719.792833	2811.832107
720.125619	2809.054431
720.458357	2800.597896
720.791046	2797.268214
721.123686	2791.332255
721.456278	2785.698766
721.788821	2783.861265
722.121315	2777.832045
722.453761	2775.190480
722.786158	2773.703340
723.118506	2770.726539
723.450805	2768.178235
723.783056	2768.442896
724.115259	2766.728904
724.447412	2764.604057
724.779518	2765.745879
725.111574	2765.037597
725.443582	2767.580859
725.775542	2764.689757
726.107453	2771.815428
726.439315	2770.378699
726.771129	2779.813218
727.102895	2778.323557
727.434612	2787.619445
727.766281	2788.347892
728.097901	2784.567027
728.429473	2783.697427
728.760996	2781.282715
729.092471	2778.434463
729.423897	2776.354987
729.755276	2772.642177
730.086606	2769.564553
730.417887	2775.505552
730.749120	2782.520318
731.080305	2787.821091
731.411442	2791.972482
731.742530	2783.664660
732.073570	2783.175668
732.404562	2788.279836
732.735506	2784.887140
733.066401	2781.393620
733.397249	2769.884666
733.728048	2752.031420
734.058798	2734.336970
734.389501	2723.967316
734.720156	2714.454659
735.050762	2707.654142
735.381320	2703.543081
735.711831	2697.833975
736.042293	2689.226204
736.372707	2694.201823
736.703073	2688.969106
737.033391	2686.370391
737.363661	2689.211081
737.693883	2690.617563
738.024056	2697.564273
738.354182	2694.045547
738.684260	2699.802545
739.014290	2704.614327
739.344272	2705.453679
739.674207	2707.717157
740.004093	2710.807384
740.333931	2707.515511
740.663722	2706.509800
740.993464	2704.778164
741.323159	2701.698019
741.652806	2693.974971
741.982405	2692.450022
742.311956	2683.708662
742.641460	2680.898218
742.970915	2674.942095
743.300323	2668.345745
743.629683	2662.566062
743.958996	2662.588748
744.288260	2656.549445
744.617477	2651.193219
744.946647	2646.298259
745.275768	2642.701396
745.604842	2640.747948
745.933869	2638.111425
746.262847	2635.951291
746.591778	2639.023874
746.920662	2635.767288
747.249498	2633.511372
747.578286	2636.523462
747.907027	2640.790798
748.235720	2641.993113
748.564365	2642.593011
748.892963	2639.545633
749.221514	2639.288534
749.550017	2634.650673
749.878473	2632.334263
750.206881	2633.034983
750.535242	2628.555918
750.863555	2628.828140
751.191821	2627.900568
751.520039	2625.407717
751.848210	2623.547532
752.176334	2622.798920
752.504411	2624.076853
752.832440	2621.500823
753.160421	2621.737757
753.488356	2621.485700
753.816243	2621.344547
754.144082	2617.669546
754.471875	2618.924793
754.799620	2619.630555
755.127318	2614.975049
755.454969	2614.758280
755.782572	2613.112343
756.110129	2611.327775
756.437638	2612.777106
756.765100	2612.061262
757.092515	2612.832559
757.419882	2612.580501
757.747203	2613.172837
758.074477	2612.318361
758.401703	2612.908176
758.728882	2615.317848
759.056014	2616.588219
759.383099	2614.881788
759.710138	2615.511932
760.037129	2615.708537
760.364073	2614.879267
760.690970	2615.411109
761.017820	2611.443721
761.344623	2613.510594
761.671379	2616.454628
761.998088	2614.090327
762.324751	2625.410238
762.651366	2646.199956
762.977935	2690.841894
763.304456	2719.710062
763.630931	2722.424723
763.957359	2692.407172
764.283740	2669.777433
764.610074	2651.021820
764.936362	2633.153450
765.262602	2624.283540
765.588796	2616.273147
765.914943	2609.031529
766.241044	2603.488780
766.567097	2601.000971
766.893104	2596.968048
767.219064	2595.934611
767.544978	2595.052409
767.870845	2587.478076
768.196665	2586.273240
768.522438	2584.934814
768.848165	2585.421285
769.173846	2583.616552
769.499479	2582.711665
769.825066	2581.113619
770.150607	2578.237641
770.476101	2577.884760
770.801548	2579.792837
771.126949	2576.712692
771.452303	2575.283525
771.777611	2574.587845
772.102872	2571.578277
772.428087	2573.617423
772.753256	2571.371589
773.078378	2572.329408
773.403453	2567.696588
773.728482	2567.507545
774.053465	2569.561815
774.378401	2567.542833
774.703291	2567.777247
775.028135	2566.211968
775.352932	2565.899417
775.677683	2564.838254
776.002388	2564.681978
776.327046	2565.312122
776.651658	2564.470250
776.976224	2563.051165
777.300743	2563.724159
777.625216	2565.672565
777.949643	2564.036710
778.274024	2562.753737
778.598359	2557.770556
778.922647	2558.438509
779.246889	2559.794579
779.571086	2556.028837
779.895236	2557.886503
780.219339	2560.714590
780.543397	2560.026472
780.867409	2560.903633
781.191374	2560.301215
781.515294	2559.809703
781.839167	2558.972871
782.162995	2558.282233
782.486776	2562.519323
782.810511	2560.517985
783.134201	2558.796431
783.457844	2557.183262
783.781441	2560.250804
784.104993	2555.907850
784.428498	2558.768705
784.751958	2558.151163
785.075372	2561.422872
785.398739	2557.289126
785.722061	2557.188303
786.045337	2557.153015
786.368568	2558.012532
786.691752	2557.218550
787.014891	2559.446740
787.337983	2561.145609
787.661030	2564.818089
787.984031	2568.223389
788.306987	2571.245560
788.629897	2569.052658
788.952760	2567.656259
789.275579	2568.092319
789.598351	2564.719787
789.921078	2559.754250
790.243759	2558.914898
790.566395	2557.117727
790.888984	2556.429609
791.211529	2556.364074
791.534027	2555.731409
791.856480	2554.476162
792.178888	2555.617983
792.501249	2556.210319
792.823566	2555.688560
793.145836	2556.701832
793.468062	2555.197047
793.790241	2555.134033
794.112375	2553.420040
794.434464	2553.462890
794.756507	2553.977088
795.078505	2557.543704
795.400457	2556.169990
795.722364	2556.021276
796.044226	2556.356512
796.366042	2556.280895
796.687812	2558.372974
797.009538	2559.350958
797.331218	2558.650237
797.652852	2556.691749
797.974442	2559.174518
798.295986	2554.776111
798.617484	2557.815927
798.938938	2556.316183
799.260346	2555.098745
799.581709	2554.191337
799.903026	2557.188303
800.224299	2555.527243
800.545526	2557.553787
800.866708	2550.904505
801.187845	2554.171172
801.508936	2553.984650
801.829983	2554.879454
802.150984	2552.835267
802.471940	2549.659340
802.792851	2551.219577
803.113717	2549.747560
803.434538	2551.040616
803.755314	2551.083466
804.076045	2550.108002
804.396731	2548.434339
804.717372	2550.418033
805.037967	2548.202446
805.358518	2550.846531
805.679024	2549.220759
805.999485	2551.151521
806.319901	2550.672612
806.640272	2551.670760
806.960598	2551.857283
807.280879	2548.303269
807.601115	2551.942982
807.921306	2550.745708
808.241453	2549.608928
808.561554	2553.072201
808.881611	2551.607746
809.201623	2550.642365
809.521590	2550.314690
809.841513	2550.022303
810.161390	2553.236038
810.481223	2550.536500
810.801011	2551.796789
811.120755	2549.601366
811.440453	2552.643703
811.760107	2550.773435
812.079716	2548.121788
812.399281	2546.536345
812.718801	2548.240255
813.038276	2545.394523
813.357707	2546.934596
813.677093	2550.113043
813.996434	2548.837632
814.315731	2547.410985
814.634983	2548.963660
814.954191	2550.463404
815.273354	2551.338044
815.592473	2550.551624
815.911547	2550.970040
816.230577	2550.324772
816.549562	2552.442057
816.868502	2550.181099
817.187399	2551.164124
817.506250	2550.975081
817.825058	2554.801317
818.143821	2554.246790
818.462539	2555.249979
818.781213	2555.890206
819.099843	2557.294167
819.418429	2560.762481
819.736970	2566.090981
820.055466	2568.946794
820.373919	2574.718915
820.692327	2578.784606
821.010691	2591.531163
821.329011	2621.261368
821.647286	2678.788495
821.965517	2756.767584
822.283704	2800.058492
822.601847	2802.533699
822.919945	2768.684871
823.237999	2728.610219
823.556010	2692.571010
823.873976	2660.526916
824.191897	2636.500776
824.509775	2620.366563
824.827609	2604.706219
825.145398	2600.874942
825.463144	2597.681371
825.780845	2598.613985
826.098502	2604.822166
826.416116	2621.609208
826.733685	2641.673000
827.051210	2646.396561
827.368692	2637.756024
827.686129	2619.312962
828.003522	2603.115735
828.320872	2586.663929
828.638177	2579.026581
828.955439	2568.389747
829.272656	2564.109807
829.589830	2560.563355
829.906960	2560.845660
830.224046	2556.656461
830.541088	2556.893395
830.858086	2556.641338
831.175041	2555.726368
831.491952	2553.097407
831.808819	2557.024465
832.125642	2555.083621
832.442421	2560.699467
832.759157	2563.388922
833.075849	2575.480130
833.392497	2588.246852
833.709101	2597.487287
834.025662	2597.015939
834.342179	2586.661409
834.658653	2577.993145
834.975083	2574.353432
835.291469	2570.922927
835.607811	2557.773077
835.924110	2554.657644
836.240366	2554.241748
836.556578	2549.097251
836.872746	2551.753939
837.188871	2549.016593
837.504952	2547.708413
837.820990	2548.736808
838.136984	2544.353525
838.452935	2546.518701
838.768842	2546.105326
839.084706	2549.263609
839.400526	2555.214691
839.716303	2558.872048
840.032037	2566.421176
840.347727	2563.837585
840.663373	2560.961607
840.978977	2556.883313
841.294537	2552.278219
841.610054	2547.486602
841.925527	2551.930379
842.240957	2546.317055
842.556344	2549.009031
842.871687	2545.041643
843.186987	2546.392672
843.502244	2540.060983
843.817458	2542.763041
844.132629	2542.397558
844.447756	2543.375541
844.762840	2534.059489
845.077881	2538.236085
845.392879	2539.088040
845.707833	2539.168698
846.022745	2536.053265
846.337613	2541.628782
846.652438	2539.846734
846.967221	2541.011240
847.281960	2539.256919
847.596656	2541.722043
847.911309	2540.686086
848.225919	2540.711292
848.540485	2538.392361
848.855009	2538.263811
849.169490	2538.898997
849.483928	2541.124666
849.798323	2539.539223
850.112675	2542.389996
850.426984	2538.200797
850.741251	2541.820345
851.055474	2540.280273
851.369654	2538.571322
851.683792	2540.204656
851.997887	2539.211548
852.311938	2543.007537
852.625947	2537.134593
852.939914	2537.857998
853.253837	2538.588966
853.567718	2541.308668
853.881555	2538.616692
854.195350	2540.744059
854.509103	2540.020653
854.822812	2541.101981
855.136479	2541.076775
855.450103	2541.832948
855.763685	2541.903524
856.077224	2539.221631
856.390720	2541.351518
856.704173	2540.998637
857.017584	2540.078627
857.330953	2537.747093
857.644278	2542.710109
857.957561	2542.982331
858.270802	2543.587270
858.584000	2541.525438
858.897155	2543.413350
859.210268	2541.679193
859.523339	2544.890408
859.836367	2539.912269
860.149352	2539.277083
860.462295	2542.142979
860.775195	2537.119469
861.088054	2537.391692
861.400869	2537.910931
861.713642	2538.508307
862.026373	2537.984027
862.339062	2540.063503
862.651708	2538.805735
862.964312	2541.825387
863.276873	2539.841693
863.589392	2538.662062
863.901869	2543.761190
864.214303	2541.659028
864.526696	2543.214224
864.839045	2540.514687
865.151353	2541.812784
865.463619	2540.555016
865.775842	2540.255067
866.088023	2543.904863
866.400162	2540.602907
866.712258	2543.042825
867.024313	2536.363296
867.336325	2543.090716
867.648296	2541.563247
867.960224	2541.588452
868.272110	2542.906714
868.583954	2541.651467
868.895755	2542.700027
869.207515	2538.977135
869.519233	2543.710778
869.830909	2544.411498
870.142542	2541.890922
870.454134	2539.352701
870.765684	2542.258926
871.077191	2539.161137
871.388657	2543.892260
871.700081	2543.730943
872.011463	2542.886549
872.322803	2540.441590
872.634101	2543.723381
872.945357	2545.001313
873.256571	2543.672969
873.567744	2543.856972
873.878874	2545.213042
874.189963	2541.767413
874.501010	2544.091385
874.812015	2544.479554
875.122979	2540.411343
875.433900	2547.201777
875.744780	2543.385624
876.055618	2543.950233
876.366415	2544.464431
876.677169	2544.973587
876.987882	2541.895963
877.298554	2543.899821
877.609183	2544.618186
877.919771	2544.161961
878.230317	2544.776982
878.540822	2547.642878
878.851285	2547.315203
879.161707	2551.401058
879.472087	2554.718137
879.782425	2560.888510
880.092722	2564.923953
880.402977	2583.488002
880.713191	2605.792588
881.023363	2633.342493
881.333494	2653.681029
881.643583	2657.865186
881.953631	2656.451143
882.263637	2647.049391
882.573602	2638.151754
882.883526	2622.367902
883.193408	2611.040429
883.503248	2601.300920
883.813048	2592.299939
884.122806	2581.196798
884.432522	2576.450552
884.742197	2567.472257
885.051831	2567.318502
885.361424	2560.739796
885.670975	2556.346430
885.980485	2552.558003
886.289954	2556.326266
886.599382	2551.950544
886.908768	2554.234187
887.218113	2550.758311
887.527417	2550.292004
887.836680	2546.503577
888.145901	2547.254709
888.455082	2547.358053
888.764221	2548.353681
889.073319	2546.748073
889.382376	2545.260933
889.691392	2545.691952
890.000366	2545.550799
890.309300	2545.409647
890.618193	2547.116077
890.927044	2545.964174
891.235855	2547.211859
891.544625	2547.673125
891.853353	2547.264792
892.162041	2548.078938
892.470687	2550.828887
892.779293	2550.571788
893.087858	2549.001469
893.396381	2549.271171
893.704864	2556.764846
894.013306	2561.639642
894.321707	2571.487536
894.630068	2578.416602
894.938387	2581.534555
895.246665	2578.797209
895.554903	2575.908628
895.863100	2570.078533
896.171256	2561.203582
896.479371	2562.715928
896.787446	2559.255176
897.095480	2556.759805
897.403473	2554.879454
897.711425	2550.077755
898.019336	2552.636141
898.327207	2548.341078
898.635038	2550.813764
898.942827	2549.402241
899.250576	2547.814277
899.558284	2547.668084
899.865952	2548.585574
900.173579	2544.905532
900.481165	2545.013916
900.788711	2543.468803
901.096216	2544.280428
901.403681	2542.440407
901.711105	2544.756817
902.018489	2544.925696
902.325832	2547.015254
902.633135	2544.035932
902.940397	2549.130018
903.247619	2550.173537
903.554800	2554.640000
903.861941	2569.513924
904.169041	2584.975143
904.476101	2593.933273
904.783121	2592.972933
905.090100	2587.876327
905.397039	2578.847620
905.703938	2569.992834
906.010796	2563.439334
906.317614	2557.790721
906.624391	2554.584547
906.931129	2548.973743
907.237826	2548.467107
907.544483	2545.969215
907.851099	2544.305634
908.157675	2545.023999
908.464211	2544.545089
908.770707	2537.948739
909.077163	2539.256919
909.383578	2538.089892
909.689954	2537.737011
909.996289	2535.370189
910.302584	2541.550644
910.608839	2538.752803
910.915054	2539.493853
911.221229	2538.112577
911.527363	2542.029553
911.833458	2540.043339
912.139513	2539.030067
912.445527	2540.486960
912.751502	2543.088196
913.057436	2544.693803
913.363331	2543.693134
913.669186	2544.761859
913.975000	2544.877805
914.280775	2549.145142
914.586510	2551.156562
914.892205	2556.424568
915.197859	2564.291289
915.503475	2571.507700
915.809050	2583.102354
916.114585	2586.754670
916.420081	2590.008735
916.725536	2586.989084
917.030952	2582.822570
917.336328	2577.146231
917.641665	2574.245047
917.946961	2567.535271
918.252218	2565.226423
918.557435	2557.972202
918.862612	2556.863148
919.167750	2554.337530
919.472848	2551.312838
919.777906	2552.016079
920.082925	2549.104813
920.387904	2547.330327
920.692843	2546.914431
920.997743	2546.470810
921.302603	2546.097764
921.607423	2546.944678
921.912204	2545.754966
922.216946	2543.867054
922.521647	2541.598535
922.826310	2541.729605
923.130932	2542.097609
923.435516	2540.499563
923.740059	2541.497712
924.044564	2540.033256
924.349028	2541.487629
924.653454	2531.180990
924.957840	2535.839016
925.262186	2535.765920
925.566493	2534.530837
925.870761	2534.505631
926.174989	2536.728780
926.479178	2538.919161
926.783328	2538.064686
927.087438	2535.039993
927.391509	2538.029398
927.695541	2537.462268
927.999533	2537.472350
928.303486	2540.403781
928.607400	2537.978986
928.911275	2533.802390
929.215110	2534.835827
929.518906	2534.321629
929.822663	2535.660055
930.126381	2534.722401
930.430060	2536.527134
930.733699	2538.485622
931.037299	2537.328677
931.340861	2538.525951
931.644383	2538.074768
931.947866	2534.576207
932.251309	2534.709798
932.554714	2536.086033
932.858080	2538.205838
933.161407	2534.830786
933.464694	2533.835158
933.767943	2533.941022
934.071153	2536.655683
934.374323	2535.486136
934.677455	2534.518234
934.980548	2534.868594
935.283602	2534.452699
935.586617	2533.825075
935.889593	2535.637370
936.192530	2534.150230
936.495428	2536.141486
936.798287	2535.662576
937.101108	2537.416897
937.403890	2535.007226
937.706632	2537.414377
938.009336	2536.388502
938.312002	2538.067206
938.614628	2537.535365
938.917216	2542.425284
939.219765	2538.465458
939.522275	2538.926723
939.824747	2538.916641
940.127179	2537.608461
940.429573	2533.941022
940.731929	2535.166022
941.034246	2534.785415
941.336524	2535.874304
941.638763	2537.190046
941.940964	2537.444624
942.243126	2537.875643
942.545250	2536.443955
942.847335	2539.955118
943.149381	2537.018646
943.451389	2537.454706
943.753359	2537.464788
944.055290	2536.048224
944.357182	2535.642411
944.659036	2536.068389
944.960851	2537.792463
945.262628	2533.008408
945.564367	2534.034283
945.866067	2535.539068
946.167729	2536.401105
946.469352	2535.690302
946.770937	2536.612833
947.072484	2534.677030
947.373992	2533.089067
947.675462	2533.184849
947.976893	2535.506300
948.278286	2533.590662
948.579641	2534.855991
948.880958	2534.591331
949.182236	2535.029911
949.483476	2532.690816
949.784678	2534.919006
950.085841	2532.285003
950.386967	2534.117462
950.688054	2531.649817
950.989103	2534.246012
951.290114	2537.550488
951.591087	2534.752648
951.892021	2534.412370
952.192917	2536.297761
952.493776	2537.444624
952.794596	2536.617875
953.095378	2535.395395
953.396122	2533.804911
953.696828	2536.411187
953.997496	2534.419932
954.298126	2535.413039
954.598718	2537.532844
954.899272	2535.027391
955.199788	2536.035621
955.500266	2534.477905
955.800706	2530.475229
956.101108	2530.097142
956.401472	2531.556556
956.701798	2528.932636
957.002087	2532.448840
957.302337	2534.437576
957.602550	2535.292051
957.902724	2533.502442
958.202861	2531.392719
958.502960	2531.899355
958.803022	2533.837678
959.103045	2532.403470
959.403031	2532.960518
959.702979	2530.664272
960.002889	2530.704601
960.302762	2531.818696
960.602596	2532.547143
960.902393	2533.134437
961.202153	2532.658048
961.501875	2529.890455
961.801559	2531.100332
962.101205	2530.281144
962.400814	2531.980013
962.700385	2532.045548
962.999918	2533.131917
963.299414	2530.119827
963.598873	2534.291382
963.898293	2530.646628
964.197677	2532.864736
964.497022	2532.559746
964.796331	2532.302647
965.095601	2530.150074
965.394835	2534.629139
965.694030	2529.451874
965.993189	2535.234078
966.292309	2530.177801
966.591393	2531.748120
966.890439	2530.747451
967.189447	2531.140661
967.488419	2531.622091
967.787353	2532.184180
968.086249	2531.581762
968.385108	2530.510517
968.683930	2533.565456
968.982714	2531.675023
969.281462	2532.264838
969.580172	2530.218130
969.878844	2528.834333
970.177480	2530.843233
970.476078	2527.957172
970.774639	2530.036648
971.073162	2532.799201
971.371649	2527.606812
971.670098	2525.882738
971.968510	2527.420289
972.266885	2527.258973
972.565223	2530.681916
972.863524	2530.351720
973.161788	2530.167718
973.460014	2529.771988
973.758204	2530.155115
974.056356	2530.563449
974.354471	2529.731658
974.652550	2528.705784
974.950591	2531.407842
975.248595	2530.795342
975.546563	2532.169056
975.844493	2528.431041
976.142386	2528.819210
976.440243	2529.708973
976.738062	2532.615198
977.035845	2528.504137
977.333590	2530.782739
977.631299	2532.998326
977.928971	2529.376257
978.226606	2527.488345
978.524204	2529.358613
978.821765	2531.163346
979.119290	2528.320135
979.416777	2531.468336
979.714228	2530.724766
980.011642	2529.789632
980.309020	2531.344828
980.606360	2529.703932
980.903664	2533.210055
981.200931	2528.070598
981.498162	2529.376257
981.795356	2528.602440
982.092513	2532.418593
982.389633	2529.346010
982.686717	2530.800383
982.983764	2536.824562
983.280775	2533.830117
983.577749	2531.629653
983.874686	2534.117462
984.171587	2531.617050
984.468451	2531.632173
984.765279	2532.562266
985.062070	2531.652338
985.358824	2531.775846
985.655543	2527.745444
985.952224	2533.086546
986.248869	2531.102852
986.545478	2525.706297
986.842050	2527.798376
987.138586	2523.604136
987.435086	2525.066071
987.731549	2523.720082
988.027975	2529.585465
988.324366	2527.332069
988.620719	2529.451874
988.917037	2527.155629
989.213318	2529.580424
989.509563	2529.615712
989.805772	2531.725435
990.101944	2526.845598
990.398080	2529.318284
990.694180	2527.150588
990.990244	2529.603109
991.286271	2527.833664
991.582262	2526.777542
991.878217	2528.604961
992.174136	2530.203006
992.470019	2529.572862
992.765865	2528.307532
993.061676	2527.803417
993.357450	2529.277955
993.653188	2529.638397
993.948890	2527.069929
994.244556	2527.311905
994.540186	2530.374406
994.835780	2526.538088
995.131337	2527.211082
995.426859	2530.139992
995.722345	2529.383819
996.017795	2530.157636
996.313208	2526.326359
996.608586	2529.678726
996.903928	2528.083201
997.199234	2529.824920
997.494504	2531.002029
997.789738	2529.492204
998.084936	2528.768798
998.380099	2527.251411
998.675225	2528.673016
998.970316	2530.621422
999.265371	2528.773839
999.560390	2529.187214
999.855373	2528.851977
1000.150320	2530.926412
1000.445232	2529.920702
1000.740108	2529.111597
1001.034948	2526.777542
1001.329752	2528.554549
1001.624521	2527.296781
1001.919254	2525.303005
1002.213951	2526.598581
1002.508613	2523.291584
1002.803239	2526.578417
1003.097829	2523.710000
1003.392384	2530.026566
1003.686903	2526.596061
1003.981386	2528.267203
1004.275834	2527.929446
1004.570246	2528.685619
1004.864623	2528.733510
1005.158964	2528.070598
1005.453270	2528.483973
1005.747540	2526.238139
1006.041775	2530.311391
1006.335974	2527.200999
1006.630138	2529.212420
1006.924266	2525.333252
1007.218359	2530.823068
1007.512416	2528.178983
1007.806438	2528.773839
1008.100425	2529.600588
1008.394376	2528.715866
1008.688292	2528.284847
1008.982172	2525.676050
1009.276017	2526.384332
1009.569827	2526.565814
1009.863602	2527.725279
1010.157341	2528.131092
1010.451045	2527.432892
1010.744714	2527.584127
1011.038347	2526.084384
1011.331945	2525.136647
1011.625508	2527.881555
1011.919036	2526.979188
1012.212528	2525.295443
1012.505986	2527.616894
1012.799408	2526.311236
1013.092795	2525.940711
1013.386147	2528.882224
1013.679464	2527.879034
1013.972745	2525.991122
1014.265992	2525.423992
1014.559204	2528.005063
1014.852380	2528.509179
1015.145521	2528.612522
1015.438628	2527.248890
1015.731699	2527.228726
1016.024736	2524.846780
1016.317737	2527.813499
1016.610703	2530.576052
1016.903635	2521.670853
1017.196531	2522.759743
1017.489393	2524.115813
1017.782219	2521.829650
1018.075011	2526.706966
1018.367768	2527.879034
1018.660490	2527.919364
1018.953177	2527.919364
1019.245829	2527.919364
