Dividing Wavelength (nm)	Counts (n)	Blue Motor Position (mm): 0.000000	Red Motor Position (mm): 28.500000	
326.493990	2128.712911
326.888308	2128.712911
327.282561	2128.712911
327.676750	2095.128744
328.070874	2093.147571
328.464933	2096.530185
328.858929	2104.956474
329.252859	2112.767742
329.646726	2123.160080
330.040528	2138.606176
330.434265	2154.808444
330.827938	2173.347287
331.221547	2188.027127
331.615091	2208.968080
332.008571	2226.216388
332.401986	2248.594070
332.795338	2267.508479
333.188625	2288.366253
333.581847	2307.356280
333.975006	2324.733137
334.368100	2343.773575
334.761129	2358.155987
335.154095	2376.636857
335.546996	2393.922974
335.939833	2407.808832
336.332606	2427.683581
336.725315	2438.121290
337.117960	2451.170317
337.510540	2457.534774
337.903056	2470.467854
338.295508	2476.595376
338.687896	2482.803557
339.080220	2488.734475
339.472480	2495.862666
339.864676	2502.411125
340.256807	2507.830366
340.648875	2510.603000
341.040879	2513.652898
341.432818	2515.760101
341.824694	2517.660616
342.216506	2515.765142
342.608253	2517.716068
342.999937	2517.733712
343.391557	2516.912004
343.783113	2512.309431
344.174605	2517.602642
344.566033	2511.873371
344.957397	2509.204080
345.348697	2508.309275
345.739934	2508.788185
346.131106	2505.087978
346.522215	2505.541682
346.913260	2502.098574
347.304241	2501.024808
347.695159	2501.856598
348.086012	2498.390805
348.476802	2495.348469
348.867528	2495.648417
349.258191	2493.858808
349.648789	2492.870742
350.039324	2491.307984
350.429796	2491.605412
350.820203	2487.466625
351.210548	2486.826398
351.600828	2484.797334
351.991045	2487.307828
352.381198	2484.262971
352.771288	2485.303970
353.161314	2483.587457
353.551276	2485.697180
353.941175	2483.053094
354.331010	2487.345637
354.720782	2487.937972
355.110490	2486.292036
355.500135	2487.713641
355.889717	2482.072590
356.279235	2486.468476
356.668689	2485.533342
357.058080	2488.031234
357.447408	2483.476551
357.836672	2485.878661
358.225873	2486.455873
358.615010	2483.892447
359.004084	2489.654485
359.393095	2488.162304
359.782043	2491.232367
360.170927	2492.066678
360.559748	2491.905361
360.948505	2492.132213
361.337199	2494.829230
361.725830	2493.818478
362.114398	2492.893427
362.502903	2491.688591
362.891344	2497.022132
363.279722	2495.303098
363.668037	2494.541884
364.056289	2495.497183
364.444478	2501.276866
364.832603	2498.143788
365.220665	2497.697646
365.608665	2497.916937
365.996601	2501.518841
366.384474	2500.838285
366.772284	2505.909686
367.160031	2503.631084
367.547715	2504.268790
367.935336	2507.588390
368.322893	2512.662312
368.710388	2512.417816
369.097820	2520.287057
369.485189	2522.132119
369.872495	2531.707791
370.259738	2537.028729
370.646918	2543.342774
371.034035	2551.151521
371.421090	2559.401369
371.808081	2572.137845
372.195010	2582.194947
372.581875	2594.220619
372.968678	2606.493308
373.355418	2615.131325
373.742096	2633.783594
374.128710	2650.091727
374.515262	2666.677123
374.901751	2676.822445
375.288177	2692.230732
375.674540	2717.116388
376.060841	2735.519120
376.447079	2752.081831
376.833254	2776.271808
377.219367	2785.108951
377.605417	2825.213850
377.991404	2831.477484
378.377329	2856.169055
378.763191	2871.743700
379.148991	2910.492529
379.534727	2936.204934
379.920402	2962.388687
380.306013	2974.860502
380.691563	3028.095087
381.077049	3045.824825
381.462474	3066.695202
381.847835	3104.082919
382.233134	3129.114768
382.618371	3125.946403
383.003545	3195.042978
383.388657	3198.342414
383.773706	3234.404308
384.158693	3249.197574
384.543618	3276.893673
384.928480	3312.993376
385.313280	3358.479707
385.698017	3357.307638
386.082692	3409.085330
386.467305	3414.640681
386.851856	3448.270218
387.236344	3469.952221
387.620770	3501.923219
388.005133	3527.529760
388.389435	3556.982701
388.773674	3567.465781
389.157851	3605.947428
389.541965	3623.036940
389.926018	3589.462855
390.310008	3659.739061
390.693936	3679.739838
391.077802	3718.125704
391.461606	3708.764282
391.845348	3772.146709
392.229027	3773.291051
392.612645	3784.588277
392.996200	3861.029813
393.379694	3899.980288
393.763125	3964.570072
394.146494	3931.779887
394.529801	3992.324144
394.913047	4044.837844
395.296230	4005.559694
395.679351	4064.233683
396.062410	4085.774534
396.445408	4073.930343
396.828343	4101.734827
397.211217	4124.039412
397.594028	4041.339283
397.976778	4111.660859
398.359466	4135.906288
398.742092	4166.838808
399.124656	4089.872992
399.507158	4165.442409
399.889598	4195.676729
400.271977	4256.435236
400.654294	4226.997418
401.036549	4236.489910
401.418742	4206.653841
401.800874	4311.285510
402.182944	4331.014066
402.564952	4394.129312
402.946898	4379.144482
403.328783	4375.895458
403.710606	4286.233496
404.092367	4485.822859
404.474067	4444.606385
404.855705	4455.787664
405.237282	4385.198908
405.618797	4492.462059
406.000250	4525.136297
406.381642	4608.688381
406.762972	4570.718410
407.144240	4582.842385
407.525447	4584.042180
407.906593	4635.023369
408.287677	4679.937529
408.668700	4606.170325
409.049661	4664.047812
409.430560	4701.964851
409.811399	4628.530363
410.192176	4789.151607
410.572891	4729.441660
410.953545	4833.780942
411.334138	4712.742838
411.714669	4783.379485
412.095139	4674.288916
412.475547	4818.644877
412.855894	4798.366836
413.236180	4811.211696
413.616405	4763.172020
413.996568	4848.637222
414.376670	4790.253099
414.756711	4744.174432
415.136691	4773.975213
415.516609	4852.261812
415.896466	4893.735384
416.276262	4927.289304
416.655997	4909.194083
417.035670	5089.763172
417.415283	5179.021842
417.794834	5122.182833
418.174324	5078.602058
418.553753	4986.359024
418.933121	5167.018855
419.312428	5236.044854
419.691674	5176.907078
420.070859	5301.229494
420.449983	5213.339497
420.829045	5328.169420
421.208047	5235.918825
421.586988	5307.508251
421.965867	5318.951670
422.344686	5449.114262
422.723444	5306.129495
423.102141	5123.145693
423.480777	5422.625519
423.859352	5194.619172
424.237866	5450.122493
424.616319	5442.921205
424.994712	5553.317433
425.373044	5429.294966
425.751314	5577.071350
426.129524	5373.880082
426.507673	5568.972736
426.885762	5651.758565
427.263789	5583.133337
427.641756	5467.799299
428.019662	5581.094191
428.397508	5588.209779
428.775292	5537.495772
429.153016	5636.355319
429.530679	5566.772272
429.908282	5656.204862
430.285824	5523.660325
430.663305	5797.029495
431.040726	5529.855903
431.418086	5527.834400
431.795385	5635.745339
432.172624	5647.282020
432.549802	5639.183406
432.926920	5653.366693
433.303977	5663.600235
433.680974	5701.739084
434.057910	5721.331529
434.434786	5723.073247
434.811601	5692.070151
435.188355	5929.453045
435.565050	5802.100896
435.941683	5781.752278
436.318257	5995.648436
436.694770	5979.378112
437.071222	6015.908833
437.447614	5945.940138
437.823946	5857.394792
438.200218	6015.815572
438.576429	5881.040324
438.952580	5975.730837
439.328670	6025.093816
439.704700	5929.279125
440.080670	5914.899234
440.456580	6186.027611
440.832429	6069.680301
441.208218	5913.507875
441.583947	6073.264561
441.959616	6071.142235
442.335224	6002.517008
442.710773	6138.797041
443.086261	6165.225290
443.461689	5957.935564
443.837057	6104.648264
444.212365	6256.480257
444.587612	6155.531151
444.962800	6311.403628
445.337927	6292.186749
445.712995	5901.106637
446.088002	6472.894471
446.462949	6304.187216
446.837837	6236.361012
447.212664	6405.910139
447.587431	6548.738630
447.962139	7090.604695
448.336786	8016.251282
448.711374	7755.936180
449.085901	6831.781775
449.460369	6752.076091
449.834776	6681.426841
450.209124	7073.908394
450.583412	7220.406845
450.957640	7366.534772
451.331808	7130.964173
451.705917	6681.089083
452.079965	6604.138390
452.453954	6811.838970
452.827883	6686.745258
453.201752	6778.000225
453.575562	6578.292395
453.949311	6773.090141
454.323001	6661.332801
454.696632	6732.423153
455.070202	6865.060952
455.443713	7008.779207
455.817164	7103.590708
456.190556	7181.622728
456.563888	7248.518840
456.937160	7286.299767
457.310373	6944.688497
457.683526	6956.212575
458.056619	6848.248704
458.429653	6828.005950
458.802628	6758.541371
459.175542	6856.120465
459.548398	7191.977258
459.921194	7326.883576
460.293930	7319.707494
460.666607	7814.070766
461.039224	8094.227850
461.411782	8200.538223
461.784280	8202.365641
462.156719	8098.477543
462.529099	7961.015360
462.901419	7549.241311
463.273680	7428.261180
463.645882	7432.173115
464.018024	7283.073429
464.390106	7423.963596
464.762130	7763.303826
465.134094	8156.085328
465.505999	9042.569712
465.877845	10115.801118
466.249631	10683.218272
466.621358	10319.509104
466.993026	9721.025840
467.364634	9464.915060
467.736184	9101.062220
468.107674	8762.873893
468.479105	8743.646932
468.850477	8509.034153
469.221790	8272.261239
469.593043	7947.515150
469.964238	7779.649768
470.335373	7750.395952
470.706449	7760.495904
471.077467	7699.200514
471.448425	8722.073315
471.819324	9537.132110
472.190164	9521.131487
472.560945	8466.272566
472.931667	7769.580063
473.302330	7609.596525
473.672934	7275.325175
474.043479	7500.039649
474.413965	7404.136738
474.784393	7248.786021
475.154761	7314.787327
475.525070	7320.503996
475.895321	7136.428784
476.265513	7207.861934
476.635645	7275.186543
477.005719	7198.923968
477.375734	7218.360137
477.745691	7314.903274
478.115588	7333.094278
478.485427	7419.802124
478.855207	7707.478089
479.224928	8131.660938
479.594591	8457.115310
479.964194	8244.335768
480.333739	8136.384499
480.703226	7970.238151
481.072653	7935.015609
481.442022	7969.786967
481.811333	7987.047878
482.180584	7785.210160
482.549777	7507.460228
482.918912	7325.862743
483.287988	7239.364104
483.657005	7163.237640
484.025964	6901.516056
484.394864	6873.202415
484.763706	6768.870695
485.132489	6571.290232
485.501213	6458.955680
485.869879	6415.989926
486.238487	6244.678915
486.607036	6224.410956
486.975527	6029.421646
487.343959	6034.843407
487.712333	5961.361028
488.080648	5856.399164
488.448905	5779.380415
488.817104	5676.750085
489.185244	5696.725657
489.553326	5664.369011
489.921350	5778.747751
490.289315	6049.170366
490.657222	6080.138174
491.025070	5952.017249
491.392861	5823.787940
491.760593	5615.641218
492.128267	5413.450619
492.495883	5235.321448
492.863440	5053.849992
493.230939	4881.576121
493.598380	4795.649654
493.965763	4674.631715
494.333088	4597.078604
494.700354	4500.343903
495.067563	4463.193119
495.434713	4351.309751
495.801805	4322.101306
496.168839	4247.877877
496.535815	4165.719672
496.902733	4117.047332
497.269593	4042.486146
497.636395	4011.248636
498.003139	3946.366465
498.369825	3883.107546
498.736453	3854.083103
499.103023	3796.271151
499.469535	3749.088471
499.835989	3698.462684
500.202385	3648.146927
500.568723	3584.504881
500.935003	3576.678489
501.301226	3503.649814
501.667390	3500.378105
502.033497	3467.187148
502.399546	3418.734098
502.765537	3365.736448
503.131470	3337.387519
503.497345	3317.848007
503.863163	3253.699324
504.228923	3242.840679
504.594625	3216.528376
504.960269	3165.879903
505.325856	3152.087307
505.691385	3112.030298
506.056856	3095.452464
506.422270	3073.135276
506.787625	3041.496994
507.152924	3024.934283
507.518164	3002.501148
507.883347	2973.201962
508.248472	2950.219342
508.613540	2940.822631
508.978550	2916.715833
509.343503	2899.396949
509.708398	2887.940927
510.073236	2873.152702
510.438016	2862.127699
510.802738	2840.798577
511.167403	2831.832885
511.532010	2811.963177
511.896561	2810.168526
512.261053	2798.228553
512.625488	2780.012344
512.989866	2767.273348
513.354186	2757.851432
513.718449	2747.791809
514.082655	2743.403485
514.446803	2735.977865
514.810894	2730.029304
515.174927	2721.373642
515.538904	2713.549772
515.902822	2709.390820
516.266684	2701.609799
516.630488	2696.603933
516.994235	2691.018335
517.357925	2689.594209
517.721558	2683.864937
518.085133	2681.044412
518.448651	2676.323371
518.812112	2671.153668
519.175516	2665.557987
519.538863	2665.515137
519.902152	2663.150836
520.265385	2658.845691
520.628560	2655.836122
520.991678	2651.687252
521.354739	2652.173724
521.717743	2650.026192
522.080690	2647.059473
522.443580	2647.866058
522.806413	2646.189874
523.169189	2644.554020
523.531908	2642.885398
523.894569	2638.439100
524.257174	2637.231744
524.619722	2636.268883
524.982213	2638.597896
525.344647	2636.783081
525.707025	2632.540950
526.069345	2632.815693
526.431608	2631.187400
526.793815	2630.849643
527.155964	2629.743110
527.518057	2625.821092
527.880093	2625.339662
528.242072	2621.437809
528.603995	2622.836729
528.965860	2622.181379
529.327669	2622.234311
529.689421	2621.624331
530.051117	2620.306070
530.412755	2618.584516
530.774337	2617.079731
531.135862	2617.750205
531.497331	2613.808022
531.858743	2610.190994
532.220098	2616.351284
532.581396	2613.326592
532.942638	2612.343567
533.303824	2614.796088
533.664953	2611.844493
534.026025	2613.137549
534.387040	2614.896912
534.747999	2612.560337
535.108902	2612.520007
535.469748	2609.888525
535.830537	2610.944647
536.191270	2610.070007
536.551947	2613.681993
536.912567	2611.405913
537.273131	2610.591766
537.633638	2611.617641
537.994089	2608.766868
538.354483	2607.390633
538.714821	2608.880294
539.075103	2608.781992
539.435328	2608.416508
539.795497	2609.097064
540.155609	2607.705706
540.515665	2606.379882
540.875665	2604.839810
541.235609	2606.636981
541.595496	2606.387444
541.955328	2608.149327
542.315102	2606.165633
542.674821	2603.181270
543.034483	2608.008175
543.394090	2603.849223
543.753640	2606.510952
544.113134	2608.161930
544.472571	2606.899121
544.831953	2606.465582
545.191278	2607.872064
545.550548	2606.289141
545.909761	2604.368462
546.268918	2608.600510
546.628019	2607.804008
546.987064	2605.908534
547.346053	2607.988010
547.704986	2605.646394
548.063863	2606.510952
548.422684	2604.572628
548.781449	2605.971549
549.140158	2605.454830
549.498811	2605.260746
549.857408	2600.481732
550.215949	2602.341918
550.574434	2603.035077
550.932864	2601.890735
551.291237	2598.994592
551.649555	2606.647063
552.007817	2607.141096
552.366022	2609.018926
552.724173	2605.888370
553.082267	2604.807042
553.440305	2604.043307
553.798288	2606.256374
554.156215	2606.233689
554.514086	2604.025663
554.871902	2604.645725
555.229661	2603.929881
555.587365	2603.564398
555.945014	2604.368462
556.302606	2604.786878
556.660143	2604.292844
557.017625	2602.452823
557.375050	2604.610437
557.732421	2605.167485
558.089735	2604.645725
558.446994	2605.346446
558.804197	2604.262597
559.161345	2603.670262
559.518437	2604.242433
559.875474	2599.947370
560.232455	2606.757969
560.589381	2605.094388
560.946251	2606.251333
561.303065	2606.125304
561.659825	2606.785695
562.016528	2602.893924
562.373177	2601.752103
562.729770	2600.895107
563.086307	2605.031373
563.442789	2603.743359
563.799216	2605.601024
564.155587	2604.814604
564.511904	2602.825869
564.868164	2603.100612
565.224370	2604.053390
565.580520	2600.557349
565.936615	2606.190839
566.292654	2603.478698
566.648638	2604.509614
567.004567	2604.706219
567.360441	2604.038266
567.716260	2601.452154
568.072023	2599.876794
568.427732	2595.972420
568.783385	2601.545416
569.138982	2598.112390
569.494525	2601.681527
569.850013	2596.577358
570.205445	2602.800663
570.560823	2599.760847
570.916145	2598.563573
571.271412	2600.912751
571.626625	2599.256732
571.981782	2598.644232
572.336884	2599.274376
572.691931	2600.161619
573.046923	2601.013574
573.401860	2599.208841
573.756743	2599.430652
574.111570	2599.677668
574.466342	2599.934767
574.821059	2599.770929
575.175722	2599.934767
575.530330	2603.224120
575.884882	2600.015425
576.239380	2597.434355
576.593823	2600.769078
576.948211	2600.423759
577.302544	2598.722369
577.656823	2598.182966
578.011047	2599.062647
578.365216	2598.437544
578.719330	2599.108018
579.073389	2597.799838
579.427394	2594.041658
579.781344	2595.806062
580.135239	2596.526947
580.489080	2595.097780
580.842866	2596.048037
581.196597	2597.474684
581.550273	2597.807400
581.903895	2596.738675
582.257463	2596.416042
582.610975	2597.285641
582.964434	2598.871083
583.317837	2593.237594
583.671186	2596.332862
584.024481	2595.054930
584.377721	2598.871083
584.730906	2591.752974
585.084037	2598.092225
585.437113	2591.546287
585.790135	2595.367482
586.143103	2596.126175
586.496016	2593.620722
586.848874	2586.558065
587.201679	2593.587954
587.554428	2589.136615
587.907124	2594.029055
588.259765	2588.806420
588.612352	2592.201637
588.964884	2592.983016
589.317362	2593.756833
589.669786	2590.739702
590.022155	2594.011411
590.374470	2591.826071
590.726731	2592.554518
591.078937	2589.744074
591.431090	2591.667275
591.783188	2591.712645
592.135232	2590.565782
592.487222	2591.372367
592.839157	2590.772470
593.191038	2590.679208
593.542866	2591.042172
593.894639	2590.659044
594.246358	2589.023189
594.598022	2592.103334
594.949633	2587.188209
595.301190	2588.514033
595.652692	2589.161821
596.004141	2592.587285
596.355535	2590.280957
596.706876	2590.817840
597.058162	2590.391863
597.409395	2588.904722
597.760573	2588.183837
598.111698	2590.079311
598.462768	2590.326328
598.813785	2589.270206
599.164748	2584.536562
599.515657	2588.178796
599.866511	2590.346492
600.217312	2591.392532
600.568060	2586.447160
600.918753	2588.680391
601.269392	2589.653334
601.619978	2589.199630
601.970510	2587.752819
602.320988	2586.679053
602.671412	2588.498909
603.021783	2586.479927
603.372100	2589.129054
603.722363	2584.176120
604.072572	2588.584609
604.422728	2589.058478
604.772830	2584.299628
605.122878	2582.608321
605.472872	2583.205698
605.822813	2581.428691
606.172701	2583.001531
606.522534	2587.999835
606.872314	2587.939341
607.222041	2586.661409
607.571714	2589.476893
607.921333	2589.045875
608.270899	2586.174937
608.620411	2588.745926
608.969870	2588.536718
609.319276	2587.740216
609.668627	2591.616863
610.017926	2590.563262
610.367171	2593.537543
610.716362	2592.703232
611.065500	2593.567790
611.414585	2598.374530
611.763616	2588.761049
612.112594	2589.479414
612.461518	2589.628128
612.810389	2591.790783
613.159207	2586.696697
613.507971	2588.982860
613.856682	2590.412027
614.205340	2587.568817
614.553945	2588.408169
614.902496	2592.115937
615.250994	2589.630648
615.599439	2590.278437
615.947830	2591.674836
616.296169	2588.093097
616.644454	2589.802048
616.992686	2588.700556
617.340864	2593.116606
617.688990	2590.855649
618.037063	2588.909763
618.385082	2588.393045
618.733048	2590.845567
619.080961	2587.737695
619.428821	2591.294229
619.776628	2587.704928
620.124382	2590.895978
620.472083	2589.000504
620.819731	2589.615525
621.167326	2587.972109
621.514868	2588.025041
621.862357	2584.367684
622.209793	2586.812643
622.557176	2586.721903
622.904506	2583.979515
623.251783	2580.974987
623.599007	2581.814339
623.946179	2580.571695
624.293297	2583.780389
624.640363	2584.135791
624.987376	2585.806933
625.334336	2583.757704
625.681243	2583.906418
626.028097	2585.829618
626.374899	2583.440112
626.721647	2581.406006
627.068343	2581.506829
627.414987	2583.470358
627.761577	2584.103023
628.108115	2578.388875
628.454600	2580.859041
628.801032	2579.845769
629.147412	2582.399113
629.493739	2581.917683
629.840014	2579.427353
630.186236	2582.797364
630.532405	2581.196798
630.878521	2579.835687
631.224585	2580.155800
631.570597	2580.365008
631.916556	2579.581108
632.262462	2580.599421
632.608316	2577.453741
632.954117	2579.238310
633.299866	2578.991293
633.645562	2576.959708
633.991206	2580.349884
634.336797	2577.002558
634.682336	2578.729153
635.027823	2579.376942
635.373257	2574.194635
635.718639	2575.401992
636.063968	2577.940213
636.409245	2575.921231
636.754470	2575.487691
637.099642	2574.784450
637.444762	2577.809143
637.789829	2576.190932
638.134845	2573.952660
638.479808	2576.992476
638.824719	2573.488874
639.169577	2573.549368
639.514383	2572.528534
639.859137	2572.526013
640.203839	2571.989131
640.548489	2570.665828
640.893086	2571.774882
641.237632	2565.140723
641.582125	2571.550550
641.926566	2566.811866
642.270955	2573.352763
642.615292	2573.166240
642.959576	2573.690520
643.303809	2573.141034
643.647990	2572.248750
643.992118	2572.321847
644.336195	2572.102557
644.680219	2570.237330
645.024192	2571.041394
645.368112	2569.418142
645.711981	2573.962742
646.055797	2575.419636
646.399562	2574.567681
646.743274	2574.305541
647.086935	2575.714543
647.430544	2577.693196
647.774101	2575.477609
648.117606	2574.635736
648.461059	2574.018195
648.804460	2576.153124
649.147810	2573.279666
649.491108	2576.112794
649.834354	2572.883935
650.177548	2575.885943
650.520690	2573.955181
650.863781	2571.180025
651.206820	2577.577250
651.549807	2570.713719
651.892742	2568.477967
652.235626	2572.934347
652.578458	2568.820765
652.921238	2570.028122
653.263967	2571.069120
653.606644	2569.997875
653.949269	2571.671538
654.291843	2567.928481
654.634365	2570.643142
654.976836	2569.062741
655.319255	2569.458471
655.661622	2568.538461
656.003938	2571.371589
656.346203	2571.235478
656.688416	2568.977041
657.030577	2569.019891
657.372687	2568.142730
657.714746	2568.886300
658.056753	2566.829510
658.398708	2562.857080
658.740612	2565.728018
659.082465	2562.640311
659.424266	2565.241546
659.766016	2563.799776
660.107715	2568.480487
660.449362	2570.239850
660.790958	2570.801939
661.132503	2565.193655
661.473996	2568.109963
661.815438	2568.341856
662.156829	2570.136507
662.498168	2569.271949
662.839456	2564.835733
663.180693	2566.680796
663.521879	2567.605847
663.863013	2567.996537
664.204097	2568.276321
664.545129	2566.867318
664.886110	2571.041394
665.227040	2568.750189
665.567918	2568.939232
665.908746	2566.096022
666.249522	2572.624316
666.590248	2570.171795
666.930922	2570.212124
667.271545	2570.940571
667.612118	2569.589541
667.952639	2570.275138
668.293109	2570.111301
668.633528	2567.227761
668.973896	2568.364541
669.314213	2568.195662
669.654480	2566.832030
669.994695	2568.344376
670.334859	2568.621640
670.674973	2567.608368
671.015035	2568.672051
671.355047	2568.230950
671.695008	2569.216496
672.034918	2566.897565
672.374777	2570.131465
672.714585	2565.886814
673.054342	2568.790518
673.394049	2568.709860
673.733705	2570.164233
674.073310	2569.105591
674.412864	2568.258677
674.752368	2568.170457
675.091820	2570.587690
675.431223	2567.810014
675.770574	2568.248594
676.109875	2563.172152
676.449125	2564.873542
676.788324	2563.507389
677.127473	2567.184911
677.466571	2564.813048
677.805619	2566.443861
678.144616	2566.920250
678.483562	2565.544015
678.822458	2569.881928
679.161303	2567.812535
679.500098	2565.584345
679.838842	2567.429407
680.177535	2566.015363
680.516179	2565.138202
680.854771	2564.198027
681.193314	2568.046948
681.531805	2568.858574
681.870247	2568.747669
682.208638	2569.871846
682.546978	2570.282700
682.885268	2566.259859
683.223508	2570.169274
683.561697	2567.232802
683.899836	2571.464851
684.237925	2568.162895
684.575963	2566.738769
684.913951	2564.999571
685.251889	2568.540981
685.589776	2567.205076
685.927614	2567.676423
686.265401	2567.933522
686.603137	2570.282700
686.940824	2567.489901
687.278460	2568.304047
687.616046	2566.635425
687.953582	2570.335632
688.291068	2569.909655
688.628504	2568.029304
688.965889	2569.607185
689.303224	2569.166084
689.640510	2569.047617
689.977745	2568.974521
690.314930	2568.440158
690.652065	2566.315312
690.989150	2564.853377
691.326185	2564.019066
691.663170	2564.127451
692.000105	2565.080229
692.336990	2563.348593
692.673825	2562.922615
693.010610	2563.288099
693.347345	2558.073025
693.684030	2554.854249
694.020665	2560.157542
694.357251	2555.567572
694.693786	2559.250135
695.030272	2561.100238
695.366707	2559.789538
695.703093	2555.847356
696.039429	2559.068653
696.375716	2558.065464
696.711952	2558.771225
697.048139	2559.464384
697.384276	2557.843653
697.720363	2559.464384
698.056400	2560.190310
698.392388	2558.322562
698.728326	2560.225598
699.064214	2557.805844
699.400053	2558.486400
699.735842	2556.641338
700.071581	2556.197716
700.407270	2558.665361
700.742910	2557.642007
701.078501	2556.472459
701.414042	2558.007490
701.749533	2554.569423
702.084974	2555.295350
702.420366	2554.715617
702.755709	2553.755277
703.091002	2552.915925
703.426246	2556.172510
703.761440	2554.398024
704.096584	2551.504402
704.431679	2555.302911
704.766725	2558.753581
705.101721	2554.536656
705.436668	2554.539177
705.771565	2553.964485
706.106413	2553.999773
706.441212	2553.893909
706.775961	2557.097562
707.110661	2554.856769
707.445311	2559.731565
707.779913	2554.844166
708.114465	2557.515978
708.448967	2555.151677
708.783421	2557.344579
709.117825	2555.857438
709.452180	2558.080587
709.786485	2556.212840
710.120742	2560.843139
710.454949	2559.696277
710.789107	2558.032696
711.123216	2557.359702
711.457275	2557.881462
711.791286	2557.909188
712.125247	2559.030845
712.459159	2564.366906
712.793023	2562.859601
713.126837	2557.185782
713.460602	2560.379353
713.794318	2561.692574
714.127985	2561.881617
714.461602	2558.809034
714.795171	2562.680640
715.128691	2554.277037
715.462162	2558.655279
715.795584	2554.733261
716.128957	2555.108827
716.462281	2554.211502
716.795556	2555.789383
717.128782	2556.769887
717.461960	2553.626728
717.795088	2553.740154
718.128167	2554.614794
718.461198	2552.850390
718.794180	2555.663354
719.127113	2550.292004
719.459997	2556.240566
719.792833	2552.358877
720.125619	2552.593291
720.458357	2553.404917
720.791046	2554.836605
721.123686	2551.673281
721.456278	2552.227808
721.788821	2551.829556
722.121315	2553.127653
722.453761	2550.009700
722.786158	2551.769063
723.118506	2552.515153
723.450805	2552.139587
723.783056	2549.445091
724.115259	2553.170503
724.447412	2552.202602
724.779518	2554.367777
725.111574	2553.901471
725.443582	2552.646223
725.775542	2552.305945
726.107453	2550.952396
726.439315	2552.736964
726.771129	2557.268961
727.102895	2554.244269
727.434612	2554.329969
727.766281	2555.242418
728.097901	2554.647561
728.429473	2552.857952
728.760996	2552.379042
729.092471	2549.021634
729.423897	2553.326779
729.755276	2552.729402
730.086606	2554.271995
730.417887	2554.481203
730.749120	2555.171841
731.080305	2554.705535
731.411442	2557.594116
731.742530	2556.744681
732.073570	2556.240566
732.404562	2555.144115
732.735506	2559.101421
733.066401	2556.525391
733.397249	2557.145453
733.728048	2554.534135
734.058798	2555.408776
734.389501	2553.319217
734.720156	2552.033723
735.050762	2554.261913
735.381320	2550.753270
735.711831	2552.416851
736.042293	2552.033723
736.372707	2550.758311
736.703073	2550.455842
737.033391	2551.930379
737.363661	2553.538507
737.693883	2549.402241
738.024056	2551.350647
738.354182	2550.264278
738.684260	2554.496327
739.014290	2554.226625
739.344272	2552.963816
739.674207	2553.263765
740.004093	2554.098076
740.333931	2552.283260
740.663722	2553.016748
740.993464	2550.531459
741.323159	2553.351985
741.652806	2549.780327
741.982405	2553.399876
742.311956	2550.554144
742.641460	2553.243600
742.970915	2548.509957
743.300323	2551.469114
743.629683	2552.074052
743.958996	2550.284443
744.288260	2550.181099
744.617477	2549.409803
744.946647	2545.001313
745.275768	2550.002138
745.604842	2547.645399
745.933869	2545.397044
746.262847	2544.333361
746.591778	2550.554144
746.920662	2546.405275
747.249498	2553.220915
747.578286	2547.854607
747.907027	2548.474668
748.235720	2547.831921
748.564365	2549.992056
748.892963	2547.985677
749.221514	2548.948537
749.550017	2547.032898
749.878473	2550.113043
750.206881	2547.698331
750.535242	2547.998279
750.863555	2547.214380
751.191821	2547.834442
751.520039	2548.915769
751.848210	2550.044988
752.176334	2544.925696
752.504411	2548.956099
752.832440	2549.014072
753.160421	2547.211859
753.488356	2548.441901
753.816243	2548.353681
754.144082	2546.317055
754.471875	2547.219421
754.799620	2547.751263
755.127318	2545.361756
755.454969	2548.827549
755.782572	2547.103475
756.110129	2548.368804
756.437638	2546.380069
756.765100	2547.491643
757.092515	2549.190512
757.419882	2549.946685
757.747203	2547.529452
758.074477	2548.192364
758.401703	2547.652960
758.728882	2547.925183
759.056014	2547.589946
759.383099	2548.489792
759.710138	2547.965512
760.037129	2547.937786
760.364073	2549.051881
760.690970	2547.552137
761.017820	2550.521377
761.344623	2547.358053
761.671379	2551.829556
761.998088	2544.756818
762.324751	2549.480379
762.651366	2555.381049
762.977935	2561.513613
763.304456	2561.700136
763.630931	2570.133986
763.957359	2564.419838
764.283740	2560.906154
764.610074	2556.033879
764.936362	2555.943138
765.262602	2551.065822
765.588796	2552.255534
765.914943	2549.863506
766.241044	2550.917107
766.567097	2548.373845
766.893104	2548.046170
767.219064	2546.685059
767.544978	2543.783875
767.870845	2545.944009
768.196665	2544.650953
768.522438	2545.046684
768.848165	2545.502908
769.173846	2542.447969
769.499479	2545.439894
769.825066	2545.860830
770.150607	2544.708927
770.476101	2543.025181
770.801548	2547.473999
771.126949	2544.474513
771.452303	2543.370500
771.777611	2543.604914
772.102872	2542.422763
772.428087	2542.889070
772.753256	2543.370500
773.078378	2544.789585
773.403453	2542.019471
773.728482	2543.877136
774.053465	2542.972249
774.378401	2540.557536
774.703291	2543.451159
775.028135	2541.038967
775.352932	2542.604245
775.677683	2542.311858
776.002388	2540.451672
776.327046	2542.868905
776.651658	2543.196580
776.976224	2540.897814
777.300743	2540.244985
777.625216	2538.987217
777.949643	2541.336395
778.274024	2541.641384
778.598359	2539.075437
778.922647	2536.378420
779.246889	2537.414377
779.571086	2534.472864
779.895236	2536.978317
780.219339	2541.485109
780.543397	2538.026877
780.867409	2542.498381
781.191374	2543.657846
781.515294	2538.079809
781.839167	2539.549306
782.162995	2541.893442
782.486776	2539.607279
782.810511	2541.704399
783.134201	2540.648277
783.457844	2542.997455
783.781441	2539.261960
784.104993	2539.624923
784.428498	2540.189532
784.751958	2540.519728
785.075372	2539.829090
785.398739	2540.726415
785.722061	2539.100643
786.045337	2539.952598
786.368568	2540.577701
786.691752	2539.632485
787.014891	2540.681045
787.337983	2540.839841
787.661030	2540.822197
787.984031	2542.344625
788.306987	2543.514173
788.629897	2544.247661
788.952760	2544.734132
789.275579	2542.248843
789.598351	2544.552651
789.921078	2542.246323
790.243759	2541.427135
790.566395	2538.979655
790.888984	2541.303627
791.211529	2541.396888
791.534027	2541.961498
791.856480	2540.068544
792.178888	2540.310520
792.501249	2540.996117
792.823566	2537.648791
793.145836	2541.288504
793.468062	2538.878832
793.790241	2540.920499
794.112375	2539.584594
794.434464	2539.355221
794.756507	2540.585263
795.078505	2543.146169
795.400457	2538.631816
795.722364	2539.261960
796.044226	2541.341436
796.366042	2536.295241
796.687812	2539.665252
797.009538	2541.918648
797.331218	2542.395037
797.652852	2541.147351
797.974442	2541.538041
798.295986	2539.592155
798.617484	2539.887063
798.938938	2541.704399
799.260346	2542.074924
799.581709	2539.645087
799.903026	2541.739687
800.224299	2541.285983
800.545526	2540.434028
800.866708	2542.838658
801.187845	2538.604089
801.508936	2536.988399
801.829983	2539.902186
802.150984	2537.114428
802.471940	2538.601569
802.792851	2537.694161
803.113717	2540.383617
803.434538	2539.685417
803.755314	2540.524769
804.076045	2538.667104
804.396731	2539.965201
804.717372	2538.074768
805.037967	2538.722556
805.358518	2541.144831
805.679024	2539.244316
805.999485	2540.202135
806.319901	2539.493853
806.640272	2538.740200
806.960598	2541.119625
807.280879	2537.966383
807.601115	2542.916796
807.921306	2540.111394
808.241453	2541.210366
808.561554	2540.038297
808.881611	2538.944367
809.201623	2541.081816
809.521590	2537.686599
809.841513	2541.437218
810.161390	2540.214738
810.481223	2539.158616
810.801011	2538.394881
811.120755	2539.302289
811.440453	2539.851775
811.760107	2540.111394
812.079716	2536.874973
812.399281	2532.474046
812.718801	2534.364479
813.038276	2533.323481
813.357707	2538.047042
813.677093	2536.824562
813.996434	2537.152237
814.315731	2539.975283
814.634983	2539.539223
814.954191	2536.890097
815.273354	2539.398071
815.592473	2539.103163
815.911547	2538.914120
816.230577	2539.680376
816.549562	2539.125849
816.868502	2539.937474
817.187399	2539.612320
817.506250	2539.214069
817.825058	2538.329346
818.143821	2541.860675
818.462539	2541.762372
818.781213	2541.243133
819.099843	2541.626261
819.418429	2544.252702
819.736970	2547.179092
820.055466	2551.199412
820.373919	2550.392827
820.692327	2553.021789
821.010691	2557.299208
821.329011	2571.948801
821.647286	2601.716815
821.965517	2630.811834
822.283704	2648.246665
822.601847	2652.798827
822.919945	2638.784419
823.237999	2620.996708
823.556010	2606.132866
823.873976	2590.301122
824.191897	2579.480285
824.509775	2573.546847
824.827609	2566.073337
825.145398	2563.986299
825.463144	2560.258366
825.780845	2562.121072
826.098502	2566.302709
826.416116	2572.899059
826.733685	2582.520101
827.051210	2585.325503
827.368692	2581.383321
827.686129	2571.331260
828.003522	2565.906978
828.320872	2555.134033
828.638177	2555.857438
828.955439	2545.543237
829.272656	2546.039791
829.589830	2542.274049
829.906960	2543.254554
830.224046	2544.771941
830.541088	2541.734646
830.858086	2541.843031
831.175041	2540.754141
831.491952	2542.400078
831.808819	2541.401930
832.125642	2542.936961
832.442421	2544.098947
832.759157	2549.064483
833.075849	2552.757129
833.392497	2559.078736
833.709101	2563.691391
834.025662	2562.884807
834.342179	2557.548745
834.658653	2554.254351
834.975083	2550.591953
835.291469	2553.173024
835.607811	2543.798998
835.924110	2541.994265
836.240366	2542.677342
836.556578	2541.898483
836.872746	2539.939995
837.188871	2539.211548
837.504952	2540.353370
837.820990	2538.871270
838.136984	2535.483615
838.452935	2539.451003
838.768842	2538.374717
839.084706	2539.476209
839.400526	2537.973945
839.716303	2542.642053
840.032037	2547.295038
840.347727	2546.707744
840.663373	2542.160623
840.978977	2543.867054
841.294537	2540.481919
841.610054	2539.350180
841.925527	2535.223996
842.240957	2537.742052
842.556344	2537.918492
842.871687	2536.312885
843.186987	2536.456558
843.502244	2532.322812
843.817458	2537.497556
844.132629	2532.254756
844.447756	2534.326670
844.762840	2529.126720
845.077881	2534.462781
845.392879	2530.331556
845.707833	2532.335414
846.022745	2531.390198
846.337613	2536.880015
846.652438	2535.465971
846.967221	2534.566125
847.281960	2533.908254
847.596656	2534.452699
847.911309	2533.920857
848.225919	2534.344314
848.540485	2530.681916
848.855009	2533.136958
849.169490	2534.785415
849.483928	2534.540919
849.798323	2534.122503
850.112675	2535.090405
850.426984	2530.195445
850.741251	2534.752648
851.055474	2535.939839
851.369654	2532.920188
851.683792	2533.081505
851.997887	2534.077133
852.311938	2531.528830
852.625947	2533.242822
852.939914	2535.738193
853.253837	2537.984027
853.567718	2531.496062
853.881555	2532.796680
854.195350	2534.548481
854.509103	2534.072092
854.822812	2533.986392
855.136479	2535.753317
855.450103	2533.900693
855.763685	2534.866074
856.077224	2533.373892
856.390720	2533.923378
856.704173	2531.700229
857.017584	2534.881197
857.330953	2534.747607
857.644278	2532.771474
857.957561	2538.147865
858.270802	2535.985210
858.584000	2533.666279
858.897155	2536.005374
859.210268	2534.435055
859.523339	2535.050076
859.836367	2534.190559
860.149352	2534.472864
860.462295	2535.279448
860.775195	2530.621422
861.088054	2532.320291
861.400869	2530.603778
861.713642	2529.887934
862.026373	2532.988244
862.339062	2533.573018
862.651708	2533.313398
862.964312	2533.638553
863.276873	2532.219468
863.589392	2534.611495
863.901869	2533.567977
864.214303	2531.417924
864.526696	2532.905065
864.839045	2534.888759
865.151353	2535.712987
865.463619	2535.017308
865.775842	2533.487318
866.088023	2535.052596
866.400162	2533.389016
866.712258	2535.534027
867.024313	2534.568646
867.336325	2534.825744
867.648296	2534.046886
867.960224	2534.767771
868.272110	2533.157122
868.583954	2535.052596
868.895755	2533.757020
869.207515	2535.881866
869.519233	2536.620395
869.830909	2535.987730
870.142542	2536.343132
870.454134	2535.062679
870.765684	2534.233409
871.077191	2534.283820
871.388657	2534.225847
871.700081	2536.330529
872.011463	2535.453368
872.322803	2533.653676
872.634101	2535.186187
872.945357	2534.243491
873.256571	2535.760878
873.567744	2534.364479
873.878874	2535.740714
874.189963	2536.809438
874.501010	2536.537216
874.812015	2535.758358
875.122979	2537.187525
875.433900	2534.457740
875.744780	2535.279448
876.055618	2534.795497
876.366415	2534.702236
876.677169	2537.830272
876.987882	2534.301464
877.298554	2532.287523
877.609183	2533.678882
877.919771	2535.360107
878.230317	2536.144006
878.540822	2539.360262
878.851285	2539.057793
879.161707	2539.529141
879.472087	2543.781354
879.782425	2545.384441
880.092722	2552.174875
880.402977	2559.313149
880.713191	2572.959553
881.023363	2588.940010
881.333494	2600.796804
881.643583	2601.333687
881.953631	2598.079622
882.263637	2594.623911
882.573602	2591.934456
882.883526	2584.707962
883.193408	2577.156313
883.503248	2568.331773
883.813048	2561.904302
884.122806	2557.891544
884.432522	2557.450443
884.742197	2552.482386
885.051831	2548.832590
885.361424	2545.087013
885.670975	2543.678011
885.980485	2546.077600
886.289954	2538.906558
886.599382	2541.346477
886.908768	2542.987373
887.218113	2539.803884
887.527417	2541.578370
887.836680	2537.873122
888.145901	2537.696682
888.455082	2536.887576
888.764221	2538.760365
889.073319	2536.635519
889.382376	2536.912782
889.691392	2536.539737
890.000366	2538.054603
890.309300	2537.555529
890.618193	2537.774819
890.927044	2535.370189
891.235855	2538.415046
891.544625	2537.313554
891.853353	2537.560570
892.162041	2535.849099
892.470687	2540.335726
892.779293	2539.080478
893.087858	2536.748945
893.396381	2540.421425
893.704864	2541.280942
894.013306	2543.695655
894.321707	2551.327962
894.630068	2553.452808
894.938387	2558.229301
895.246665	2555.010524
895.554903	2554.266954
895.863100	2550.816284
896.171256	2546.770758
896.479371	2544.459389
896.787446	2545.528114
897.095480	2542.604245
897.403473	2541.240613
897.711425	2539.453524
898.019336	2539.519059
898.327207	2539.866898
898.635038	2541.001158
898.942827	2537.777340
899.250576	2539.161137
899.558284	2535.733152
899.865952	2539.196425
900.173579	2537.943698
900.481165	2535.183666
900.788711	2537.822710
901.096216	2536.005374
901.403681	2537.401774
901.711105	2536.219623
902.018489	2534.669469
902.325832	2539.408153
902.633135	2536.640560
902.940397	2538.339429
903.247619	2537.003523
903.554800	2545.087013
903.861941	2550.826367
904.169041	2561.755588
904.476101	2565.049982
904.783121	2566.552246
905.090100	2562.496638
905.397039	2555.144115
905.703938	2552.132026
906.010796	2547.310162
906.317614	2543.544420
906.624391	2542.185829
906.931129	2541.696837
907.237826	2539.637526
907.544483	2537.477391
907.851099	2534.649304
908.157675	2533.436907
908.464211	2534.762730
908.770707	2529.282996
909.077163	2533.235260
909.383578	2530.238294
909.689954	2529.494724
909.996289	2530.326515
910.302584	2531.518748
910.608839	2532.060672
910.915054	2531.496062
911.221229	2534.354397
911.527363	2531.891793
911.833458	2531.304498
912.139513	2534.414890
912.445527	2536.857329
912.751502	2533.504962
913.057436	2532.993285
913.363331	2536.365817
913.669186	2533.726773
913.975000	2537.762217
914.280775	2537.202648
914.586510	2539.330015
914.892205	2542.082485
915.197859	2546.687579
915.503475	2552.399207
915.809050	2555.759136
916.114585	2564.094684
916.420081	2563.517472
916.725536	2563.008315
917.030952	2558.592264
917.336328	2552.290822
917.641665	2550.672612
917.946961	2547.413506
918.252218	2545.099616
918.557435	2546.120450
918.862612	2542.354708
919.167750	2542.248843
919.472848	2541.747249
919.777906	2538.236085
920.082925	2539.403112
920.387904	2536.622916
920.692843	2538.331867
920.997743	2537.671476
921.302603	2535.380271
921.607423	2535.226516
921.912204	2535.072761
922.216946	2533.762061
922.521647	2534.858512
922.826310	2533.588141
923.130932	2534.150230
923.435516	2528.678057
923.740059	2531.422966
924.044564	2529.267872
924.349028	2532.181659
924.653454	2528.327697
924.957840	2530.051772
925.262186	2530.906247
925.566493	2527.747964
925.870761	2525.166894
926.174989	2531.412883
926.479178	2530.603778
926.783328	2530.591175
927.087438	2530.984385
927.391509	2532.776515
927.695541	2529.986237
927.999533	2529.411545
928.303486	2531.677544
928.607400	2531.569159
928.911275	2533.492359
929.215110	2530.916330
929.518906	2529.865249
929.822663	2530.659231
930.126381	2530.104704
930.430060	2532.567308
930.733699	2527.899199
931.037299	2530.931453
931.340861	2528.305012
931.644383	2531.054961
931.947866	2530.134951
932.251309	2529.731658
932.554714	2530.417255
932.858080	2531.796011
933.161407	2529.557739
933.464694	2529.565300
933.767943	2529.222502
934.071153	2535.281969
934.374323	2530.029087
934.677455	2529.187214
934.980548	2531.425486
935.283602	2529.444313
935.586617	2527.697553
935.889593	2530.664272
936.192530	2529.429189
936.495428	2529.751823
936.798287	2529.761905
937.101108	2531.884231
937.403890	2527.879034
937.706632	2531.536392
938.009336	2531.796011
938.312002	2531.062523
938.614628	2532.700898
938.917216	2531.541433
939.219765	2530.787780
939.522275	2535.249201
939.824747	2531.024714
940.127179	2529.514889
940.429573	2528.030269
940.731929	2528.302491
941.034246	2528.587317
941.336524	2532.000178
941.638763	2530.447502
941.940964	2528.728469
942.243126	2530.399611
942.545250	2532.085877
942.847335	2532.342976
943.149381	2531.876669
943.451389	2532.640404
943.753359	2531.022194
944.055290	2530.722245
944.357182	2529.706453
944.659036	2531.533871
944.960851	2531.256607
945.262628	2531.304498
945.564367	2529.164529
945.866067	2528.252080
946.167729	2530.565969
946.469352	2530.379447
946.770937	2530.767616
947.072484	2529.887934
947.373992	2530.961700
947.675462	2531.753161
947.976893	2529.411545
948.278286	2529.628315
948.579641	2532.383305
948.880958	2531.816176
949.182236	2526.480114
949.483476	2530.553367
949.784678	2530.477749
950.085841	2529.943387
950.386967	2531.445651
950.688054	2532.085877
950.989103	2530.356762
951.290114	2530.984385
951.591087	2529.041020
951.892021	2532.070754
952.192917	2532.484128
952.493776	2531.475898
952.794596	2528.438602
953.095378	2527.866432
953.396122	2529.131761
953.696828	2530.661751
953.997496	2528.705784
954.298126	2532.058151
954.598718	2531.024714
954.899272	2528.584796
955.199788	2527.700073
955.500266	2529.908099
955.800706	2527.117820
956.101108	2526.177645
956.401472	2524.133457
956.701798	2527.569003
957.002087	2525.618077
957.302337	2527.634538
957.602550	2527.327028
957.902724	2528.685619
958.202861	2526.021369
958.502960	2527.962213
958.803022	2526.659075
959.103045	2527.221164
959.403031	2528.620084
959.702979	2525.718900
960.002889	2525.421472
960.302762	2525.098838
960.602596	2530.349200
960.902393	2530.092101
961.202153	2530.195445
961.501875	2528.935156
961.801559	2531.644776
962.101205	2527.238808
962.400814	2526.863242
962.700385	2528.158818
962.999918	2527.863911
963.299414	2525.378622
963.598873	2526.419620
963.898293	2529.033459
964.197677	2528.047913
964.497022	2526.638911
964.796331	2527.765608
965.095601	2526.470032
965.394835	2529.257790
965.694030	2526.560773
965.993189	2525.469363
966.292309	2527.969775
966.591393	2525.214785
966.890439	2528.110927
967.189447	2529.169570
967.488419	2524.950124
967.787353	2529.761905
968.086249	2528.287368
968.385108	2526.096987
968.683930	2525.373581
968.982714	2529.177132
969.281462	2528.191586
969.580172	2528.894827
969.878844	2524.945083
970.177480	2527.972296
970.476078	2527.563962
970.774639	2530.565969
971.073162	2527.889117
971.371649	2525.887779
971.670098	2523.485669
971.968510	2523.770494
972.266885	2524.841739
972.565223	2530.147554
972.863524	2529.890455
973.161788	2528.244518
973.460014	2527.342152
973.758204	2526.908612
974.056356	2527.400125
974.354471	2527.319466
974.652550	2525.950793
974.950591	2526.749816
975.248595	2528.650331
975.546563	2529.598068
975.844493	2526.144878
976.142386	2528.292409
976.440243	2526.452388
976.738062	2529.461957
977.035845	2527.810979
977.333590	2529.429189
977.631299	2526.553211
977.928971	2526.744775
978.226606	2528.241998
978.524204	2528.184024
978.821765	2527.601771
979.119290	2522.732016
979.416777	2525.708818
979.714228	2524.635052
980.011642	2527.974816
980.309020	2529.698891
980.606360	2524.612367
980.903664	2530.833151
981.200931	2525.497089
981.498162	2526.651513
981.795356	2529.802235
982.092513	2528.912471
982.389633	2527.876514
982.686717	2529.918181
982.983764	2526.515402
983.280775	2528.486493
983.577749	2527.415248
983.874686	2531.105373
984.171587	2529.802235
984.468451	2530.001360
984.765279	2528.665454
985.062070	2529.098994
985.358824	2527.558921
985.655543	2527.271575
985.952224	2527.856349
986.248869	2526.679240
986.545478	2523.037006
986.842050	2526.780063
987.138586	2524.682943
987.435086	2524.488858
987.731549	2521.204547
988.027975	2523.331914
988.324366	2525.847449
988.620719	2527.576565
988.917037	2526.056657
989.213318	2526.031452
989.509563	2527.677388
989.805772	2527.906761
990.101944	2524.052799
990.398080	2527.011956
990.694180	2526.832995
990.990244	2528.274765
991.286271	2526.580937
991.582262	2525.676050
991.878217	2525.691174
992.174136	2525.469363
992.470019	2528.297450
992.765865	2526.780063
993.061676	2525.527336
993.357450	2528.181504
993.653188	2525.234949
993.948890	2526.066740
994.244556	2525.577748
994.540186	2526.187727
994.835780	2526.956503
995.131337	2527.024559
995.426859	2523.911646
995.722345	2528.347862
996.017795	2528.541946
996.313208	2527.533715
996.608586	2526.724610
996.903928	2526.616225
997.199234	2525.945752
997.494504	2525.933149
997.789738	2527.001874
998.084936	2526.724610
998.380099	2524.960206
998.675225	2530.061854
998.970316	2529.076308
999.265371	2527.695032
999.560390	2527.062367
999.855373	2526.671678
1000.150320	2528.357944
1000.445232	2528.496576
1000.740108	2523.921729
1001.034948	2523.727644
1001.329752	2523.044568
1001.624521	2528.728469
1001.919254	2523.407531
1002.213951	2522.018693
1002.508613	2519.876203
1002.803239	2527.742923
1003.097829	2522.447191
1003.392384	2526.535567
1003.686903	2525.819723
1003.981386	2527.286699
1004.275834	2524.687984
1004.570246	2525.272758
1004.864623	2525.320649
1005.158964	2522.734537
1005.453270	2525.721421
1005.747540	2526.880886
1006.041775	2527.080012
1006.335974	2526.701925
1006.630138	2525.570186
1006.924266	2528.040351
1007.218359	2525.534898
1007.512416	2526.739734
1007.806438	2524.808972
1008.100425	2526.028931
1008.394376	2524.975330
1008.688292	2526.235618
1008.982172	2526.414579
1009.276017	2525.925587
1009.569827	2524.176307
1009.863602	2525.270237
1010.157341	2524.935001
1010.451045	2526.001205
1010.744714	2524.476256
1011.038347	2526.094466
1011.331945	2524.569517
1011.625508	2528.816689
1011.919036	2525.885258
1012.212528	2526.321318
1012.505986	2526.545649
1012.799408	2526.200330
1013.092795	2526.873324
1013.386147	2525.968437
1013.679464	2525.736544
1013.972745	2525.305525
1014.265992	2525.734023
1014.559204	2521.297808
1014.852380	2523.621780
1015.145521	2524.932480
1015.438628	2522.883251
1015.731699	2525.953314
1016.024736	2529.950949
1016.317737	2524.362830
1016.610703	2526.533046
1016.903635	2521.696059
1017.196531	2520.367715
1017.489393	2522.613549
1017.782219	2520.551717
1018.075011	2522.754702
1018.367768	2525.807120
1018.660490	2526.618746
1018.953177	2526.618746
1019.245829	2526.618746
