Dividing Wavelength (nm)	Counts (n)	Blue Motor Position (mm): 0.000000	Red Motor Position (mm): 0.500000	
326.493990	2089.149936
326.888308	2089.149936
327.282561	2089.149936
327.676750	2065.106153
328.070874	2069.428942
328.464933	2071.299210
328.858929	2082.861096
329.252859	2096.124372
329.646726	2110.869747
330.040528	2125.481532
330.434265	2146.094810
330.827938	2164.721873
331.221547	2183.926149
331.615091	2203.800898
332.008571	2226.544063
332.401986	2244.868658
332.795338	2267.117790
333.188625	2287.063115
333.581847	2303.920734
333.975006	2321.476552
334.368100	2342.664522
334.761129	2355.947962
335.154095	2375.205170
335.546996	2388.894423
335.939833	2400.242060
336.332606	2414.896694
336.725315	2425.170566
337.117960	2434.123655
337.510540	2441.007351
337.903056	2451.918928
338.295508	2459.410083
338.687896	2463.972327
339.080220	2472.668318
339.472480	2477.240644
339.864676	2479.620069
340.256807	2482.521253
340.648875	2486.062663
341.040879	2487.829588
341.432818	2487.143991
341.824694	2485.717344
342.216506	2488.822695
342.608253	2488.227839
342.999937	2487.257417
343.391557	2488.588281
343.783113	2483.781541
344.174605	2484.988898
344.566033	2479.998155
344.957397	2479.604945
345.348697	2475.065386
345.739934	2474.515900
346.131106	2475.173771
346.522215	2472.464151
346.913260	2471.970118
347.304241	2470.208234
347.695159	2465.774540
348.086012	2467.624643
348.476802	2464.307564
348.867528	2464.547019
349.258191	2464.468881
349.648789	2461.723972
350.039324	2460.657768
350.429796	2461.224898
350.820203	2460.935032
351.210548	2459.689867
351.600828	2457.933025
351.991045	2457.086111
352.381198	2457.199537
352.771288	2459.205916
353.161314	2459.876390
353.551276	2458.487552
353.941175	2455.356995
354.331010	2458.033848
354.720782	2457.164249
355.110490	2459.221040
355.500135	2457.330607
355.889717	2459.644497
356.279235	2458.364043
356.668689	2460.264558
357.058080	2458.517799
357.447408	2458.159877
357.836672	2454.174845
358.225873	2457.207099
358.615010	2455.629218
359.004084	2461.028293
359.393095	2462.389405
359.782043	2462.961576
360.170927	2461.429065
360.559748	2462.505351
360.948505	2460.466205
361.337199	2464.380661
361.725830	2464.390743
362.114398	2465.852678
362.502903	2466.936526
362.891344	2463.664817
363.279722	2468.035497
363.668037	2466.079529
364.056289	2467.339818
364.444478	2466.732359
364.832603	2467.286886
365.220665	2466.540795
365.608665	2466.916361
365.996601	2469.925930
366.384474	2468.995837
366.772284	2470.856023
367.160031	2468.390898
367.547715	2470.520786
367.935336	2470.367031
368.322893	2471.034984
368.710388	2472.219655
369.097820	2474.067238
369.485189	2470.084726
369.872495	2471.196301
370.259738	2468.990796
370.646918	2471.337453
371.034035	2469.636063
371.421090	2474.289048
371.808081	2471.299644
372.195010	2473.195118
372.581875	2471.415591
372.968678	2473.394244
373.355418	2476.978504
373.742096	2474.614203
374.128710	2475.108236
374.515262	2473.651343
374.901751	2473.573205
375.288177	2474.352063
375.674540	2475.173771
376.060841	2474.957001
376.447079	2475.544296
376.833254	2473.701754
377.219367	2472.050776
377.605417	2474.273925
377.991404	2474.110087
378.377329	2474.677217
378.763191	2473.139665
379.148991	2477.795171
379.534727	2476.973463
379.920402	2479.325161
380.306013	2475.138483
380.691563	2480.545120
381.077049	2476.250057
381.462474	2478.758031
381.847835	2477.719554
382.233134	2480.693834
382.618371	2479.320120
383.003545	2483.040492
383.388657	2477.044039
383.773706	2481.018989
384.158693	2480.010758
384.543618	2478.107722
384.928480	2481.626448
385.313280	2480.177116
385.698017	2482.014617
386.082692	2483.211891
386.467305	2480.338433
386.851856	2482.576705
387.236344	2480.721561
387.620770	2481.417240
388.005133	2477.527990
388.389435	2479.773824
388.773674	2482.314565
389.157851	2482.241469
389.541965	2482.485965
389.926018	2484.129381
390.310008	2481.843218
390.693936	2484.066366
391.077802	2486.097951
391.461606	2485.251038
391.845348	2483.816829
392.229027	2482.123002
392.612645	2482.188537
392.996200	2483.791623
393.379694	2482.609473
393.763125	2484.941007
394.146494	2484.300780
394.529801	2484.741881
394.913047	2484.099134
395.296230	2487.327993
395.679351	2484.583085
396.062410	2488.142139
396.445408	2487.201964
396.828343	2485.782879
397.211217	2485.394710
397.594028	2480.852631
397.976778	2485.369505
398.359466	2487.849752
398.742092	2484.078969
399.124656	2486.939824
399.507158	2487.338075
399.889598	2484.658702
400.271977	2486.970071
400.654294	2492.177583
401.036549	2488.190030
401.418742	2488.232880
401.800874	2486.420585
402.182944	2489.074753
402.564952	2489.306646
402.946898	2486.660040
403.328783	2490.390494
403.710606	2488.008549
404.092367	2488.411841
404.474067	2489.674650
404.855705	2489.493168
405.237282	2486.105513
405.618797	2488.973930
406.000250	2489.238590
406.381642	2489.442757
406.762972	2490.324959
407.144240	2489.528457
407.525447	2493.397542
407.906593	2491.522233
408.287677	2491.524753
408.668700	2490.405617
409.049661	2490.919815
409.430560	2489.142808
409.811399	2492.948879
410.192176	2491.232367
410.572891	2493.452995
410.953545	2490.072901
411.334138	2491.708756
411.714669	2493.344610
412.095139	2495.514827
412.475547	2492.732110
412.855894	2491.923005
413.236180	2490.468632
413.616405	2497.435506
413.996568	2492.094404
414.376670	2493.372336
414.756711	2492.119610
415.136691	2492.729589
415.516609	2492.888386
415.896466	2492.893427
416.276262	2495.252687
416.655997	2490.244300
417.035670	2491.033241
417.415283	2492.792604
417.794834	2489.692294
418.174324	2494.047851
418.553753	2493.001812
418.933121	2493.989878
419.312428	2495.913078
419.691674	2497.148161
420.070859	2496.976761
420.449983	2496.810403
420.829045	2498.224447
421.208047	2495.320742
421.586988	2494.453664
421.965867	2495.945845
422.344686	2495.446771
422.723444	2494.892244
423.102141	2493.463077
423.480777	2495.734117
423.859352	2496.117245
424.237866	2497.934581
424.616319	2495.227481
424.994712	2497.687564
425.373044	2501.929695
425.751314	2497.755620
426.129524	2495.212358
426.507673	2499.968686
426.885762	2496.901144
427.263789	2497.526247
427.641756	2498.461381
428.019662	2498.055568
428.397508	2495.116576
428.775292	2499.232678
429.153016	2497.541371
429.530679	2500.167812
429.908282	2498.831906
430.285824	2498.884838
430.663305	2497.705208
431.040726	2499.469612
431.418086	2500.011536
431.795385	2500.871053
432.172624	2500.578666
432.549802	2501.163440
432.926920	2499.356186
433.303977	2499.300733
433.680974	2502.728718
434.057910	2497.697646
434.434786	2501.496156
434.811601	2501.254180
435.188355	2500.193018
435.565050	2499.308295
435.941683	2500.371978
436.318257	2498.330311
436.694770	2496.137409
437.071222	2497.241422
437.447614	2496.933912
437.823946	2498.859632
438.200218	2500.969355
438.576429	2499.870384
438.952580	2502.542195
439.328670	2503.252998
439.704700	2501.165960
440.080670	2503.709222
440.456580	2501.934736
440.832429	2504.725015
441.208218	2501.544047
441.583947	2502.602689
441.959616	2500.344252
442.335224	2502.005312
442.710773	2503.268121
443.086261	2500.782833
443.461689	2504.662000
443.837057	2500.261073
444.212365	2504.712412
444.587612	2503.368944
444.962800	2503.305930
445.337927	2501.506238
445.712995	2502.080930
446.088002	2503.169819
446.462949	2502.643018
446.837837	2502.426249
447.212664	2503.666373
447.587431	2504.485560
447.962139	2504.359531
448.336786	2504.810714
448.711374	2503.091681
449.085901	2505.655108
449.460369	2502.002792
449.834776	2502.743841
450.209124	2501.047493
450.583412	2502.653101
450.957640	2505.236692
451.331808	2501.052534
451.705917	2505.438338
452.079965	2506.146620
452.453954	2505.012361
452.827883	2503.999089
453.201752	2505.871877
453.575562	2502.998420
453.949311	2505.708040
454.323001	2504.525889
454.696632	2505.844151
455.070202	2504.699809
455.443713	2507.522855
455.817164	2504.316681
456.190556	2499.678820
456.563888	2503.668893
456.937160	2501.962463
457.310373	2508.518483
457.683526	2504.903976
458.056619	2506.587721
458.429653	2507.263236
458.802628	2502.524551
459.175542	2505.299706
459.548398	2505.917248
459.921194	2505.566888
460.293930	2507.422032
460.666607	2505.975221
461.039224	2505.511435
461.411782	2507.532937
461.784280	2505.400529
462.156719	2505.256857
462.529099	2506.648215
462.901419	2507.951353
463.273680	2507.106960
463.645882	2504.659480
464.018024	2509.819101
464.390106	2506.491939
464.762130	2506.736435
465.134094	2507.621158
465.505999	2507.296003
465.877845	2507.147289
466.249631	2505.839110
466.621358	2508.563853
466.993026	2509.441014
467.364634	2510.124091
467.736184	2505.130828
468.107674	2506.171826
468.479105	2505.791219
468.850477	2510.416477
469.221790	2508.311796
469.593043	2506.174347
469.964238	2504.626712
470.335373	2506.534789
470.706449	2508.273987
471.077467	2507.913545
471.448425	2508.105108
471.819324	2508.405057
472.190164	2504.820797
472.560945	2508.246261
472.931667	2509.521673
473.302330	2506.688544
473.672934	2505.340036
474.043479	2508.374810
474.413965	2506.141579
474.784393	2502.668224
475.154761	2509.869512
475.525070	2503.900786
475.895321	2506.547392
476.265513	2503.323574
476.635645	2509.060407
477.005719	2507.880777
477.375734	2507.265756
477.745691	2509.284738
478.115588	2510.083761
478.485427	2507.553102
478.855207	2510.280366
479.224928	2506.295334
479.594591	2511.787671
479.964194	2511.124760
480.333739	2508.394975
480.703226	2509.405726
481.072653	2511.439832
481.442022	2510.300531
481.811333	2509.902280
482.180584	2510.098885
482.549777	2509.372959
482.918912	2511.064266
483.287988	2509.493946
483.657005	2506.307937
484.025964	2510.214831
484.394864	2509.942609
484.763706	2509.972856
485.132489	2508.899090
485.501213	2509.158710
485.869879	2509.125942
486.238487	2510.166940
486.607036	2512.979904
486.975527	2512.296828
487.343959	2508.894049
487.712333	2511.780110
488.080648	2512.690038
488.448905	2513.683145
488.817104	2510.250119
489.185244	2508.289111
489.553326	2509.390603
489.921350	2511.797754
490.289315	2512.188443
490.657222	2511.160048
491.025070	2508.737773
491.392861	2512.148114
491.760593	2507.777433
492.128267	2510.693741
492.495883	2513.635254
492.863440	2509.577125
493.230939	2511.129801
493.598380	2510.673576
493.965763	2508.049656
494.333088	2507.497649
494.700354	2505.549243
495.067563	2506.910355
495.434713	2507.154851
495.801805	2509.713237
496.168839	2512.768176
496.535815	2511.815398
496.902733	2512.105264
497.269593	2514.366222
497.636395	2510.108967
498.003139	2510.519821
498.369825	2510.108967
498.736453	2512.405213
499.103023	2512.470748
499.469535	2512.788340
499.835989	2512.072497
500.202385	2511.764986
500.568723	2509.567043
500.935003	2513.670542
501.301226	2511.288597
501.667390	2513.158865
502.033497	2515.273629
502.399546	2508.752897
502.765537	2514.565347
503.131470	2514.209946
503.497345	2511.477640
503.863163	2513.791530
504.228923	2512.294307
504.594625	2509.529234
504.960269	2512.488392
505.325856	2512.768176
505.691385	2511.676766
506.056856	2511.757424
506.422270	2511.475120
506.787625	2514.812364
507.152924	2512.228772
507.518164	2511.233144
507.883347	2510.459327
508.248472	2513.055522
508.613540	2513.136180
508.978550	2511.946468
509.343503	2512.180881
509.708398	2513.693228
510.073236	2512.294307
510.438016	2513.393279
510.802738	2510.429080
511.167403	2513.262209
511.532010	2508.289111
511.896561	2513.093330
512.261053	2513.005110
512.625488	2510.204749
512.989866	2508.379851
513.354186	2508.382372
513.718449	2510.358504
514.082655	2512.107785
514.446803	2511.611231
514.810894	2511.563340
515.174927	2513.037877
515.538904	2513.211797
515.902822	2510.683659
516.266684	2511.301200
516.630488	2513.652898
516.994235	2512.788340
517.357925	2512.932013
517.721558	2514.933351
518.085133	2510.333298
518.448651	2514.751870
518.812112	2515.513084
519.175516	2512.213649
519.538863	2513.622651
519.902152	2513.254647
520.265385	2513.715913
520.628560	2512.359842
520.991678	2514.603156
521.354739	2514.386386
521.717743	2514.106602
522.080690	2510.809688
522.443580	2509.463699
522.806413	2511.129801
523.169189	2511.323885
523.531908	2513.572240
523.894569	2513.521828
524.257174	2513.027795
524.619722	2510.214831
524.982213	2513.889833
525.344647	2511.838083
525.707025	2511.598628
526.069345	2513.065604
526.431608	2515.712210
526.793815	2510.620644
527.155964	2514.769514
527.518057	2512.546365
527.880093	2512.450583
528.242072	2516.034843
528.603995	2514.928310
528.965860	2512.034688
529.327669	2517.209432
529.689421	2514.968639
530.051117	2514.197343
530.412755	2514.106602
530.774337	2512.538803
531.135862	2513.443690
531.497331	2512.511077
531.858743	2512.316993
532.220098	2512.148114
532.581396	2508.987310
532.942638	2513.216838
533.303824	2514.809843
533.664953	2514.887981
534.026025	2512.049811
534.387040	2516.193640
534.747999	2513.322703
535.108902	2515.656757
535.469748	2514.245234
535.830537	2514.497292
536.191270	2513.368073
536.551947	2514.509894
536.912567	2511.444873
537.273131	2510.519821
537.633638	2515.071983
537.994089	2515.117353
538.354483	2514.575429
538.714821	2513.615090
539.075103	2512.311951
539.435328	2514.459483
539.795497	2513.272291
540.155609	2513.010151
540.515665	2513.136180
540.875665	2514.585512
541.235609	2516.090296
541.595496	2516.057529
541.955328	2513.869668
542.315102	2516.027282
542.674821	2511.313803
543.034483	2514.993845
543.394090	2515.598784
543.753640	2516.740605
544.113134	2515.515605
544.472571	2516.395286
544.831953	2514.625841
545.191278	2513.625172
545.550548	2513.461334
545.909761	2512.599297
546.268918	2514.172137
546.628019	2513.000069
546.987064	2512.453104
547.346053	2515.187930
547.704986	2513.680625
548.063863	2512.322034
548.422684	2513.748680
548.781449	2514.076355
549.140158	2512.959740
549.498811	2516.319669
549.857408	2516.538959
550.215949	2511.928824
550.574434	2511.538134
550.932864	2513.736077
551.291237	2510.242558
551.649555	2515.069463
552.007817	2514.550224
552.366022	2513.978053
552.724173	2515.114833
553.082267	2513.342867
553.440305	2514.698938
553.798288	2514.174658
554.156215	2515.200532
554.514086	2516.067611
554.871902	2511.391941
555.229661	2514.172137
555.587365	2514.668691
555.945014	2514.860255
556.302606	2515.286232
556.660143	2512.831190
557.017625	2514.333454
557.375050	2511.875892
557.732421	2516.042405
558.089735	2513.365552
558.446994	2515.850841
558.804197	2512.516118
559.161345	2516.551562
559.518437	2514.514936
559.875474	2516.455780
560.232455	2515.515605
560.589381	2515.510563
560.946251	2518.381501
561.303065	2512.884122
561.659825	2517.337982
562.016528	2513.068124
562.373177	2514.570388
562.729770	2515.702127
563.086307	2515.021572
563.442789	2514.212466
563.799216	2514.729185
564.155587	2511.946468
564.511904	2514.978722
564.868164	2516.677591
565.224370	2516.833866
565.580520	2516.675070
565.936615	2515.071983
566.292654	2514.454442
566.648638	2516.027282
567.004567	2515.757580
567.360441	2514.734226
567.716260	2516.571726
568.072023	2515.815553
568.427732	2508.974708
568.783385	2512.173320
569.138982	2512.006962
569.494525	2511.651560
569.850013	2511.472599
570.205445	2516.097858
570.560823	2514.731705
570.916145	2514.101561
571.271412	2515.142559
571.626625	2514.870337
571.981782	2515.389576
572.336884	2513.791530
572.691931	2515.225738
573.046923	2516.244051
573.401860	2513.930162
573.756743	2514.388907
574.111570	2513.670542
574.466342	2514.792199
574.821059	2514.295645
575.175722	2512.710203
575.530330	2516.014679
575.884882	2515.477796
576.239380	2517.620286
576.593823	2518.865451
576.948211	2516.657426
577.302544	2515.767662
577.656823	2516.589370
578.011047	2512.916890
578.365216	2516.100378
578.719330	2510.920593
579.073389	2515.497961
579.427394	2511.913700
579.781344	2513.330264
580.135239	2514.290604
580.489080	2516.228928
580.842866	2512.503515
581.196597	2516.823784
581.550273	2515.571057
581.903895	2513.547034
582.257463	2512.828670
582.610975	2513.179030
582.964434	2514.656088
583.317837	2515.150121
583.671186	2517.746315
584.024481	2514.764473
584.377721	2517.035513
584.730906	2512.047291
585.084037	2515.382014
585.437113	2515.840759
585.790135	2515.500481
586.143103	2515.888650
586.496016	2513.662981
586.848874	2510.837414
587.201679	2512.059894
587.554428	2510.035870
587.907124	2514.086438
588.259765	2510.081241
588.612352	2516.201202
588.964884	2517.343023
589.317362	2517.705986
589.669786	2514.295645
590.022155	2512.992507
590.374470	2515.548372
590.726731	2517.189268
591.078937	2512.110305
591.431090	2516.453259
591.783188	2515.785306
592.135232	2517.143897
592.487222	2515.235821
592.839157	2515.598784
593.191038	2517.360667
593.542866	2516.584329
593.894639	2516.954854
594.246358	2517.224556
594.598022	2516.806140
594.949633	2516.707838
595.301190	2513.935203
595.652692	2514.101561
596.004141	2513.153824
596.355535	2513.967970
596.706876	2514.487209
597.058162	2513.874709
597.409395	2514.729185
597.760573	2516.604494
598.111698	2513.302538
598.462768	2516.695235
598.813785	2513.826818
599.164748	2515.679442
599.515657	2513.809174
599.866511	2513.814215
600.217312	2514.348577
600.568060	2515.606345
600.918753	2516.937210
601.269392	2515.835718
601.619978	2513.418485
601.970510	2517.486696
602.320988	2514.028464
602.671412	2516.372601
603.021783	2514.923269
603.372100	2514.333454
603.722363	2515.621469
604.072572	2514.847652
604.422728	2517.781603
604.772830	2511.175171
605.122878	2512.808505
605.472872	2512.117867
605.822813	2511.505367
606.172701	2514.456962
606.522534	2514.572909
606.872314	2516.697755
607.222041	2517.201871
607.571714	2516.617097
607.921333	2516.912004
608.270899	2514.005779
608.620411	2513.783968
608.969870	2515.646675
609.319276	2514.088958
609.668627	2515.198012
610.017926	2518.714217
610.367171	2516.488547
610.716362	2517.353105
611.065500	2513.733557
611.414585	2515.908815
611.763616	2516.775893
612.112594	2514.502333
612.461518	2513.751201
612.810389	2512.674914
613.159207	2517.040554
613.507971	2516.264216
613.856682	2516.206243
614.205340	2516.186078
614.553945	2516.962416
614.902496	2516.002076
615.250994	2514.943434
615.599439	2515.412261
615.947830	2516.972498
616.296169	2517.426202
616.644454	2517.839577
616.992686	2514.076355
617.340864	2517.075842
617.688990	2514.429236
618.037063	2516.997704
618.385082	2515.805471
618.733048	2515.742457
619.080961	2512.964781
619.428821	2514.318331
619.776628	2515.084586
620.124382	2515.550893
620.472083	2516.576767
620.819731	2516.813702
621.167326	2516.264216
621.514868	2515.180368
621.862357	2513.607528
622.209793	2516.385204
622.557176	2512.755573
622.904506	2515.155162
623.251783	2511.701972
623.599007	2513.239524
623.946179	2509.267094
624.293297	2512.211128
624.640363	2515.634072
624.987376	2517.766480
625.334336	2514.847652
625.681243	2518.401665
626.028097	2512.279184
626.374899	2514.162055
626.721647	2515.182888
627.068343	2515.722292
627.414987	2516.198681
627.761577	2515.898732
628.108115	2516.483506
628.454600	2517.975688
628.801032	2513.915038
629.147412	2514.230110
629.493739	2515.621469
629.840014	2514.618279
630.186236	2515.777745
630.532405	2517.587519
630.878521	2513.937723
631.224585	2516.831346
631.570597	2514.935872
631.916556	2514.184740
632.262462	2515.344205
632.608316	2515.666839
632.954117	2512.858917
633.299866	2516.407889
633.645562	2512.155676
633.991206	2513.932682
634.336797	2518.134484
634.682336	2517.063239
635.027823	2514.870337
635.373257	2512.309431
635.718639	2514.593073
636.063968	2516.828825
636.409245	2512.432939
636.754470	2513.549555
637.099642	2514.522497
637.444762	2515.744977
637.789829	2514.940913
638.134845	2515.818074
638.479808	2513.988135
638.824719	2513.544513
639.169577	2514.462003
639.514383	2515.011489
639.859137	2513.332785
640.203839	2515.540810
640.548489	2515.792868
640.893086	2513.443690
641.237632	2512.160717
641.582125	2510.741632
641.926566	2511.011334
642.270955	2515.205574
642.615292	2516.186078
642.959576	2514.237672
643.303809	2514.436798
643.647990	2515.109792
643.992118	2515.089627
644.336195	2514.925790
644.680219	2513.486540
645.024192	2514.880419
645.368112	2515.354288
645.711981	2516.221366
646.055797	2516.319669
646.399562	2513.700789
646.743274	2519.039371
647.086935	2516.402848
647.430544	2513.720954
647.774101	2514.341016
648.117606	2516.851510
648.461059	2514.875378
648.804460	2517.075842
649.147810	2513.105933
649.491108	2515.684483
649.834354	2516.004597
650.177548	2512.112826
650.520690	2517.637930
650.863781	2514.318331
651.206820	2515.336644
651.549807	2515.203053
651.892742	2512.672394
652.235626	2514.093999
652.578458	2516.123064
652.921238	2515.424864
653.263967	2517.101048
653.606644	2517.090965
653.949269	2515.767662
654.291843	2515.707168
654.634365	2514.283042
654.976836	2514.285563
655.319255	2515.379493
655.661622	2516.135667
656.003938	2512.732888
656.346203	2511.278515
656.688416	2515.979391
657.030577	2513.189112
657.372687	2516.349916
657.714746	2515.278670
658.056753	2514.479648
658.398708	2509.176354
658.740612	2513.108454
659.082465	2509.435973
659.424266	2512.569050
659.766016	2509.967815
660.107715	2516.254134
660.449362	2511.059225
660.790958	2514.716582
661.132503	2514.824967
661.473996	2515.928979
661.815438	2514.600635
662.156829	2514.971160
662.498168	2514.915707
662.839456	2516.110461
663.180693	2514.308248
663.521879	2515.717251
663.863013	2512.821108
664.204097	2514.320851
664.545129	2511.470079
664.886110	2512.707682
665.227040	2511.911180
665.567918	2513.816736
665.908746	2513.272291
666.249522	2515.089627
666.590248	2512.538803
666.930922	2516.317148
667.271545	2513.988135
667.612118	2517.705986
667.952639	2513.133659
668.293109	2512.879081
668.633528	2513.390758
668.973896	2511.543175
669.314213	2515.994514
669.654480	2515.071983
669.994695	2512.818587
670.334859	2514.736746
670.674973	2513.526869
671.015035	2513.675583
671.355047	2515.775224
671.695008	2513.148783
672.034918	2515.961747
672.374777	2515.981911
672.714585	2514.386386
673.054342	2516.667508
673.394049	2515.303876
673.733705	2517.524504
674.073310	2517.746315
674.412864	2513.846983
674.752368	2514.625841
675.091820	2513.640295
675.431223	2512.185923
675.770574	2513.841942
676.109875	2508.563853
676.449125	2511.152486
676.788324	2511.376817
677.127473	2510.189626
677.466571	2510.454286
677.805619	2515.518125
678.144616	2515.412261
678.483562	2512.294307
678.822458	2514.436798
679.161303	2513.458814
679.500098	2515.654236
679.838842	2515.359329
680.177535	2511.843124
680.516179	2511.911180
680.854771	2513.027795
681.193314	2513.894874
681.531805	2513.937723
681.870247	2513.363032
682.208638	2512.969822
682.546978	2515.361849
682.885268	2512.821108
683.223508	2510.245078
683.561697	2512.561488
683.899836	2512.934534
684.237925	2514.588032
684.575963	2515.901253
684.913951	2512.669873
685.251889	2517.060718
685.589776	2511.901097
685.927614	2512.939575
686.265401	2513.889832
686.603137	2514.444359
686.940824	2512.957219
687.278460	2515.853362
687.616046	2513.925121
687.953582	2514.832528
688.291068	2513.874709
688.628504	2512.737929
688.965889	2512.052332
689.303224	2514.157014
689.640510	2512.150634
689.977745	2515.871006
690.314930	2513.380676
690.652065	2515.840759
690.989150	2515.825636
691.326185	2513.451252
691.663170	2512.458145
692.000105	2514.681294
692.336990	2511.797754
692.673825	2514.867816
693.010610	2513.531911
693.347345	2511.888494
693.684030	2509.788854
694.020665	2510.265243
694.357251	2509.201559
694.693786	2511.384379
695.030272	2511.785151
695.366707	2513.176509
695.703093	2513.622651
696.039429	2511.611231
696.375716	2513.975532
696.711952	2515.122395
697.048139	2514.222549
697.384276	2515.997035
697.720363	2511.160048
698.056400	2514.522497
698.392388	2510.378669
698.728326	2512.717764
699.064214	2512.879081
699.400053	2512.339678
699.735842	2515.192971
700.071581	2512.107785
700.407270	2515.364370
700.742910	2514.179699
701.078501	2511.379338
701.414042	2512.652229
701.749533	2514.497292
702.084974	2512.014523
702.420366	2515.508043
702.755709	2511.470079
703.091002	2510.686179
703.426246	2511.212980
703.761440	2512.795902
704.096584	2514.862775
704.431679	2514.250275
704.766725	2513.499143
705.101721	2511.573422
705.436668	2512.664832
705.771565	2509.746004
706.106413	2513.438649
706.441212	2509.446055
706.775961	2515.747498
707.110661	2512.748011
707.445311	2513.201715
707.779913	2510.983607
708.114465	2515.666839
708.448967	2513.300018
708.783421	2516.735564
709.117825	2512.783299
709.452180	2516.256654
709.786485	2511.480161
710.120742	2512.720285
710.454949	2510.950840
710.789107	2510.766838
711.123216	2510.953360
711.457275	2511.046622
711.791286	2509.231806
712.125247	2511.686848
712.459159	2514.691376
712.793023	2511.470079
713.126837	2512.347239
713.460602	2514.739267
713.794318	2514.651047
714.127985	2510.199708
714.461602	2512.909328
714.795171	2514.628362
715.128691	2512.768176
715.462162	2515.303876
715.795584	2512.140552
716.128957	2511.780110
716.462281	2513.100892
716.795556	2511.938906
717.128782	2510.048473
717.461960	2513.607528
717.795088	2512.296828
718.128167	2513.879750
718.461198	2513.325223
718.794180	2514.961078
719.127113	2514.025944
719.459997	2514.157014
719.792833	2511.326406
720.125619	2514.764473
720.458357	2514.346057
720.791046	2512.720285
721.123686	2513.690707
721.456278	2514.109123
721.788821	2509.567043
722.121315	2513.037878
722.453761	2512.659791
722.786158	2514.678773
723.118506	2513.975532
723.450805	2512.138032
723.783056	2510.797085
724.115259	2515.596263
724.447412	2512.155676
724.779518	2512.523680
725.111574	2514.582991
725.443582	2514.507374
725.775542	2512.521159
726.107453	2512.190964
726.439315	2511.270953
726.771129	2516.690193
727.102895	2513.504184
727.434612	2510.925634
727.766281	2511.586025
728.097901	2512.483351
728.429473	2510.141735
728.760996	2509.249450
729.092471	2509.831704
729.423897	2512.059894
729.755276	2511.419667
730.086606	2512.178361
730.417887	2512.369925
730.749120	2513.395799
731.080305	2512.395130
731.411442	2513.053001
731.742530	2510.824811
732.073570	2512.720285
732.404562	2509.839265
732.735506	2510.658453
733.066401	2512.533762
733.397249	2510.083761
733.728048	2513.645337
734.058798	2511.699451
734.389501	2513.552075
734.720156	2509.231806
735.050762	2511.681807
735.381320	2510.895387
735.711831	2512.115346
736.042293	2512.498474
736.372707	2511.901097
736.703073	2515.195491
737.033391	2512.619462
737.363661	2515.845800
737.693883	2509.846827
738.024056	2514.512415
738.354182	2512.551406
738.684260	2513.521828
739.014290	2510.025788
739.344272	2514.227590
739.674207	2510.295490
740.004093	2513.826818
740.333931	2511.069307
740.663722	2512.281704
740.993464	2511.112157
741.323159	2510.643329
741.652806	2513.287415
741.982405	2513.315141
742.311956	2513.627693
742.641460	2511.517970
742.970915	2510.534945
743.300323	2510.519821
743.629683	2512.861437
743.958996	2510.393792
744.288260	2512.611900
744.617477	2512.150634
744.946647	2509.335150
745.275768	2510.169461
745.604842	2509.156189
745.933869	2508.452948
746.262847	2508.221055
746.591778	2513.602487
746.920662	2513.967970
747.249498	2513.932682
747.578286	2513.340347
747.907027	2512.979904
748.235720	2511.575943
748.564365	2512.911849
748.892963	2511.727178
749.221514	2512.132990
749.550017	2511.543175
749.878473	2515.954185
750.206881	2512.493433
750.535242	2514.272960
750.863555	2511.333968
751.191821	2514.129287
751.520039	2512.919410
751.848210	2513.917559
752.176334	2511.558299
752.504411	2514.872858
752.832440	2514.381345
753.160421	2511.462517
753.488356	2512.075017
753.816243	2512.284225
754.144082	2513.549555
754.471875	2510.358504
754.799620	2511.533093
755.127318	2510.035870
755.454969	2511.278515
755.782572	2511.840603
756.110129	2511.268432
756.437638	2513.804133
756.765100	2511.833042
757.092515	2511.298679
757.419882	2513.350429
757.747203	2510.945799
758.074477	2511.661643
758.401703	2512.513598
758.728882	2511.137362
759.056014	2511.767507
759.383099	2512.571571
759.710138	2513.718433
760.037129	2511.407064
760.364073	2510.585356
760.690970	2510.761797
761.017820	2511.512928
761.344623	2513.100892
761.671379	2511.591066
761.998088	2509.592249
762.324751	2512.506036
762.651366	2510.088802
762.977935	2510.333298
763.304456	2509.640140
763.630931	2513.428567
763.957359	2513.617610
764.283740	2512.989987
764.610074	2510.005623
764.936362	2513.005110
765.262602	2511.512928
765.588796	2511.422188
765.914943	2510.565192
766.241044	2511.139883
766.567097	2510.234996
766.893104	2512.642147
767.219064	2509.493946
767.544978	2513.584843
767.870845	2510.008144
768.196665	2509.642660
768.522438	2511.018895
768.848165	2510.844976
769.173846	2512.143073
769.499479	2513.070645
769.825066	2510.807167
770.150607	2510.907990
770.476101	2510.340860
770.801548	2512.705161
771.126949	2512.256499
771.452303	2513.955368
771.777611	2511.810357
772.102872	2511.817918
772.428087	2510.660973
772.753256	2508.871364
773.078378	2509.274656
773.403453	2510.807167
773.728482	2508.909173
774.053465	2510.534945
774.378401	2509.831704
774.703291	2513.451252
775.028135	2511.676766
775.352932	2509.367918
775.677683	2511.623834
776.002388	2511.891015
776.327046	2510.056035
776.651658	2512.047291
776.976224	2511.364214
777.300743	2512.052332
777.625216	2510.683659
777.949643	2510.396313
778.274024	2511.696931
778.598359	2508.604183
778.922647	2510.013185
779.246889	2509.486385
779.571086	2504.820797
779.895236	2510.005623
780.219339	2511.500326
780.543397	2509.667866
780.867409	2508.929337
781.191374	2512.460665
781.515294	2511.560819
781.839167	2509.965294
782.162995	2510.552589
782.486776	2511.618793
782.810511	2511.374297
783.134201	2512.942096
783.457844	2510.839934
783.781441	2513.171468
784.104993	2506.736435
784.428498	2511.528052
784.751958	2511.898577
785.075372	2513.408402
785.398739	2511.228103
785.722061	2511.908659
786.045337	2510.076200
786.368568	2509.882115
786.691752	2511.127280
787.014891	2513.279853
787.337983	2511.974194
787.661030	2509.221724
787.984031	2511.772548
788.306987	2512.085099
788.629897	2510.174502
788.952760	2512.387569
789.275579	2510.633247
789.598351	2512.402692
789.921078	2510.678618
790.243759	2511.795233
790.566395	2510.749194
790.888984	2512.185922
791.211529	2510.061076
791.534027	2516.133146
791.856480	2509.715757
792.178888	2508.636950
792.501249	2510.386231
792.823566	2512.027126
793.145836	2512.712723
793.468062	2512.027126
793.790241	2509.123422
794.112375	2510.658453
794.434464	2509.617455
794.756507	2510.161899
795.078505	2512.742970
795.400457	2509.294821
795.722364	2505.650067
796.044226	2507.701816
796.366042	2508.014368
796.687812	2506.708709
797.009538	2510.126611
797.331218	2510.829852
797.652852	2508.926817
797.974442	2508.437825
798.295986	2511.689369
798.617484	2510.303052
798.938938	2510.691220
799.260346	2510.330778
799.581709	2511.517970
799.903026	2513.763804
800.224299	2510.895387
800.545526	2512.548886
800.866708	2508.957063
801.187845	2510.300531
801.508936	2509.501508
801.829983	2514.875378
802.150984	2511.611231
802.471940	2511.023937
802.792851	2510.953360
803.113717	2512.768176
803.434538	2507.958915
803.755314	2511.729698
804.076045	2510.877743
804.396731	2511.545696
804.717372	2508.589059
805.037967	2513.262209
805.358518	2509.811539
805.679024	2510.630727
805.999485	2508.503360
806.319901	2510.073679
806.640272	2512.208608
806.960598	2508.687362
807.280879	2507.817763
807.601115	2513.970491
807.921306	2508.420181
808.241453	2508.720129
808.561554	2510.910511
808.881611	2510.413957
809.201623	2509.254492
809.521590	2510.706344
809.841513	2510.212311
810.161390	2510.391272
810.481223	2510.716426
810.801011	2512.359842
811.120755	2509.955212
811.440453	2513.587363
811.760107	2510.595438
812.079716	2508.120232
812.399281	2506.375993
812.718801	2504.626712
813.038276	2508.931858
813.357707	2509.425891
813.677093	2507.434635
813.996434	2509.861951
814.315731	2509.514111
814.634983	2509.141066
814.954191	2508.896570
815.273354	2510.832373
815.592473	2510.393792
815.911547	2511.182733
816.230577	2509.345232
816.549562	2509.317506
816.868502	2510.212311
817.187399	2513.274812
817.506250	2511.719616
817.825058	2510.923113
818.143821	2509.907321
818.462539	2508.011847
818.781213	2508.473113
819.099843	2509.793895
819.418429	2511.938906
819.736970	2509.481343
820.055466	2507.505211
820.373919	2511.775068
820.692327	2509.350273
821.010691	2510.315654
821.329011	2510.124091
821.647286	2514.328413
821.965517	2511.631396
822.283704	2511.086951
822.601847	2510.028309
822.919945	2510.204749
823.237999	2508.110150
823.556010	2512.367404
823.873976	2509.035201
824.191897	2512.100223
824.509775	2507.482526
824.827609	2509.047804
825.145398	2508.281549
825.463144	2510.512259
825.780845	2507.999244
826.098502	2508.878926
826.416116	2507.636281
826.733685	2511.371776
827.051210	2512.339678
827.368692	2509.776251
827.686129	2507.913545
828.003522	2509.882115
828.320872	2506.217196
828.638177	2507.296003
828.955439	2507.686693
829.272656	2506.743997
829.589830	2505.508914
829.906960	2511.810357
830.224046	2510.628206
830.541088	2510.635768
830.858086	2509.269615
831.175041	2508.082423
831.491952	2510.197187
831.808819	2506.494460
832.125642	2510.734070
832.442421	2508.921775
832.759157	2510.439163
833.075849	2508.909173
833.392497	2509.186436
833.709101	2508.185767
834.025662	2508.021929
834.342179	2510.552589
834.658653	2508.750376
834.975083	2510.063597
835.291469	2512.702641
835.607811	2509.307424
835.924110	2509.675428
836.240366	2508.526045
836.556578	2511.081910
836.872746	2507.802639
837.188871	2508.883967
837.504952	2511.623834
837.820990	2511.608710
838.136984	2507.706857
838.452935	2512.339678
838.768842	2510.129132
839.084706	2509.536796
839.400526	2509.274656
839.716303	2509.937568
840.032037	2507.530417
840.347727	2507.603514
840.663373	2507.853051
840.978977	2510.030829
841.294537	2509.551920
841.610054	2508.256343
841.925527	2509.370438
842.240957	2508.944461
842.556344	2509.942609
842.871687	2511.729698
843.186987	2509.786333
843.502244	2507.202742
843.817458	2508.788185
844.132629	2510.630727
844.447756	2510.038391
844.762840	2503.023625
845.077881	2506.232320
845.392879	2506.612927
845.707833	2505.859274
846.022745	2505.705519
846.337613	2510.973525
846.652438	2509.108298
846.967221	2507.303565
847.281960	2509.897239
847.596656	2508.289111
847.911309	2508.518483
848.225919	2509.816580
848.540485	2509.083092
848.855009	2507.928668
849.169490	2509.453617
849.483928	2508.858761
849.798323	2508.634430
850.112675	2508.513442
850.426984	2508.949502
850.741251	2507.648884
851.055474	2507.825324
851.369654	2507.638802
851.683792	2509.312465
851.997887	2512.201046
852.311938	2509.488905
852.625947	2508.515962
852.939914	2508.425222
853.253837	2513.005110
853.567718	2508.112670
853.881555	2508.639471
854.195350	2508.536127
854.509103	2511.308762
854.822812	2511.724657
855.136479	2508.689882
855.450103	2509.236848
855.763685	2509.284738
856.077224	2506.829697
856.390720	2510.255161
856.704173	2506.345746
857.017584	2509.221724
857.330953	2507.127125
857.644278	2511.253309
857.957561	2514.303207
858.270802	2509.209121
858.584000	2509.763648
858.897155	2506.728873
859.210268	2509.138545
859.523339	2509.844307
859.836367	2507.873215
860.149352	2507.739625
860.462295	2510.696262
860.775195	2505.536641
861.088054	2505.370282
861.400869	2504.914058
861.713642	2502.857267
862.026373	2508.611744
862.339062	2507.006137
862.651708	2507.202742
862.964312	2508.195849
863.276873	2508.387413
863.589392	2509.556961
863.901869	2509.403206
864.214303	2508.873884
864.526696	2511.671725
864.839045	2508.105108
865.151353	2509.410767
865.463619	2510.204749
865.775842	2509.060407
866.088023	2506.854902
866.400162	2510.943278
866.712258	2510.348422
867.024313	2511.197856
867.336325	2508.760458
867.648296	2508.536127
867.960224	2507.555623
868.272110	2509.551920
868.583954	2510.638288
868.895755	2508.896570
869.207515	2508.548730
869.519233	2511.870850
869.830909	2509.635099
870.142542	2512.178361
870.454134	2508.820952
870.765684	2508.798267
871.077191	2508.546209
871.388657	2511.848165
871.700081	2508.445386
872.011463	2511.318844
872.322803	2508.694923
872.634101	2508.707526
872.945357	2509.299862
873.256571	2508.576456
873.567744	2509.801457
873.878874	2505.516476
874.189963	2508.715088
874.501010	2508.480674
874.812015	2508.420181
875.122979	2508.286590
875.433900	2508.266425
875.744780	2507.863133
876.055618	2506.360869
876.366415	2507.986641
876.677169	2505.829028
876.987882	2507.520335
877.298554	2504.762823
877.609183	2507.394306
877.919771	2502.970693
878.230317	2502.824500
878.540822	2509.435973
878.851285	2513.025275
879.161707	2509.362876
879.472087	2508.216014
879.782425	2509.040242
880.092722	2508.515962
880.402977	2506.275170
880.713191	2510.280366
881.023363	2509.040243
881.333494	2508.281549
881.643583	2511.311282
881.953631	2507.721981
882.263637	2507.739625
882.573602	2508.289111
882.883526	2508.715088
883.193408	2508.284069
883.503248	2508.102588
883.813048	2506.779285
884.122806	2508.142917
884.432522	2509.498987
884.742197	2504.966990
885.051831	2508.198370
885.361424	2508.301713
885.670975	2510.547547
885.980485	2507.510252
886.289954	2509.279697
886.599382	2507.018740
886.908768	2507.661487
887.218113	2508.795747
887.527417	2505.135869
887.836680	2507.374141
888.145901	2509.229286
888.455082	2506.544871
888.764221	2507.699296
889.073319	2505.017402
889.382376	2509.020078
889.691392	2506.335663
890.000366	2507.994203
890.309300	2507.293483
890.618193	2508.004285
890.927044	2507.348935
891.235855	2506.370952
891.544625	2507.169974
891.853353	2508.790705
892.162041	2506.408760
892.470687	2510.413957
892.779293	2510.209790
893.087858	2506.028153
893.396381	2505.750890
893.704864	2504.893893
894.013306	2502.690909
894.321707	2505.093019
894.630068	2507.585870
894.938387	2508.422701
895.246665	2509.428411
895.554903	2510.527383
895.863100	2506.610406
896.171256	2508.624347
896.479371	2506.988493
896.787446	2508.833555
897.095480	2506.101250
897.403473	2509.602331
897.711425	2505.100581
898.019336	2507.399347
898.327207	2506.318019
898.635038	2510.877743
898.942827	2507.588390
899.250576	2506.973369
899.558284	2506.650736
899.865952	2509.332629
900.173579	2506.809532
900.481165	2507.885818
900.788711	2508.498318
901.096216	2509.665346
901.403681	2506.587721
901.711105	2507.606034
902.018489	2504.556136
902.325832	2511.500326
902.633135	2505.496311
902.940397	2506.902793
903.247619	2507.177536
903.554800	2507.948833
903.861941	2505.556805
904.169041	2509.322547
904.476101	2507.437156
904.783121	2506.645694
905.090100	2505.284583
905.397039	2509.562002
905.703938	2509.640140
906.010796	2511.457476
906.317614	2508.152999
906.624391	2508.745335
906.931129	2509.342712
907.237826	2506.083606
907.544483	2505.128307
907.851099	2507.674090
908.157675	2507.598473
908.464211	2508.679800
908.770707	2503.757113
909.077163	2505.808863
909.383578	2502.753924
909.689954	2506.282731
909.996289	2507.008658
910.302584	2508.193329
910.608839	2506.703668
910.915054	2506.801970
911.221229	2507.512773
911.527363	2506.774244
911.833458	2504.178050
912.139513	2510.870181
912.445527	2506.854902
912.751502	2506.615447
913.057436	2505.536641
913.363331	2506.993534
913.669186	2506.751559
913.975000	2509.630058
914.280775	2504.987155
914.586510	2504.480519
914.892205	2505.229130
915.197859	2505.597134
915.503475	2507.671569
915.809050	2510.151817
916.114585	2507.144769
916.420081	2507.827845
916.725536	2506.128976
917.030952	2510.146776
917.336328	2508.944461
917.641665	2508.130314
917.946961	2506.653256
918.252218	2504.883811
918.557435	2505.173678
918.862612	2508.221055
919.167750	2503.991527
919.472848	2506.801970
919.777906	2504.445231
920.082925	2508.284069
920.387904	2507.263236
920.692843	2507.313647
920.997743	2505.403050
921.302603	2506.882629
921.607423	2506.940602
921.912204	2506.552433
922.216946	2502.630415
922.521647	2507.744666
922.826310	2509.002434
923.130932	2505.705519
923.435516	2507.837927
923.740059	2506.736435
924.044564	2505.143431
924.349028	2508.367248
924.653454	2501.143275
924.957840	2504.654439
925.262186	2502.930364
925.566493	2505.851713
925.870761	2501.223933
926.174989	2508.286590
926.479178	2506.204593
926.783328	2506.615447
927.087438	2504.745179
927.391509	2509.551920
927.695541	2506.494460
927.999533	2508.289111
928.303486	2507.837927
928.607400	2504.651918
928.911275	2505.692916
929.215110	2509.110819
929.518906	2506.139058
929.822663	2507.721981
930.126381	2506.514624
930.430060	2508.006806
930.733699	2506.554954
931.037299	2508.029491
931.340861	2507.593431
931.644383	2507.051507
931.947866	2505.224089
932.251309	2505.680313
932.554714	2506.202073
932.858080	2506.605365
933.161407	2503.991527
933.464694	2507.164933
933.767943	2508.783144
934.071153	2508.589059
934.374323	2506.471775
934.677455	2505.508914
934.980548	2506.083606
935.283602	2506.499501
935.586617	2509.093175
935.889593	2506.423884
936.192530	2510.166940
936.495428	2506.701147
936.798287	2506.345746
937.101108	2508.319357
937.403890	2506.247443
937.706632	2507.043946
938.009336	2508.740294
938.312002	2503.676455
938.614628	2505.526558
938.917216	2507.296003
939.219765	2506.635612
939.522275	2510.907990
939.824747	2507.051507
940.127179	2504.984634
940.429573	2503.694099
940.731929	2500.150168
941.034246	2500.465240
941.336524	2506.751559
941.638763	2504.828358
941.940964	2507.376662
942.243126	2506.123935
942.545250	2505.587052
942.847335	2505.869357
943.149381	2508.324399
943.451389	2506.378513
943.753359	2506.917917
944.055290	2507.359018
944.357182	2507.573267
944.659036	2509.080572
944.960851	2505.040087
945.262628	2505.468585
945.564367	2504.956908
945.866067	2507.686693
946.167729	2506.943123
946.469352	2502.063286
946.770937	2506.867505
947.072484	2506.184429
947.373992	2505.115704
947.675462	2505.823986
947.976893	2504.326764
948.278286	2505.231651
948.579641	2506.174347
948.880958	2505.234171
949.182236	2508.142917
949.483476	2503.684017
949.784678	2507.537979
950.085841	2505.221568
950.386967	2507.500170
950.688054	2505.032525
950.989103	2504.339367
951.290114	2507.127125
951.591087	2506.870026
951.892021	2503.565549
952.192917	2503.764675
952.493776	2507.187618
952.794596	2508.873884
953.095378	2505.277021
953.396122	2509.453617
953.696828	2504.397340
953.997496	2508.309275
954.298126	2503.689058
954.598718	2506.181908
954.899272	2506.537310
955.199788	2504.331805
955.500266	2503.326095
955.800706	2502.068327
956.101108	2503.724346
956.401472	2504.102432
956.701798	2503.973883
957.002087	2503.799963
957.302337	2505.801301
957.602550	2507.464882
957.902724	2505.609737
958.202861	2506.227279
958.502960	2506.943122
958.803022	2502.574963
959.103045	2508.609224
959.403031	2504.016733
959.702979	2506.002947
960.002889	2507.139728
960.302762	2506.239882
960.602596	2506.726353
960.902393	2504.170488
961.202153	2506.819614
961.501875	2506.988493
961.801559	2504.730056
962.101205	2504.215858
962.400814	2504.861126
962.700385	2504.548574
962.999918	2505.251815
963.299414	2505.448420
963.598873	2503.517658
963.898293	2504.309120
964.197677	2507.069151
964.497022	2506.108812
964.796331	2507.306086
965.095601	2503.908348
965.394835	2507.560664
965.694030	2505.602176
965.993189	2506.065962
966.292309	2504.213338
966.591393	2504.372134
966.890439	2503.270642
967.189447	2505.657628
967.488419	2505.781137
967.787353	2503.028667
968.086249	2505.680313
968.385108	2506.018071
968.683930	2501.957421
968.982714	2503.603358
969.281462	2506.864985
969.580172	2505.219048
969.878844	2506.822135
970.177480	2506.318019
970.476078	2506.375993
970.774639	2504.387257
971.073162	2505.428256
971.371649	2502.355673
971.670098	2502.363234
971.968510	2502.151506
972.266885	2500.029180
972.565223	2506.476816
972.863524	2504.515807
973.161788	2505.720643
973.460014	2506.650736
973.758204	2506.222238
974.056356	2507.331291
974.354471	2504.183091
974.652550	2506.025632
974.950591	2504.601507
975.248595	2504.079747
975.546563	2505.292145
975.844493	2502.927843
976.142386	2508.473113
976.440243	2505.022443
976.738062	2504.891373
977.035845	2505.284583
977.333590	2505.569408
977.631299	2505.002278
977.928971	2508.944461
978.226606	2505.329953
978.524204	2505.599655
978.821765	2504.528410
979.119290	2505.372803
979.416777	2503.280724
979.714228	2503.058913
980.011642	2503.177381
980.309020	2508.752897
980.606360	2505.168636
980.903664	2506.358349
981.200931	2504.399860
981.498162	2505.395488
981.795356	2502.426249
982.092513	2506.459172
982.389633	2505.271980
982.686717	2507.245592
982.983764	2502.179232
983.280775	2504.225941
983.577749	2507.195180
983.874686	2505.844151
984.171587	2504.117556
984.468451	2507.212824
984.765279	2503.348780
985.062070	2503.242916
985.358824	2505.791219
985.655543	2504.553616
985.952224	2504.863647
986.248869	2504.725015
986.545478	2498.000116
986.842050	2499.517503
987.138586	2500.747544
987.435086	2501.062617
987.731549	2503.479850
988.027975	2507.061590
988.324366	2503.285765
988.620719	2503.797442
988.917037	2507.669049
989.213318	2505.851713
989.509563	2501.823831
989.805772	2506.318019
990.101944	2504.682165
990.398080	2504.223420
990.694180	2505.551764
990.990244	2505.909686
991.286271	2503.421877
991.582262	2504.528410
991.878217	2504.621671
992.174136	2507.318688
992.470019	2506.247443
992.765865	2507.331291
993.061676	2505.972700
993.357450	2505.602176
993.653188	2505.685355
993.948890	2504.624192
994.244556	2501.652432
994.540186	2505.682834
994.835780	2503.487412
995.131337	2504.803153
995.426859	2503.474809
995.722345	2502.610251
996.017795	2505.884480
996.313208	2503.043790
996.608586	2507.359018
996.903928	2504.576301
997.199234	2505.503873
997.494504	2506.333143
997.789738	2500.951711
998.084936	2507.595952
998.380099	2504.639315
998.675225	2503.946157
998.970316	2504.510766
999.265371	2504.740138
999.560390	2504.283914
999.855373	2504.843482
1000.150320	2503.217710
1000.445232	2503.958759
1000.740108	2502.764006
1001.034948	2506.519666
1001.329752	2505.334994
1001.624521	2505.352638
1001.919254	2498.214365
1002.213951	2502.706033
1002.508613	2502.315343
1002.803239	2506.222238
1003.097829	2498.647904
1003.392384	2504.467916
1003.686903	2504.626712
1003.981386	2503.626043
1004.275834	2504.929182
1004.570246	2505.030005
1004.864623	2503.381547
1005.158964	2503.598317
1005.453270	2505.261898
1005.747540	2506.255005
1006.041775	2504.535972
1006.335974	2503.986486
1006.630138	2506.123935
1006.924266	2503.046311
1007.218359	2503.409274
1007.512416	2502.186794
1007.806438	2502.665703
1008.100425	2506.524707
1008.394376	2503.777278
1008.688292	2505.632423
1008.982172	2505.818945
1009.276017	2504.593945
1009.569827	2502.887514
1009.863602	2506.391116
1010.157341	2503.137051
1010.451045	2504.336846
1010.744714	2501.322236
1011.038347	2503.931033
1011.331945	2503.404233
1011.625508	2503.487412
1011.919036	2503.220230
1012.212528	2504.067144
1012.505986	2504.273832
1012.799408	2502.141423
1013.092795	2503.638646
1013.386147	2507.008657
1013.679464	2503.701661
1013.972745	2502.025477
1014.265992	2503.747031
1014.559204	2503.774757
1014.852380	2501.947339
1015.145521	2503.222751
1015.438628	2505.438338
1015.731699	2505.045128
1016.024736	2505.546723
1016.317737	2507.084275
1016.610703	2504.878770
1016.903635	2498.121103
1017.196531	2499.562873
1017.489393	2503.061434
1017.782219	2501.481032
1018.075011	2503.288286
1018.367768	2500.250991
1018.660490	2504.558657
1018.953177	2504.558657
1019.245829	2504.558657
