Dividing Wavelength (nm)	Counts (n)	Blue Motor Position (mm): 0.000000	Red Motor Position (mm): 46.300000	
326.493990	2130.694085
326.888308	2130.694085
327.282561	2130.694085
327.676750	2093.760071
328.070874	2095.171594
328.464933	2094.894331
328.858929	2103.872626
329.252859	2111.590632
329.646726	2124.740482
330.040528	2140.849489
330.434265	2154.662251
330.827938	2171.151865
331.221547	2191.336645
331.615091	2209.787268
332.008571	2228.247973
332.401986	2246.990983
332.795338	2266.288520
333.188625	2284.507250
333.581847	2306.436269
333.975006	2324.004691
334.368100	2341.908348
334.761129	2362.350227
335.154095	2377.166178
335.546996	2396.688047
335.939833	2424.268199
336.332606	2437.894438
336.725315	2450.751901
337.117960	2460.700618
337.510540	2468.532051
337.903056	2479.698207
338.295508	2485.573671
338.687896	2497.160763
339.080220	2503.658811
339.472480	2511.465038
339.864676	2515.349247
340.256807	2518.958713
340.648875	2521.781759
341.040879	2524.564476
341.432818	2527.221164
341.824694	2529.035979
342.216506	2528.526823
342.608253	2529.807276
342.999937	2528.892306
343.391557	2529.744261
343.783113	2527.148067
344.174605	2529.875331
344.566033	2524.854342
344.957397	2521.572551
345.348697	2521.265041
345.739934	2520.728158
346.131106	2516.228928
346.522215	2517.209432
346.913260	2513.287415
347.304241	2513.504184
347.695159	2515.520646
348.086012	2510.469410
348.476802	2507.792557
348.867528	2508.856240
349.258191	2504.820797
349.648789	2505.070334
350.039324	2502.665703
350.429796	2500.437513
350.820203	2501.506238
351.210548	2499.514982
351.600828	2499.240239
351.991045	2501.609582
352.381198	2498.514313
352.771288	2496.233191
353.161314	2496.797800
353.551276	2497.422903
353.941175	2496.621360
354.331010	2497.521206
354.720782	2495.855105
355.110490	2497.637152
355.500135	2496.530619
355.889717	2496.618839
356.279235	2497.654797
356.668689	2500.739983
357.058080	2498.138747
357.447408	2498.118583
357.836672	2499.537667
358.225873	2496.989364
358.615010	2493.268993
359.004084	2499.890548
359.393095	2501.344921
359.782043	2502.615292
360.170927	2501.604541
360.559748	2504.165447
360.948505	2505.365241
361.337199	2504.725015
361.725830	2506.086126
362.114398	2506.817094
362.502903	2507.142248
362.891344	2506.428925
363.279722	2509.123422
363.668037	2508.273987
364.056289	2508.823473
364.444478	2510.169461
364.832603	2511.424708
365.220665	2510.696262
365.608665	2514.923269
365.996601	2513.524349
366.384474	2513.506705
366.772284	2514.335975
367.160031	2515.253465
367.547715	2516.624658
367.935336	2520.697911
368.322893	2523.788138
368.710388	2526.913653
369.097820	2531.039838
369.485189	2534.089736
369.872495	2543.872095
370.259738	2549.755122
370.646918	2556.621173
371.034035	2562.315156
371.421090	2573.080540
371.808081	2585.978332
372.195010	2594.276072
372.581875	2604.179418
372.968678	2620.842952
373.355418	2627.081380
373.742096	2646.845224
374.128710	2662.858449
374.515262	2677.273629
374.901751	2691.661082
375.288177	2703.164995
375.674540	2730.288923
376.060841	2745.107395
376.447079	2768.117742
376.833254	2785.847480
377.219367	2795.607153
377.605417	2834.431600
377.991404	2844.942406
378.377329	2869.081971
378.763191	2884.167624
379.148991	2921.341092
379.534727	2946.430915
379.920402	2974.986531
380.306013	2985.993890
380.691563	3034.744368
381.077049	3059.536763
381.462474	3079.363621
381.847835	3114.634054
382.233134	3138.327477
382.618371	3134.082826
383.003545	3205.505893
383.388657	3211.557798
383.773706	3245.179774
384.158693	3264.174842
384.543618	3288.455559
384.928480	3324.648523
385.313280	3367.823485
385.698017	3365.562528
386.082692	3420.722833
386.467305	3427.664502
386.851856	3461.316725
387.236344	3480.846155
387.620770	3515.347812
388.005133	3539.482336
388.389435	3568.605081
388.773674	3577.837955
389.157851	3621.824542
389.541965	3635.181080
389.926018	3597.722786
390.310008	3671.903365
390.693936	3691.271478
391.077802	3732.992067
391.461606	3720.311045
391.845348	3784.326137
392.229027	3784.081641
392.612645	3797.334834
392.996200	3874.892986
393.379694	3915.156682
393.763125	3977.336794
394.146494	3946.363945
394.529801	4008.498687
394.913047	4053.483423
395.296230	4022.858413
395.679351	4076.496290
396.062410	4099.655351
396.445408	4083.543823
396.828343	4116.981797
397.211217	4140.339983
397.594028	4059.807550
397.976778	4125.198877
398.359466	4152.446314
398.742092	4182.625182
399.124656	4102.901854
399.507158	4183.769523
399.889598	4209.365982
400.271977	4270.300929
400.654294	4238.922267
401.036549	4248.235799
401.418742	4219.024833
401.800874	4321.272036
402.182944	4345.225078
402.564952	4411.123041
402.946898	4395.447573
403.328783	4392.826173
403.710606	4303.406187
404.092367	4498.113192
404.474067	4460.281853
404.855705	4471.805931
405.237282	4398.431937
405.618797	4505.432948
406.000250	4540.882341
406.381642	4621.311430
406.762972	4584.942026
407.144240	4591.321606
407.525447	4593.726237
407.906593	4653.713447
408.287677	4697.939489
408.668700	4620.376296
409.049661	4677.033824
409.430560	4717.690730
409.811399	4645.385461
410.192176	4808.406294
410.572891	4748.078806
410.953545	4846.162015
411.334138	4728.259509
411.714669	4794.084376
412.095139	4688.537737
412.475547	4834.292619
412.855894	4812.431655
413.236180	4820.865505
413.616405	4776.137868
413.996568	4864.882340
414.376670	4808.265141
414.756711	4758.203963
415.136691	4789.181853
415.516609	4870.009194
415.896466	4908.107714
416.276262	4944.676244
416.655997	4919.901493
417.035670	5107.084577
417.415283	5195.024985
417.794834	5140.091532
418.174324	5094.484213
418.553753	4999.962578
418.933121	5186.747410
419.312428	5252.758799
419.691674	5190.737484
420.070859	5316.657945
420.449983	5229.841714
420.829045	5345.979816
421.208047	5254.230816
421.586988	5323.314789
421.965867	5335.854659
422.344686	5468.747036
422.723444	5323.098019
423.102141	5142.281913
423.480777	5439.926759
423.859352	5210.133323
424.237866	5471.320545
424.616319	5459.564574
424.994712	5566.164813
425.373044	5446.323984
425.751314	5590.009471
426.129524	5389.001023
426.507673	5587.264563
426.885762	5667.925545
427.263789	5599.169248
427.641756	5484.470395
428.019662	5602.151090
428.397508	5611.565445
428.775292	5560.306993
429.153016	5660.147045
429.530679	5586.336991
429.908282	5663.408671
430.285824	5538.072984
430.663305	5809.743285
431.040726	5548.893820
431.418086	5545.629673
431.795385	5656.351056
432.172624	5665.750287
432.549802	5656.136807
432.926920	5676.069529
433.303977	5678.385939
433.680974	5719.030242
434.057910	5736.707048
434.434786	5743.973871
434.811601	5707.463315
435.188355	5951.550943
435.565050	5821.148896
435.941683	5804.596267
436.318257	6019.578793
436.694770	6000.122460
437.071222	6037.288367
437.447614	5965.068797
437.823946	5874.862390
438.200218	6028.252098
438.576429	5900.592439
438.952580	5995.895452
439.328670	6039.534201
439.704700	5947.412155
440.080670	5936.982008
440.456580	6210.704059
440.832429	6087.374751
441.208218	5933.143169
441.583947	6093.759372
441.959616	6096.635350
442.335224	6023.662128
442.710773	6158.825545
443.086261	6187.308064
443.461689	5978.485828
443.837057	6129.286904
444.212365	6284.352796
444.587612	6175.829357
444.962800	6332.362225
445.337927	6314.692981
445.712995	5920.779740
446.088002	6495.846844
446.462949	6324.931564
446.837837	6261.869250
447.212664	6431.554488
447.587431	6572.752167
447.962139	7117.743747
448.336786	8042.508132
448.711374	7788.509596
449.085901	6853.574683
449.460369	6779.855369
449.834776	6708.853238
450.209124	7104.820749
450.583412	7255.208451
450.957640	7407.456338
451.331808	7169.975142
451.705917	6719.543005
452.079965	6641.596684
452.453954	6855.089549
452.827883	6729.590024
453.201752	6823.839437
453.575562	6621.432069
453.949311	6830.791188
454.323001	6712.124947
454.696632	6786.476925
455.070202	6927.992196
455.443713	7082.949703
455.817164	7183.838315
456.190556	7264.330419
456.563888	7337.694331
456.937160	7386.906074
457.310373	7041.914711
457.683526	7065.837507
458.056619	6957.929088
458.429653	6940.907632
458.802628	6877.658795
459.175542	6987.639128
459.548398	7346.788572
459.921194	7505.710947
460.293930	7504.753128
460.666607	8038.064355
461.039224	8345.852003
461.411782	8479.709761
461.784280	8488.995567
462.156719	8381.331644
462.529099	8259.076101
462.901419	7849.507557
463.273680	7745.422854
463.645882	7757.698063
464.018024	7624.510779
464.390106	7789.013711
464.762130	8177.517794
465.134094	8648.558168
465.505999	9663.947376
465.877845	10886.389375
466.249631	11539.861545
466.621358	11152.133800
466.993026	10528.916114
467.364634	10279.837744
467.736184	9913.844934
468.107674	9577.436135
468.479105	9605.855639
468.850477	9370.489207
469.221790	9146.087285
469.593043	8817.051174
469.964238	8673.118670
470.335373	8687.869086
470.706449	8745.330678
471.077467	8728.402483
471.448425	10041.754130
471.819324	11119.419232
472.190164	11144.166256
472.560945	9895.492613
472.931667	9098.650027
473.302330	8966.823854
473.672934	8609.532076
474.043479	8969.903999
474.413965	8901.755161
474.784393	8789.788614
475.154761	8943.067417
475.525070	9037.208444
475.895321	8854.716155
476.265513	9035.499493
476.635645	9202.187766
477.005719	9203.654742
477.375734	9316.337133
477.745691	9552.805057
478.115588	9689.054842
478.485427	9931.030227
478.855207	10471.656168
479.224928	11281.656166
479.594591	11923.022005
479.964194	11726.810215
480.333739	11665.146821
480.703226	11581.357803
481.072653	11671.322234
481.442022	11906.113975
481.811333	12097.093047
482.180584	11909.161352
482.549777	11616.580345
482.918912	11435.126533
483.287988	11464.468569
483.657005	11475.155815
484.025964	11157.104377
484.394864	11284.574994
484.763706	11260.861406
485.132489	11017.945846
485.501213	10981.362193
485.869879	11048.459950
486.238487	10895.307176
486.607036	11005.146357
486.975527	10785.770465
487.343959	10972.096552
487.712333	11023.501198
488.080648	10949.338263
488.448905	10991.807463
488.817104	10933.703124
489.185244	11200.354957
489.553326	11353.711898
489.921350	11888.124617
490.289315	12961.479532
490.657222	13296.693578
491.025070	13212.811299
491.392861	13084.539139
491.760593	12709.540307
492.128267	12354.706091
492.495883	12027.411698
492.863440	11687.632888
493.230939	11347.377688
493.598380	11297.823146
493.965763	11156.025571
494.333088	11059.618544
494.700354	10976.487397
495.067563	11033.321365
495.434713	10866.063442
495.801805	10997.589667
496.168839	10920.165106
496.535815	10850.498880
496.902733	10850.851761
497.269593	10783.111256
497.636395	10888.917513
498.003139	10874.197344
498.369825	10738.880172
498.736453	10899.438402
499.103023	10824.443676
499.469535	10852.505259
499.835989	10843.295071
500.202385	10795.646085
500.568723	10657.279015
500.935003	10881.249918
501.301226	10683.591317
501.667390	10939.946593
502.033497	11040.689012
502.399546	10895.113092
502.765537	10800.805706
503.131470	10879.951821
503.497345	11053.879191
503.863163	10669.748309
504.228923	10980.946297
504.594625	11038.329752
504.960269	10789.803388
505.325856	11007.611481
505.691385	10801.932404
506.056856	10959.362597
506.422270	10982.793880
506.787625	10871.137364
507.152924	10988.543316
507.518164	10969.754936
507.883347	10894.014120
508.248472	10807.767539
508.613540	11041.283868
508.978550	10927.598287
509.343503	10904.358568
509.708398	11022.901300
510.073236	11134.575461
510.438016	11134.033537
510.802738	11087.780950
511.167403	11137.940431
511.532010	11036.719103
511.896561	11261.536921
512.261053	11339.268992
512.625488	11206.744619
512.989866	11185.241578
513.354186	11178.594816
513.718449	11082.218037
514.082655	11273.224836
514.446803	11170.445791
514.810894	11286.231013
515.174927	11156.322999
515.538904	11183.580517
515.902822	11335.478045
516.266684	11217.595703
516.630488	11163.907415
516.994235	11216.637884
517.357925	11282.457709
517.721558	11370.420802
518.085133	11388.039635
518.448651	11395.084648
518.812112	11273.733992
519.175516	11290.765531
519.538863	11415.284551
519.902152	11333.534680
520.265385	11488.920685
520.628560	11398.711758
520.991678	11379.081505
521.354739	11447.968872
521.717743	11375.111596
522.080690	11353.842968
522.443580	11491.544606
522.806413	11449.193873
523.169189	11477.535239
523.531908	11538.024044
523.894569	11347.203768
524.257174	11351.894562
524.619722	11481.048924
524.982213	11416.968297
525.344647	11479.975158
525.707025	11422.364852
526.069345	11515.656445
526.431608	11436.661564
526.793815	11545.984026
527.155964	11338.492655
527.518057	11391.051725
527.880093	11339.997439
528.242072	11406.374312
528.603995	11312.825620
528.965860	11233.934083
529.327669	11284.852257
529.689421	11229.883516
530.051117	11200.604494
530.412755	11307.101390
530.774337	11198.124246
531.135862	11179.275372
531.497331	11199.462673
531.858743	11059.119470
532.220098	11216.194262
532.581396	11092.665828
532.942638	11075.203272
533.303824	11038.932170
533.664953	11049.594210
534.026025	10965.485079
534.387040	11066.179606
534.747999	11069.920142
535.108902	11122.315375
535.469748	10882.905938
535.830537	10989.528862
536.191270	10964.043309
536.551947	10990.302679
536.912567	10984.621299
537.273131	10916.845506
537.633638	10896.383462
537.994089	10879.951821
538.354483	10826.576084
538.714821	10976.215175
539.075103	10981.019394
539.435328	10944.481111
539.795497	10771.221695
540.155609	10938.101531
540.515665	11025.689058
540.875665	10750.696637
541.235609	10827.314613
541.595496	10822.747328
541.955328	10976.560494
542.315102	10860.697134
542.674821	10806.716459
543.034483	10813.179218
543.394090	10813.564866
543.753640	10733.836498
544.113134	10966.052208
544.472571	10820.907307
544.831953	10962.783020
545.191278	10767.130798
545.550548	10795.149531
545.909761	10937.554566
546.268918	10912.986503
546.628019	10989.891825
546.987064	10849.200783
547.346053	10775.443661
547.704986	10874.862777
548.063863	10863.714265
548.422684	10854.163799
548.781449	10761.177196
549.140158	10868.851201
549.498811	10745.395863
549.857408	10608.432755
550.215949	10829.547845
550.574434	10688.803870
550.932864	10786.574529
551.291237	10841.497900
551.649555	10797.314707
552.007817	10802.859976
552.366022	10764.358164
552.724173	10764.978226
553.082267	10740.110214
553.440305	10885.577749
553.798288	10684.279435
554.156215	10833.288381
554.514086	10813.418673
554.871902	10656.018726
555.229661	10699.919615
555.587365	10675.964052
555.945014	10568.552187
556.302606	10694.649088
556.660143	10592.384241
557.017625	10746.131872
557.375050	10644.708898
557.732421	10777.954156
558.089735	10693.232524
558.446994	10688.889570
558.804197	10728.913811
559.161345	10732.452701
559.518437	10580.313198
559.875474	10662.935189
560.232455	10695.942144
560.589381	10645.386933
560.946251	10632.481579
561.303065	10744.463250
561.659825	10681.206852
562.016528	10613.879721
562.373177	10497.799592
562.729770	10608.936870
563.086307	10523.171720
563.442789	10611.888466
563.799216	10495.417647
564.155587	10544.372292
564.511904	10495.765487
564.868164	10486.134362
565.224370	10501.991312
565.580520	10423.498026
565.936615	10423.757645
566.292654	10299.934304
566.648638	10435.823647
567.004567	10383.047807
567.360441	10369.880313
567.716260	10282.774216
568.072023	10370.563390
568.427732	10324.104116
568.783385	10238.396939
569.138982	10302.323811
569.494525	10323.378190
569.850013	10197.210712
570.205445	10276.946642
570.560823	10180.731180
570.916145	10088.470503
571.271412	10168.720631
571.626625	10113.882959
571.981782	10092.321944
572.336884	10063.685670
572.691931	10070.362678
573.046923	10014.680613
573.401860	9973.990940
573.756743	9904.836392
574.111570	9949.168299
574.466342	9928.204660
574.821059	9961.448549
575.175722	9855.057518
575.530330	9864.585299
575.884882	9856.668167
576.239380	9781.242423
576.593823	9760.157797
576.948211	9771.170198
577.302544	9655.679883
577.656823	9668.358385
578.011047	9677.014047
578.365216	9646.210076
578.719330	9564.739989
579.073389	9573.173839
579.427394	9528.221870
579.781344	9508.775619
580.135239	9442.532337
580.489080	9463.758115
580.842866	9361.616777
581.196597	9373.377789
581.550273	9413.482688
581.903895	9377.415753
582.257463	9444.175753
582.610975	9321.597577
582.964434	9343.967697
583.317837	9267.193445
583.671186	9249.529242
584.024481	9246.864992
584.377721	9171.698867
584.730906	9143.906986
585.084037	9170.582252
585.437113	9104.404505
585.790135	9134.926171
586.143103	9029.601343
586.496016	9000.760902
586.848874	9061.532012
587.201679	9049.894508
587.554428	8934.242877
587.907124	8983.820105
588.259765	8954.588974
588.612352	8957.492679
588.964884	8829.349068
589.317362	8848.439918
589.669786	8851.676339
590.022155	8895.438595
590.374470	8908.041480
590.726731	8846.564609
591.078937	8702.375006
591.431090	8815.208632
591.783188	8688.413530
592.135232	8674.212600
592.487222	8679.490688
592.839157	8727.416938
593.191038	8659.825147
593.542866	8603.759954
593.894639	8506.584152
594.246358	8563.133296
594.598022	8576.116787
594.949633	8471.631312
595.301190	8443.393289
595.652692	8476.611972
596.004141	8587.804703
596.355535	8363.838840
596.706876	8344.173299
597.058162	8279.039071
597.409395	8351.964402
597.760573	8417.224659
598.111698	8323.055905
598.462768	8312.756828
598.813785	8275.621168
599.164748	8244.514728
599.515657	8231.412770
599.866511	8141.833986
600.217312	8270.859798
600.568060	8128.013663
600.918753	8234.245898
601.269392	8208.205818
601.619978	8112.078576
601.970510	8182.909308
602.320988	8177.893360
602.671412	8230.593582
603.021783	8161.393663
603.372100	8140.956826
603.722363	8146.232393
604.072572	8117.321376
604.422728	8129.977192
604.772830	8062.609733
605.122878	8064.784991
605.472872	8065.780619
605.822813	8091.583765
606.172701	8035.153089
606.522534	8108.658153
606.872314	8111.831559
607.222041	8080.576405
607.571714	8138.630333
607.921333	8094.878159
608.270899	8108.166640
608.620411	8190.012294
608.969870	8093.050741
609.319276	8091.858508
609.668627	8101.338397
610.017926	8141.549161
610.367171	8189.377108
610.716362	8163.316863
611.065500	8152.029720
611.414585	8181.810336
611.763616	8171.198707
612.112594	8153.521902
612.461518	8166.049169
612.810389	8228.264569
613.159207	8164.463726
613.507971	8115.972867
613.856682	8230.263387
614.205340	8186.448198
614.553945	8262.781349
614.902496	8166.127307
615.250994	8220.254176
615.599439	8198.030249
615.947830	8212.205973
616.296169	8184.860234
616.644454	8197.705094
616.992686	8194.183848
617.340864	8257.092407
617.688990	8157.199423
618.037063	8251.272395
618.385082	8193.954476
618.733048	8278.749204
619.080961	8221.436326
619.428821	8238.251095
619.776628	8247.796520
620.124382	8193.606636
620.472083	8179.544338
620.819731	8201.324643
621.167326	8099.851257
621.514868	8112.509594
621.862357	7997.321750
622.209793	8014.809512
622.557176	7948.294008
622.904506	7917.842918
623.251783	7849.290787
623.599007	7802.206411
623.946179	7811.852658
624.293297	7768.360104
624.640363	7680.137391
624.987376	7666.831265
625.334336	7615.640868
625.681243	7560.276396
626.028097	7550.824233
626.374899	7530.039556
626.721647	7523.501179
627.068343	7454.021476
627.414987	7420.286075
627.761577	7380.493727
628.108115	7415.373470
628.454600	7308.067469
628.801032	7356.560849
629.147412	7322.449881
629.493739	7307.044115
629.840014	7245.148828
630.186236	7302.035729
630.532405	7185.781680
630.878521	7240.127839
631.224585	7194.593617
631.570597	7115.003880
631.916556	7150.715414
632.262462	7142.959599
632.608316	7105.120698
632.954117	7078.841163
633.299866	7066.999492
633.645562	7061.406332
633.991206	6985.700804
634.336797	6927.674603
634.682336	6881.606019
635.027823	6846.539753
635.373257	6842.590008
635.718639	6775.721623
636.063968	6790.527492
636.409245	6682.319125
636.754470	6682.306522
637.099642	6636.174923
637.444762	6579.030924
637.789829	6588.886379
638.134845	6531.472678
638.479808	6517.294433
638.824719	6520.102356
639.169577	6451.265400
639.514383	6472.904553
639.859137	6398.406381
640.203839	6408.891981
640.548489	6395.764817
640.893086	6371.373194
641.237632	6340.801116
641.582125	6360.499425
641.926566	6328.167985
642.270955	6345.711200
642.615292	6343.535942
642.959576	6355.352407
643.303809	6341.534604
643.647990	6346.192630
643.992118	6341.632907
644.336195	6285.363547
644.680219	6314.506458
645.024192	6307.027906
645.368112	6403.694552
645.711981	6419.493528
646.055797	6496.174519
646.399562	6452.543332
646.743274	6582.136274
647.086935	6640.164996
647.430544	6632.033615
647.774101	6650.096069
648.117606	6654.938098
648.461059	6649.052551
648.804460	6613.656089
649.147810	6523.270721
649.491108	6489.298385
649.834354	6465.718388
650.177548	6379.433999
650.520690	6295.375279
650.863781	6271.631444
651.206820	6295.014837
651.549807	6217.575152
651.892742	6156.183980
652.235626	6157.867726
652.578458	6147.906406
652.921238	6051.905192
653.263967	6092.995637
653.606644	6034.177975
653.949269	6037.003542
654.291843	5976.454243
654.634365	6028.393251
654.976836	5977.593543
655.319255	5978.808462
655.661622	5954.371468
656.003938	5950.356189
656.346203	5912.746661
656.688416	5944.299243
657.030577	5895.664711
657.372687	5868.724785
657.714746	5855.030491
658.056753	5894.258229
658.398708	5837.169683
658.740612	5827.478064
659.082465	5874.607812
659.424266	5865.942068
659.766016	5870.637903
660.107715	5843.090518
660.449362	5862.461151
660.790958	5855.630388
661.132503	5839.319735
661.473996	5875.500096
661.815438	5863.673549
662.156829	5858.927303
662.498168	5852.658628
662.839456	5827.241130
663.180693	5863.474423
663.521879	5863.915524
663.863013	5852.101580
664.204097	5872.067070
664.545129	5914.387557
664.886110	5914.702629
665.227040	5945.834274
665.567918	5906.815743
665.908746	5937.065187
666.249522	5941.713131
666.590248	5927.071100
666.930922	5955.813238
667.271545	5970.190609
667.612118	5968.509384
667.952639	5940.588954
668.293109	5963.785823
668.633528	5921.873670
668.973896	5926.463641
669.314213	5917.918885
669.654480	5900.481534
669.994695	5889.953084
670.334859	5881.509151
670.674973	5872.702255
671.015035	5879.099480
671.355047	5871.822574
671.695008	5863.529876
672.034918	5829.333209
672.374777	5841.774777
672.714585	5828.072920
673.054342	5831.904197
673.394049	5823.717363
673.733705	5859.209607
674.073310	5844.567576
674.412864	5806.542152
674.752368	5793.460358
675.091820	5798.970339
675.431223	5735.850052
675.770574	5738.347944
676.109875	5689.289955
676.449125	5688.705181
676.788324	5659.448845
677.127473	5600.069094
677.466571	5591.620120
677.805619	5582.304067
678.144616	5568.395524
678.483562	5549.004726
678.822458	5518.024315
679.161303	5507.609291
679.500098	5500.181151
679.838842	5479.625846
680.177535	5487.293441
680.516179	5501.814485
680.854771	5515.052555
681.193314	5594.846458
681.531805	5701.575247
681.870247	5852.673751
682.208638	5954.371468
682.546978	5971.282019
682.885268	5944.291681
683.223508	5859.365883
683.561697	5807.651206
683.899836	5773.885558
684.237925	5726.680193
684.575963	5696.965112
684.913951	5649.568183
685.251889	5711.405497
685.589776	5681.319891
685.927614	5652.880221
686.265401	5726.513835
686.603137	5706.555907
686.940824	5779.319922
687.278460	5803.562830
687.616046	5809.783614
687.953582	5882.991250
688.291068	5861.851172
688.628504	5926.980359
688.965889	5884.775819
689.303224	5829.580225
689.640510	5786.332167
689.977745	5698.797571
690.314930	5608.167707
690.652065	5549.972627
690.989150	5453.878153
691.326185	5381.976175
691.663170	5332.751829
692.000105	5252.718470
692.336990	5172.428013
692.673825	5150.682996
693.010610	5086.693109
693.347345	5012.923385
693.684030	4998.566178
694.020665	4955.454231
694.357251	4868.738823
694.693786	4876.247622
695.030272	4844.150595
695.366707	4805.560562
695.703093	4775.684164
696.039429	4797.242658
696.375716	4780.309423
696.711952	4754.294548
697.048139	4735.896857
697.384276	4719.371955
697.720363	4729.056012
698.056400	4736.925253
698.392388	4686.135628
698.728326	4668.940252
699.064214	4646.998630
699.400053	4639.870438
699.735842	4606.074543
700.071581	4581.816511
700.407270	4552.096388
700.742910	4536.849418
701.078501	4483.158609
701.414042	4479.420594
701.749533	4450.897745
702.084974	4389.821646
702.420366	4439.129172
702.755709	4383.951222
703.091002	4328.357378
703.426246	4377.511148
703.761440	4332.765867
704.096584	4297.704642
704.431679	4316.422446
704.766725	4303.799397
705.101721	4286.656953
705.436668	4316.583763
705.771565	4267.397225
706.106413	4290.253816
706.441212	4325.841842
706.775961	4328.624559
707.110661	4309.826096
707.445311	4336.461032
707.779913	4355.877036
708.114465	4368.613512
708.448967	4391.573447
708.783421	4453.937561
709.117825	4492.106657
709.452180	4498.403058
709.786485	4542.122465
710.120742	4622.717912
710.454949	4610.974544
710.789107	4673.149615
711.123216	4744.923043
711.457275	4735.647320
711.791286	4805.837826
712.125247	4819.489270
712.459159	4726.477461
712.793023	4802.188030
713.126837	4754.876802
713.460602	4753.523252
713.794318	4676.035676
714.127985	4680.613044
714.461602	4600.438533
714.795171	4569.279161
715.128691	4502.798945
715.462162	4447.762147
715.795584	4397.143922
716.128957	4377.344790
716.462281	4332.755784
716.795556	4301.523316
717.128782	4265.022841
717.461960	4194.900391
717.795088	4206.371537
718.128167	4164.605577
718.461198	4110.393009
718.794180	4104.769602
719.127113	4084.363011
719.459997	4062.723858
719.792833	4022.765152
720.125619	4013.691075
720.458357	3976.804952
720.791046	3979.406188
721.123686	3952.302424
721.456278	3910.269283
721.788821	3926.670677
722.121315	3902.291657
722.453761	3877.083367
722.786158	3886.840521
723.118506	3911.819438
723.450805	3867.094321
723.783056	3885.149214
724.115259	3898.031882
724.447412	3903.425917
724.779518	3896.433837
725.111574	3899.992891
725.443582	3926.249741
725.775542	3915.814552
726.107453	3957.832570
726.439315	3961.537818
726.771129	3970.695074
727.102895	4009.275024
727.434612	4053.193557
727.766281	4065.113365
728.097901	4065.257038
728.429473	4069.973037
728.760996	4078.069130
729.092471	4070.540167
729.423897	4059.497519
729.755276	4060.331830
730.086606	4059.777303
730.417887	4097.540587
730.749120	4156.958147
731.080305	4215.102815
731.411442	4239.479315
731.742530	4220.267477
732.073570	4218.707240
732.404562	4266.802368
732.735506	4259.061677
733.066401	4224.358374
733.397249	4162.765556
733.728048	4086.147579
734.058798	4004.054909
734.389501	3936.337090
734.720156	3878.061351
735.050762	3835.947552
735.381320	3824.708300
735.711831	3780.474695
736.042293	3751.793050
736.372707	3767.536574
736.703073	3740.425248
737.033391	3733.995257
737.363661	3748.395313
737.693883	3772.978499
738.024056	3780.741876
738.354182	3779.421094
738.684260	3835.219105
739.014290	3853.894060
739.344272	3853.110160
739.674207	3889.895460
740.004093	3896.602715
740.333931	3891.599370
740.663722	3887.261457
740.993464	3887.488309
741.323159	3862.728682
741.652806	3828.821881
741.982405	3803.850526
742.311956	3775.783902
742.641460	3764.645472
742.970915	3744.075044
743.300323	3704.378478
743.629683	3669.375226
743.958996	3660.601098
744.288260	3637.285761
744.617477	3605.655042
744.946647	3589.540993
745.275768	3564.105852
745.604842	3561.618042
745.933869	3519.015251
746.262847	3511.617358
746.591778	3540.782953
746.920662	3514.873943
747.249498	3489.022906
747.578286	3525.041950
747.907027	3546.408881
748.235720	3546.668500
748.564365	3567.075091
748.892963	3565.101479
749.221514	3547.888460
749.550017	3525.475490
749.878473	3523.355684
750.206881	3499.238804
750.535242	3493.784276
750.863555	3496.330059
751.191821	3490.169769
751.520039	3472.719815
751.848210	3454.042340
752.176334	3481.269612
752.504411	3484.347236
752.832440	3447.546813
753.160421	3436.085750
753.488356	3442.755196
753.816243	3451.189047
754.144082	3408.049373
754.471875	3398.796335
754.799620	3409.486101
755.127318	3404.243301
755.454969	3403.897982
755.782572	3409.478540
756.110129	3387.005076
756.437638	3376.993344
756.765100	3388.759397
757.092515	3399.053433
757.419882	3403.088877
757.747203	3379.738253
758.074477	3379.423180
758.401703	3394.037485
758.728882	3414.562543
759.056014	3420.934562
759.383099	3425.985798
759.710138	3424.216353
760.037129	3439.657407
760.364073	3464.023824
760.690970	3451.932617
761.017820	3433.582817
761.344623	3445.575722
761.671379	3488.150787
761.998088	3531.698794
762.324751	3652.532731
762.651366	3886.200294
762.977935	4329.048016
763.304456	4738.309049
763.630931	4817.770237
763.957359	4486.364783
764.283740	4169.664375
764.610074	3985.498422
764.936362	3797.594454
765.262602	3652.875530
765.588796	3546.212276
765.914943	3466.902323
766.241044	3385.475086
766.567097	3356.624562
766.893104	3313.258036
767.219064	3285.587143
767.544978	3261.997063
767.870845	3210.927654
768.196665	3196.399049
768.522438	3199.612784
768.848165	3195.105993
769.173846	3162.472083
769.499479	3148.016575
769.825066	3130.707773
770.150607	3116.380814
770.476101	3127.236939
770.801548	3119.904580
771.126949	3081.236410
771.452303	3065.956673
771.777611	3070.917168
772.102872	3076.608631
772.428087	3050.760114
772.753256	3040.491284
773.078378	3033.738658
773.403453	3004.389061
773.728482	2991.345075
774.053465	3010.355266
774.378401	2998.788339
774.703291	2974.522745
775.028135	2974.381592
775.352932	2970.187352
775.677683	2958.572534
776.002388	2953.775876
776.327046	2956.147739
776.651658	2943.791871
776.976224	2933.626384
777.300743	2935.650407
777.625216	2925.361412
777.949643	2920.804209
778.274024	2923.907039
778.598359	2912.561923
778.922647	2913.038312
779.246889	2914.941347
779.571086	2904.589338
779.895236	2898.560118
780.219339	2908.483629
780.543397	2914.878333
780.867409	2919.034764
781.191374	2912.705596
781.515294	2907.344328
781.839167	2910.878177
782.162995	2905.509348
782.486776	2907.316602
782.810511	2906.552867
783.134201	2894.880076
783.457844	2898.174470
783.781441	2894.000394
784.104993	2876.946171
784.428498	2876.089175
784.751958	2884.422202
785.075372	2880.477499
785.398739	2868.771940
785.722061	2882.753580
786.045337	2888.860938
786.368568	2877.624206
786.691752	2871.423587
787.014891	2913.902870
787.337983	2939.829524
787.661030	2968.261632
787.984031	3028.092566
788.306987	3068.734348
788.629897	3064.061199
788.952760	3047.049825
789.275579	3028.989891
789.598351	2978.769917
789.921078	2939.431273
790.243759	2929.704366
790.566395	2914.545617
790.888984	2895.422000
791.211529	2876.323588
791.534027	2866.384953
791.856480	2856.781555
792.178888	2844.014833
792.501249	2839.629029
792.823566	2833.677947
793.145836	2833.859429
793.468062	2831.046465
793.790241	2827.747030
794.112375	2832.213492
794.434464	2843.672035
794.756507	2847.271419
795.078505	2849.585308
795.400457	2867.743544
795.722364	2898.282854
796.044226	2918.603746
796.366042	2920.390835
796.687812	2914.296080
797.009538	2931.219233
797.331218	2915.778179
797.652852	2900.720252
797.974442	2889.876730
798.295986	2884.780124
798.617484	2878.934906
798.938938	2865.064171
799.260346	2853.429188
799.581709	2846.454752
799.903026	2839.853361
800.224299	2834.860098
800.545526	2828.896413
800.866708	2814.473672
801.187845	2808.807415
801.508936	2807.652991
801.829983	2811.219607
802.150984	2798.606640
802.471940	2788.519291
802.792851	2789.240176
803.113717	2789.199847
803.434538	2791.349899
803.755314	2787.775721
804.076045	2784.786317
804.396731	2784.612397
804.717372	2784.098199
805.037967	2780.675256
805.358518	2785.923097
805.679024	2794.062040
805.999485	2790.147584
806.319901	2794.074643
806.640272	2789.008283
806.960598	2794.029272
807.280879	2799.723256
807.601115	2806.485963
807.921306	2795.685291
808.241453	2791.080197
808.561554	2797.220323
808.881611	2798.089922
809.201623	2791.319652
809.521590	2790.119857
809.841513	2788.801596
810.161390	2791.866617
810.481223	2785.930659
810.801011	2778.172323
811.120755	2775.177877
811.440453	2775.319030
811.760107	2775.278701
812.079716	2773.892383
812.399281	2762.879983
812.718801	2760.316556
813.038276	2754.819178
813.357707	2758.468973
813.677093	2764.586413
813.996434	2761.070208
814.315731	2755.250196
814.634983	2752.596029
814.954191	2752.210381
815.273354	2764.445261
815.592473	2768.868873
815.911547	2771.268463
816.230577	2779.513270
816.549562	2788.642799
816.868502	2786.701955
817.187399	2794.470373
817.506250	2808.381437
817.825058	2799.219140
818.143821	2812.885708
818.462539	2823.822492
818.781213	2847.606655
819.099843	2879.819628
819.418429	2930.586568
819.736970	2987.564210
820.055466	3048.519321
820.373919	3132.048720
820.692327	3249.386617
821.010691	3401.609298
821.329011	3798.804331
821.647286	4616.429073
821.965517	5871.424323
822.283704	6568.084058
822.601847	6539.500716
822.919945	5920.510038
823.237999	5410.569600
823.556010	4901.092948
823.873976	4401.907812
824.191897	4042.319788
824.509775	3782.289511
824.827609	3558.127043
825.145398	3449.888429
825.463144	3435.485852
825.780845	3519.872247
826.098502	3615.921351
826.416116	3861.601984
826.733685	4151.042353
827.051210	4199.273592
827.368692	4095.919856
827.686129	3850.604707
828.003522	3569.174732
828.320872	3343.139476
828.638177	3180.264836
828.955439	3065.266034
829.272656	2995.834223
829.589830	2936.126796
829.906960	2895.457288
830.224046	2860.451515
830.541088	2831.548060
830.858086	2816.094403
831.175041	2801.722073
831.491952	2801.974131
831.808819	2811.403609
832.125642	2829.866835
832.442421	2868.272866
832.759157	2938.763320
833.075849	3092.589088
833.392497	3338.098322
833.709101	3511.856813
834.025662	3462.793783
834.342179	3318.757935
834.658653	3168.667662
834.975083	3044.932540
835.291469	2963.432206
835.607811	2889.637276
835.924110	2840.065089
836.240366	2799.609830
836.556578	2759.658685
836.872746	2745.006572
837.188871	2725.966134
837.504952	2713.401058
837.820990	2705.622557
838.136984	2696.195600
838.452935	2689.342151
838.768842	2688.989270
839.084706	2703.338915
839.400526	2769.330139
839.716303	2884.704507
840.032037	2956.810651
840.347727	2937.934050
840.663373	2880.732077
840.978977	2814.584577
841.294537	2759.121802
841.610054	2719.528580
841.925527	2697.828933
842.240957	2679.600121
842.556344	2664.741320
842.871687	2649.907725
843.186987	2645.234575
843.502244	2640.669811
843.817458	2639.696868
844.132629	2625.596761
844.447756	2617.488065
844.762840	2614.178547
845.077881	2612.056221
845.392879	2610.800974
845.707833	2610.589246
846.022745	2603.614809
846.337613	2609.397013
846.652438	2604.711260
846.967221	2605.694285
847.281960	2604.116404
847.596656	2606.402567
847.911309	2601.956270
848.225919	2601.212699
848.540485	2598.303954
848.855009	2597.053747
849.169490	2598.016608
849.483928	2598.871083
849.798323	2600.897627
850.112675	2595.004518
850.426984	2595.140630
850.741251	2594.669282
851.055474	2592.920001
851.369654	2597.633480
851.683792	2596.315218
851.997887	2595.770774
852.311938	2595.667430
852.625947	2594.727255
852.939914	2596.368151
853.253837	2597.895620
853.567718	2593.734148
853.881555	2593.242635
854.195350	2596.342945
854.509103	2595.617019
854.822812	2593.857656
855.136479	2594.490321
855.450103	2598.550970
855.763685	2596.146340
856.077224	2595.503593
856.390720	2591.473190
856.704173	2595.027204
857.017584	2598.072061
857.330953	2598.281268
857.644278	2599.750765
857.957561	2600.784201
858.270802	2597.497369
858.584000	2597.850250
858.897155	2599.317226
859.210268	2597.923347
859.523339	2595.105342
859.836367	2591.624425
860.149352	2591.561410
860.462295	2592.685588
860.775195	2591.440423
861.088054	2589.726430
861.400869	2589.320617
861.713642	2587.639393
862.026373	2591.473190
862.339062	2589.040833
862.651708	2594.555856
862.964312	2595.609457
863.276873	2592.952769
863.589392	2595.019642
863.901869	2603.395519
864.214303	2604.378544
864.526696	2607.672938
864.839045	2609.825511
865.151353	2608.179574
865.463619	2609.386930
865.775842	2607.541868
866.088023	2607.141096
866.400162	2610.054883
866.712258	2609.785182
867.024313	2609.104626
867.336325	2605.273349
867.648296	2605.512804
867.960224	2611.292487
868.272110	2609.076899
868.583954	2604.088678
868.895755	2605.215376
869.207515	2609.066817
869.519233	2617.074690
869.830909	2610.569081
870.142542	2608.308123
870.454134	2609.452465
870.765684	2609.873402
871.077191	2617.344392
871.388657	2617.457818
871.700081	2614.823815
872.011463	2616.923455
872.322803	2619.585185
872.634101	2620.704321
872.945357	2626.330248
873.256571	2630.683285
873.567744	2629.551546
873.878874	2624.563324
874.189963	2627.714045
874.501010	2630.809314
874.812015	2635.454737
875.122979	2633.834006
875.433900	2627.159518
875.744780	2625.470732
876.055618	2631.769653
876.366415	2633.539098
876.677169	2632.984572
876.987882	2627.673716
877.298554	2625.921915
877.609183	2634.209572
877.919771	2639.722074
878.230317	2644.463279
878.540822	2652.342602
878.851285	2663.435661
879.161707	2677.059380
879.472087	2709.476519
879.782425	2744.893146
880.092722	2833.539316
880.402977	2990.190651
880.713191	3218.607852
881.023363	3482.424036
881.333494	3669.181142
881.643583	3807.283551
881.953631	3793.876603
882.263637	3624.040130
882.573602	3429.625511
882.883526	3315.347594
883.193408	3218.002914
883.503248	3122.750312
883.813048	3028.400076
884.122806	2936.729214
884.432522	2872.656149
884.742197	2818.151193
885.051831	2786.780093
885.361424	2759.719179
885.670975	2732.113821
885.980485	2707.336550
886.289954	2697.770960
886.599382	2685.193281
886.908768	2679.375790
887.218113	2665.119407
887.527417	2656.005001
887.836680	2649.476706
888.145901	2645.080820
888.455082	2637.350211
888.764221	2630.892493
889.073319	2626.151287
889.382376	2622.307408
889.691392	2624.265896
890.000366	2621.568879
890.309300	2623.608025
890.618193	2623.431585
890.927044	2627.709004
891.235855	2627.381329
891.544625	2627.593057
891.853353	2629.657410
892.162041	2632.798049
892.470687	2647.790440
892.779293	2655.810916
893.087858	2662.049344
893.396381	2680.878054
893.704864	2712.818804
894.013306	2771.071858
894.321707	2845.252437
894.630068	2886.786503
894.938387	2898.033317
895.246665	2885.821122
895.554903	2850.255782
895.863100	2811.698517
896.171256	2766.035745
896.479371	2722.891030
896.787446	2696.639221
897.095480	2681.535924
897.403473	2673.341529
897.711425	2664.592606
898.019336	2650.767242
898.327207	2641.899852
898.635038	2642.953453
898.942827	2639.086888
899.250576	2631.918367
899.558284	2624.465022
899.865952	2621.155504
900.173579	2615.181737
900.481165	2616.789865
900.788711	2609.616303
901.096216	2606.500870
901.403681	2603.264449
901.711105	2606.447938
902.018489	2602.800663
902.325832	2603.521548
902.633135	2607.325098
902.940397	2616.779782
903.247619	2644.266674
903.554800	2699.719366
903.861941	2804.988741
904.169041	2908.539082
904.476101	2957.145887
904.783121	2950.322686
905.090100	2897.700601
905.397039	2832.793225
905.703938	2776.309617
906.010796	2727.985116
906.317614	2690.163859
906.624391	2662.117400
906.931129	2638.716363
907.237826	2621.906636
907.544483	2614.231479
907.851099	2601.119438
908.157675	2594.903695
908.464211	2587.727613
908.770707	2579.180337
909.077163	2577.673032
909.383578	2575.792681
909.689954	2574.844944
909.996289	2572.876374
910.302584	2572.435273
910.608839	2570.683472
910.915054	2572.344532
911.221229	2571.195149
911.527363	2572.624316
911.833458	2570.917885
912.139513	2572.765468
912.445527	2575.139852
912.751502	2577.491550
913.057436	2580.909452
913.363331	2584.297108
913.669186	2595.438058
913.975000	2605.404419
914.280775	2618.531583
914.586510	2632.803090
914.892205	2664.615291
915.197859	2714.300904
915.503475	2781.391100
915.809050	2836.082578
916.114585	2850.517922
916.420081	2858.949252
916.725536	2862.248687
917.030952	2834.918071
917.336328	2801.371713
917.641665	2761.556680
917.946961	2724.844477
918.252218	2698.791794
918.557435	2678.823783
918.862612	2663.980106
919.167750	2649.635503
919.472848	2633.140847
919.777906	2622.778756
920.082925	2611.229472
920.387904	2607.511621
920.692843	2605.515324
920.997743	2598.392174
921.302603	2591.294229
921.607423	2589.819692
921.912204	2584.168558
922.216946	2583.485482
922.521647	2581.859710
922.826310	2579.255954
923.130932	2575.691858
923.435516	2571.525344
923.740059	2569.750858
924.044564	2567.290775
924.349028	2567.373954
924.653454	2557.447922
924.957840	2558.196534
925.262186	2556.069167
925.566493	2558.292316
925.870761	2553.561193
926.174989	2555.391132
926.479178	2555.290308
926.783328	2555.348282
927.087438	2553.651933
927.391509	2554.687891
927.695541	2553.130174
927.999533	2550.344937
928.303486	2548.144473
928.607400	2549.293856
928.911275	2549.679504
929.215110	2549.593805
929.518906	2547.111036
929.822663	2549.230842
930.126381	2548.131870
930.430060	2549.445091
930.733699	2549.051881
931.037299	2550.740667
931.340861	2554.461039
931.644383	2549.281253
931.947866	2550.886861
932.251309	2550.357539
932.554714	2549.480379
932.858080	2549.213198
933.161407	2547.141283
933.464694	2547.468958
933.767943	2547.279915
934.071153	2547.665563
934.374323	2547.138763
934.677455	2547.042981
934.980548	2547.108516
935.283602	2544.966025
935.586617	2546.059956
935.889593	2545.966694
936.192530	2544.073741
936.495428	2547.032898
936.798287	2549.336706
937.101108	2549.230842
937.403890	2552.026161
937.706632	2553.160421
938.009336	2556.006152
938.312002	2557.057233
938.614628	2560.255845
938.917216	2563.572924
939.219765	2562.466391
939.522275	2564.949159
939.824747	2563.356155
940.127179	2556.041440
940.429573	2555.963303
940.731929	2556.807696
941.034246	2551.779145
941.336524	2556.817778
941.638763	2556.109496
941.940964	2554.312325
942.243126	2555.507078
942.545250	2556.079249
942.847335	2552.321069
943.149381	2552.946172
943.451389	2549.924000
943.753359	2549.760163
944.055290	2552.212684
944.357182	2549.974412
944.659036	2548.167158
944.960851	2547.688248
945.262628	2546.964843
945.564367	2550.773435
945.866067	2549.326623
946.167729	2550.123126
946.469352	2548.353681
946.770937	2551.174206
947.072484	2547.408464
947.373992	2549.150183
947.675462	2549.838301
947.976893	2546.344781
948.278286	2545.714637
948.579641	2544.872764
948.880958	2546.891746
949.182236	2545.606252
949.483476	2544.870243
949.784678	2547.612631
950.085841	2545.429812
950.386967	2545.258412
950.688054	2548.043650
950.989103	2544.098947
951.290114	2544.900490
951.591087	2551.355688
951.892021	2548.429298
952.192917	2550.380225
952.493776	2549.371994
952.794596	2551.910215
953.095378	2553.102448
953.396122	2552.268137
953.696828	2552.011038
953.997496	2551.418702
954.298126	2546.750594
954.598718	2545.576005
954.899272	2548.446942
955.199788	2545.833104
955.500266	2547.373176
955.800706	2542.417722
956.101108	2538.904038
956.401472	2539.723225
956.701798	2540.192053
957.002087	2537.121990
957.302337	2541.086857
957.602550	2538.992258
957.902724	2539.017464
958.202861	2538.689789
958.502960	2537.313554
958.803022	2538.982176
959.103045	2537.633667
959.403031	2540.512166
959.702979	2539.612320
960.002889	2539.514017
960.302762	2539.491332
960.602596	2538.467978
960.902393	2535.153419
961.202153	2537.235416
961.501875	2536.973276
961.801559	2535.372710
962.101205	2537.089223
962.400814	2536.678368
962.700385	2536.287679
962.999918	2537.805066
963.299414	2534.941691
963.598873	2537.810108
963.898293	2536.822041
964.197677	2536.320447
964.497022	2535.211393
964.796331	2534.805580
965.095601	2535.498738
965.394835	2537.127031
965.694030	2534.886238
965.993189	2534.659386
966.292309	2535.639891
966.591393	2533.981351
966.890439	2534.084695
967.189447	2535.912113
967.488419	2533.033614
967.787353	2537.326157
968.086249	2536.837165
968.385108	2535.234078
968.683930	2534.223327
968.982714	2534.976979
969.281462	2533.993954
969.580172	2534.596372
969.878844	2533.671320
970.177480	2533.396577
970.476078	2535.715508
970.774639	2534.810621
971.073162	2533.878008
971.371649	2533.613347
971.670098	2530.281144
971.968510	2533.366330
972.266885	2528.662934
972.565223	2535.581918
972.863524	2534.999664
973.161788	2534.356917
973.460014	2532.595034
973.758204	2533.648635
974.056356	2534.566125
974.354471	2534.576207
974.652550	2535.239119
974.950591	2536.585107
975.248595	2537.673996
975.546563	2533.946063
975.844493	2532.983203
976.142386	2533.830117
976.440243	2534.031763
976.738062	2535.783564
977.035845	2534.692154
977.333590	2536.017977
977.631299	2533.404139
977.928971	2536.189377
978.226606	2534.629139
978.524204	2535.571835
978.821765	2534.021680
979.119290	2533.948584
979.416777	2536.421270
979.714228	2532.612678
980.011642	2533.641073
980.309020	2535.680220
980.606360	2531.725435
980.903664	2532.736186
981.200931	2533.273069
981.498162	2535.496218
981.795356	2534.180477
982.092513	2539.428318
982.389633	2538.500746
982.686717	2542.024512
982.983764	2541.260777
983.280775	2544.867723
983.577749	2544.003165
983.874686	2545.308824
984.171587	2541.880839
984.468451	2539.904707
984.765279	2539.146013
985.062070	2537.091743
985.358824	2534.656866
985.655543	2535.831455
985.952224	2532.043028
986.248869	2533.651156
986.545478	2527.740403
986.842050	2530.250897
987.138586	2529.479601
987.435086	2529.255269
987.731549	2526.769981
988.027975	2535.609644
988.324366	2531.044879
988.620719	2532.312729
988.917037	2531.375075
989.213318	2530.896165
989.509563	2532.799201
989.805772	2533.683923
990.101944	2533.363810
990.398080	2531.833820
990.694180	2532.955476
990.990244	2533.386495
991.286271	2530.807945
991.582262	2532.448840
991.878217	2532.670651
992.174136	2534.321629
992.470019	2531.604447
992.765865	2533.671320
993.061676	2533.351207
993.357450	2532.426155
993.653188	2532.839530
993.948890	2533.293234
994.244556	2532.380785
994.540186	2533.714170
994.835780	2531.042358
995.131337	2534.235929
995.426859	2530.956659
995.722345	2533.036135
996.017795	2532.421114
996.313208	2536.592669
996.608586	2533.938501
996.903928	2532.521937
997.199234	2534.135106
997.494504	2534.971938
997.789738	2534.321629
998.084936	2531.997657
998.380099	2531.128058
998.675225	2534.379602
998.970316	2532.612678
999.265371	2533.126876
999.560390	2532.244674
999.855373	2534.041845
1000.150320	2531.057482
1000.445232	2530.646628
1000.740108	2529.837523
1001.034948	2533.187369
1001.329752	2531.140661
1001.624521	2530.230733
1001.919254	2526.525485
1002.213951	2527.697553
1002.508613	2530.800383
1002.803239	2526.540608
1003.097829	2524.020031
1003.392384	2530.240815
1003.686903	2529.088911
1003.981386	2531.884231
1004.275834	2526.969106
1004.570246	2528.320135
1004.864623	2532.103521
1005.158964	2527.052285
1005.453270	2531.274252
1005.747540	2531.725435
1006.041775	2530.762574
1006.335974	2531.236443
1006.630138	2528.862059
1006.924266	2529.066226
1007.218359	2527.982378
1007.512416	2528.857018
1007.806438	2530.679395
1008.100425	2529.857687
1008.394376	2526.926256
1008.688292	2528.758716
1008.982172	2531.828778
1009.276017	2532.186700
1009.569827	2530.203006
1009.863602	2531.581762
1010.157341	2529.285516
1010.451045	2527.937008
1010.744714	2529.298119
1011.038347	2530.258459
1011.331945	2529.472039
1011.625508	2531.826258
1011.919036	2527.947090
1012.212528	2529.741741
1012.505986	2528.864580
1012.799408	2529.703932
1013.092795	2525.804600
1013.386147	2530.419776
1013.679464	2527.873993
1013.972745	2529.691329
1014.265992	2531.954807
1014.559204	2531.299457
1014.852380	2531.485980
1015.145521	2530.381967
1015.438628	2529.005732
1015.731699	2531.231402
1016.024736	2527.697553
1016.317737	2528.753675
1016.610703	2528.665454
1016.903635	2524.466173
1017.196531	2524.897192
1017.489393	2529.288037
1017.782219	2521.955679
1018.075011	2527.314425
1018.367768	2530.969262
1018.660490	2527.632018
1018.953177	2527.632018
1019.245829	2527.632018
