Dividing Wavelength (nm)	Counts (n)	Blue Motor Position (mm): 0.000000	Red Motor Position (mm): 47.700000	
326.493990	2127.392129
326.888308	2127.392129
327.282561	2127.392129
327.676750	2095.010277
328.070874	2093.558425
328.464933	2094.969948
328.858929	2101.568818
329.252859	2110.824377
329.646726	2124.133023
330.040528	2135.155506
330.434265	2152.529843
330.827938	2171.398881
331.221547	2189.065605
331.615091	2208.675693
332.008571	2226.022304
332.401986	2246.829666
332.795338	2264.927409
333.188625	2286.886675
333.581847	2304.782771
333.975006	2322.494865
334.368100	2339.760817
334.761129	2360.520288
335.154095	2376.528473
335.546996	2395.790721
335.939833	2420.837694
336.332606	2435.903182
336.725315	2452.004628
337.117960	2457.806996
337.510540	2467.130610
337.903056	2480.847590
338.295508	2484.169710
338.687896	2494.299909
339.080220	2503.895745
339.472480	2512.223731
339.864676	2516.165913
340.256807	2519.324196
340.648875	2520.781090
341.040879	2525.010618
341.432818	2529.305681
341.824694	2527.984899
342.216506	2527.997502
342.608253	2525.907943
342.999937	2527.758047
343.391557	2528.408356
343.783113	2528.463808
344.174605	2524.687984
344.566033	2524.221677
344.957397	2521.519619
345.348697	2520.839063
345.739934	2518.094155
346.131106	2520.150946
346.522215	2516.969977
346.913260	2514.388907
347.304241	2514.761952
347.695159	2509.420850
348.086012	2510.666015
348.476802	2504.452793
348.867528	2504.165447
349.258191	2500.838285
349.648789	2504.437669
350.039324	2500.820641
350.429796	2500.109838
350.820203	2498.685713
351.210548	2497.503562
351.600828	2497.720332
351.991045	2497.243943
352.381198	2494.922491
352.771288	2496.938953
353.161314	2493.710094
353.551276	2495.459374
353.941175	2493.921822
354.331010	2495.368633
354.720782	2498.226967
355.110490	2498.040445
355.500135	2495.502224
355.889717	2499.247801
356.279235	2495.555156
356.668689	2499.351145
357.058080	2497.301916
357.447408	2495.217399
357.836672	2493.775629
358.225873	2496.999447
358.615010	2491.960813
359.004084	2499.769561
359.393095	2498.567245
359.782043	2502.585045
360.170927	2502.811897
360.559748	2503.250477
360.948505	2504.535972
361.337199	2502.862308
361.725830	2503.573111
362.114398	2504.805673
362.502903	2508.425222
362.891344	2505.534120
363.279722	2507.127125
363.668037	2509.652743
364.056289	2506.156702
364.444478	2508.621827
364.832603	2509.914883
365.220665	2509.171313
365.608665	2507.485047
365.996601	2509.118380
366.384474	2512.395130
366.772284	2513.892353
367.160031	2514.088958
367.547715	2514.809843
367.935336	2519.508198
368.322893	2522.338806
368.710388	2523.841070
369.097820	2533.119314
369.485189	2534.908923
369.872495	2542.158103
370.259738	2548.061294
370.646918	2557.405073
371.034035	2562.718449
371.421090	2572.788153
371.808081	2583.336768
372.195010	2594.392018
372.581875	2607.226796
372.968678	2617.924124
373.355418	2629.128089
373.742096	2645.652991
374.128710	2660.834426
374.515262	2676.333453
374.901751	2689.377439
375.288177	2704.296734
375.674540	2726.765157
376.060841	2744.893146
376.447079	2764.442740
376.833254	2784.942592
377.219367	2797.611012
377.605417	2834.721466
377.991404	2841.882425
378.377329	2867.178935
378.763191	2885.506050
379.148991	2920.892429
379.534727	2948.134825
379.920402	2975.016778
380.306013	2988.224601
380.691563	3037.244781
381.077049	3059.322514
381.462474	3075.003023
381.847835	3113.605659
382.233134	3139.310502
382.618371	3135.068371
383.003545	3207.212324
383.388657	3211.812377
383.773706	3246.460227
384.158693	3260.956065
384.543618	3288.100158
384.928480	3322.826146
385.313280	3367.911706
385.698017	3367.226109
386.082692	3420.816095
386.467305	3423.250972
386.851856	3456.789768
387.236344	3482.232472
387.620770	3512.686082
388.005133	3537.584341
388.389435	3563.440419
388.773674	3578.107656
389.157851	3621.985859
389.541965	3634.054382
389.926018	3598.370574
390.310008	3671.394208
390.693936	3689.262578
391.077802	3729.833784
391.461606	3719.340623
391.845348	3781.188018
392.229027	3778.211217
392.612645	3793.614463
392.996200	3872.463150
393.379694	3911.348090
393.763125	3973.974344
394.146494	3947.092392
394.529801	4005.418542
394.913047	4056.054411
395.296230	4022.566026
395.679351	4077.597782
396.062410	4097.419599
396.445408	4080.526693
396.828343	4111.020632
397.211217	4136.385198
397.594028	4060.656985
397.976778	4125.289618
398.359466	4149.028412
398.742092	4176.666538
399.124656	4099.620063
399.507158	4182.589893
399.889598	4206.338769
400.271977	4267.714817
400.654294	4239.239860
401.036549	4249.584308
401.418742	4219.062642
401.800874	4322.224814
402.182944	4340.884645
402.564952	4403.160539
402.946898	4389.667891
403.328783	4390.275350
403.710606	4304.079181
404.092367	4497.793079
404.474067	4460.420485
404.855705	4466.495075
405.237282	4394.313314
405.618797	4504.520499
406.000250	4543.448289
406.381642	4617.916213
406.762972	4585.332715
407.144240	4593.799333
407.525447	4592.541565
407.906593	4654.212521
408.287677	4694.216597
408.668700	4621.439980
409.049661	4677.497611
409.430560	4714.802149
409.811399	4640.336745
410.192176	4806.374709
410.572891	4743.337600
410.953545	4845.733517
411.334138	4724.113160
411.714669	4790.994148
412.095139	4689.157799
412.475547	4831.278009
412.855894	4810.720183
413.236180	4823.113860
413.616405	4773.327425
413.996568	4861.643399
414.376670	4803.261796
414.756711	4758.085496
415.136691	4793.580260
415.516609	4869.331158
415.896466	4906.033279
416.276262	4938.452939
416.655997	4922.331329
417.035670	5101.735913
417.415283	5196.804512
417.794834	5138.858969
418.174324	5092.707206
418.553753	4999.730685
418.933121	5179.283982
419.312428	5253.154530
419.691674	5188.814283
420.070859	5312.320032
420.449983	5231.167538
420.829045	5346.400753
421.208047	5252.055558
421.586988	5320.138862
421.965867	5332.298125
422.344686	5467.209484
422.723444	5320.000230
423.102141	5139.393332
423.480777	5436.317293
423.859352	5206.075194
424.237866	5467.932890
424.616319	5457.916117
424.994712	5564.584412
425.373044	5444.299960
425.751314	5585.142237
426.129524	5384.688316
426.507673	5584.277679
426.885762	5665.394886
427.263789	5600.883240
427.641756	5481.859077
428.019662	5600.686635
428.397508	5609.206185
428.775292	5554.673503
429.153016	5650.982227
429.530679	5582.067133
429.908282	5665.374721
430.285824	5537.195823
430.663305	5806.751360
431.040726	5546.688316
431.418086	5545.032297
431.795385	5651.743441
432.172624	5667.391183
432.549802	5656.277959
432.926920	5671.114075
433.303977	5676.724879
433.680974	5716.461774
434.057910	5735.792079
434.434786	5741.997739
434.811601	5709.147060
435.188355	5943.043996
435.565050	5819.326518
435.941683	5800.097037
436.318257	6015.800448
436.694770	5997.425443
437.071222	6034.150248
437.447614	5961.366069
437.823946	5876.183172
438.200218	6029.872829
438.576429	5895.697479
438.952580	5999.431822
439.328670	6041.870776
439.704700	5949.153874
440.080670	5932.392038
440.456580	6207.588626
440.832429	6084.650007
441.208218	5934.035454
441.583947	6088.834165
441.959616	6091.349701
442.335224	6017.585017
442.710773	6155.369834
443.086261	6185.268917
443.461689	5975.738399
443.837057	6126.446214
444.212365	6284.269617
444.587612	6178.662485
444.962800	6325.423077
445.337927	6310.609646
445.712995	5920.961221
446.088002	6496.935733
446.462949	6327.774775
446.837837	6258.710967
447.212664	6430.407626
447.587431	6569.188071
447.962139	7113.294929
448.336786	8041.883029
448.711374	7782.009028
449.085901	6855.061823
449.460369	6776.545852
449.834776	6709.175872
450.209124	7099.920748
450.583412	7255.432782
450.957640	7400.638177
451.331808	7163.477095
451.705917	6720.246246
452.079965	6641.420244
452.453954	6848.566296
452.827883	6727.734880
453.201752	6823.910013
453.575562	6619.629856
453.949311	6825.513100
454.323001	6716.805658
454.696632	6783.437109
455.070202	6923.150168
455.443713	7082.276709
455.817164	7184.972575
456.190556	7262.722291
456.563888	7335.806418
456.937160	7383.374746
457.310373	7041.806326
457.683526	7067.826242
458.056619	6951.695701
458.429653	6938.926458
458.802628	6877.532766
459.175542	6985.579817
459.548398	7342.075093
459.921194	7501.279773
460.293930	7504.251533
460.666607	8029.549846
461.039224	8344.967281
461.411782	8472.652146
461.784280	8486.205288
462.156719	8382.803661
462.529099	8255.448991
462.901419	7848.733740
463.273680	7740.328768
463.645882	7754.557424
464.018024	7618.526929
464.390106	7785.018597
464.762130	8177.709358
465.134094	8637.545767
465.505999	9663.405452
465.877845	10887.321988
466.249631	11535.516070
466.621358	11156.748976
466.993026	10526.876968
467.364634	10270.415828
467.736184	9907.220857
468.107674	9577.007637
468.479105	9605.018808
468.850477	9371.114311
469.221790	9147.324888
469.593043	8808.221593
469.964238	8674.053804
470.335373	8687.191051
470.706449	8744.647602
471.077467	8723.608346
471.448425	10034.598212
471.819324	11110.730803
472.190164	11130.330809
472.560945	9890.229648
472.931667	9100.893341
473.302330	8963.100962
473.672934	8600.483204
474.043479	8963.229512
474.413965	8905.044514
474.784393	8792.899006
475.154761	8941.683620
475.525070	9024.499696
475.895321	8860.132874
476.265513	9039.035863
476.635645	9205.464516
477.005719	9202.202889
477.375734	9315.568357
477.745691	9555.963340
478.115588	9688.003762
478.485427	9924.572509
478.855207	10462.587133
479.224928	11284.557350
479.594591	11914.104204
479.964194	11723.659494
480.333739	11667.095227
480.703226	11583.049110
481.072653	11674.667040
481.442022	11910.993812
481.811333	12092.550967
482.180584	11909.504151
482.549777	11619.267280
482.918912	11439.567789
483.287988	11459.228289
483.657005	11475.067595
484.025964	11151.223872
484.394864	11283.067689
484.763706	11248.853378
485.132489	11012.050217
485.501213	10978.357665
485.869879	11053.811135
486.238487	10888.851978
486.607036	10999.558238
486.975527	10780.545309
487.343959	10972.565379
487.712333	11016.236895
488.080648	10952.267173
488.448905	10988.006433
488.817104	10930.343195
489.185244	11197.705831
489.553326	11346.056906
489.921350	11888.969011
490.289315	12950.063840
490.657222	13294.878763
491.025070	13203.344012
491.392861	13081.814395
491.760593	12697.575129
492.128267	12357.682892
492.495883	12015.139009
492.863440	11685.775223
493.230939	11348.527071
493.598380	11281.968717
493.965763	11149.877883
494.333088	11058.867413
494.700354	10966.649585
495.067563	11030.725171
495.434713	10858.831907
495.801805	10985.069961
496.168839	10917.248798
496.535815	10848.220278
496.902733	10849.266318
497.269593	10780.663776
497.636395	10880.425690
498.003139	10871.989319
498.369825	10738.663402
498.736453	10892.458924
499.103023	10815.669548
499.469535	10844.242808
499.835989	10839.375574
500.202385	10800.563731
500.568723	10645.260904
500.935003	10876.082736
501.301226	10677.559577
501.667390	10936.395100
502.033497	11033.580985
502.399546	10888.826773
502.765537	10798.882506
503.131470	10876.596933
503.497345	11046.814014
503.863163	10660.462503
504.228923	10974.289454
504.594625	11034.853876
504.960269	10785.503283
505.325856	11005.801707
505.691385	10795.522577
506.056856	10948.319950
506.422270	10976.928498
506.787625	10867.396828
507.152924	10985.269087
507.518164	10964.733947
507.883347	10884.057841
508.248472	10803.361571
508.613540	11036.620801
508.978550	10916.646380
509.343503	10894.513194
509.708398	11022.429952
510.073236	11118.322781
510.438016	11136.859104
510.802738	11076.493807
511.167403	11129.801488
511.532010	11025.399192
511.896561	11262.381314
512.261053	11332.140801
512.625488	11204.113137
512.989866	11179.691267
513.354186	11172.724393
513.718449	11078.492624
514.082655	11272.698035
514.446803	11171.638024
514.810894	11292.605552
515.174927	11153.721763
515.538904	11176.485093
515.902822	11327.780203
516.266684	11216.312729
516.630488	11152.403502
516.994235	11223.390509
517.357925	11282.407298
517.721558	11367.196985
518.085133	11382.552339
518.448651	11392.748073
518.812112	11268.902046
519.175516	11287.697988
519.538863	11409.865311
519.902152	11326.282980
520.265385	11483.710653
520.628560	11393.471478
520.991678	11376.271062
521.354739	11438.131060
521.717743	11368.679084
522.080690	11354.687361
522.443580	11486.528658
522.806413	11437.606780
523.169189	11467.591563
523.531908	11528.894515
523.894569	11346.848367
524.257174	11351.085457
524.619722	11468.932510
524.982213	11416.184397
525.344647	11462.172323
525.707025	11415.864284
526.069345	11515.328770
526.431608	11429.208218
526.793815	11536.022706
527.155964	11330.487302
527.518057	11382.186856
527.880093	11329.244658
528.242072	11403.279043
528.603995	11302.992849
528.965860	11233.374515
529.327669	11280.017791
529.689421	11232.275543
530.051117	11201.143897
530.412755	11303.257510
530.774337	11194.159379
531.135862	11172.202633
531.497331	11201.085924
531.858743	11047.338294
532.220098	11219.879346
532.581396	11089.925961
532.942638	11075.803169
533.303824	11030.871365
533.664953	11042.229084
534.026025	10959.932248
534.387040	11056.147710
534.747999	11060.914121
535.108902	11120.404777
535.469748	10878.147088
535.830537	10980.273303
536.191270	10959.970056
536.551947	10984.500311
536.912567	10977.140226
537.273131	10903.889740
537.633638	10888.604962
537.994089	10877.733714
538.354483	10816.808849
538.714821	10966.974740
539.075103	10977.762809
539.435328	10944.942377
539.795497	10768.123906
540.155609	10927.620972
540.515665	11019.642194
540.875665	10745.292520
541.235609	10812.972531
541.595496	10815.949332
541.955328	10969.485234
542.315102	10857.319561
542.674821	10804.788217
543.034483	10804.435337
543.394090	10806.562704
543.753640	10742.630791
544.113134	10964.358381
544.472571	10817.277676
544.831953	10963.534152
545.191278	10764.857238
545.550548	10795.124326
545.909761	10932.251272
546.268918	10905.336552
546.628019	10984.119704
546.987064	10849.493170
547.346053	10772.146746
547.704986	10868.941941
548.063863	10857.266629
548.422684	10854.456186
548.781449	10765.535273
549.140158	10865.423216
549.498811	10744.155740
549.857408	10603.656261
550.215949	10830.893833
550.574434	10684.236585
550.932864	10778.992633
551.291237	10837.122178
551.649555	10785.528489
552.007817	10802.796962
552.366022	10761.847669
552.724173	10752.967677
553.082267	10738.118958
553.440305	10872.818589
553.798288	10677.201655
554.156215	10834.596560
554.514086	10810.514968
554.871902	10662.340333
555.229661	10694.381907
555.587365	10671.716879
555.945014	10568.189223
556.302606	10691.634478
556.660143	10588.673952
557.017625	10735.999153
557.375050	10636.199430
557.732421	10773.911150
558.089735	10682.293220
558.446994	10692.362925
558.804197	10723.426515
559.161345	10730.627803
559.518437	10574.026880
559.875474	10665.785962
560.232455	10695.770745
560.589381	10640.943156
560.946251	10644.517334
561.303065	10742.134237
561.659825	10682.283138
562.016528	10611.432241
562.373177	10493.902780
562.729770	10602.806827
563.086307	10515.766265
563.442789	10610.761768
563.799216	10486.494805
564.155587	10536.157732
564.511904	10493.307924
564.868164	10484.551440
565.224370	10497.348409
565.580520	10420.362428
565.936615	10424.488613
566.292654	10298.769797
566.648638	10423.566081
567.004567	10384.514783
567.360441	10368.120951
567.716260	10280.293968
568.072023	10379.219051
568.427732	10327.091000
568.783385	10225.945289
569.138982	10306.467639
569.494525	10321.437346
569.850013	10197.976967
570.205445	10282.869998
570.560823	10175.591724
570.916145	10101.443912
571.271412	10160.662347
571.626625	10109.391291
571.981782	10086.718702
572.336884	10054.949350
572.691931	10065.886134
573.046923	10014.909986
573.401860	9973.292740
573.756743	9904.080219
574.111570	9945.392474
574.466342	9930.374877
574.821059	9958.902767
575.175722	9843.851033
575.530330	9862.319300
575.884882	9853.754380
576.239380	9775.301423
576.593823	9760.183003
576.948211	9775.540878
577.302544	9658.969236
577.656823	9668.897789
578.011047	9671.715794
578.365216	9645.027925
578.719330	9563.230163
579.073389	9575.303727
579.427394	9528.471407
579.781344	9500.119958
580.135239	9451.689593
580.489080	9458.802661
580.842866	9356.298359
581.196597	9363.035862
581.550273	9404.791739
581.903895	9369.498621
582.257463	9442.179456
582.610975	9312.750352
582.964434	9338.054424
583.317837	9269.240153
583.671186	9250.270291
584.024481	9240.586235
584.377721	9167.229884
584.730906	9142.066965
585.084037	9171.076285
585.437113	9103.204710
585.790135	9123.901167
586.143103	9025.704531
586.496016	8999.165377
586.848874	9060.944717
587.201679	9043.784630
587.554428	8937.517107
587.907124	8976.757448
588.259765	8951.823901
588.612352	8951.539076
588.964884	8834.606992
589.317362	8840.333743
589.669786	8842.186367
590.022155	8896.746775
590.374470	8907.159278
590.726731	8844.364145
591.078937	8690.064508
591.431090	8806.996592
591.783188	8681.282818
592.135232	8674.391561
592.487222	8673.451386
592.839157	8731.709480
593.191038	8660.301536
593.542866	8604.117876
593.894639	8509.140017
594.246358	8555.090135
594.598022	8572.272908
594.949633	8466.494376
595.301190	8443.358001
595.652692	8475.964184
596.004141	8583.013086
596.355535	8359.954631
596.706876	8339.464861
597.058162	8278.930686
597.409395	8350.197478
597.760573	8412.513701
598.111698	8321.205802
598.462768	8307.569481
598.813785	8268.601362
599.164748	8245.437260
599.515657	8228.468736
599.866511	8142.078482
600.217312	8262.935105
600.568060	8125.064588
600.918753	8233.746824
601.269392	8197.730300
601.619978	8104.388296
601.970510	8181.598608
602.320988	8172.022936
602.671412	8227.740289
603.021783	8167.793408
603.372100	8137.927092
603.722363	8145.272053
604.072572	8114.430274
604.422728	8126.546687
604.772830	8054.266623
605.122878	8067.834889
605.472872	8058.140750
605.822813	8089.015297
606.172701	8034.177625
606.522534	8109.948688
606.872314	8113.031354
607.222041	8074.002741
607.571714	8129.717573
607.921333	8092.357582
608.270899	8097.544929
608.620411	8187.660595
608.969870	8093.267510
609.319276	8089.400945
609.668627	8100.113397
610.017926	8137.342318
610.367171	8186.496089
610.716362	8163.284096
611.065500	8147.515367
611.414585	8173.333636
611.763616	8161.958272
612.112594	8146.260119
612.461518	8168.148809
612.810389	8222.570586
613.159207	8158.293354
613.507971	8113.157383
613.856682	8227.432779
614.205340	8184.504833
614.553945	8264.059282
614.902496	8159.546080
615.250994	8217.542035
615.599439	8197.500928
615.947830	8211.076755
616.296169	8181.288577
616.644454	8189.951800
616.992686	8192.421965
617.340864	8248.444308
617.688990	8155.311511
618.037063	8243.942558
618.385082	8192.152263
618.733048	8281.617621
619.080961	8220.886840
619.428821	8236.534582
619.776628	8240.920386
620.124382	8194.458591
620.472083	8171.768358
620.819731	8202.476547
621.167326	8098.228006
621.514868	8104.070703
621.862357	7992.247828
622.209793	8013.534100
622.557176	7946.630427
622.904506	7911.871671
623.251783	7847.387752
623.599007	7804.421998
623.946179	7806.420815
624.293297	7762.613188
624.640363	7679.040940
624.987376	7661.306161
625.334336	7617.044830
625.681243	7559.336221
626.028097	7555.976292
626.374899	7526.800614
626.721647	7520.894903
627.068343	7449.670960
627.414987	7420.482680
627.761577	7375.472738
628.108115	7419.149294
628.454600	7302.665873
628.801032	7354.796445
629.147412	7311.044271
629.493739	7306.736605
629.840014	7243.318889
630.186236	7298.506921
630.532405	7184.642379
630.878521	7237.080462
631.224585	7192.554470
631.570597	7111.727130
631.916556	7150.738099
632.262462	7143.065463
632.608316	7107.553055
632.954117	7081.369302
633.299866	7063.470685
633.645562	7059.964562
633.991206	6976.944320
634.336797	6919.172697
634.682336	6881.600978
635.027823	6844.016655
635.373257	6837.110274
635.718639	6772.656602
636.063968	6783.825278
636.409245	6672.796385
636.754470	6676.567168
637.099642	6630.485981
637.444762	6573.601601
637.789829	6586.958138
638.134845	6529.864550
638.479808	6512.260841
638.824719	6521.259301
639.169577	6443.557476
639.514383	6469.506815
639.859137	6392.339353
640.203839	6402.885447
640.548489	6388.480349
640.893086	6364.194591
641.237632	6338.378842
641.582125	6364.509663
641.926566	6326.587583
642.270955	6338.703996
642.615292	6338.492268
642.959576	6355.460792
643.303809	6341.413617
643.647990	6348.037693
643.992118	6340.342371
644.336195	6289.575432
644.680219	6310.287012
645.024192	6297.888294
645.368112	6394.791874
645.711981	6417.968579
646.055797	6493.817780
646.399562	6449.392611
646.743274	6578.632672
647.086935	6631.340457
647.430544	6627.032791
647.774101	6647.729248
648.117606	6654.938098
648.461059	6643.338403
648.804460	6605.191992
649.147810	6513.886613
649.491108	6485.111707
649.834354	6464.994982
650.177548	6377.069698
650.520690	6291.337315
650.863781	6272.034737
651.206820	6290.888652
651.549807	6213.131375
651.892742	6150.253063
652.235626	6159.571636
652.578458	6147.886241
652.921238	6050.450819
653.263967	6093.472026
653.606644	6033.570516
653.949269	6031.861565
654.291843	5972.938038
654.634365	6022.726994
654.976836	5977.316280
655.319255	5978.458101
655.661622	5952.569256
656.003938	5948.256549
656.346203	5908.796917
656.688416	5939.492503
657.030577	5892.030039
657.372687	5863.595411
657.714746	5853.999575
658.056753	5896.448611
658.398708	5837.958623
658.740612	5824.299617
659.082465	5874.867431
659.424266	5869.080186
659.766016	5863.658425
660.107715	5843.093038
660.449362	5858.428228
660.790958	5848.832392
661.132503	5834.351678
661.473996	5872.246031
661.815438	5860.356470
662.156829	5858.844123
662.498168	5854.685172
662.839456	5821.363145
663.180693	5862.141038
663.521879	5858.609710
663.863013	5853.976889
664.204097	5874.849787
664.545129	5916.991313
664.886110	5908.703656
665.227040	5941.604746
665.567918	5908.789355
665.908746	5931.388848
666.249522	5940.830929
666.590248	5926.803918
666.930922	5952.632270
667.271545	5970.215815
667.612118	5967.722964
667.952639	5944.004335
668.293109	5961.698785
668.633528	5919.569863
668.973896	5921.112456
669.314213	5914.377474
669.654480	5894.704371
669.994695	5887.072064
670.334859	5883.586107
670.674973	5874.234766
671.015035	5876.531012
671.355047	5872.704776
671.695008	5858.864288
672.034918	5830.013765
672.374777	5843.030024
672.714585	5826.409340
673.054342	5833.250185
673.394049	5822.593186
673.733705	5857.631726
674.073310	5842.457853
674.412864	5807.353778
674.752368	5793.611593
675.091820	5799.192150
675.431223	5732.031378
675.770574	5738.907512
676.109875	5684.944480
676.449125	5694.194998
676.788324	5660.278115
677.127473	5604.601091
677.466571	5591.156334
677.805619	5584.111321
678.144616	5571.052212
678.483562	5547.275610
678.822458	5515.266804
679.161303	5516.267473
679.500098	5502.220297
679.838842	5490.434080
680.177535	5492.095140
680.516179	5506.533005
680.854771	5517.966342
681.193314	5596.479792
681.531805	5699.636923
681.870247	5854.176015
682.208638	5961.262726
682.546978	5972.433923
682.885268	5952.113031
683.223508	5867.653540
683.561697	5810.076001
683.899836	5783.436024
684.237925	5731.502057
684.575963	5702.293611
684.913951	5660.114277
685.251889	5720.766920
685.589776	5688.090160
685.927614	5660.618392
686.265401	5731.638168
686.603137	5715.955138
686.940824	5791.522034
687.278460	5817.138658
687.616046	5824.534030
687.953582	5891.619185
688.291068	5874.161669
688.628504	5939.812616
688.965889	5905.724334
689.303224	5847.435992
689.640510	5796.459845
689.977745	5720.030911
690.314930	5624.619513
690.652065	5567.808230
690.989150	5473.717614
691.326185	5397.754987
691.663170	5341.470504
692.000105	5267.478969
692.336990	5190.074572
692.673825	5161.962578
693.010610	5097.521508
693.347345	5025.228841
693.684030	5012.104197
694.020665	4972.596674
694.357251	4881.354310
694.693786	4889.997369
695.030272	4855.152913
695.366707	4822.277028
695.703093	4784.052479
696.039429	4806.253721
696.375716	4789.242347
696.711952	4767.376342
697.048139	4750.473354
697.384276	4731.831167
697.720363	4746.687447
698.056400	4754.735649
698.392388	4705.128175
698.728326	4684.303168
699.064214	4661.307945
699.400053	4655.485412
699.735842	4624.588180
700.071581	4600.146146
700.407270	4568.187751
700.742910	4553.689393
701.078501	4498.720651
701.414042	4499.224767
701.749533	4469.184531
702.084974	4403.508378
702.420366	4457.484013
702.755709	4403.291609
703.091002	4345.378833
703.426246	4398.875558
703.761440	4352.380996
704.096584	4311.744255
704.431679	4335.009180
704.766725	4319.328671
705.101721	4308.361641
705.436668	4336.755940
705.771565	4283.720481
706.106413	4311.376251
706.441212	4343.407742
706.775961	4350.992158
707.110661	4331.316535
707.445311	4360.842573
707.779913	4388.369793
708.114465	4397.847163
708.448967	4414.994648
708.783421	4482.367148
709.117825	4522.600597
709.452180	4526.240310
709.786485	4570.592382
710.120742	4656.513808
710.454949	4642.312877
710.789107	4705.120613
711.123216	4781.262201
711.457275	4776.619298
711.791286	4852.140824
712.125247	4866.177917
712.459159	4767.469604
712.793023	4836.349409
713.126837	4803.677691
713.460602	4794.777534
713.794318	4714.590421
714.127985	4723.604004
714.461602	4639.855315
714.795171	4606.427424
715.128691	4543.700346
715.462162	4488.202284
715.795584	4438.378040
716.128957	4420.441614
716.462281	4368.497565
716.795556	4339.084953
717.128782	4302.791166
717.461960	4230.702666
717.795088	4241.369747
718.128167	4202.552863
718.461198	4144.947598
718.794180	4139.482987
719.127113	4116.454996
719.459997	4097.492696
719.792833	4052.760017
720.125619	4045.604099
720.458357	4011.402391
720.791046	4015.803318
721.123686	3988.515553
721.456278	3945.156588
721.788821	3962.692242
722.121315	3935.316256
722.453761	3909.036721
722.786158	3922.511725
723.118506	3946.081640
723.450805	3897.989032
723.783056	3917.115170
724.115259	3934.340793
724.447412	3940.226340
724.779518	3934.781894
725.111574	3936.523612
725.443582	3969.424703
725.775542	3954.739822
726.107453	4005.811752
726.439315	4005.988192
726.771129	4013.053369
727.102895	4054.569792
727.434612	4102.155763
727.766281	4116.175212
728.097901	4115.482053
728.429473	4120.596304
728.760996	4127.364053
729.092471	4118.554637
729.423897	4103.862194
729.755276	4111.126497
730.086606	4114.844348
730.417887	4149.199811
730.749120	4214.245819
731.080305	4280.012712
731.411442	4304.399294
731.742530	4275.697484
732.073570	4278.086991
732.404562	4330.477183
732.735506	4327.230680
733.066401	4289.472437
733.397249	4225.714444
733.728048	4146.782578
734.058798	4065.430957
734.389501	3991.434381
734.720156	3931.542952
735.050762	3885.262640
735.381320	3877.821897
735.711831	3830.752643
736.042293	3799.459681
736.372707	3820.940037
736.703073	3794.015234
737.033391	3780.981331
737.363661	3802.214671
737.693883	3826.354236
738.024056	3835.297243
738.354182	3834.563755
738.684260	3891.874113
739.014290	3911.027977
739.344272	3908.961104
739.674207	3952.027681
740.004093	3957.651088
740.333931	3952.998103
740.663722	3952.110860
740.993464	3948.660190
741.323159	3926.516922
741.652806	3896.033065
741.982405	3869.924929
742.311956	3838.856298
742.641460	3828.080832
742.970915	3805.791370
743.300323	3762.583640
743.629683	3727.895461
743.958996	3719.567474
744.288260	3693.434133
744.617477	3658.791324
744.946647	3647.783964
745.275768	3622.600880
745.604842	3618.121815
745.933869	3568.834454
746.262847	3559.314235
746.591778	3599.893003
746.920662	3570.661872
747.249498	3541.150957
747.578286	3584.031012
747.907027	3603.585648
748.235720	3600.041717
748.564365	3625.204636
748.892963	3625.940645
749.221514	3605.259311
749.550017	3585.697113
749.878473	3583.305086
750.206881	3553.907597
750.535242	3550.172102
750.863555	3555.709810
751.191821	3546.744118
751.520039	3529.705018
751.848210	3505.245339
752.176334	3539.583159
752.504411	3546.421484
752.832440	3506.593848
753.160421	3487.636589
753.488356	3498.928773
753.816243	3509.686596
754.144082	3465.024493
754.471875	3452.827422
754.799620	3469.919454
755.127318	3465.289154
755.454969	3461.760346
755.782572	3465.639514
756.110129	3449.780044
756.437638	3435.329577
756.765100	3449.107050
757.092515	3460.981488
757.419882	3467.444247
757.747203	3438.308898
758.074477	3441.454578
758.401703	3457.828246
758.728882	3478.612923
759.056014	3484.417812
759.383099	3489.922752
759.710138	3486.295642
760.037129	3501.416583
760.364073	3535.010832
760.690970	3515.867050
761.017820	3494.338803
761.344623	3514.180784
761.671379	3556.287022
761.998088	3611.001185
762.324751	3736.747727
762.651366	3983.101353
762.977935	4458.003252
763.304456	4900.528339
763.630931	5000.053319
763.957359	4639.734327
764.283740	4295.748674
764.610074	4099.337758
764.936362	3907.050507
765.262602	3747.722319
765.588796	3635.667551
765.914943	3545.514076
766.241044	3456.832618
766.567097	3426.363884
766.893104	3381.434601
767.219064	3348.324302
767.544978	3321.883450
767.870845	3266.203906
768.196665	3250.102461
768.522438	3256.081269
768.848165	3249.593304
769.173846	3212.928992
769.499479	3197.296374
769.825066	3179.612007
770.150607	3162.772032
770.476101	3178.225689
770.801548	3172.715708
771.126949	3130.170890
771.452303	3114.195474
771.777611	3117.920886
772.102872	3124.686115
772.428087	3100.231477
772.753256	3087.958788
773.078378	3080.765062
773.403453	3049.570402
773.728482	3032.934594
774.053465	3058.281516
774.378401	3047.974877
774.703291	3014.683097
775.028135	3012.704444
775.352932	3009.402488
775.677683	2997.596106
776.002388	2993.144767
776.327046	2994.263903
776.651658	2985.583036
776.976224	2971.261118
777.300743	2973.486788
777.625216	2963.810293
777.949643	2960.135292
778.274024	2961.027576
778.598359	2949.858899
778.922647	2955.152111
779.246889	2955.305866
779.571086	2939.708536
779.895236	2934.957249
780.219339	2943.063424
780.543397	2955.046247
780.867409	2957.982719
781.191374	2951.938375
781.515294	2948.840586
781.839167	2948.563323
782.162995	2939.310285
782.486776	2948.991821
782.810511	2946.078034
783.134201	2934.435489
783.457844	2941.210800
783.781441	2928.456681
784.104993	2912.829104
784.428498	2910.583270
784.751958	2925.179931
785.075372	2919.377563
785.398739	2905.703433
785.722061	2922.233376
786.045337	2934.246446
786.368568	2918.192892
786.691752	2909.191911
787.014891	2955.200002
787.337983	2987.596977
787.661030	3016.714682
787.984031	3080.394537
788.306987	3127.196609
788.629897	3120.217132
788.952760	3105.418825
789.275579	3092.415168
789.598351	3032.254038
789.921078	2985.658653
790.243759	2977.381079
790.566395	2956.936679
790.888984	2934.977413
791.211529	2917.678694
791.534027	2909.312899
791.856480	2899.515417
792.178888	2885.253992
792.501249	2875.358207
792.823566	2874.493649
793.145836	2869.865870
793.468062	2866.085005
793.790241	2864.146681
794.112375	2871.433669
794.434464	2881.551265
794.756507	2886.746174
795.078505	2895.041393
795.400457	2905.897517
795.722364	2944.545523
796.044226	2970.177270
796.366042	2971.031746
796.687812	2959.585806
797.009538	2975.180615
797.331218	2965.272227
797.652852	2954.582461
797.974442	2934.009512
798.295986	2931.788883
798.617484	2925.961310
798.938938	2909.696027
799.260346	2894.590209
799.581709	2890.332955
799.903026	2883.633261
800.224299	2876.621016
800.545526	2869.442413
800.866708	2852.791482
801.187845	2841.380830
801.508936	2843.946778
801.829983	2851.311903
802.150984	2838.688854
802.471940	2825.362564
802.792851	2826.663182
803.113717	2823.048674
803.434538	2830.045796
803.755314	2821.929538
804.076045	2816.782520
804.396731	2814.841676
804.717372	2818.995587
805.037967	2812.671459
805.358518	2817.132880
805.679024	2830.005467
805.999485	2825.339879
806.319901	2830.895230
806.640272	2823.744354
806.960598	2825.964982
807.280879	2834.799604
807.601115	2844.929803
807.921306	2830.486897
808.241453	2827.983964
808.561554	2831.835406
808.881611	2835.112156
809.201623	2829.110662
809.521590	2827.989005
809.841513	2825.130671
810.161390	2826.350630
810.481223	2821.231338
810.801011	2812.787406
811.120755	2807.620223
811.440453	2812.464772
811.760107	2809.984524
812.079716	2811.640543
812.399281	2798.609161
812.718801	2794.558593
813.038276	2788.872172
813.357707	2793.610857
813.677093	2801.626291
813.996434	2797.220323
814.315731	2791.516257
814.634983	2786.596091
814.954191	2790.510547
815.273354	2803.441107
815.592473	2809.503094
815.911547	2812.346305
816.230577	2820.996925
816.549562	2831.434634
816.868502	2825.854077
817.187399	2836.085098
817.506250	2856.799199
817.825058	2847.538600
818.143821	2860.751464
818.462539	2877.712426
818.781213	2906.210069
819.099843	2939.524534
819.418429	2997.260869
819.736970	3062.339645
820.055466	3131.748771
820.373919	3237.854977
820.692327	3380.270094
821.010691	3549.491547
821.329011	3995.384125
821.647286	4891.338316
821.965517	6278.489934
822.283704	7050.429220
822.601847	7032.192846
822.919945	6393.435804
823.237999	5881.506631
823.556010	5294.585253
823.873976	4734.850818
824.191897	4321.503929
824.509775	4023.906973
824.827609	3750.706682
825.145398	3626.868217
825.463144	3612.337091
825.780845	3705.018704
826.098502	3808.783295
826.416116	4092.275102
826.733685	4420.144186
827.051210	4482.054597
827.368692	4362.896843
827.686129	4095.478755
828.003522	3769.842902
828.320872	3505.421780
828.638177	3310.442552
828.955439	3171.773012
829.272656	3088.936772
829.589830	3018.968078
829.906960	2968.339769
830.224046	2925.613470
830.541088	2890.378325
830.858086	2875.080944
831.175041	2854.606297
831.491952	2857.149560
831.808819	2870.266642
832.125642	2893.516443
832.442421	2939.910182
832.759157	3019.802388
833.075849	3200.119420
833.392497	3481.380517
833.709101	3690.848021
834.025662	3640.499497
834.342179	3479.941268
834.658653	3304.239412
834.975083	3152.447749
835.291469	3050.316493
835.607811	2968.148206
835.924110	2908.360121
836.240366	2859.720548
836.556578	2814.571974
836.872746	2792.353089
837.188871	2772.422887
837.504952	2751.975967
837.820990	2743.474061
838.136984	2730.745147
838.452935	2722.402038
838.768842	2720.846842
839.084706	2738.669841
839.400526	2814.561892
839.716303	2950.829322
840.032037	3033.968031
840.347727	3018.169055
840.663373	2959.185034
840.978977	2882.733415
841.294537	2809.412353
841.610054	2761.531474
841.925527	2736.426528
842.240957	2715.117571
842.556344	2691.993798
842.871687	2678.380162
843.186987	2667.365241
843.502244	2664.816937
843.817458	2663.861639
844.132629	2645.486633
844.447756	2637.420787
844.762840	2630.973151
845.077881	2633.365179
845.392879	2635.079171
845.707833	2629.816206
846.022745	2620.235493
846.337613	2624.306225
846.652438	2620.295987
846.967221	2622.526698
847.281960	2622.302367
847.596656	2619.950668
847.911309	2616.323558
848.225919	2617.208281
848.540485	2615.219545
848.855009	2611.194184
849.169490	2612.719133
849.483928	2611.267281
849.798323	2610.402723
850.112675	2610.927003
850.426984	2610.289297
850.741251	2605.752258
851.055474	2608.918103
851.369654	2615.958074
851.683792	2614.024792
851.997887	2613.306427
852.311938	2609.787702
852.625947	2609.041611
852.939914	2613.361880
853.253837	2615.713578
853.567718	2610.800974
853.881555	2609.379369
854.195350	2611.370624
854.509103	2612.585542
854.822812	2609.611262
855.136479	2608.461879
855.450103	2610.155706
855.763685	2613.684514
856.077224	2611.713423
856.390720	2608.010695
856.704173	2611.847013
857.017584	2613.119905
857.330953	2617.483023
857.644278	2616.900770
857.957561	2617.132663
858.270802	2614.551592
858.584000	2610.501025
858.897155	2618.347581
859.210268	2616.489916
859.523339	2612.797271
859.836367	2606.079933
860.149352	2608.053545
860.462295	2611.226952
860.775195	2605.580859
861.088054	2603.667741
861.400869	2606.019440
861.713642	2603.680344
862.026373	2602.631784
862.339062	2608.217383
862.651708	2611.968001
862.964312	2612.164606
863.276873	2613.291304
863.589392	2613.775255
863.901869	2617.714917
864.214303	2622.115844
864.526696	2627.204889
864.839045	2630.156484
865.151353	2630.365692
865.463619	2631.666310
865.775842	2628.376957
866.088023	2627.961062
866.400162	2634.736372
866.712258	2629.019704
867.024313	2628.828140
867.336325	2624.185237
867.648296	2625.397635
867.960224	2633.917185
868.272110	2631.961217
868.583954	2625.826133
868.895755	2626.252111
869.207515	2629.975003
869.519233	2637.350211
869.830909	2634.275107
870.142542	2630.148922
870.454134	2631.404170
870.765684	2635.737042
871.077191	2636.899027
871.388657	2643.646612
871.700081	2643.928917
872.011463	2639.671662
872.322803	2643.490336
872.634101	2644.049904
872.945357	2653.754125
873.256571	2658.034065
873.567744	2655.395021
873.878874	2652.282108
874.189963	2657.257727
874.501010	2660.083294
874.812015	2664.106135
875.122979	2665.079077
875.433900	2655.372336
875.744780	2653.055926
876.055618	2660.932728
876.366415	2666.230981
876.677169	2666.329284
876.987882	2660.249652
877.298554	2659.317039
877.609183	2668.927998
877.919771	2677.623989
878.230317	2683.267561
878.540822	2697.743234
878.851285	2708.122970
879.161707	2734.014336
879.472087	2767.810231
879.782425	2819.187151
880.092722	2934.460695
880.402977	3127.650313
880.713191	3392.913308
881.023363	3692.383052
881.333494	3891.402765
881.643583	4063.878282
881.953631	4058.050708
882.263637	3882.578225
882.573602	3658.894667
882.883526	3524.394162
883.193408	3407.562901
883.503248	3303.463074
883.813048	3187.816484
884.122806	3069.354410
884.432522	2981.618169
884.742197	2918.326482
885.051831	2878.887015
885.361424	2843.382168
885.670975	2804.953453
885.980485	2774.290634
886.289954	2757.208685
886.599382	2741.064389
886.908768	2731.554253
887.218113	2712.526417
887.527417	2696.843388
887.836680	2687.368539
888.145901	2684.789989
888.455082	2674.314471
888.764221	2662.447595
889.073319	2657.673622
889.382376	2655.763025
889.691392	2657.519867
890.000366	2657.345947
890.309300	2653.517191
890.618193	2657.787048
890.927044	2660.930208
891.235855	2659.972389
891.544625	2658.568427
891.853353	2661.540187
892.162041	2667.297185
892.470687	2688.585978
892.779293	2699.449664
893.087858	2707.790253
893.396381	2735.035169
893.704864	2773.715943
894.013306	2848.330061
894.321707	2942.566870
894.630068	2991.980260
894.938387	3012.553209
895.246665	3007.375944
895.554903	2961.418265
895.863100	2917.270360
896.171256	2857.694004
896.479371	2797.096814
896.787446	2756.790269
897.095480	2738.538771
897.403473	2730.737586
897.711425	2716.652602
898.019336	2695.966227
898.327207	2681.908970
898.635038	2680.436953
898.942827	2677.593742
899.250576	2668.829696
899.558284	2658.306287
899.865952	2653.726399
900.173579	2648.909577
900.481165	2648.067704
900.788711	2638.371044
901.096216	2632.286372
901.403681	2630.930301
901.711105	2630.547174
902.018489	2628.951648
902.325832	2632.619088
902.633135	2632.913995
902.940397	2646.147024
903.247619	2687.121523
903.554800	2756.124837
903.861941	2886.698283
904.169041	3018.595032
904.476101	3084.767738
904.783121	3075.446645
905.090100	3020.422450
905.397039	2939.441355
905.703938	2864.885210
906.010796	2799.093111
906.317614	2749.294073
906.624391	2709.516849
906.931129	2680.605831
907.237826	2656.572130
907.544483	2639.109573
907.851099	2627.981226
908.157675	2617.460338
908.464211	2609.810387
908.770707	2597.825044
909.077163	2595.155753
909.383578	2592.874631
909.689954	2590.895978
909.996289	2584.818867
910.302584	2586.424475
910.608839	2583.467838
910.915054	2586.094279
911.221229	2585.627972
911.527363	2590.051585
911.833458	2586.739547
912.139513	2590.563262
912.445527	2591.780701
912.751502	2597.451999
913.057436	2600.494335
913.363331	2609.276025
913.669186	2616.852879
913.975000	2632.087246
914.280775	2648.982673
914.586510	2672.028308
914.892205	2709.264791
915.197859	2776.496139
915.503475	2860.154087
915.809050	2929.482556
916.114585	2948.205401
916.420081	2959.679067
916.725536	2969.267342
917.030952	2943.118877
917.336328	2894.068450
917.641665	2844.481140
917.946961	2793.923408
918.252218	2759.905702
918.557435	2731.614747
918.862612	2707.356714
919.167750	2690.151256
919.472848	2677.563495
919.777906	2656.602377
920.082925	2645.100985
920.387904	2632.719911
920.692843	2627.782101
920.997743	2624.754888
921.302603	2615.269957
921.607423	2610.871550
921.912204	2604.907865
922.216946	2600.580035
922.521647	2600.630446
922.826310	2596.317739
923.130932	2588.498909
923.435516	2582.532704
923.740059	2582.537745
924.044564	2583.122519
924.349028	2579.666808
924.653454	2569.972669
924.957840	2568.515776
925.262186	2564.359344
925.566493	2566.164077
925.870761	2563.840105
926.174989	2564.434962
926.479178	2559.333314
926.783328	2559.905485
927.087438	2558.766184
927.391509	2558.173848
927.695541	2557.200906
927.999533	2556.341389
928.303486	2553.604043
928.607400	2554.670247
928.911275	2555.154197
929.215110	2554.027499
929.518906	2552.205122
929.822663	2554.193858
930.126381	2553.843497
930.430060	2555.227294
930.733699	2552.207643
931.037299	2553.800648
931.340861	2553.422561
931.644383	2555.509599
931.947866	2552.661347
932.251309	2554.551779
932.554714	2550.559186
932.858080	2553.046995
933.161407	2552.467262
933.464694	2550.100441
933.767943	2551.396017
934.071153	2550.178578
934.374323	2548.522559
934.677455	2550.854093
934.980548	2550.972560
935.283602	2551.111192
935.586617	2550.206305
935.889593	2549.326623
936.192530	2549.659340
936.495428	2552.026161
936.798287	2551.900132
937.101108	2552.656306
937.403890	2557.427758
937.706632	2559.224929
938.009336	2560.578479
938.312002	2567.222720
938.614628	2568.810683
938.917216	2573.564491
939.219765	2573.398133
939.522275	2575.815366
939.824747	2571.757238
940.127179	2567.661300
940.429573	2561.483366
940.731929	2563.209961
941.034246	2563.406566
941.336524	2564.946639
941.638763	2562.899930
941.940964	2564.669375
942.243126	2561.266596
942.545250	2561.896741
942.847335	2560.301215
943.149381	2557.649568
943.451389	2554.985319
943.753359	2557.042109
944.055290	2556.810216
944.357182	2552.936090
944.659036	2555.756615
944.960851	2553.510781
945.262628	2555.081101
945.564367	2552.235369
945.866067	2555.023127
946.167729	2554.158569
946.469352	2555.096224
946.770937	2555.481872
947.072484	2553.097407
947.373992	2553.694783
947.675462	2551.766542
947.976893	2552.426933
948.278286	2552.343754
948.579641	2553.382232
948.880958	2550.924669
949.182236	2551.141439
949.483476	2550.619679
949.784678	2552.505071
950.085841	2548.802343
950.386967	2552.222766
950.688054	2550.352498
950.989103	2549.883671
951.290114	2553.788045
951.591087	2556.255689
951.892021	2555.378529
952.192917	2558.504044
952.493776	2555.048333
952.794596	2557.705021
953.095378	2558.655279
953.396122	2557.962120
953.696828	2557.515978
953.997496	2558.320042
954.298126	2555.602860
954.598718	2551.968188
954.899272	2552.018600
955.199788	2549.964329
955.500266	2547.481561
955.800706	2547.650440
956.101108	2541.044008
956.401472	2542.694986
956.701798	2540.993596
957.002087	2539.813966
957.302337	2540.237423
957.602550	2542.568957
957.902724	2540.078627
958.202861	2539.108205
958.502960	2539.163657
958.803022	2539.735828
959.103045	2538.309182
959.403031	2537.613503
959.702979	2535.418080
960.002889	2536.259953
960.302762	2538.838503
960.602596	2538.621733
960.902393	2535.952442
961.202153	2537.658873
961.501875	2536.295241
961.801559	2536.030580
962.101205	2535.266845
962.400814	2536.847247
962.700385	2537.537885
962.999918	2535.763399
963.299414	2535.304654
963.598873	2535.060158
963.898293	2534.301464
964.197677	2533.888090
964.497022	2535.486136
964.796331	2534.994623
965.095601	2534.825744
965.394835	2537.353883
965.694030	2534.815662
965.993189	2536.953111
966.292309	2534.437576
966.591393	2536.065868
966.890439	2533.699047
967.189447	2533.893131
967.488419	2533.169725
967.787353	2535.876825
968.086249	2533.938501
968.385108	2534.971938
968.683930	2532.889941
968.982714	2534.588810
969.281462	2535.322298
969.580172	2535.864222
969.878844	2537.616023
970.177480	2534.119983
970.476078	2533.683923
970.774639	2536.421270
971.073162	2535.017308
971.371649	2532.653007
971.670098	2530.981865
971.968510	2534.155271
972.266885	2529.391381
972.565223	2534.581248
972.863524	2534.351876
973.161788	2534.435055
973.460014	2535.672658
973.758204	2536.834644
974.056356	2533.585621
974.354471	2538.982176
974.652550	2532.332894
974.950591	2535.380271
975.248595	2534.321629
975.546563	2530.926412
975.844493	2534.654345
976.142386	2534.087215
976.440243	2533.525127
976.738062	2535.793646
977.035845	2534.992102
977.333590	2535.312216
977.631299	2534.873635
977.928971	2534.840868
978.226606	2531.874149
978.524204	2532.484128
978.821765	2534.198121
979.119290	2530.976823
979.416777	2535.433203
979.714228	2534.185518
980.011642	2532.647966
980.309020	2534.608975
980.606360	2533.363810
980.903664	2534.775333
981.200931	2534.188038
981.498162	2536.965714
981.795356	2537.815149
982.092513	2539.869419
982.389633	2544.134235
982.686717	2545.432332
982.983764	2548.749411
983.280775	2549.548434
983.577749	2550.806202
983.874686	2548.386448
984.171587	2546.722867
984.468451	2542.042156
984.765279	2541.275901
985.062070	2543.120963
985.358824	2537.679037
985.655543	2536.915303
985.952224	2534.243491
986.248869	2535.465971
986.545478	2530.263500
986.842050	2532.098480
987.138586	2529.842564
987.435086	2530.896165
987.731549	2528.816689
988.027975	2532.935312
988.324366	2529.903058
988.620719	2530.452543
988.917037	2530.800383
989.213318	2529.620753
989.509563	2530.838192
989.805772	2530.654190
990.101944	2530.129910
990.398080	2530.150074
990.694180	2529.527492
990.990244	2528.962883
991.286271	2528.015146
991.582262	2530.722245
991.878217	2531.145702
992.174136	2533.441948
992.470019	2529.923222
992.765865	2529.202337
993.061676	2532.179139
993.357450	2530.404653
993.653188	2531.796011
993.948890	2530.964221
994.244556	2532.196783
994.540186	2533.383974
994.835780	2534.036804
995.131337	2535.627288
995.426859	2531.201155
995.722345	2532.337935
996.017795	2533.615868
996.313208	2534.530837
996.608586	2538.125180
996.903928	2537.114428
997.199234	2534.442617
997.494504	2533.076464
997.789738	2532.007739
998.084936	2535.639891
998.380099	2531.193593
998.675225	2533.535209
998.970316	2529.124199
999.265371	2530.838192
999.560390	2530.354241
999.855373	2530.147554
1000.150320	2531.992616
1000.445232	2531.818696
1000.740108	2529.593027
1001.034948	2532.116124
1001.329752	2526.593540
1001.624521	2531.120496
1001.919254	2525.234949
1002.213951	2527.518592
1002.508613	2524.453570
1002.803239	2525.096317
1003.097829	2524.272089
1003.392384	2529.852646
1003.686903	2528.625125
1003.981386	2530.475229
1004.275834	2528.113448
1004.570246	2529.189734
1004.864623	2531.448171
1005.158964	2528.224353
1005.453270	2527.979858
1005.747540	2530.651669
1006.041775	2530.301309
1006.335974	2528.415917
1006.630138	2526.858201
1006.924266	2529.290557
1007.218359	2527.316946
1007.512416	2527.006915
1007.806438	2527.642100
1008.100425	2528.673016
1008.394376	2527.916843
1008.688292	2528.786442
1008.982172	2526.381812
1009.276017	2529.552698
1009.569827	2528.773839
1009.863602	2529.918181
1010.157341	2527.604292
1010.451045	2528.730989
1010.744714	2527.861390
1011.038347	2529.605630
1011.331945	2527.831143
1011.625508	2529.504807
1011.919036	2526.323838
1012.212528	2527.362316
1012.505986	2528.713345
1012.799408	2528.438603
1013.092795	2525.197141
1013.386147	2527.047244
1013.679464	2528.698222
1013.972745	2525.640762
1014.265992	2528.279806
1014.559204	2528.925074
1014.852380	2526.981709
1015.145521	2526.893489
1015.438628	2527.798376
1015.731699	2526.749816
1016.024736	2524.355268
1016.317737	2530.006401
1016.610703	2528.136133
1016.903635	2524.985412
1017.196531	2522.467356
1017.489393	2524.483817
1017.782219	2523.135309
1018.075011	2528.950280
1018.367768	2527.029600
1018.660490	2526.142357
1018.953177	2526.142357
1019.245829	2526.142357
