Dividing Wavelength (nm)	Counts (n)	Blue Motor Position (mm): 0.000000	Red Motor Position (mm): 41.000000	
326.493990	2141.209932
326.888308	2141.209932
327.282561	2141.209932
327.676750	2113.506271
328.070874	2111.507453
328.464933	2120.831067
328.858929	2128.196193
329.252859	2142.467699
329.646726	2157.697025
330.040528	2168.812769
330.434265	2185.766170
330.827938	2208.453883
331.221547	2226.360061
331.615091	2243.661301
332.008571	2266.563263
332.401986	2288.066305
332.795338	2304.855868
333.188625	2327.906544
333.581847	2348.020748
333.975006	2363.837368
334.368100	2384.937117
334.761129	2400.582338
335.154095	2417.361819
335.546996	2437.203800
335.939833	2461.487038
336.332606	2473.757207
336.725315	2485.866058
337.117960	2490.312356
337.510540	2501.556650
337.903056	2508.853720
338.295508	2516.075173
338.687896	2524.181348
339.080220	2533.043697
339.472480	2538.460416
339.864676	2539.488812
340.256807	2544.262784
340.648875	2548.096582
341.040879	2546.803526
341.432818	2549.951727
341.824694	2552.147149
342.216506	2550.899463
342.608253	2550.133208
342.999937	2547.683207
343.391557	2548.477189
343.783113	2545.215563
344.174605	2545.621375
344.566033	2545.150028
344.957397	2541.805222
345.348697	2542.269008
345.739934	2537.933616
346.131106	2539.342618
346.522215	2537.812628
346.913260	2533.333563
347.304241	2531.939684
347.695159	2532.113604
348.086012	2530.066895
348.476802	2527.934487
348.867528	2526.492717
349.258191	2524.965247
349.648789	2525.502130
350.039324	2523.246214
350.429796	2523.573889
350.820203	2520.004752
351.210548	2522.210257
351.600828	2521.224711
351.991045	2520.554238
352.381198	2518.930986
352.771288	2521.580113
353.161314	2516.675070
353.551276	2518.028620
353.941175	2517.864782
354.331010	2519.984587
354.720782	2519.651871
355.110490	2519.417458
355.500135	2518.457118
355.889717	2519.717406
356.279235	2520.423168
356.668689	2522.306039
357.058080	2518.764628
357.447408	2519.059536
357.836672	2518.000893
358.225873	2519.803106
358.615010	2518.994001
359.004084	2521.872500
359.393095	2521.819567
359.782043	2522.348889
360.170927	2523.273940
360.559748	2521.736388
360.948505	2523.049609
361.337199	2524.783766
361.725830	2524.960206
362.114398	2528.385670
362.502903	2526.066740
362.891344	2527.339631
363.279722	2526.071781
363.668037	2528.728469
364.056289	2529.550177
364.444478	2529.504807
364.832603	2528.786442
365.220665	2531.922040
365.608665	2529.424148
365.996601	2529.396422
366.384474	2533.043697
366.772284	2531.511186
367.160031	2532.030425
367.547715	2533.477236
367.935336	2528.879703
368.322893	2534.029242
368.710388	2532.106042
369.097820	2535.859181
369.485189	2532.564787
369.872495	2535.440765
370.259738	2534.634181
370.646918	2535.168543
371.034035	2535.667617
371.421090	2540.575180
371.808081	2538.341949
372.195010	2537.001002
372.581875	2537.376568
372.968678	2540.071065
373.355418	2539.871939
373.742096	2538.016795
374.128710	2540.126518
374.515262	2543.115922
374.901751	2542.039636
375.288177	2543.388144
375.674540	2544.973587
376.060841	2548.777138
376.447079	2550.158414
376.833254	2551.774104
377.219367	2549.876109
377.605417	2554.501368
377.991404	2555.101265
378.377329	2558.599826
378.763191	2561.400187
379.148991	2567.134499
379.534727	2568.588872
379.920402	2573.204049
380.306013	2575.175140
380.691563	2580.594380
381.077049	2585.005390
381.462474	2588.198961
381.847835	2598.193048
382.233134	2599.798656
382.618371	2603.670262
383.003545	2609.964142
383.388657	2618.002262
383.773706	2624.586009
384.158693	2631.172277
384.543618	2636.536064
384.928480	2644.296921
385.313280	2652.473672
385.698017	2658.860814
386.082692	2668.789367
386.467305	2673.046621
386.851856	2682.077848
387.236344	2692.548325
387.620770	2701.362782
388.005133	2706.789584
388.389435	2717.391131
388.773674	2723.317007
389.157851	2732.292782
389.541965	2745.155286
389.926018	2746.408012
390.310008	2761.105497
390.693936	2769.950201
391.077802	2778.931017
391.461606	2787.929476
391.845348	2796.721248
392.229027	2807.393371
392.612645	2820.162614
392.996200	2828.498162
393.379694	2840.362517
393.763125	2861.825230
394.146494	2863.272041
394.529801	2876.116901
394.913047	2894.857390
395.296230	2894.708676
395.679351	2902.136817
396.062410	2922.689601
396.445408	2918.873447
396.828343	2928.376022
397.211217	2937.787857
397.594028	2930.952052
397.976778	2946.093158
398.359466	2957.864252
398.742092	2955.202523
399.124656	2971.051910
399.507158	2986.674446
399.889598	2989.263078
400.271977	3006.239164
400.654294	3012.235617
401.036549	3022.650640
401.418742	3028.526105
401.800874	3051.622152
402.182944	3056.716238
402.564952	3087.600867
402.946898	3074.531675
403.328783	3089.881989
403.710606	3102.331118
404.092367	3127.796507
404.474067	3150.201915
404.855705	3138.957621
405.237282	3141.087509
405.618797	3173.164371
406.000250	3194.352340
406.381642	3230.328535
406.762972	3227.480283
407.144240	3220.457956
407.525447	3243.811101
407.906593	3244.244640
408.287677	3265.757764
408.668700	3283.066566
409.049661	3281.314765
409.430560	3296.299595
409.811399	3300.135913
410.192176	3321.041578
410.572891	3326.579285
410.953545	3369.035883
411.334138	3335.920543
411.714669	3386.949623
412.095139	3337.929443
412.475547	3385.825446
412.855894	3373.804814
413.236180	3406.794125
413.616405	3383.715723
413.996568	3409.231523
414.376670	3410.771596
414.756711	3410.549785
415.136691	3435.332097
415.516609	3453.843214
415.896466	3463.244966
416.276262	3490.673884
416.655997	3521.195550
417.035670	3524.260572
417.415283	3593.468052
417.794834	3613.219293
418.174324	3598.098352
418.553753	3599.225050
418.933121	3644.580311
419.312428	3631.039772
419.691674	3625.126498
420.070859	3666.816841
420.449983	3645.845641
420.829045	3695.637117
421.208047	3680.372503
421.586988	3723.333216
421.965867	3754.462341
422.344686	3763.606994
422.723444	3802.789363
423.102141	3706.200855
423.480777	3808.533758
423.859352	3775.844395
424.237866	3871.918705
424.616319	3858.539483
424.994712	3920.301179
425.373044	3909.387081
425.751314	3971.269765
426.129524	3907.375661
426.507673	4007.208151
426.885762	3983.741580
427.263789	4002.046010
427.641756	4009.821989
428.019662	4037.974313
428.397508	4042.405487
428.775292	4078.676589
429.153016	4087.523814
429.530679	4097.389352
429.908282	4106.322277
430.285824	4088.234617
430.663305	4159.471162
431.040726	4116.170171
431.418086	4106.435703
431.795385	4184.671890
432.172624	4218.200604
432.549802	4181.420346
432.926920	4202.262996
433.303977	4196.500958
433.680974	4232.903129
434.057910	4261.020165
434.434786	4264.372532
434.811601	4258.517232
435.188355	4366.304663
435.565050	4332.254189
435.941683	4329.859641
436.318257	4421.601080
436.694770	4426.400258
437.071222	4485.096933
437.447614	4417.457251
437.823946	4422.906738
438.200218	4439.839974
438.576429	4419.574536
438.952580	4447.310964
439.328670	4452.394968
439.704700	4490.581708
440.080670	4455.790185
440.456580	4517.884597
440.832429	4554.246440
441.208218	4455.243220
441.583947	4511.220192
441.959616	4525.138818
442.335224	4547.420718
442.710773	4569.001898
443.086261	4626.665136
443.461689	4578.380964
443.837057	4592.730609
444.212365	4661.887678
444.587612	4667.911857
444.962800	4634.693173
445.337927	4678.276469
445.712995	4561.498140
446.088002	4756.978963
446.462949	4779.298671
446.837837	4792.549344
447.212664	4781.201707
447.587431	5003.115820
447.962139	5304.632273
448.336786	5640.249610
448.711374	5630.232838
449.085901	5277.352068
449.460369	5212.802614
449.834776	5148.091843
450.209124	5382.591196
450.583412	5388.222165
450.957640	5513.162122
451.331808	5377.834867
451.705917	5228.021858
452.079965	5216.384354
452.453954	5254.661835
452.827883	5220.664293
453.201752	5229.501436
453.575562	5260.333133
453.949311	5397.810440
454.323001	5398.765738
454.696632	5388.290221
455.070202	5542.834353
455.443713	5571.952058
455.817164	5663.106202
456.190556	5737.188478
456.563888	5709.857863
456.937160	5792.550430
457.310373	5634.979084
457.683526	5690.144431
458.056619	5680.719993
458.429653	5662.506305
458.802628	5707.793510
459.175542	5739.172172
459.548398	5875.759715
459.921194	6062.085802
460.293930	6127.749352
460.666607	6373.301435
461.039224	6585.745741
461.411782	6714.973199
461.784280	6631.960518
462.156719	6640.475027
462.529099	6602.275684
462.901419	6459.243026
463.273680	6328.856102
463.645882	6319.235060
464.018024	6314.834133
464.390106	6380.288474
464.762130	6640.661550
465.134094	7028.394336
465.505999	7649.315776
465.877845	8361.875311
466.249631	8718.279846
466.621358	8645.662025
466.993026	8453.954506
467.364634	8233.262873
467.736184	7953.410779
468.107674	7800.041235
468.479105	7712.985549
468.850477	7647.843759
469.221790	7475.920248
469.593043	7253.403718
469.964238	7154.937380
470.335373	7127.357228
470.706449	7283.476721
471.077467	7462.760316
471.448425	8114.800799
471.819324	8692.007873
472.190164	8751.720340
472.560945	8261.284127
472.931667	7797.447561
473.302330	7599.000020
473.672934	7480.711865
474.043479	7553.284316
474.413965	7459.259235
474.784393	7409.863489
475.154761	7565.297386
475.525070	7576.655105
475.895321	7521.149481
476.265513	7622.431303
476.635645	7787.110675
477.005719	7778.371835
477.375734	7858.891665
477.745691	7974.626475
478.115588	8173.356321
478.485427	8409.357939
478.855207	8877.534937
479.224928	9311.409405
479.594591	9699.142191
479.964194	9706.749292
480.333739	9789.333475
480.703226	9790.523187
481.072653	9883.114060
481.442022	10005.172997
481.811333	10161.489096
482.180584	9996.093879
482.549777	9943.217217
482.918912	9872.898162
483.287988	9868.275423
483.657005	9775.193038
484.025964	9692.528197
484.394864	9752.956509
484.763706	9711.402277
485.132489	9611.380744
485.501213	9611.373182
485.869879	9669.341410
486.238487	9609.644067
486.607036	9680.026136
486.975527	9633.279516
487.343959	9686.735912
487.712333	9728.010359
488.080648	9776.985168
488.448905	9882.095747
488.817104	9880.046518
489.185244	10042.744717
489.553326	10256.184650
489.921350	10720.283356
490.289315	11345.351144
490.657222	11646.048410
491.025070	11816.731797
491.392861	11739.077863
491.760593	11577.657596
492.128267	11331.951757
492.495883	11089.094171
492.863440	10856.452483
493.230939	10634.051898
493.598380	10450.596748
493.965763	10427.306618
494.333088	10290.671184
494.700354	10227.399662
495.067563	10195.993273
495.434713	10202.067864
495.801805	10247.438248
496.168839	10212.608916
496.535815	10175.795890
496.902733	10214.048166
497.269593	10176.204224
497.636395	10179.465850
498.003139	10295.929107
498.369825	10216.203259
498.736453	10317.510287
499.103023	10260.515001
499.469535	10263.781669
499.835989	10310.266149
500.202385	10287.853179
500.568723	10299.528491
500.935003	10365.275219
501.301226	10330.581999
501.667390	10502.296302
502.033497	10604.548546
502.399546	10527.585250
502.765537	10437.371281
503.131470	10542.827178
503.497345	10641.129678
503.863163	10406.106045
504.228923	10540.760305
504.594625	10658.322534
504.960269	10563.977339
505.325856	10711.143744
505.691385	10592.517832
506.056856	10648.018415
506.422270	10752.082954
506.787625	10692.874602
507.152924	10746.101625
507.518164	10811.777777
507.883347	10673.619915
508.248472	10755.291648
508.613540	10857.853923
508.978550	10927.588205
509.343503	10907.383260
509.708398	10956.784047
510.073236	11091.808832
510.438016	11108.948755
510.802738	11016.332677
511.167403	11144.078036
511.532010	11205.328055
511.896561	11301.762808
512.261053	11501.735298
512.625488	11411.617112
512.989866	11398.409289
513.354186	11379.232739
513.718449	11384.914120
514.082655	11524.208762
514.446803	11482.745272
514.810894	11593.864906
515.174927	11584.226219
515.538904	11563.229814
515.902822	11728.922458
516.266684	11599.261461
516.630488	11704.162831
516.994235	11701.445649
517.357925	11806.462966
517.721558	11863.168385
518.085133	11927.657346
518.448651	11964.790485
518.812112	11923.737849
519.175516	11932.030547
519.538863	12014.846622
519.902152	12023.252746
520.265385	12127.566822
520.628560	12148.817806
520.991678	12090.398395
521.354739	12151.466932
521.717743	12218.390770
522.080690	12191.856657
522.443580	12324.847337
522.806413	12339.418792
523.169189	12327.428407
523.531908	12387.997871
523.894569	12350.312725
524.257174	12359.646422
524.619722	12467.194398
524.982213	12447.599433
525.344647	12433.990838
525.707025	12452.958179
526.069345	12549.357644
526.431608	12526.531299
526.793815	12613.203857
527.155964	12505.199657
527.518057	12542.741129
527.880093	12495.223213
528.242072	12611.197478
528.603995	12532.447093
528.965860	12552.344528
529.327669	12580.617839
529.689421	12538.055377
530.051117	12535.907845
530.412755	12574.659195
530.774337	12580.128847
531.135862	12545.496120
531.497331	12594.092843
531.858743	12553.743448
532.220098	12644.408600
532.581396	12560.241495
532.942638	12487.716935
533.303824	12552.243704
533.664953	12546.090976
534.026025	12499.911486
534.387040	12601.972167
534.747999	12573.315728
535.108902	12614.441461
535.469748	12488.261380
535.830537	12520.933098
536.191270	12556.826113
536.551947	12484.956903
536.912567	12543.943445
537.273131	12582.820823
537.633638	12469.442753
537.994089	12524.799663
538.354483	12432.352463
538.714821	12559.076988
539.075103	12648.451605
539.435328	12583.950042
539.795497	12556.974827
540.155609	12559.324005
540.515665	12659.380827
540.875665	12525.702029
541.235609	12610.463990
541.595496	12575.143146
541.955328	12740.039288
542.315102	12595.597628
542.674821	12526.306968
543.034483	12551.162377
543.394090	12552.475597
543.753640	12521.994261
544.113134	12760.198862
544.472571	12522.062316
544.831953	12806.267447
545.191278	12618.968417
545.550548	12560.349880
545.909761	12673.443125
546.268918	12705.018392
546.628019	12775.032458
546.987064	12669.062363
547.346053	12521.999302
547.704986	12713.512737
548.063863	12592.444386
548.422684	12657.253460
548.781449	12605.246396
549.140158	12701.623175
549.498811	12659.380827
549.857408	12530.254191
550.215949	12721.790311
550.574434	12685.476359
550.932864	12636.620017
551.291237	12827.054645
551.649555	12725.004047
552.007817	12787.214406
552.366022	12706.051829
552.724173	12739.371335
553.082267	12836.070748
553.440305	12916.010845
553.798288	12746.093714
554.156215	12818.184734
554.514086	12875.051470
554.871902	12811.416985
555.229661	12834.439935
555.587365	12778.445319
555.945014	12793.795632
556.302606	12789.341773
556.660143	12837.512518
557.017625	12877.690514
557.375050	12829.686127
557.732421	12928.785129
558.089735	12921.699787
558.446994	12899.695151
558.804197	13010.136749
559.161345	13010.330834
559.518437	12820.223881
559.875474	12921.384715
560.232455	12944.301801
560.589381	13000.263650
560.946251	12928.359152
561.303065	13104.338271
561.659825	13057.755489
562.016528	12970.858599
562.373177	12905.011048
562.729770	13029.446889
563.086307	12913.457501
563.442789	13022.971527
563.799216	13057.639542
564.155587	13005.698013
564.511904	13025.923123
564.868164	13041.303683
565.224370	13100.617899
565.580520	13039.773693
565.936615	13105.129732
566.292654	13039.249413
566.648638	13116.505096
567.004567	13115.960651
567.360441	13121.107669
567.716260	13080.259199
568.072023	13168.980987
568.427732	13149.189417
568.783385	13045.450032
569.138982	13162.493022
569.494525	13158.795335
569.850013	13108.565278
570.205445	13102.750307
570.560823	13113.152728
570.916145	13059.923185
571.271412	13073.327613
571.626625	13032.302703
571.981782	13023.697453
572.336884	12974.984784
572.691931	13052.109396
573.046923	12953.804376
573.401860	12929.619440
573.756743	12921.172987
574.111570	12947.918829
574.466342	12926.723297
574.821059	12983.312770
575.175722	12855.033048
575.530330	12870.675749
575.884882	12799.356025
576.239380	12807.482365
576.593823	12778.281481
576.948211	12784.925722
577.302544	12665.100016
577.656823	12671.081345
578.011047	12734.569636
578.365216	12665.062207
578.719330	12610.400976
579.073389	12575.972416
579.427394	12588.870208
579.781344	12579.685225
580.135239	12511.392714
580.489080	12522.442923
580.842866	12410.037796
581.196597	12497.988286
581.550273	12489.652738
581.903895	12452.403653
582.257463	12554.643294
582.610975	12408.117116
582.964434	12468.323616
583.317837	12401.203173
583.671186	12354.406142
584.024481	12395.942729
584.377721	12288.558591
584.730906	12352.800535
585.084037	12366.983821
585.437113	12287.207562
585.790135	12314.707056
586.143103	12223.555432
586.496016	12232.062380
586.848874	12240.796179
587.201679	12238.222670
587.554428	12117.628187
587.907124	12158.912717
588.259765	12101.718306
588.612352	12166.892863
588.964884	12027.704085
589.317362	12076.454563
589.669786	12070.871485
590.022155	12020.729649
590.374470	12119.372427
590.726731	11994.286276
591.078937	11884.830223
591.431090	11907.676732
591.783188	11835.797440
592.135232	11763.376224
592.487222	11820.046355
592.839157	11826.942654
593.191038	11758.577046
593.542866	11704.291381
593.894639	11567.408930
594.246358	11618.064965
594.598022	11625.311623
594.949633	11535.609332
595.301190	11516.213492
595.652692	11470.565844
596.004141	11557.752600
596.355535	11338.590957
596.706876	11320.866260
597.058162	11277.250197
597.409395	11371.237469
597.760573	11405.129147
598.111698	11292.474482
598.462768	11291.176385
598.813785	11293.817949
599.164748	11171.350678
599.515657	11240.860628
599.866511	11100.310738
600.217312	11234.841490
600.568060	10998.812147
600.918753	11158.004223
601.269392	11154.450210
601.619978	11053.385158
601.970510	11091.486198
602.320988	11127.868206
602.671412	11193.378000
603.021783	11117.982503
603.372100	11041.717407
603.722363	11052.918851
604.072572	11052.944057
604.422728	11053.730477
604.772830	10997.657723
605.122878	10995.910963
605.472872	10969.334000
605.822813	11017.431648
606.172701	10976.752057
606.522534	11001.730975
606.872314	11056.082175
607.222041	10981.513427
607.571714	11056.699716
607.921333	10914.060268
608.270899	10962.767897
608.620411	11010.563076
608.969870	10954.583583
609.319276	10937.975502
609.668627	10942.257962
610.017926	11014.850578
610.367171	11040.222705
610.716362	11021.772082
611.065500	10988.951650
611.414585	10998.660912
611.763616	11047.262676
612.112594	11009.764053
612.461518	11030.856241
612.810389	11064.689945
613.159207	11008.188693
613.507971	10994.945582
613.856682	11082.092008
614.205340	11027.934893
614.553945	11155.236630
614.902496	11034.281705
615.250994	11075.525905
615.599439	11058.706096
615.947830	11080.599827
616.296169	11033.507888
616.644454	11040.845288
616.992686	11039.093487
617.340864	11107.484300
617.688990	10994.902732
618.037063	11112.868252
618.385082	11078.963972
618.733048	11094.674728
619.080961	11074.439537
619.428821	11050.156299
619.776628	11045.694878
620.124382	10985.861423
620.472083	10991.353760
620.819731	11015.069868
621.167326	10923.628378
621.514868	10897.316076
621.862357	10792.691969
622.209793	10782.869281
622.557176	10694.717144
622.904506	10625.691145
623.251783	10544.286592
623.599007	10485.378189
623.946179	10426.815105
624.293297	10397.914170
624.640363	10259.642882
624.987376	10237.497093
625.334336	10167.722483
625.681243	10085.314741
626.028097	10047.853926
626.374899	9996.086317
626.721647	9961.078025
627.068343	9911.672196
627.414987	9834.746709
627.761577	9766.691132
628.108115	9795.201378
628.454600	9671.221761
628.801032	9672.466926
629.147412	9653.058483
629.493739	9614.743194
629.840014	9524.085603
630.186236	9552.235407
630.532405	9436.563611
630.878521	9461.630748
631.224585	9398.979288
631.570597	9316.503491
631.916556	9308.024270
632.262462	9284.875292
632.608316	9249.279704
632.954117	9215.882060
633.299866	9180.218417
633.645562	9148.922934
633.991206	9050.000372
634.336797	8955.571999
634.682336	8932.728010
635.027823	8867.533288
635.373257	8823.042585
635.718639	8751.947192
636.063968	8714.461172
636.409245	8607.069472
636.754470	8585.193385
637.099642	8523.046040
637.444762	8429.182276
637.789829	8425.078777
638.134845	8338.733894
638.479808	8312.388824
638.824719	8275.664018
639.169577	8188.588168
639.514383	8172.166609
639.859137	8102.180270
640.203839	8112.224769
640.548489	8034.717029
640.893086	8025.675719
641.237632	7950.441539
641.582125	7937.803367
641.926566	7921.651510
642.270955	7889.723362
642.615292	7874.022688
642.959576	7838.220414
643.303809	7813.722927
643.647990	7814.612690
643.992118	7780.844521
644.336195	7747.646003
644.680219	7727.103301
645.024192	7740.792554
645.368112	7778.371835
645.711981	7746.516784
646.055797	7832.662542
646.399562	7787.987836
646.743274	7893.105976
647.086935	7925.618898
647.430544	7887.926191
647.774101	7886.517188
648.117606	7899.193169
648.461059	7927.889938
648.804460	7854.760439
649.147810	7742.055363
649.491108	7700.775875
649.834354	7638.026112
650.177548	7513.381063
650.520690	7429.571880
650.863781	7409.886174
651.206820	7380.970116
651.549807	7291.305633
651.892742	7214.735547
652.235626	7161.261508
652.578458	7119.243490
652.921238	7028.956425
653.263967	7035.923300
653.606644	6973.922148
653.949269	6941.444515
654.291843	6873.953547
654.634365	6911.343785
654.976836	6832.958884
655.319255	6810.866027
655.661622	6792.002030
656.003938	6744.647951
656.346203	6705.200922
656.688416	6710.284926
657.030577	6658.345918
657.372687	6622.160515
657.714746	6638.168699
658.056753	6627.705785
658.398708	6540.425767
658.740612	6515.242683
659.082465	6537.335540
659.424266	6487.322253
659.766016	6484.995760
660.107715	6445.142919
660.449362	6446.710717
660.790958	6429.674138
661.132503	6406.353760
661.473996	6386.277365
661.815438	6379.708742
662.156829	6389.206276
662.498168	6335.560837
662.839456	6318.872097
663.180693	6315.842364
663.521879	6313.188196
663.863013	6280.781139
664.204097	6266.199601
664.545129	6301.293594
664.886110	6275.694614
665.227040	6261.957470
665.567918	6247.915336
665.908746	6239.993163
666.249522	6236.050981
666.590248	6218.764864
666.930922	6206.819850
667.271545	6187.940729
667.612118	6183.454102
667.952639	6142.328369
668.293109	6131.651205
668.633528	6097.706596
668.973896	6074.297998
669.314213	6062.347943
669.654480	6019.876221
669.994695	5999.509960
670.334859	5970.193130
670.674973	5941.841680
671.015035	5944.115241
671.355047	5918.722949
671.695008	5891.140276
672.034918	5865.178333
672.374777	5850.218709
672.714585	5824.980173
673.054342	5824.400440
673.394049	5789.271159
673.733705	5794.645029
674.073310	5751.651549
674.412864	5741.307101
674.752368	5686.348442
675.091820	5708.060691
675.431223	5647.932329
675.770574	5601.599084
676.109875	5578.916412
676.449125	5536.790010
676.788324	5512.353017
677.127473	5451.680210
677.466571	5428.024595
677.805619	5386.808121
678.144616	5364.909349
678.483562	5344.754816
678.822458	5305.113703
679.161303	5279.537409
679.500098	5250.797791
679.838842	5232.843721
680.177535	5219.716557
680.516179	5226.567485
680.854771	5217.085074
681.193314	5261.288432
681.531805	5326.226055
681.870247	5376.942583
682.208638	5430.686324
682.546978	5457.422084
682.885268	5457.404440
683.223508	5407.265124
683.561697	5366.499833
683.899836	5337.276264
684.237925	5282.113438
684.575963	5248.993058
684.913951	5195.173699
685.251889	5194.677145
685.589776	5177.822048
685.927614	5152.402029
686.265401	5147.121421
686.603137	5136.154390
686.940824	5159.061393
687.278460	5170.651006
687.616046	5162.547351
687.953582	5199.302404
688.291068	5185.668603
688.628504	5193.691600
688.965889	5183.460578
689.303224	5155.111649
689.640510	5122.195435
689.977745	5057.330909
690.314930	4986.961442
690.652065	4939.645172
690.989150	4875.647724
691.326185	4795.803409
691.663170	4730.623810
692.000105	4668.831867
692.336990	4605.605716
692.673825	4555.794074
693.010610	4503.393801
693.347345	4448.735090
693.684030	4390.640833
694.020665	4359.945248
694.357251	4300.114313
694.693786	4282.739976
695.030272	4258.214763
695.366707	4205.484294
695.703093	4176.656455
696.039429	4162.395031
696.375716	4131.268427
696.711952	4121.942292
697.048139	4101.127368
697.384276	4079.977207
697.720363	4081.038370
698.056400	4061.415678
698.392388	4041.467833
698.728326	4028.726316
699.064214	4011.634284
699.400053	3995.626100
699.735842	3963.571923
700.071581	3937.758695
700.407270	3913.097371
700.742910	3892.486613
701.078501	3866.585165
701.414042	3836.310515
701.749533	3812.496104
702.084974	3781.384623
702.420366	3785.790592
702.755709	3754.185078
703.091002	3725.016962
703.426246	3718.443297
703.761440	3703.629867
704.096584	3682.560364
704.431679	3669.105524
704.766725	3654.526507
705.101721	3644.265239
705.436668	3641.152326
705.771565	3619.165334
706.106413	3629.040954
706.441212	3621.514512
706.775961	3619.974439
707.110661	3614.671145
707.445311	3623.709934
707.779913	3610.141668
708.114465	3619.654326
708.448967	3626.976602
708.783421	3653.878719
709.117825	3659.764266
709.452180	3667.590658
709.786485	3684.380221
710.120742	3719.832135
710.454949	3721.417578
710.789107	3743.467585
711.123216	3773.326339
711.457275	3786.849234
711.791286	3811.560970
712.125247	3818.147238
712.459159	3802.544867
712.793023	3836.494517
713.126837	3776.608130
713.460602	3784.288328
713.794318	3755.465531
714.127985	3728.676839
714.461602	3678.754293
714.795171	3666.378260
715.128691	3606.348200
715.462162	3569.446954
715.795584	3539.550391
716.128957	3513.487626
716.462281	3488.919563
716.795556	3465.170687
717.128782	3433.965944
717.461960	3402.221799
717.795088	3390.259141
718.128167	3364.703011
718.461198	3338.642766
718.794180	3329.200685
719.127113	3303.752941
719.459997	3290.814819
719.792833	3269.175666
720.125619	3264.217692
720.458357	3241.305647
720.791046	3227.359295
721.123686	3217.836556
721.456278	3204.167467
721.788821	3196.835109
722.121315	3183.861699
722.453761	3180.655525
722.786158	3171.072292
723.118506	3167.677075
723.450805	3159.449912
723.783056	3158.726506
724.115259	3153.889519
724.447412	3147.144455
724.779518	3151.371463
725.111574	3148.452635
725.443582	3157.105775
725.775542	3149.183602
726.107453	3166.394101
726.439315	3159.076866
726.771129	3172.440965
727.102895	3185.106864
727.434612	3192.867721
727.766281	3199.327959
728.097901	3202.624874
728.429473	3204.260728
728.760996	3201.218392
729.092471	3200.825182
729.423897	3194.632124
729.755276	3185.187523
730.086606	3181.646112
730.417887	3195.448791
730.749120	3205.011860
731.080305	3209.198538
731.411442	3220.062225
731.742530	3217.491237
732.073570	3217.854200
732.404562	3224.944582
732.735506	3222.582802
733.066401	3212.571070
733.397249	3187.138449
733.728048	3161.282371
734.058798	3127.312556
734.389501	3095.313832
734.720156	3074.645101
735.050762	3049.018396
735.381320	3027.061650
735.711831	3014.236955
736.042293	2999.814213
736.372707	2993.598471
736.703073	2985.089003
737.033391	2988.275012
737.363661	2983.846359
737.693883	2984.463900
738.024056	2986.871051
738.354182	2993.217864
738.684260	3000.976199
739.014290	3005.825789
739.344272	3017.054960
739.674207	3026.988553
740.004093	3030.141795
740.333931	3030.691281
740.663722	3029.645241
740.993464	3027.580889
741.323159	3023.323634
741.652806	3007.658249
741.982405	2998.669872
742.311956	2983.047336
742.641460	2976.645070
742.970915	2965.201651
743.300323	2946.829166
743.629683	2936.038576
743.958996	2925.613470
744.288260	2915.314393
744.617477	2900.264028
744.946647	2888.631565
745.275768	2880.260729
745.604842	2872.409132
745.933869	2864.209696
746.262847	2859.130733
746.591778	2856.658047
746.920662	2851.770648
747.249498	2847.720081
747.578286	2849.512212
747.907027	2854.644106
748.235720	2857.038654
748.564365	2857.903212
748.892963	2854.107223
749.221514	2853.777028
749.550017	2849.333251
749.878473	2848.388034
750.206881	2839.278669
750.535242	2839.427383
750.863555	2832.740293
751.191821	2829.433296
751.520039	2825.927173
751.848210	2820.023982
752.176334	2820.792758
752.504411	2816.601039
752.832440	2812.704227
753.160421	2814.755976
753.488356	2809.563588
753.816243	2806.811118
754.144082	2801.175108
754.471875	2799.929943
754.799620	2797.429531
755.127318	2792.663120
755.454969	2795.055147
755.782572	2789.494754
756.110129	2791.465846
756.437638	2785.741615
756.765100	2786.911163
757.092515	2785.507202
757.419882	2785.363529
757.747203	2782.888322
758.074477	2786.442336
758.401703	2782.762293
758.728882	2785.267747
759.056014	2790.613891
759.383099	2788.630197
759.710138	2792.794190
760.037129	2793.106741
760.364073	2793.905764
760.690970	2791.246555
761.017820	2794.195630
761.344623	2790.908798
761.671379	2796.368368
761.998088	2796.272586
762.324751	2815.683549
762.651366	2869.223123
762.977935	2949.064918
763.304456	3006.244205
763.630931	3035.518186
763.957359	3018.232069
764.283740	2979.765545
764.610074	2942.113167
764.936362	2899.681775
765.262602	2865.409490
765.588796	2826.827019
765.914943	2800.804583
766.241044	2780.713064
766.567097	2764.745210
766.893104	2747.494381
767.219064	2737.097001
767.544978	2729.000908
767.870845	2720.720813
768.196665	2715.740153
768.522438	2710.827549
768.848165	2703.883359
769.173846	2701.161136
769.499479	2697.821372
769.825066	2691.653520
770.150607	2688.028930
770.476101	2686.178827
770.801548	2682.062725
771.126949	2678.191119
771.452303	2678.886798
771.777611	2671.562001
772.102872	2670.195849
772.428087	2668.219716
772.753256	2664.905158
773.078378	2661.643531
773.403453	2662.031700
773.728482	2657.731596
774.053465	2655.826040
774.378401	2655.306801
774.703291	2650.449649
775.028135	2651.833446
775.352932	2649.900163
775.677683	2647.351860
776.002388	2646.625934
776.327046	2644.080151
776.651658	2643.197949
776.976224	2639.643936
777.300743	2639.280973
777.625216	2637.771147
777.949643	2639.374234
778.274024	2637.866929
778.598359	2632.266207
778.922647	2634.073461
779.246889	2631.008439
779.571086	2631.779736
779.895236	2633.763430
780.219339	2633.365179
780.543397	2636.082361
780.867409	2634.391053
781.191374	2634.365848
781.515294	2633.332411
781.839167	2634.196969
782.162995	2633.801238
782.486776	2634.761578
782.810511	2633.047586
783.134201	2632.540950
783.457844	2631.010960
783.781441	2628.497945
784.104993	2627.651031
784.428498	2626.320166
784.751958	2628.802934
785.075372	2626.489045
785.398739	2626.352934
785.722061	2626.783952
786.045337	2622.924949
786.368568	2625.627007
786.691752	2623.605505
787.014891	2627.688839
787.337983	2635.976496
787.661030	2639.500263
787.984031	2645.569812
788.306987	2650.782365
788.629897	2651.830925
788.952760	2650.817653
789.275579	2648.576860
789.598351	2642.777013
789.921078	2639.800212
790.243759	2633.166053
790.566395	2632.672020
790.888984	2626.897378
791.211529	2623.431585
791.534027	2623.116513
791.856480	2621.447891
792.178888	2619.950668
792.501249	2616.492437
792.823566	2620.182561
793.145836	2614.836418
793.468062	2614.191150
793.790241	2613.008999
794.112375	2611.756273
794.434464	2614.080245
794.756507	2611.952878
795.078505	2615.763990
795.400457	2618.224073
795.722364	2619.867489
796.044226	2622.287243
796.366042	2626.176493
796.687812	2623.557614
797.009538	2629.705301
797.331218	2628.513068
797.652852	2626.589868
797.974442	2624.643982
798.295986	2624.954013
798.617484	2621.770525
798.938938	2619.479320
799.260346	2619.970833
799.581709	2616.041253
799.903026	2615.819443
800.224299	2611.511777
800.545526	2612.217538
800.866708	2611.428598
801.187845	2608.797115
801.508936	2608.746704
801.829983	2609.167640
802.150984	2609.099585
802.471940	2608.222424
802.792851	2605.394337
803.113717	2608.318206
803.434538	2603.234202
803.755314	2605.122114
804.076045	2604.519696
804.396731	2604.731425
804.717372	2605.326281
805.037967	2607.430963
805.358518	2605.837958
805.679024	2605.384254
805.999485	2603.420725
806.319901	2605.331322
806.640272	2605.487598
806.960598	2606.463061
807.280879	2605.132197
807.601115	2608.008175
807.921306	2605.646394
808.241453	2608.124121
808.561554	2604.313009
808.881611	2603.486260
809.201623	2607.068000
809.521590	2607.451127
809.841513	2603.985334
810.161390	2602.828389
810.481223	2603.667741
810.801011	2603.907196
811.120755	2603.839141
811.440453	2602.581373
811.760107	2602.326794
812.079716	2599.201279
812.399281	2595.193562
812.718801	2599.881835
813.038276	2594.598706
813.357707	2599.145826
813.677093	2597.487287
813.996434	2600.300251
814.315731	2598.278748
814.634983	2597.162132
814.954191	2597.515013
815.273354	2598.137596
815.592473	2598.452668
815.911547	2598.273707
816.230577	2599.604571
816.549562	2602.573811
816.868502	2602.319233
817.187399	2603.584562
817.506250	2601.983996
817.825058	2603.818976
818.143821	2602.810745
818.462539	2606.999944
818.781213	2609.117229
819.099843	2611.791561
819.418429	2618.397993
819.736970	2624.404528
820.055466	2633.256794
820.373919	2638.338277
820.692327	2651.319248
821.010691	2674.634585
821.329011	2730.672051
821.647286	2847.311748
821.965517	2994.962103
822.283704	3107.654577
822.601847	3158.156856
822.919945	3106.119545
823.237999	3041.953218
823.556010	2981.537510
823.873976	2923.488624
824.191897	2869.583566
824.509775	2829.206444
824.827609	2785.688683
825.145398	2758.184148
825.463144	2734.689850
825.780845	2725.998901
826.098502	2730.871176
826.416116	2747.817015
826.733685	2770.419028
827.051210	2781.451593
827.368692	2776.216355
827.686129	2753.316914
828.003522	2731.307236
828.320872	2701.861857
828.638177	2684.457273
828.955439	2669.530416
829.272656	2654.716986
829.589830	2642.640902
829.906960	2635.802577
830.224046	2626.491565
830.541088	2620.989146
830.858086	2615.683332
831.175041	2613.140069
831.491952	2609.011364
831.808819	2607.834255
832.125642	2608.787033
832.442421	2611.116046
832.759157	2620.510236
833.075849	2635.409367
833.392497	2653.789413
833.709101	2670.019408
834.025662	2673.694409
834.342179	2667.156033
834.658653	2656.952737
834.975083	2646.605769
835.291469	2639.838020
835.607811	2629.019704
835.924110	2624.492748
836.240366	2617.654423
836.556578	2610.869030
836.872746	2603.239243
837.188871	2601.522730
837.504952	2595.881679
837.820990	2592.801534
838.136984	2589.789445
838.452935	2590.422110
838.768842	2590.296081
839.084706	2590.908581
839.400526	2597.245311
839.716303	2608.179574
840.032037	2616.323558
840.347727	2617.099896
840.663373	2614.029833
840.978977	2607.977928
841.294537	2600.910230
841.610054	2598.704725
841.925527	2595.042327
842.240957	2591.939497
842.556344	2591.027048
842.871687	2589.436564
843.186987	2585.393559
843.502244	2583.997159
843.817458	2581.801737
844.132629	2581.272415
844.447756	2582.194947
844.762840	2573.814028
845.077881	2576.667321
845.392879	2577.703278
845.707833	2574.270253
846.022745	2573.498956
846.337613	2576.621951
846.652438	2579.535738
846.967221	2575.301169
847.281960	2577.363001
847.596656	2576.470716
847.911309	2574.045921
848.225919	2576.294276
848.540485	2577.501632
848.855009	2574.144224
849.169490	2574.212279
849.483928	2574.577763
849.798323	2572.304203
850.112675	2573.637588
850.426984	2574.852506
850.741251	2572.790674
851.055474	2573.314954
851.369654	2575.175140
851.683792	2575.553226
851.997887	2575.482650
852.311938	2571.885787
852.625947	2574.534913
852.939914	2573.173802
853.253837	2576.742939
853.567718	2577.867116
853.881555	2576.753021
854.195350	2574.708833
854.509103	2574.154306
854.822812	2572.984758
855.136479	2575.238154
855.450103	2576.884091
855.763685	2574.887794
856.077224	2573.377968
856.390720	2574.819738
856.704173	2576.306879
857.017584	2575.112125
857.330953	2575.613720
857.644278	2573.239337
857.957561	2577.940213
858.270802	2575.207907
858.584000	2576.548854
858.897155	2574.103895
859.210268	2576.415264
859.523339	2577.360480
859.836367	2575.712023
860.149352	2578.628330
860.462295	2576.150603
860.775195	2570.963256
861.088054	2570.209603
861.400869	2571.681620
861.713642	2572.951991
862.026373	2571.658935
862.339062	2573.713205
862.651708	2574.993658
862.964312	2574.174471
863.276873	2572.977197
863.589392	2578.199832
863.901869	2575.273442
864.214303	2574.066086
864.526696	2579.324009
864.839045	2575.722105
865.151353	2576.722774
865.463619	2577.801581
865.775842	2575.510377
866.088023	2574.645819
866.400162	2575.948957
866.712258	2577.083217
867.024313	2577.829307
867.336325	2579.155131
867.648296	2578.701427
867.960224	2576.679924
868.272110	2577.327712
868.583954	2577.090778
868.895755	2578.174626
869.207515	2578.338464
869.519233	2575.706982
869.830909	2579.497929
870.142542	2577.753690
870.454134	2575.812846
870.765684	2577.239492
871.077191	2577.431056
871.388657	2578.560275
871.700081	2580.606983
872.011463	2577.294945
872.322803	2578.242682
872.634101	2581.625296
872.945357	2579.548341
873.256571	2581.552199
873.567744	2581.791654
873.878874	2580.760738
874.189963	2578.827456
874.501010	2580.838876
874.812015	2578.958526
875.122979	2579.671849
875.433900	2580.433063
875.744780	2580.307034
876.055618	2580.957343
876.366415	2581.184195
876.677169	2582.898187
876.987882	2578.167065
877.298554	2579.699575
877.609183	2579.679411
877.919771	2577.975501
878.230317	2578.787127
878.540822	2584.791141
878.851285	2587.387335
879.161707	2591.117789
879.472087	2591.551328
879.782425	2598.558532
880.092722	2611.380707
880.402977	2629.884262
880.713191	2657.915598
881.023363	2689.064887
881.333494	2715.634289
881.643583	2727.392780
881.953631	2728.385887
882.263637	2722.583519
882.573602	2710.943495
882.883526	2703.147351
883.193408	2693.967410
883.503248	2683.325534
883.813048	2670.785664
884.122806	2664.574962
884.432522	2654.296049
884.742197	2643.444966
885.051831	2635.777371
885.361424	2622.574589
885.670975	2619.197016
885.980485	2609.679317
886.289954	2605.500201
886.599382	2600.322936
886.908768	2597.935949
887.218113	2593.794642
887.527417	2593.030907
887.836680	2588.264496
888.145901	2589.504620
888.455082	2587.145360
888.764221	2585.164186
889.073319	2583.704772
889.382376	2581.131263
889.691392	2583.387179
890.000366	2584.047571
890.309300	2581.219483
890.618193	2581.678228
890.927044	2582.101685
891.235855	2583.301480
891.544625	2582.691500
891.853353	2582.525142
892.162041	2581.930286
892.470687	2586.242993
892.779293	2585.305338
893.087858	2583.994638
893.396381	2587.825915
893.704864	2592.173911
894.013306	2597.570466
894.321707	2609.480192
894.630068	2616.295832
894.938387	2617.281377
895.246665	2615.579988
895.554903	2614.276850
895.863100	2611.068155
896.171256	2606.609255
896.479371	2604.529779
896.787446	2600.948039
897.095480	2600.375868
897.403473	2597.852770
897.711425	2595.301947
898.019336	2594.192893
898.327207	2592.937645
898.635038	2590.159970
898.942827	2588.990422
899.250576	2587.404979
899.558284	2587.389856
899.865952	2584.395410
900.173579	2581.166551
900.481165	2583.246027
900.788711	2579.129925
901.096216	2581.496747
901.403681	2579.492888
901.711105	2581.554720
902.018489	2581.247210
902.325832	2580.942220
902.633135	2582.847776
902.940397	2577.413412
903.247619	2583.830801
903.554800	2588.685432
903.861941	2603.955087
904.169041	2614.178547
904.476101	2623.285392
904.783121	2625.284209
905.090100	2620.830350
905.397039	2613.939092
905.703938	2612.068824
906.010796	2606.853751
906.317614	2603.420725
906.624391	2600.799325
906.931129	2599.246649
907.237826	2596.098449
907.544483	2592.899837
907.851099	2588.705597
908.157675	2585.418764
908.464211	2582.935996
908.770707	2576.122877
909.077163	2576.485840
909.383578	2572.583987
909.689954	2571.212793
909.996289	2571.976528
910.302584	2575.938875
910.608839	2575.313772
910.915054	2573.267063
911.221229	2573.642629
911.527363	2574.219841
911.833458	2576.188412
912.139513	2576.427867
912.445527	2575.099523
912.751502	2577.589852
913.057436	2574.580284
913.363331	2577.640264
913.669186	2576.589183
913.975000	2578.794688
914.280775	2582.547827
914.586510	2583.656881
914.892205	2586.921028
915.197859	2596.156422
915.503475	2604.033225
915.809050	2609.427260
916.114585	2618.387911
916.420081	2620.124588
916.725536	2620.253137
917.030952	2620.515277
917.336328	2616.598301
917.641665	2616.938579
917.946961	2613.644185
918.252218	2611.393310
918.557435	2606.737804
918.862612	2607.176384
919.167750	2603.531630
919.472848	2599.838985
919.777906	2597.567945
920.082925	2591.843715
920.387904	2591.609301
920.692843	2587.977150
920.997743	2586.462283
921.302603	2583.540935
921.607423	2578.368711
921.912204	2577.342836
922.216946	2581.055646
922.521647	2580.372569
922.826310	2577.496591
923.130932	2577.703278
923.435516	2575.976683
923.740059	2575.671693
924.044564	2571.691702
924.349028	2573.067937
924.653454	2571.084243
924.957840	2569.312278
925.262186	2570.315467
925.566493	2567.878070
925.870761	2567.048800
926.174989	2574.398802
926.479178	2570.398647
926.783328	2570.577607
927.087438	2568.218347
927.391509	2570.668348
927.695541	2569.881928
927.999533	2567.729356
928.303486	2570.449058
928.607400	2569.783626
928.911275	2568.548543
929.215110	2570.980900
929.518906	2567.376475
929.822663	2568.654407
930.126381	2566.703481
930.430060	2569.960066
930.733699	2565.889334
931.037299	2569.728173
931.340861	2567.061403
931.644383	2569.561815
931.947866	2569.047617
932.251309	2571.104408
932.554714	2566.653069
932.858080	2568.392267
933.161407	2567.827658
933.464694	2568.432597
933.767943	2567.010991
934.071153	2571.122052
934.374323	2565.695250
934.677455	2566.159036
934.980548	2569.125755
935.283602	2569.735735
935.586617	2568.979562
935.889593	2565.743141
936.192530	2566.479149
936.495428	2568.518296
936.798287	2569.226578
937.101108	2568.656928
937.403890	2569.902093
937.706632	2567.938563
938.009336	2568.230950
938.312002	2569.297154
938.614628	2570.817062
938.917216	2570.968297
939.219765	2570.101218
939.522275	2570.731363
939.824747	2572.677248
940.127179	2569.208934
940.429573	2568.089798
940.731929	2567.547874
941.034246	2568.931671
941.336524	2567.762123
941.638763	2575.757393
941.940964	2571.767320
942.243126	2569.317319
942.545250	2571.628688
942.847335	2572.329408
943.149381	2567.794891
943.451389	2568.830848
943.753359	2567.005950
944.055290	2569.438307
944.357182	2571.016188
944.659036	2569.377813
944.960851	2571.260684
945.262628	2570.277659
945.564367	2570.771692
945.866067	2568.006619
946.167729	2570.091136
946.469352	2568.180539
946.770937	2568.931671
947.072484	2567.222720
947.373992	2569.801270
947.675462	2568.472926
947.976893	2571.981569
948.278286	2566.842113
948.579641	2568.677092
948.880958	2568.082236
949.182236	2567.878070
949.483476	2566.479149
949.784678	2569.430745
950.085841	2567.726835
950.386967	2566.879921
950.688054	2569.183728
950.989103	2568.112483
951.290114	2567.568039
951.591087	2568.712381
951.892021	2564.830692
952.192917	2571.111970
952.493776	2569.332442
952.794596	2569.990313
953.095378	2567.747000
953.396122	2569.156002
953.696828	2568.730025
953.997496	2571.827814
954.298126	2569.103070
954.598718	2567.278172
954.899272	2567.474777
955.199788	2569.125755
955.500266	2568.984603
955.800706	2565.002091
956.101108	2563.956052
956.401472	2563.877914
956.701798	2564.500497
957.002087	2563.590568
957.302337	2567.938563
957.602550	2564.235836
957.902724	2563.081412
958.202861	2565.788511
958.502960	2566.663152
958.803022	2565.417987
959.103045	2564.782801
959.403031	2563.151988
959.702979	2564.326577
960.002889	2564.823130
960.302762	2565.206258
960.602596	2564.558470
960.902393	2563.091494
961.202153	2565.609550
961.501875	2562.269786
961.801559	2564.850857
962.101205	2564.150136
962.400814	2563.399004
962.700385	2563.998902
962.999918	2562.942780
963.299414	2563.111659
963.598873	2560.707028
963.898293	2563.439334
964.197677	2563.560321
964.497022	2565.433110
964.796331	2562.783984
965.095601	2559.905485
965.394835	2564.008984
965.694030	2558.231822
965.993189	2563.993861
966.292309	2562.405897
966.591393	2563.552760
966.890439	2561.972358
967.189447	2562.610064
967.488419	2562.058057
967.787353	2563.325908
968.086249	2563.411607
968.385108	2559.247614
968.683930	2563.232646
968.982714	2562.020249
969.281462	2563.456978
969.580172	2562.133675
969.878844	2561.077553
970.177480	2562.040413
970.476078	2564.089643
970.774639	2565.831361
971.073162	2560.465053
971.371649	2560.311298
971.670098	2558.153684
971.968510	2559.572769
972.266885	2559.691236
972.565223	2562.035372
972.863524	2563.991340
973.161788	2562.330280
973.460014	2561.410269
973.758204	2561.347255
974.056356	2562.395815
974.354471	2561.508572
974.652550	2562.070660
974.950591	2564.553429
975.248595	2562.945301
975.546563	2563.078891
975.844493	2562.090825
976.142386	2562.695763
976.440243	2563.754406
976.738062	2562.967986
977.035845	2562.710887
977.333590	2561.501010
977.631299	2562.279868
977.928971	2562.572255
978.226606	2561.380022
978.524204	2562.605023
978.821765	2561.753068
979.119290	2561.369940
979.416777	2561.412790
979.714228	2563.106617
980.011642	2560.104610
980.309020	2566.388409
980.606360	2559.363561
980.903664	2561.448078
981.200931	2562.915054
981.498162	2559.403890
981.795356	2562.741134
982.092513	2564.182904
982.389633	2564.462688
982.686717	2565.864129
982.983764	2564.737431
983.280775	2566.668193
983.577749	2568.876218
983.874686	2569.460992
984.171587	2570.113821
984.468451	2571.439645
984.765279	2568.472926
985.062070	2569.231619
985.358824	2565.964952
985.655543	2568.099880
985.952224	2563.454457
986.248869	2563.010836
986.545478	2561.894220
986.842050	2561.929508
987.138586	2559.245094
987.435086	2555.993549
987.731549	2557.558828
988.027975	2559.726524
988.324366	2560.631411
988.620719	2564.165260
988.917037	2562.305074
989.213318	2560.954045
989.509563	2557.185782
989.805772	2560.081925
990.101944	2559.487069
990.398080	2563.230126
990.694180	2560.011349
990.990244	2560.086966
991.286271	2558.375495
991.582262	2559.625701
991.878217	2558.788869
992.174136	2558.652758
992.470019	2557.377346
992.765865	2561.339693
993.061676	2559.852553
993.357450	2559.103941
993.653188	2558.960268
993.948890	2558.544373
994.244556	2558.612429
994.540186	2561.826164
994.835780	2559.413972
995.131337	2560.666699
995.426859	2561.997564
995.722345	2560.270968
996.017795	2561.775753
996.313208	2562.867163
996.608586	2563.260373
996.903928	2561.838767
997.199234	2564.944118
997.494504	2564.414797
997.789738	2562.347924
998.084936	2563.373799
998.380099	2562.224416
998.675225	2561.647203
998.970316	2563.880435
999.265371	2562.423541
999.560390	2563.976217
999.855373	2562.915054
1000.150320	2558.506565
1000.445232	2561.932029
1000.740108	2559.129147
1001.034948	2558.932542
1001.329752	2559.643345
1001.624521	2560.565876
1001.919254	2555.643189
1002.213951	2557.972202
1002.508613	2555.134033
1002.803239	2557.717624
1003.097829	2553.243600
1003.392384	2558.796431
1003.686903	2560.210475
1003.981386	2558.763663
1004.275834	2560.094528
1004.570246	2560.505382
1004.864623	2558.458674
1005.158964	2558.128478
1005.453270	2559.245094
1005.747540	2557.974723
1006.041775	2557.785680
1006.335974	2557.183262
1006.630138	2558.395659
1006.924266	2556.568241
1007.218359	2556.570762
1007.512416	2559.406411
1007.806438	2557.120247
1008.100425	2557.982285
1008.394376	2557.274003
1008.688292	2557.405073
1008.982172	2559.325752
1009.276017	2555.232335
1009.569827	2558.284754
1009.863602	2559.633262
1010.157341	2556.845504
1010.451045	2556.570762
1010.744714	2556.926163
1011.038347	2558.085628
1011.331945	2557.581513
1011.625508	2559.908005
1011.919036	2556.399362
1012.212528	2560.114693
1012.505986	2557.130330
1012.799408	2558.012532
1013.092795	2558.867007
1013.386147	2558.388097
1013.679464	2557.369784
1013.972745	2558.191493
1014.265992	2556.129661
1014.559204	2559.182079
1014.852380	2555.128992
1015.145521	2559.325752
1015.438628	2558.579661
1015.731699	2557.609239
1016.024736	2558.398180
1016.317737	2556.772408
1016.610703	2556.253169
1016.903635	2554.534135
1017.196531	2551.912735
1017.489393	2553.823333
1017.782219	2554.592109
1018.075011	2556.845504
1018.367768	2558.504044
1018.660490	2556.285936
1018.953177	2556.285936
1019.245829	2556.285936
