Dividing Wavelength (nm)	Counts (n)	Blue Motor Position (mm): 0.000000	Red Motor Position (mm): 15.500000	
326.493990	2081.038719
326.888308	2081.038719
327.282561	2081.038719
327.676750	2057.902344
328.070874	2059.651624
328.464933	2066.847871
328.858929	2077.608214
329.252859	2090.072467
329.646726	2103.620568
330.040528	2119.827878
330.434265	2138.790178
330.827938	2157.195430
331.221547	2178.317865
331.615091	2198.603468
332.008571	2220.008207
332.401986	2239.416650
332.795338	2257.002715
333.188625	2279.748401
333.581847	2298.370423
333.975006	2314.769297
334.368100	2333.141782
334.761129	2350.276664
335.154095	2366.085722
335.546996	2386.411655
335.939833	2401.482184
336.332606	2414.866447
336.725315	2424.260638
337.117960	2435.580549
337.510540	2439.762186
337.903056	2449.952878
338.295508	2458.154836
338.687896	2465.900568
339.080220	2470.417442
339.472480	2476.136631
339.864676	2480.562764
340.256807	2483.292549
340.648875	2484.013434
341.040879	2489.992243
341.432818	2485.366984
341.824694	2487.227170
342.216506	2487.348158
342.608253	2488.424444
342.999937	2486.415544
343.391557	2487.297746
343.783113	2483.738691
344.174605	2481.916314
344.566033	2478.909266
344.957397	2479.156282
345.348697	2476.809625
345.739934	2475.569502
346.131106	2473.308544
346.522215	2474.669656
346.913260	2468.829479
347.304241	2469.268059
347.695159	2468.590024
348.086012	2468.426187
348.476802	2467.440641
348.867528	2463.863942
349.258191	2462.323870
349.648789	2462.979220
350.039324	2462.757409
350.429796	2462.792697
350.820203	2461.340845
351.210548	2460.786318
351.600828	2460.360340
351.991045	2457.139043
352.381198	2459.485700
352.771288	2459.606688
353.161314	2459.039558
353.551276	2459.513427
353.941175	2459.795731
354.331010	2460.962758
354.720782	2458.066615
355.110490	2460.675412
355.500135	2458.636266
355.889717	2461.204734
356.279235	2457.764146
356.668689	2462.704477
357.058080	2462.041565
357.447408	2460.075515
357.836672	2458.926132
358.225873	2462.901082
358.615010	2457.670885
359.004084	2466.782770
359.393095	2465.194807
359.782043	2467.216310
360.170927	2464.405866
360.559748	2468.015333
360.948505	2467.352421
361.337199	2469.789819
361.725830	2471.213945
362.114398	2469.336115
362.502903	2468.408542
362.891344	2470.228399
363.279722	2472.897690
363.668037	2473.293421
364.056289	2473.550519
364.444478	2476.308031
364.832603	2474.967084
365.220665	2476.406333
365.608665	2477.056642
365.996601	2475.572022
366.384474	2479.715851
366.772284	2478.838690
367.160031	2480.721561
367.547715	2477.966570
367.935336	2479.088227
368.322893	2481.616366
368.710388	2481.041674
369.097820	2487.761532
369.485189	2483.635348
369.872495	2487.738847
370.259738	2484.983856
370.646918	2485.664412
371.034035	2488.474855
371.421090	2493.689929
371.808081	2495.151864
372.195010	2501.541526
372.581875	2503.946157
372.968678	2509.015037
373.355418	2513.408402
373.742096	2523.669671
374.128710	2534.089736
374.515262	2543.529297
374.901751	2554.778631
375.288177	2572.074830
375.674540	2586.568147
376.060841	2606.452979
376.447079	2625.243880
376.833254	2648.402941
377.219367	2671.685510
377.605417	2700.493183
377.991404	2725.487224
378.377329	2762.585075
378.763191	2794.165383
379.148991	2838.414111
379.534727	2884.467572
379.920402	2927.720672
380.306013	2975.536017
380.691563	3030.933256
381.077049	3085.445773
381.462474	3137.659524
381.847835	3203.381047
382.233134	3269.664658
382.618371	3329.273782
383.003545	3410.199425
383.388657	3482.686176
383.773706	3571.042479
384.158693	3641.585866
384.543618	3727.587950
384.928480	3803.732058
385.313280	3902.573962
385.698017	4000.634487
386.082692	4113.803349
386.467305	4176.081764
386.851856	4289.590904
387.236344	4438.047844
387.620770	4496.391638
388.005133	4611.574442
388.389435	4747.914968
388.773674	4828.202905
389.157851	4953.639415
389.541965	5085.231175
389.926018	5109.022900
390.310008	5277.321822
390.693936	5390.440273
391.077802	5503.669629
391.461606	5632.592098
391.845348	5737.934569
392.229027	5858.319843
392.612645	6067.404220
392.996200	6182.786149
393.379694	6346.142219
393.763125	6558.473098
394.146494	6652.445247
394.529801	6786.784435
394.913047	7011.135946
395.296230	7011.012438
395.679351	7064.030253
396.062410	7311.230793
396.445408	7210.705145
396.828343	7362.441355
397.211217	7493.385326
397.594028	7378.235290
397.976778	7577.219714
398.359466	7738.022440
398.742092	7722.059626
399.124656	7867.363324
399.507158	8043.150879
399.889598	8069.742966
400.271977	8268.709746
400.654294	8300.950446
401.036549	8491.836257
401.418742	8519.418930
401.800874	8808.266963
402.182944	8884.050629
402.564952	9234.123475
402.946898	9062.567969
403.328783	9115.699210
403.710606	9290.947362
404.092367	9534.704794
404.474067	9872.509993
404.855705	9661.827571
405.237282	9605.354045
405.618797	9995.562038
406.000250	10214.161592
406.381642	10537.922136
406.762972	10465.541249
407.144240	10259.718499
407.525447	10461.846083
407.906593	10380.862467
408.287677	10585.712274
408.668700	10678.650987
409.049661	10627.407658
409.430560	10726.090765
409.811399	10644.509772
410.192176	10728.881043
410.572891	10736.692311
410.953545	11102.077663
411.334138	10563.964737
411.714669	11004.422951
412.095139	10340.908802
412.475547	10673.975316
412.855894	10472.989554
413.236180	10656.563171
413.616405	10296.982708
413.996568	10424.866699
414.376670	10297.307863
414.756711	10104.786197
415.136691	10214.857271
415.516609	10229.826977
415.896466	10171.954531
416.276262	10258.065001
416.655997	10456.893149
417.035670	10356.879178
417.415283	10664.800416
417.794834	10573.716849
418.174324	10251.183826
418.553753	10039.170539
418.933121	10201.057112
419.312428	9932.008211
419.691674	9717.091220
420.070859	9838.966155
420.449983	9467.947314
420.829045	9630.390935
421.208047	9320.090272
421.586988	9404.511955
421.965867	9360.691725
422.344686	9192.619656
422.723444	9301.848857
423.102141	8471.510324
423.480777	8882.946616
423.859352	8465.055127
424.237866	8793.934963
424.616319	8484.634968
424.994712	8578.977642
425.373044	8312.474523
425.751314	8396.061895
426.129524	7878.567288
426.507673	8095.536029
426.885762	7809.299314
427.263789	7683.073863
427.641756	7555.283133
428.019662	7400.938126
428.397508	7241.839311
428.775292	7147.980588
429.153016	6963.383616
429.530679	6813.860473
429.908282	6651.512634
430.285824	6422.044352
430.663305	6427.692965
431.040726	6180.338669
431.418086	5986.821376
431.795385	5969.154652
432.172624	5901.882974
432.549802	5676.437533
432.926920	5567.742695
433.303977	5406.841667
433.680974	5308.879445
434.057910	5224.535900
434.434786	5101.206591
434.811601	4962.610149
435.188355	4973.236901
435.565050	4813.356707
435.941683	4689.581256
436.318257	4674.417466
436.694770	4543.760840
437.071222	4492.315865
437.447614	4290.165596
437.823946	4193.151111
438.200218	4109.155405
438.576429	3997.408148
438.952580	3935.477573
439.328670	3847.895087
439.704700	3795.736788
440.080670	3696.436140
440.456580	3657.944410
440.832429	3597.463167
441.208218	3477.236688
441.583947	3435.677416
441.959616	3384.789489
442.335224	3340.883559
442.710773	3290.240128
443.086261	3261.669388
443.461689	3192.953420
443.837057	3154.507060
444.212365	3132.814975
444.587612	3096.795931
444.962800	3046.243240
445.337927	3022.842204
445.712995	2963.235601
446.088002	2977.086171
446.462949	2952.324024
446.837837	2932.386260
447.212664	2906.371386
447.587431	2935.834409
447.962139	2963.648976
448.336786	2980.551965
448.711374	2933.371806
449.085901	2860.517050
449.460369	2841.244719
449.834776	2825.770897
450.209124	2843.939216
450.583412	2823.943479
450.957640	2819.330823
451.331808	2792.617749
451.705917	2768.609254
452.079965	2757.793458
452.453954	2756.283633
452.827883	2747.743918
453.201752	2739.978021
453.575562	2734.553739
453.949311	2741.807960
454.323001	2737.782598
454.696632	2725.305742
455.070202	2736.552557
455.443713	2734.142885
455.817164	2731.125755
456.190556	2729.963769
456.563888	2724.174003
456.937160	2722.981771
457.310373	2710.648588
457.683526	2707.840665
458.056619	2706.033411
458.429653	2703.023842
458.802628	2704.614327
459.175542	2705.060469
459.548398	2711.850903
459.921194	2719.437839
460.293930	2723.906822
460.666607	2734.324367
461.039224	2742.654873
461.411782	2744.378948
461.784280	2734.606671
462.156719	2729.535271
462.529099	2725.179714
462.901419	2714.018599
463.273680	2705.554502
463.645882	2705.753627
464.018024	2705.821683
464.390106	2709.413505
464.762130	2725.542677
465.134094	2751.378590
465.505999	2786.560803
465.877845	2810.377734
466.249631	2820.248313
466.621358	2808.923361
466.993026	2797.008594
467.364634	2786.281019
467.736184	2771.394492
468.107674	2759.489807
468.479105	2755.466966
468.850477	2752.439753
469.221790	2746.120667
469.593043	2734.079871
469.964238	2731.287072
470.335373	2732.186917
470.706449	2741.603793
471.077467	2758.504261
471.448425	2789.426699
471.819324	2807.219451
472.190164	2797.593368
472.560945	2776.513783
472.931667	2760.261103
473.302330	2750.085534
473.672934	2744.820049
474.043479	2751.161821
474.413965	2743.731160
474.784393	2742.352404
475.154761	2749.324320
475.525070	2748.966398
475.895321	2749.341964
476.265513	2754.902357
476.635645	2766.547422
477.005719	2761.024838
477.375734	2767.855602
477.745691	2774.588062
478.115588	2784.088117
478.485427	2798.404994
478.855207	2824.203099
479.224928	2840.261694
479.594591	2858.523274
479.964194	2846.210256
480.333739	2849.441635
480.703226	2850.966584
481.072653	2855.606967
481.442022	2859.317256
481.811333	2862.931763
482.180584	2853.167048
482.549777	2849.529856
482.918912	2842.905779
483.287988	2838.635922
483.657005	2833.297340
484.025964	2830.076043
484.394864	2826.900116
484.763706	2824.187975
485.132489	2819.202274
485.501213	2815.098775
485.869879	2813.084834
486.238487	2807.746252
486.607036	2810.801191
486.975527	2802.498411
487.343959	2802.654687
487.712333	2801.966569
488.080648	2800.837351
488.448905	2801.031435
488.817104	2797.522792
489.185244	2804.731642
489.553326	2809.157775
489.921350	2827.464725
490.289315	2842.883094
490.657222	2845.396109
491.025070	2843.692199
491.392861	2838.842609
491.760593	2826.766525
492.128267	2815.993580
492.495883	2802.871456
492.863440	2792.300157
493.230939	2782.903446
493.598380	2774.903135
493.965763	2769.960283
494.333088	2761.516351
494.700354	2757.427975
495.067563	2756.195413
495.434713	2752.994280
495.801805	2755.618201
496.168839	2750.511512
496.535815	2749.430184
496.902733	2748.414392
497.269593	2749.024371
497.636395	2744.731829
498.003139	2746.927251
498.369825	2741.888618
498.736453	2745.051942
499.103023	2741.303844
499.469535	2739.153792
499.835989	2738.488360
500.202385	2734.989799
500.568723	2736.381157
500.935003	2736.721435
501.301226	2736.504666
501.667390	2733.263204
502.033497	2738.911817
502.399546	2737.102042
502.765537	2729.878069
503.131470	2731.329921
503.497345	2732.086094
503.863163	2727.818758
504.228923	2730.316649
504.594625	2731.382853
504.960269	2725.454457
505.325856	2727.652400
505.691385	2725.031000
506.056856	2724.592419
506.422270	2727.150805
506.787625	2726.717266
507.152924	2723.475804
507.518164	2726.097204
507.883347	2719.127808
508.248472	2721.313149
508.613540	2722.379353
508.978550	2724.161401
509.343503	2721.847511
509.708398	2724.242059
510.073236	2726.434961
510.438016	2723.904302
510.802738	2720.849362
511.167403	2722.843139
511.532010	2723.538818
511.896561	2721.892881
512.261053	2728.302708
512.625488	2718.883312
512.989866	2717.549927
513.354186	2715.535986
513.718449	2715.190667
514.082655	2720.211657
514.446803	2717.638147
514.810894	2719.180741
515.174927	2719.780638
515.538904	2717.161758
515.902822	2717.849876
516.266684	2715.094885
516.630488	2713.595142
516.994235	2712.753269
517.357925	2716.536655
517.721558	2716.342571
518.085133	2715.528425
518.448651	2714.923486
518.812112	2710.265460
519.175516	2711.472816
519.538863	2711.548434
519.902152	2710.351160
520.265385	2710.885522
520.628560	2709.587425
520.991678	2706.754296
521.354739	2708.175902
521.717743	2706.950901
522.080690	2704.437886
522.443580	2706.550130
522.806413	2705.433514
523.169189	2704.097608
523.531908	2704.702547
523.894569	2700.515868
524.257174	2701.128369
524.619722	2702.176929
524.982213	2698.292720
525.344647	2695.605785
525.707025	2695.273068
526.069345	2694.942873
526.431608	2694.537060
526.793815	2696.556042
527.155964	2691.207378
527.518057	2688.974147
527.880093	2689.642100
528.242072	2689.427851
528.603995	2687.197140
528.965860	2687.698735
529.327669	2686.650175
529.689421	2686.420802
530.051117	2682.430729
530.412755	2682.455935
530.774337	2680.936027
531.135862	2680.847807
531.497331	2675.947805
531.858743	2677.666839
532.220098	2678.279339
532.581396	2670.989830
532.942638	2673.530572
533.303824	2671.390602
533.664953	2672.565191
534.026025	2669.338852
534.387040	2671.468740
534.747999	2671.239367
535.108902	2669.890859
535.469748	2670.024449
535.830537	2666.152843
536.191270	2665.999088
536.551947	2667.009839
536.912567	2666.324242
537.273131	2664.890034
537.633638	2663.110507
537.994089	2663.695281
538.354483	2659.702687
538.714821	2661.638490
539.075103	2661.900630
539.435328	2659.309477
539.795497	2660.189158
540.155609	2662.180414
540.515665	2659.155722
540.875665	2660.587409
541.235609	2657.038437
541.595496	2656.962820
541.955328	2657.885351
542.315102	2653.872592
542.674821	2653.865031
543.034483	2655.001811
543.394090	2651.437715
543.753640	2651.198260
544.113134	2653.224804
544.472571	2651.203302
544.831953	2653.028199
545.191278	2647.765235
545.550548	2646.880512
545.909761	2649.053249
546.268918	2647.830770
546.628019	2649.852272
546.987064	2643.959163
547.346053	2645.693320
547.704986	2646.199956
548.063863	2646.144504
548.422684	2646.391520
548.781449	2644.846407
549.140158	2644.911942
549.498811	2643.066879
549.857408	2640.334574
550.215949	2640.228710
550.574434	2638.260139
550.932864	2636.261322
551.291237	2639.709471
551.649555	2641.771303
552.007817	2640.755510
552.366022	2638.734007
552.724173	2638.585293
553.082267	2640.233751
553.440305	2640.574029
553.798288	2638.325674
554.156215	2639.986734
554.514086	2637.408184
554.871902	2637.327526
555.229661	2636.669655
555.587365	2637.629995
555.945014	2635.437093
556.302606	2635.971455
556.660143	2636.727628
557.017625	2636.525982
557.375050	2635.003554
557.732421	2636.518420
558.089735	2635.232926
558.446994	2634.443986
558.804197	2634.496918
559.161345	2635.963893
559.518437	2632.014149
559.875474	2634.207051
560.232455	2635.134624
560.589381	2632.702267
560.946251	2632.397277
561.303065	2631.507513
561.659825	2632.845940
562.016528	2631.779736
562.373177	2629.949797
562.729770	2629.904427
563.086307	2629.702780
563.442789	2629.601957
563.799216	2632.309057
564.155587	2625.309415
564.511904	2630.050620
564.868164	2627.187245
565.224370	2629.944756
565.580520	2629.554066
565.936615	2627.577934
566.292654	2629.803603
566.648638	2625.387553
567.004567	2626.678088
567.360441	2628.714714
567.716260	2625.430402
568.072023	2625.470732
568.427732	2625.783283
568.783385	2623.103910
569.138982	2622.526698
569.494525	2621.916718
569.850013	2622.193982
570.205445	2624.318828
570.560823	2623.781945
570.916145	2623.275309
571.271412	2620.825308
571.626625	2625.130454
571.981782	2624.835546
572.336884	2620.926132
572.691931	2623.739095
573.046923	2622.088117
573.401860	2617.016717
573.756743	2618.171141
574.111570	2619.565020
574.466342	2618.866820
574.821059	2619.073507
575.175722	2618.733230
575.530330	2622.017541
575.884882	2616.900770
576.239380	2617.500667
576.593823	2614.889350
576.948211	2616.419340
577.302544	2612.588063
577.656823	2613.225769
578.011047	2615.020420
578.365216	2614.261726
578.719330	2611.970522
579.073389	2611.847013
579.427394	2611.713423
579.781344	2612.051180
580.135239	2613.808022
580.489080	2612.290635
580.842866	2609.336519
581.196597	2609.954060
581.550273	2608.945829
581.903895	2608.184615
582.257463	2608.948350
582.610975	2609.104626
582.964434	2609.734770
583.317837	2607.355345
583.671186	2607.436004
584.024481	2606.914244
584.377721	2608.257712
584.730906	2609.611262
585.084037	2606.147989
585.437113	2606.059769
585.790135	2605.502721
586.143103	2599.783532
586.496016	2604.532299
586.848874	2601.842844
587.201679	2601.958790
587.554428	2604.098760
587.907124	2604.391147
588.259765	2600.017946
588.612352	2602.931733
588.964884	2604.106322
589.317362	2603.062803
589.669786	2601.706732
590.022155	2601.031218
590.374470	2599.851588
590.726731	2599.599530
591.078937	2602.556167
591.431090	2599.702874
591.783188	2599.523913
592.135232	2599.576845
592.487222	2599.533995
592.839157	2599.970055
593.191038	2599.425610
593.542866	2598.336721
593.894639	2596.257245
594.246358	2595.861515
594.598022	2597.101638
594.949633	2595.425455
595.301190	2595.705239
595.652692	2594.513006
596.004141	2593.860177
596.355535	2595.380084
596.706876	2590.560741
597.058162	2591.521081
597.409395	2592.700711
597.760573	2593.910588
598.111698	2590.790114
598.462768	2592.252048
598.813785	2593.242635
599.164748	2590.313725
599.515657	2591.319435
599.866511	2590.023858
600.217312	2590.026379
600.568060	2588.050247
600.918753	2591.047213
601.269392	2588.478745
601.619978	2587.152921
601.970510	2588.950093
602.320988	2591.274065
602.671412	2590.583427
603.021783	2589.323138
603.372100	2587.646954
603.722363	2589.638210
604.072572	2588.272058
604.422728	2586.399269
604.772830	2585.048240
605.122878	2585.685946
605.472872	2585.418764
605.822813	2585.481779
606.172701	2584.564289
606.522534	2585.317941
606.872314	2588.750967
607.222041	2586.696697
607.571714	2585.494382
607.921333	2583.717375
608.270899	2583.926583
608.620411	2587.054619
608.969870	2586.333734
609.319276	2586.711820
609.668627	2586.091758
610.017926	2587.924218
610.367171	2587.137798
610.716362	2586.595874
611.065500	2586.381625
611.414585	2587.243662
611.763616	2588.524115
612.112594	2587.621749
612.461518	2586.139649
612.810389	2586.111923
613.159207	2586.800041
613.507971	2584.932293
613.856682	2586.527818
614.205340	2584.523960
614.553945	2588.549321
614.902496	2585.748960
615.250994	2586.737026
615.599439	2588.851790
615.947830	2590.233066
616.296169	2584.783579
616.644454	2587.306677
616.992686	2587.344485
617.340864	2586.691656
617.688990	2584.622262
618.037063	2585.196954
618.385082	2586.772314
618.733048	2587.210895
619.080961	2587.881368
619.428821	2587.813313
619.776628	2587.830957
620.124382	2588.435895
620.472083	2586.764752
620.819731	2588.093097
621.167326	2584.082859
621.514868	2587.374732
621.862357	2583.331727
622.209793	2585.408682
622.557176	2583.820719
622.904506	2580.299473
623.251783	2578.540110
623.599007	2578.421643
623.946179	2576.294276
624.293297	2578.043556
624.640363	2578.293093
624.987376	2576.516087
625.334336	2579.253433
625.681243	2579.155131
626.028097	2577.935172
626.374899	2578.078844
626.721647	2577.050449
627.068343	2577.584811
627.414987	2574.880232
627.761577	2573.816549
628.108115	2576.175809
628.454600	2573.287228
628.801032	2574.328226
629.147412	2574.849985
629.493739	2573.289748
629.840014	2572.112639
630.186236	2574.668504
630.532405	2573.405695
630.878521	2572.342011
631.224585	2574.446693
631.570597	2572.558781
631.916556	2573.027608
632.262462	2573.249419
632.608316	2573.710685
632.954117	2574.728998
633.299866	2572.248750
633.645562	2570.370920
633.991206	2568.246074
634.336797	2570.315468
634.682336	2569.216496
635.027823	2568.359500
635.373257	2567.658779
635.718639	2568.223389
636.063968	2569.460992
636.409245	2565.728017
636.754470	2567.424366
637.099642	2565.112997
637.444762	2567.321022
637.789829	2564.384550
638.134845	2562.962945
638.479808	2562.940259
638.824719	2563.749365
639.169577	2562.433623
639.514383	2563.043603
639.859137	2563.530074
640.203839	2564.603840
640.548489	2561.659806
640.893086	2559.895402
641.237632	2559.043448
641.582125	2558.803993
641.926566	2556.124619
642.270955	2562.116031
642.615292	2563.313305
642.959576	2563.129303
643.303809	2562.000084
643.647990	2561.659806
643.992118	2561.541339
644.336195	2560.681822
644.680219	2561.720300
645.024192	2560.699467
645.368112	2560.744837
645.711981	2560.616288
646.055797	2562.136195
646.399562	2561.798438
646.743274	2564.732390
647.086935	2564.049313
647.430544	2564.089643
647.774101	2564.578634
648.117606	2564.170301
648.461059	2563.436813
648.804460	2566.789180
649.147810	2564.997050
649.491108	2560.719631
649.834354	2561.090156
650.177548	2561.281720
650.520690	2559.270299
650.863781	2557.538663
651.206820	2559.292985
651.549807	2561.909343
651.892742	2558.877089
652.235626	2553.697304
652.578458	2556.449774
652.921238	2556.245607
653.263967	2558.304918
653.606644	2557.231153
653.949269	2557.231153
654.291843	2553.009186
654.634365	2556.860628
654.976836	2555.549928
655.319255	2557.944476
655.661622	2556.137222
656.003938	2555.746533
656.346203	2554.622356
656.688416	2554.024979
657.030577	2554.781152
657.372687	2554.677808
657.714746	2555.930535
658.056753	2556.190154
658.398708	2551.154042
658.740612	2549.253527
659.082465	2548.870399
659.424266	2550.528939
659.766016	2550.324772
660.107715	2553.717468
660.449362	2549.603887
660.790958	2553.369629
661.132503	2551.499361
661.473996	2552.615976
661.815438	2551.844680
662.156829	2554.471121
662.498168	2552.187478
662.839456	2550.602035
663.180693	2554.622356
663.521879	2554.594629
663.863013	2552.558003
664.204097	2556.177552
664.545129	2553.987170
664.886110	2554.519012
665.227040	2554.302242
665.567918	2554.193858
665.908746	2554.539177
666.249522	2554.350133
666.590248	2552.966337
666.930922	2555.406255
667.271545	2553.911553
667.612118	2554.249310
667.952639	2555.101265
668.293109	2552.033723
668.633528	2555.123950
668.973896	2551.975750
669.314213	2551.769062
669.654480	2552.661347
669.994695	2553.147818
670.334859	2553.059598
670.674973	2550.299566
671.015035	2552.464742
671.355047	2550.279402
671.695008	2551.879968
672.034918	2553.190668
672.374777	2550.546583
672.714585	2550.637323
673.054342	2556.303580
673.394049	2550.929710
673.733705	2553.669577
674.073310	2550.654967
674.412864	2550.657488
674.752368	2549.780327
675.091820	2551.965668
675.431223	2552.752088
675.770574	2550.745708
676.109875	2546.017106
676.449125	2548.046170
676.788324	2545.709596
677.127473	2546.097764
677.466571	2542.694986
677.805619	2550.758311
678.144616	2547.383259
678.483562	2550.231511
678.822458	2548.547765
679.161303	2549.389638
679.500098	2547.718495
679.838842	2548.061294
680.177535	2546.904349
680.516179	2548.371325
680.854771	2548.832590
681.193314	2550.362581
681.531805	2551.673281
681.870247	2552.048847
682.208638	2552.374001
682.546978	2551.574978
682.885268	2550.614638
683.223508	2553.518343
683.561697	2551.882488
683.899836	2551.088507
684.237925	2551.993394
684.575963	2548.177240
684.913951	2547.957950
685.251889	2550.851573
685.589776	2550.591953
685.927614	2550.435677
686.265401	2549.329144
686.603137	2549.412323
686.940824	2552.868034
687.278460	2549.480379
687.616046	2549.190512
687.953582	2552.368960
688.291068	2551.307797
688.628504	2552.477345
688.965889	2552.946172
689.303224	2549.956768
689.640510	2550.949875
689.977745	2551.275029
690.314930	2548.320913
690.652065	2550.138249
690.989150	2550.118085
691.326185	2547.693290
691.663170	2545.865871
692.000105	2543.549461
692.336990	2544.502239
692.673825	2544.242620
693.010610	2541.603576
693.347345	2537.351362
693.684030	2539.355221
694.020665	2539.652649
694.357251	2532.693336
694.693786	2539.052752
695.030272	2539.899666
695.366707	2540.923020
695.703093	2538.934285
696.039429	2539.501415
696.375716	2537.532844
696.711952	2540.323123
697.048139	2538.346990
697.384276	2539.267001
697.720363	2537.724408
698.056400	2539.703061
698.392388	2541.228010
698.728326	2537.724408
699.064214	2536.035621
699.400053	2535.755837
699.735842	2536.476722
700.071581	2534.954294
700.407270	2535.236598
700.742910	2534.765251
701.078501	2532.708460
701.414042	2534.394726
701.749533	2532.600075
702.084974	2532.811803
702.420366	2534.505631
702.755709	2536.469161
703.091002	2533.061341
703.426246	2534.913965
703.761440	2532.007739
704.096584	2534.321629
704.431679	2529.419107
704.766725	2536.743903
705.101721	2532.698378
705.436668	2532.806762
705.771565	2533.673841
706.106413	2533.109232
706.441212	2535.496218
706.775961	2533.993954
707.110661	2530.389529
707.445311	2532.254756
707.779913	2536.663245
708.114465	2532.884900
708.448967	2533.066382
708.783421	2536.224665
709.117825	2535.077802
709.452180	2535.047555
709.786485	2536.033101
710.120742	2537.714326
710.454949	2535.239119
710.789107	2536.133924
711.123216	2535.599562
711.457275	2536.401105
711.791286	2537.832793
712.125247	2536.786753
712.459159	2540.055942
712.793023	2538.735159
713.126837	2541.719522
713.460602	2541.863195
713.794318	2540.673483
714.127985	2539.413194
714.461602	2535.627288
714.795171	2536.648122
715.128691	2536.010416
715.462162	2534.656866
715.795584	2533.900693
716.128957	2535.962525
716.462281	2534.142668
716.795556	2531.899355
717.128782	2534.334232
717.461960	2532.741227
717.795088	2533.199972
718.128167	2530.739889
718.461198	2530.631504
718.794180	2532.577390
719.127113	2532.221988
719.459997	2528.650331
719.792833	2530.205527
720.125619	2530.694519
720.458357	2529.719056
720.791046	2526.462470
721.123686	2528.932636
721.456278	2528.443644
721.788821	2529.096473
722.121315	2527.490866
722.453761	2529.247708
722.786158	2529.134282
723.118506	2528.305012
723.450805	2528.534384
723.783056	2528.083201
724.115259	2530.286185
724.447412	2526.933818
724.779518	2530.659231
725.111574	2526.389373
725.443582	2528.410876
725.775542	2530.308871
726.107453	2528.564631
726.439315	2530.755013
726.771129	2535.670138
727.102895	2531.644776
727.434612	2533.799870
727.766281	2532.080836
728.097901	2528.922553
728.429473	2529.950949
728.760996	2530.906247
729.092471	2531.206196
729.423897	2532.136289
729.755276	2532.380785
730.086606	2533.197452
730.417887	2530.197965
730.749120	2533.903213
731.080305	2532.642925
731.411442	2532.005219
731.742530	2536.822041
732.073570	2533.784746
732.404562	2534.525796
732.735506	2537.621064
733.066401	2531.201155
733.397249	2531.155784
733.728048	2534.213244
734.058798	2532.451361
734.389501	2528.158818
734.720156	2529.908099
735.050762	2528.027748
735.381320	2529.645959
735.711831	2527.621936
736.042293	2528.163860
736.372707	2528.899868
736.703073	2525.630680
737.033391	2529.053623
737.363661	2530.618902
737.693883	2527.742923
738.024056	2530.079498
738.354182	2526.591020
738.684260	2528.625125
739.014290	2528.849457
739.344272	2530.076977
739.674207	2530.437420
740.004093	2530.187883
740.333931	2532.809283
740.663722	2530.903727
740.993464	2532.312729
741.323159	2534.132586
741.652806	2527.984899
741.982405	2530.311391
742.311956	2529.396422
742.641460	2527.926925
742.970915	2529.754344
743.300323	2525.824764
743.629683	2528.673016
743.958996	2525.698735
744.288260	2526.376771
744.617477	2526.207892
744.946647	2521.917870
745.275768	2525.550021
745.604842	2521.343178
745.933869	2522.154804
746.262847	2522.285874
746.591778	2525.035824
746.920662	2524.486338
747.249498	2523.331914
747.578286	2523.505833
747.907027	2524.572037
748.235720	2526.154960
748.564365	2527.193438
748.892963	2526.953983
749.221514	2525.628159
749.550017	2525.595392
749.878473	2525.318128
750.206881	2526.739734
750.535242	2528.287368
750.863555	2524.675381
751.191821	2523.987264
751.520039	2525.373581
751.848210	2524.458612
752.176334	2525.885258
752.504411	2522.260668
752.832440	2525.023221
753.160421	2528.748633
753.488356	2525.973478
753.816243	2526.235618
754.144082	2523.629342
754.471875	2525.988602
754.799620	2525.050947
755.127318	2523.470545
755.454969	2525.058509
755.782572	2523.135309
756.110129	2524.703108
756.437638	2523.336955
756.765100	2523.319311
757.092515	2525.333252
757.419882	2524.002387
757.747203	2524.544311
758.074477	2522.182531
758.401703	2523.894002
758.728882	2526.439785
759.056014	2525.058509
759.383099	2524.486338
759.710138	2524.622449
760.037129	2526.152439
760.364073	2525.431554
760.690970	2526.553211
761.017820	2528.821730
761.344623	2528.796524
761.671379	2525.749147
761.998088	2523.369722
762.324751	2526.286030
762.651366	2533.217616
762.977935	2538.311702
763.304456	2543.103319
763.630931	2548.840152
763.957359	2546.919472
764.283740	2539.778678
764.610074	2537.792463
764.936362	2536.597710
765.262602	2528.637728
765.588796	2532.088398
765.914943	2529.313243
766.241044	2526.941380
766.567097	2522.001049
766.893104	2525.665968
767.219064	2522.946265
767.544978	2520.695390
767.870845	2521.060874
768.196665	2521.849814
768.522438	2522.116996
768.848165	2522.106913
769.173846	2519.959382
769.499479	2520.345030
769.825066	2520.680267
770.150607	2516.261695
770.476101	2518.510050
770.801548	2520.092972
771.126949	2517.484175
771.452303	2517.932838
771.777611	2518.144566
772.102872	2518.416789
772.428087	2517.259844
772.753256	2519.188085
773.078378	2516.145749
773.403453	2520.690349
773.728482	2516.095337
774.053465	2519.152797
774.378401	2514.318331
774.703291	2518.731861
775.028135	2514.499812
775.352932	2517.458969
775.677683	2515.858403
776.002388	2516.586850
776.327046	2514.905625
776.651658	2517.988291
776.976224	2514.209946
777.300743	2515.548372
777.625216	2516.105420
777.949643	2516.178516
778.274024	2515.165244
778.598359	2514.146931
778.922647	2509.519152
779.246889	2513.262209
779.571086	2514.096520
779.895236	2514.119205
780.219339	2515.462673
780.543397	2513.935203
780.867409	2515.467714
781.191374	2515.830677
781.515294	2514.572909
781.839167	2516.705317
782.162995	2513.428567
782.486776	2514.991325
782.810511	2515.066942
783.134201	2517.350585
783.457844	2513.879750
783.781441	2514.101561
784.104993	2512.458145
784.428498	2515.845800
784.751958	2513.859586
785.075372	2514.030985
785.398739	2513.443690
785.722061	2514.893022
786.045337	2513.594925
786.368568	2517.050636
786.691752	2516.125584
787.014891	2517.292611
787.337983	2517.746315
787.661030	2519.891326
787.984031	2521.501975
788.306987	2519.014165
788.629897	2518.744464
788.952760	2519.258661
789.275579	2520.503826
789.598351	2516.367560
789.921078	2517.769000
790.243759	2516.962416
790.566395	2516.289422
790.888984	2516.909484
791.211529	2516.309586
791.534027	2517.390914
791.856480	2512.606859
792.178888	2517.375790
792.501249	2514.998886
792.823566	2515.077024
793.145836	2515.573578
793.468062	2515.815553
793.790241	2511.948988
794.112375	2513.552075
794.434464	2513.841942
794.756507	2513.473937
795.078505	2512.818587
795.400457	2511.505367
795.722364	2513.496623
796.044226	2516.125584
796.366042	2511.596107
796.687812	2516.057529
797.009538	2517.504340
797.331218	2519.868641
797.652852	2516.531397
797.974442	2517.257323
798.295986	2514.328413
798.617484	2516.067611
798.938938	2514.731705
799.260346	2515.608866
799.581709	2515.840759
799.903026	2519.104906
800.224299	2514.051149
800.545526	2516.559123
800.866708	2516.561644
801.187845	2513.665501
801.508936	2513.617610
801.829983	2514.923269
802.150984	2514.106602
802.471940	2512.261540
802.792851	2514.474606
803.113717	2513.045439
803.434538	2510.761797
803.755314	2512.107785
804.076045	2514.404030
804.396731	2514.608197
804.717372	2515.439987
805.037967	2511.260871
805.358518	2512.969822
805.679024	2515.752539
805.999485	2512.919410
806.319901	2513.640295
806.640272	2510.923113
806.960598	2515.361849
807.280879	2515.036695
807.601115	2513.073166
807.921306	2512.982425
808.241453	2515.276150
808.561554	2515.311438
808.881611	2513.978053
809.201623	2512.695079
809.521590	2515.369411
809.841513	2514.144411
810.161390	2512.266581
810.481223	2512.997548
810.801011	2513.229441
811.120755	2513.849503
811.440453	2513.907477
811.760107	2514.008300
812.079716	2512.780779
812.399281	2509.854389
812.718801	2508.246261
813.038276	2506.708709
813.357707	2511.104595
813.677093	2513.902435
813.996434	2513.960409
814.315731	2510.489574
814.634983	2513.607528
814.954191	2514.628362
815.273354	2515.941582
815.592473	2512.168278
815.911547	2515.266068
816.230577	2514.290604
816.549562	2517.085924
816.868502	2514.522497
817.187399	2517.456449
817.506250	2515.064421
817.825058	2516.541479
818.143821	2515.218177
818.462539	2516.450739
818.781213	2514.751870
819.099843	2517.491737
819.418429	2522.860566
819.736970	2523.057171
820.055466	2523.644465
820.373919	2529.429189
820.692327	2532.171577
821.010691	2543.093237
821.329011	2565.433110
821.647286	2599.730600
821.965517	2628.802934
822.283704	2647.016623
822.601847	2654.664054
822.919945	2638.386168
823.237999	2622.839249
823.556010	2607.292331
823.873976	2589.935638
824.191897	2577.703278
824.509775	2563.356155
824.827609	2559.945814
825.145398	2548.560368
825.463144	2550.980122
825.780845	2550.768393
826.098502	2555.678477
826.416116	2561.115362
826.733685	2572.251271
827.051210	2571.106929
827.368692	2566.370765
827.686129	2559.746688
828.003522	2551.348126
828.320872	2540.686086
828.638177	2535.849099
828.955439	2527.306863
829.272656	2523.715041
829.589830	2519.578775
829.906960	2522.366533
830.224046	2518.994001
830.541088	2519.412417
830.858086	2519.311593
831.175041	2519.278826
831.491952	2516.778414
831.808819	2518.510050
832.125642	2518.484844
832.442421	2521.600277
832.759157	2524.718231
833.075849	2533.275590
833.392497	2537.951260
833.709101	2542.140459
834.025662	2538.157947
834.342179	2539.483771
834.658653	2530.283665
834.975083	2525.993643
835.291469	2526.076822
835.607811	2525.509692
835.924110	2520.576923
836.240366	2521.839732
836.556578	2514.973681
836.872746	2516.912004
837.188871	2515.376973
837.504952	2511.245747
837.820990	2514.093999
838.136984	2512.811026
838.452935	2513.471417
838.768842	2512.889163
839.084706	2511.051663
839.400526	2515.704648
839.716303	2520.276974
840.032037	2523.520957
840.347727	2516.359998
840.663373	2521.988446
840.978977	2518.265554
841.294537	2514.966119
841.610054	2514.764473
841.925527	2515.339164
842.240957	2510.950840
842.556344	2509.793895
842.871687	2512.483351
843.186987	2511.555778
843.502244	2509.451097
843.817458	2511.477640
844.132629	2508.987310
844.447756	2508.813391
844.762840	2504.505725
845.077881	2503.825169
845.392879	2505.052690
845.707833	2504.767865
846.022745	2503.805004
846.337613	2501.995230
846.652438	2509.231806
846.967221	2507.875736
847.281960	2506.996055
847.596656	2510.300531
847.911309	2506.721312
848.225919	2508.137876
848.540485	2506.512104
848.855009	2504.372134
849.169490	2508.410098
849.483928	2508.382372
849.798323	2507.936230
850.112675	2507.782475
850.426984	2506.280211
850.741251	2509.488905
851.055474	2508.400016
851.369654	2506.227279
851.683792	2508.861282
851.997887	2507.278359
852.311938	2507.429594
852.625947	2507.686693
852.939914	2507.308606
853.253837	2505.571929
853.567718	2508.042094
853.881555	2508.107629
854.195350	2506.078565
854.509103	2509.955212
854.822812	2504.767865
855.136479	2507.139728
855.450103	2506.398678
855.763685	2504.425066
856.077224	2507.747187
856.390720	2508.160561
856.704173	2507.071672
857.017584	2505.889521
857.330953	2506.980931
857.644278	2507.933709
857.957561	2511.177692
858.270802	2506.837258
858.584000	2507.477485
858.897155	2506.141579
859.210268	2505.778616
859.523339	2504.727535
859.836367	2506.310458
860.149352	2505.990344
860.462295	2509.851868
860.775195	2505.697957
861.088054	2503.898266
861.400869	2504.483039
861.713642	2500.838285
862.026373	2506.933040
862.339062	2506.907834
862.651708	2507.429594
862.964312	2509.100736
863.276873	2506.015550
863.589392	2506.839779
863.901869	2505.733246
864.214303	2505.332474
864.526696	2509.582167
864.839045	2509.264574
865.151353	2509.786333
865.463619	2507.805160
865.775842	2504.883811
866.088023	2506.991013
866.400162	2509.030160
866.712258	2508.354646
867.024313	2508.871364
867.336325	2506.807011
867.648296	2508.515963
867.960224	2507.832886
868.272110	2510.166940
868.583954	2507.963956
868.895755	2510.605521
869.207515	2506.814573
869.519233	2508.339522
869.830909	2506.275170
870.142542	2505.801301
870.454134	2507.384223
870.765684	2507.243071
871.077191	2508.641991
871.388657	2507.414470
871.700081	2509.171313
872.011463	2507.714419
872.322803	2509.645181
872.634101	2506.375993
872.945357	2505.778616
873.256571	2511.986797
873.567744	2507.855571
873.878874	2507.222907
874.189963	2510.076200
874.501010	2511.623834
874.812015	2506.945643
875.122979	2510.098885
875.433900	2509.151148
875.744780	2510.539986
876.055618	2511.835562
876.366415	2508.359687
876.677169	2509.899759
876.987882	2508.079903
877.298554	2507.492608
877.609183	2508.760458
877.919771	2507.416991
878.230317	2508.417660
878.540822	2512.947137
878.851285	2514.930831
879.161707	2518.295801
879.472087	2516.637261
879.782425	2522.840401
880.092722	2530.702081
880.402977	2542.684903
880.713191	2555.212171
881.023363	2568.533420
881.333494	2576.465675
881.643583	2576.276632
881.953631	2576.460634
882.263637	2571.555591
882.573602	2568.246074
882.883526	2559.809703
883.193408	2558.183931
883.503248	2551.000287
883.813048	2547.577343
884.122806	2541.094419
884.432522	2535.967566
884.742197	2529.275434
885.051831	2530.888603
885.361424	2526.482635
885.670975	2521.612880
885.980485	2520.675226
886.289954	2518.121881
886.599382	2516.448218
886.908768	2513.831859
887.218113	2513.962929
887.527417	2511.470079
887.836680	2511.838083
888.145901	2512.223731
888.455082	2510.557630
888.764221	2510.487054
889.073319	2513.529390
889.382376	2511.573422
889.691392	2509.723319
890.000366	2512.553927
890.309300	2509.123422
890.618193	2511.681807
890.927044	2509.335150
891.235855	2510.469410
891.544625	2511.470079
891.853353	2511.202897
892.162041	2510.179543
892.470687	2511.845645
892.779293	2512.410254
893.087858	2510.018226
893.396381	2510.703823
893.704864	2514.625841
894.013306	2515.192971
894.321707	2526.538088
894.630068	2527.737882
894.938387	2530.608819
895.246665	2528.446164
895.554903	2525.890299
895.863100	2523.667150
896.171256	2522.832839
896.479371	2520.150946
896.787446	2518.598270
897.095480	2515.898732
897.403473	2516.924607
897.711425	2514.116684
898.019336	2515.802950
898.327207	2511.805315
898.635038	2515.029133
898.942827	2508.747856
899.250576	2515.014010
899.558284	2510.678617
899.865952	2510.807167
900.173579	2510.345901
900.481165	2509.781292
900.788711	2506.630571
901.096216	2509.814060
901.403681	2506.955725
901.711105	2509.325068
902.018489	2508.803308
902.325832	2509.967815
902.633135	2510.398833
902.940397	2510.240037
903.247619	2512.982425
903.554800	2518.734381
903.861941	2525.857532
904.169041	2532.665610
904.476101	2532.448840
904.783121	2531.480939
905.090100	2530.651669
905.397039	2526.354085
905.703938	2521.567510
906.010796	2519.460307
906.317614	2521.539783
906.624391	2518.406706
906.931129	2515.545852
907.237826	2512.410254
907.544483	2511.384379
907.851099	2508.354646
908.157675	2512.291787
908.464211	2505.476147
908.770707	2504.866167
909.077163	2503.973883
909.383578	2503.799963
909.689954	2504.339367
909.996289	2500.896258
910.302584	2505.884480
910.608839	2507.343894
910.915054	2508.107629
911.221229	2506.232320
911.527363	2504.815756
911.833458	2507.129645
912.139513	2506.960767
912.445527	2506.010509
912.751502	2508.150479
913.057436	2505.322392
913.363331	2508.059738
913.669186	2505.919768
913.975000	2511.452435
914.280775	2510.882784
914.586510	2511.112157
914.892205	2518.285719
915.197859	2520.702952
915.503475	2525.703777
915.809050	2532.317770
916.114585	2530.530681
916.420081	2531.392719
916.725536	2532.002698
917.030952	2528.554549
917.336328	2529.267872
917.641665	2527.521113
917.946961	2524.236801
918.252218	2521.481810
918.557435	2522.321162
918.862612	2517.862262
919.167750	2516.332272
919.472848	2515.266068
919.777906	2515.208094
920.082925	2513.763804
920.387904	2512.206087
920.692843	2511.165089
920.997743	2508.800788
921.302603	2507.817763
921.607423	2506.307937
921.912204	2506.491939
922.216946	2507.689213
922.521647	2509.216683
922.826310	2505.889521
923.130932	2508.142917
923.435516	2506.171826
923.740059	2507.384223
924.044564	2505.334994
924.349028	2506.658297
924.653454	2502.214520
924.957840	2502.552278
925.262186	2501.039931
925.566493	2501.609582
925.870761	2500.878614
926.174989	2503.736949
926.479178	2501.181084
926.783328	2506.514624
927.087438	2503.658811
927.391509	2507.374141
927.695541	2504.634274
927.999533	2502.940446
928.303486	2502.486743
928.607400	2503.497494
928.911275	2502.769047
929.215110	2504.702330
929.518906	2501.619664
929.822663	2504.379696
930.126381	2504.293996
930.430060	2504.084788
930.733699	2502.307782
931.037299	2503.212669
931.340861	2502.960611
931.644383	2504.248626
931.947866	2502.204438
932.251309	2503.512617
932.554714	2503.729387
932.858080	2504.999758
933.161407	2502.025477
933.464694	2505.655108
933.767943	2499.734272
934.071153	2501.801146
934.374323	2501.949860
934.677455	2503.656290
934.980548	2502.562360
935.283602	2505.002278
935.586617	2502.973214
935.889593	2503.449603
936.192530	2503.812566
936.495428	2500.843326
936.798287	2504.737618
937.101108	2501.778460
937.403890	2503.805004
937.706632	2503.363903
938.009336	2504.808194
938.312002	2505.216527
938.614628	2504.369613
938.917216	2506.691065
939.219765	2504.551095
939.522275	2505.561846
939.824747	2507.046466
940.127179	2500.341732
940.429573	2502.476660
940.731929	2501.019767
941.034246	2500.986999
941.336524	2507.066631
941.638763	2505.428256
941.940964	2504.402381
942.243126	2504.150323
942.545250	2504.031856
942.847335	2503.593276
943.149381	2504.745179
943.451389	2501.871722
943.753359	2506.126456
944.055290	2502.663183
944.357182	2504.316681
944.659036	2504.546054
944.960851	2502.448934
945.262628	2503.237874
945.564367	2502.653101
945.866067	2503.452123
946.167729	2503.626043
946.469352	2504.503204
946.770937	2503.905827
947.072484	2501.823831
947.373992	2503.197545
947.675462	2502.015395
947.976893	2504.094871
948.278286	2502.093533
948.579641	2504.755262
948.880958	2501.614623
949.182236	2505.619820
949.483476	2504.634274
949.784678	2501.798625
950.085841	2505.012361
950.386967	2502.890035
950.688054	2504.349449
950.989103	2501.390292
951.290114	2503.888183
951.591087	2502.496825
951.892021	2504.087309
952.192917	2505.022443
952.493776	2503.079078
952.794596	2502.176712
953.095378	2504.722494
953.396122	2500.674448
953.696828	2504.185611
953.997496	2503.431959
954.298126	2502.277535
954.598718	2503.938595
954.899272	2502.343070
955.199788	2500.066989
955.500266	2504.883811
955.800706	2500.016577
956.101108	2501.128152
956.401472	2500.752586
956.701798	2499.809890
957.002087	2499.514982
957.302337	2504.001609
957.602550	2501.473471
957.902724	2501.849037
958.202861	2502.607730
958.502960	2500.130003
958.803022	2500.855929
959.103045	2502.900117
959.403031	2501.123110
959.702979	2502.325426
960.002889	2499.051196
960.302762	2500.676968
960.602596	2499.852740
960.902393	2501.445744
961.202153	2499.242760
961.501875	2498.254694
961.801559	2502.648059
962.101205	2502.022956
962.400814	2503.061434
962.700385	2502.774088
962.999918	2502.022956
963.299414	2499.676299
963.598873	2499.807369
963.898293	2501.659993
964.197677	2500.679489
964.497022	2500.981958
964.796331	2500.918944
965.095601	2499.608244
965.394835	2501.077740
965.694030	2498.289982
965.993189	2502.126300
966.292309	2501.433141
966.591393	2501.801146
966.890439	2501.150837
967.189447	2498.877276
967.488419	2500.881135
967.787353	2501.034890
968.086249	2499.126813
968.385108	2500.762668
968.683930	2499.315857
968.982714	2500.339211
969.281462	2499.767040
969.580172	2500.155209
969.878844	2500.072030
970.177480	2500.505569
970.476078	2498.552122
970.774639	2501.995230
971.073162	2502.736280
971.371649	2501.748213
971.670098	2498.952894
971.968510	2499.363748
972.266885	2495.202275
972.565223	2501.125631
972.863524	2501.372648
973.161788	2500.707215
973.460014	2500.046824
973.758204	2498.778974
974.056356	2500.868532
974.354471	2501.309633
974.652550	2500.082112
974.950591	2501.826351
975.248595	2501.193687
975.546563	2502.295179
975.844493	2499.623367
976.142386	2500.404746
976.440243	2497.090187
976.738062	2498.841988
977.035845	2502.055724
977.333590	2501.211331
977.631299	2497.369971
977.928971	2502.206958
978.226606	2499.683861
978.524204	2500.276197
978.821765	2498.726042
979.119290	2501.622185
979.416777	2498.746206
979.714228	2502.610251
980.011642	2498.244612
980.309020	2502.038080
980.606360	2498.562204
980.903664	2498.670589
981.200931	2501.281907
981.498162	2499.267966
981.795356	2503.063955
982.092513	2501.990189
982.389633	2502.423728
982.686717	2501.539006
982.983764	2503.585714
983.280775	2504.838441
983.577749	2504.014212
983.874686	2504.357011
984.171587	2503.779798
984.468451	2502.433810
984.765279	2503.457165
985.062070	2502.779129
985.358824	2504.120076
985.655543	2503.389109
985.952224	2501.685199
986.248869	2501.765857
986.545478	2497.564056
986.842050	2498.093377
987.138586	2497.806031
987.435086	2497.178408
987.731549	2494.902327
988.027975	2499.570435
988.324366	2499.971207
988.620719	2499.794766
988.917037	2497.120434
989.213318	2499.255363
989.509563	2497.687564
989.805772	2499.570435
990.101944	2496.994405
990.398080	2501.239057
990.694180	2499.711587
990.990244	2497.818634
991.286271	2500.132524
991.582262	2499.346104
991.878217	2499.341062
992.174136	2500.223264
992.470019	2500.371978
992.765865	2501.496156
993.061676	2495.751761
993.357450	2500.480363
993.653188	2498.998264
993.948890	2501.080261
994.244556	2497.866525
994.540186	2502.060765
994.835780	2499.409118
995.131337	2501.191166
995.426859	2497.362410
995.722345	2499.867863
996.017795	2500.135044
996.313208	2502.106135
996.608586	2498.584889
996.903928	2501.423059
997.199234	2501.546567
997.494504	2501.735611
997.789738	2498.605054
998.084936	2504.115035
998.380099	2497.352327
998.675225	2500.447596
998.970316	2498.862153
999.265371	2501.070178
999.560390	2501.889366
999.855373	2501.251660
1000.150320	2502.466578
1000.445232	2500.603872
1000.740108	2499.562873
1001.034948	2499.628408
1001.329752	2498.277379
1001.624521	2499.633449
1001.919254	2497.453150
1002.213951	2497.579179
1002.508613	2492.888386
1002.803239	2499.676299
1003.097829	2495.514827
1003.392384	2499.779643
1003.686903	2499.474653
1003.981386	2500.835765
1004.275834	2498.915085
1004.570246	2501.211331
1004.864623	2498.473984
1005.158964	2497.188490
1005.453270	2496.465084
1005.747540	2497.586741
1006.041775	2501.970024
1006.335974	2501.339880
1006.630138	2499.656135
1006.924266	2496.313850
1007.218359	2500.054386
1007.512416	2498.542040
1007.806438	2499.441886
1008.100425	2497.997595
1008.394376	2499.235198
1008.688292	2496.467605
1008.982172	2501.566732
1009.276017	2499.152019
1009.569827	2497.813593
1009.863602	2502.196876
1010.157341	2496.636483
1010.451045	2499.729231
1010.744714	2499.446927
1011.038347	2501.387771
1011.331945	2498.247132
1011.625508	2499.179746
1011.919036	2500.193018
1012.212528	2496.354179
1012.505986	2503.414315
1012.799408	2499.691423
1013.092795	2497.057420
1013.386147	2495.280413
1013.679464	2496.122286
1013.972745	2498.501710
1014.265992	2501.382730
1014.559204	2498.325270
1014.852380	2495.262769
1015.145521	2496.066833
1015.438628	2496.505413
1015.731699	2499.855260
1016.024736	2499.822493
1016.317737	2500.518172
1016.610703	2496.979282
1016.903635	2494.060454
1017.196531	2496.472646
1017.489393	2498.998264
1017.782219	2493.808396
1018.075011	2495.073726
1018.367768	2499.091525
1018.660490	2496.356699
1018.953177	2496.356699
1019.245829	2496.356699
