Dividing Wavelength (nm)	Counts (n)	Blue Motor Position (mm): 0.000000	Red Motor Position (mm): 12.500000	
326.493990	2126.895575
326.888308	2126.895575
327.282561	2126.895575
327.676750	2096.578076
328.070874	2093.311408
328.464933	2096.298292
328.858929	2103.015629
329.252859	2111.325972
329.646726	2124.722838
330.040528	2136.768675
330.434265	2154.954638
330.827938	2171.645898
331.221547	2188.753053
331.615091	2208.395909
332.008571	2227.320401
332.401986	2248.170613
332.795338	2265.426483
333.188625	2285.220573
333.581847	2305.032308
333.975006	2322.328507
334.368100	2340.847186
334.761129	2356.860411
335.154095	2377.236755
335.546996	2393.920453
335.939833	2403.475960
336.332606	2421.377098
336.725315	2433.322112
337.117960	2445.010027
337.510540	2451.175358
337.903056	2465.086422
338.295508	2472.733853
338.687896	2480.194760
339.080220	2487.756491
339.472480	2494.010042
339.864676	2498.209323
340.256807	2505.922289
340.648875	2505.448420
341.040879	2509.166271
341.432818	2509.073010
341.824694	2512.644667
342.216506	2511.167609
342.608253	2511.051663
342.999937	2513.829339
343.391557	2508.195849
343.783113	2509.950171
344.174605	2510.600480
344.566033	2510.328257
344.957397	2508.871364
345.348697	2507.338853
345.739934	2503.744510
346.131106	2501.420538
346.522215	2501.334839
346.913260	2499.966166
347.304241	2493.992398
347.695159	2494.156236
348.086012	2494.834271
348.476802	2493.568941
348.867528	2492.298571
349.258191	2488.303456
349.648789	2486.980153
350.039324	2485.001500
350.429796	2487.791779
350.820203	2485.591315
351.210548	2483.789103
351.600828	2481.457569
351.991045	2484.928404
352.381198	2480.320789
352.771288	2481.979329
353.161314	2479.390696
353.551276	2479.738536
353.941175	2482.415388
354.331010	2483.282467
354.720782	2480.777013
355.110490	2480.650985
355.500135	2478.334574
355.889717	2478.959677
356.279235	2480.963536
356.668689	2481.739874
357.058080	2482.425471
357.447408	2479.670480
357.836672	2477.749801
358.225873	2481.124853
358.615010	2477.089409
359.004084	2481.722230
359.393095	2485.165338
359.782043	2486.642396
360.170927	2484.434371
360.559748	2485.366984
360.948505	2486.140801
361.337199	2487.948055
361.725830	2487.917808
362.114398	2487.191882
362.502903	2488.401759
362.891344	2490.929897
363.279722	2489.462922
363.668037	2491.595330
364.056289	2491.678509
364.444478	2493.286637
364.832603	2492.250680
365.220665	2491.300422
365.608665	2493.120279
365.996601	2496.225629
366.384474	2494.990547
366.772284	2498.320229
367.160031	2497.478356
367.547715	2498.461381
367.935336	2499.542709
368.322893	2505.665190
368.710388	2507.631240
369.097820	2516.594412
369.485189	2515.744977
369.872495	2523.107582
370.259738	2529.610671
370.646918	2539.529141
371.034035	2542.379913
371.421090	2554.672767
371.808081	2562.829354
372.195010	2571.898390
372.581875	2587.218456
372.968678	2599.241608
373.355418	2610.954729
373.742096	2627.651031
374.128710	2644.982518
374.515262	2656.055412
374.901751	2672.794563
375.288177	2687.108920
375.674540	2705.856971
376.060841	2725.406566
376.447079	2745.188053
376.833254	2765.430807
377.219367	2776.148300
377.605417	2816.152376
377.991404	2822.579847
378.377329	2845.791840
378.763191	2861.686598
379.148991	2900.377454
379.534727	2925.235383
379.920402	2953.473407
380.306013	2966.028400
380.691563	3015.585463
381.077049	3036.831406
381.462474	3052.287584
381.847835	3091.621187
382.233134	3117.169754
382.618371	3113.721605
383.003545	3183.355063
383.388657	3191.176413
383.773706	3217.816391
384.158693	3237.040831
384.543618	3263.201899
384.928480	3296.289512
385.313280	3339.958508
385.698017	3335.366016
386.082692	3387.877195
386.467305	3392.502454
386.851856	3416.662184
387.236344	3435.811007
387.620770	3461.979636
388.005133	3477.907162
388.389435	3496.612363
388.773674	3495.682270
389.157851	3528.200233
389.541965	3526.375336
389.926018	3487.641630
390.310008	3537.075185
390.693936	3538.524516
391.077802	3561.885223
391.461606	3533.057385
391.845348	3570.329156
392.229027	3550.963563
392.612645	3537.874208
392.996200	3580.996237
393.379694	3589.082248
393.763125	3614.393882
394.146494	3564.257086
394.529801	3583.428594
394.913047	3588.419337
395.296230	3536.402191
395.679351	3541.397974
396.062410	3523.786703
396.445408	3481.783809
396.828343	3466.453660
397.211217	3445.353911
397.594028	3368.430944
397.976778	3371.564022
398.359466	3350.532328
398.742092	3328.505006
399.124656	3257.094541
399.507158	3261.024121
399.889598	3239.531161
400.271977	3230.860377
400.654294	3182.639219
401.036549	3147.401554
401.418742	3103.188114
401.800874	3107.813373
402.182944	3075.880184
402.564952	3064.076322
402.946898	3027.134747
403.328783	2993.192658
403.710606	2939.106118
404.092367	2952.888633
404.474067	2918.001328
404.855705	2892.601474
405.237282	2853.497244
405.618797	2844.755883
406.000250	2827.212667
406.381642	2812.948723
406.762972	2781.489402
407.144240	2762.799324
407.525447	2745.200656
407.906593	2726.959241
408.287677	2713.801829
408.668700	2689.490865
409.049661	2677.412260
409.430560	2663.234015
409.811399	2645.975625
410.192176	2641.267187
410.572891	2628.409724
410.953545	2618.917232
411.334138	2602.329315
411.714669	2593.998808
412.095139	2586.253075
412.475547	2579.129925
412.855894	2571.207752
413.236180	2565.211299
413.616405	2558.829198
413.996568	2556.391801
414.376670	2549.422405
414.756711	2543.768751
415.136691	2544.386293
415.516609	2542.251364
415.896466	2537.661393
416.276262	2538.402443
416.655997	2533.484798
417.035670	2529.550177
417.415283	2531.654859
417.794834	2526.263345
418.174324	2531.107893
418.553753	2529.141843
418.933121	2529.943387
419.312428	2527.798376
419.691674	2531.465815
420.070859	2531.188552
420.449983	2529.129241
420.829045	2528.284847
421.208047	2529.267872
421.586988	2527.105217
421.965867	2527.826102
422.344686	2525.673530
422.723444	2529.938346
423.102141	2526.175124
423.480777	2527.727800
423.859352	2526.860721
424.237866	2527.405166
424.616319	2530.618902
424.994712	2527.705115
425.373044	2525.169414
425.751314	2528.887265
426.129524	2526.306194
426.507673	2525.371060
426.885762	2527.062368
427.263789	2525.527336
427.641756	2528.489014
428.019662	2528.839374
428.397508	2525.421472
428.775292	2530.442461
429.153016	2526.349044
429.530679	2530.013963
429.908282	2528.055475
430.285824	2527.286699
430.663305	2525.683612
431.040726	2526.429703
431.418086	2528.599919
431.795385	2527.279137
432.172624	2527.732841
432.549802	2530.770136
432.926920	2530.087060
433.303977	2529.950949
433.680974	2529.346010
434.057910	2529.703932
434.434786	2526.759898
434.811601	2531.223840
435.188355	2527.982378
435.565050	2530.248377
435.941683	2528.393232
436.318257	2527.768129
436.694770	2526.162522
437.071222	2527.516071
437.447614	2525.411390
437.823946	2525.613036
438.200218	2528.040351
438.576429	2528.330218
438.952580	2530.150074
439.328670	2531.755682
439.704700	2531.019673
440.080670	2532.496731
440.456580	2531.060003
440.832429	2531.876669
441.208218	2527.881555
441.583947	2531.102852
441.959616	2530.137471
442.335224	2530.407173
442.710773	2532.494211
443.086261	2530.691998
443.461689	2532.612678
443.837057	2530.099663
444.212365	2531.624612
444.587612	2533.157123
444.962800	2531.831299
445.337927	2531.869108
445.712995	2532.794159
446.088002	2533.210055
446.462949	2531.717873
446.837837	2532.816845
447.212664	2531.274252
447.587431	2530.724766
447.962139	2534.422452
448.336786	2538.737680
448.711374	2534.344314
449.085901	2534.051927
449.460369	2533.706608
449.834776	2531.322142
450.209124	2531.959848
450.583412	2534.586290
450.957640	2537.177443
451.331808	2536.834644
451.705917	2534.281300
452.079965	2536.980838
452.453954	2535.009747
452.827883	2533.573018
453.201752	2534.790456
453.575562	2536.474202
453.949311	2535.251722
454.323001	2535.092926
454.696632	2534.798018
455.070202	2534.659386
455.443713	2538.493184
455.817164	2535.216434
456.190556	2532.068233
456.563888	2534.004036
456.937160	2531.304498
457.310373	2536.423790
457.683526	2537.323636
458.056619	2536.761548
458.429653	2536.632998
458.802628	2537.779861
459.175542	2536.191897
459.548398	2537.489994
459.921194	2536.272556
460.293930	2537.605941
460.666607	2540.207176
461.039224	2543.723381
461.411782	2540.930582
461.784280	2541.268339
462.156719	2540.181970
462.529099	2541.951415
462.901419	2538.672145
463.273680	2543.148689
463.645882	2538.495704
464.018024	2540.307999
464.390106	2539.597197
464.762130	2542.916796
465.134094	2540.655839
465.505999	2544.976108
465.877845	2548.704041
466.249631	2550.377704
466.621358	2550.967519
466.993026	2550.639844
467.364634	2551.438867
467.736184	2550.319731
468.107674	2545.767569
468.479105	2545.291180
468.850477	2543.836807
469.221790	2542.949564
469.593043	2542.765562
469.964238	2544.484595
470.335373	2541.490150
470.706449	2545.321427
471.077467	2544.416540
471.448425	2549.364432
471.819324	2551.537169
472.190164	2549.389638
472.560945	2546.702703
472.931667	2547.410985
473.302330	2545.888557
473.672934	2543.544420
474.043479	2545.293700
474.413965	2547.020296
474.784393	2543.234389
475.154761	2541.986703
475.525070	2540.224820
475.895321	2541.898483
476.265513	2540.789429
476.635645	2547.816798
477.005719	2545.258412
477.375734	2547.743701
477.745691	2545.525593
478.115588	2548.522559
478.485427	2547.201777
478.855207	2549.805533
479.224928	2548.946016
479.594591	2550.521377
479.964194	2548.247817
480.333739	2550.700338
480.703226	2547.017775
481.072653	2553.568754
481.442022	2552.807540
481.811333	2550.317210
482.180584	2551.070863
482.549777	2551.360729
482.918912	2552.041285
483.287988	2552.189999
483.657005	2546.579195
484.025964	2550.763352
484.394864	2549.722354
484.763706	2550.309648
485.132489	2550.770914
485.501213	2550.160934
485.869879	2549.561037
486.238487	2548.734288
486.607036	2545.810419
486.975527	2549.356870
487.343959	2549.301418
487.712333	2547.544576
488.080648	2549.810574
488.448905	2548.464586
488.817104	2549.876109
489.185244	2550.050029
489.553326	2549.140101
489.921350	2552.005997
490.289315	2554.032541
490.657222	2554.110678
491.025070	2554.680329
491.392861	2557.684857
491.760593	2551.874927
492.128267	2551.758980
492.495883	2549.399720
492.863440	2553.097407
493.230939	2549.918959
493.598380	2549.926521
493.965763	2544.963505
494.333088	2550.420554
494.700354	2545.122301
495.067563	2547.811757
495.434713	2547.166489
495.801805	2550.032385
496.168839	2549.311500
496.535815	2552.799978
496.902733	2548.527601
497.269593	2551.819474
497.636395	2551.585060
498.003139	2553.719989
498.369825	2549.654298
498.736453	2551.297715
499.103023	2549.717313
499.469535	2549.006510
499.835989	2549.858465
500.202385	2549.762683
500.568723	2549.172868
500.935003	2548.603218
501.301226	2548.313352
501.667390	2548.754452
502.033497	2550.574309
502.399546	2550.009700
502.765537	2551.781665
503.131470	2548.817467
503.497345	2551.033054
503.863163	2551.423743
504.228923	2551.809392
504.594625	2552.419371
504.960269	2549.898794
505.325856	2552.036244
505.691385	2547.441232
506.056856	2551.065822
506.422270	2551.138918
506.787625	2549.427447
507.152924	2549.513146
507.518164	2550.786038
507.883347	2551.174206
508.248472	2548.303269
508.613540	2551.373332
508.978550	2549.941644
509.343503	2548.512477
509.708398	2551.630431
510.073236	2551.489278
510.438016	2551.688404
510.802738	2551.416182
511.167403	2554.486244
511.532010	2551.519525
511.896561	2550.596994
512.261053	2554.944989
512.625488	2548.026006
512.989866	2549.601366
513.354186	2548.817467
513.718449	2546.243958
514.082655	2547.065666
514.446803	2551.423743
514.810894	2552.250493
515.174927	2551.237221
515.538904	2553.223435
515.902822	2551.723692
516.266684	2549.971891
516.630488	2549.152704
516.994235	2551.753939
517.357925	2551.481717
517.721558	2550.314690
518.085133	2551.907694
518.448651	2553.863662
518.812112	2551.945503
519.175516	2551.330482
519.538863	2552.157231
519.902152	2552.782334
520.265385	2551.186809
520.628560	2551.247303
520.991678	2552.242931
521.354739	2547.378217
521.717743	2552.575647
522.080690	2552.810061
522.443580	2550.899463
522.806413	2554.642520
523.169189	2552.515153
523.531908	2553.525905
523.894569	2552.207643
524.257174	2551.978270
524.619722	2552.081614
524.982213	2552.759649
525.344647	2551.330482
525.707025	2553.472972
526.069345	2550.433157
526.431608	2551.259906
526.793815	2553.321738
527.155964	2555.489434
527.518057	2553.200750
527.880093	2552.285781
528.242072	2553.709907
528.603995	2553.770401
528.965860	2552.563044
529.327669	2552.157231
529.689421	2552.283260
530.051117	2551.678322
530.412755	2551.814433
530.774337	2552.865513
531.135862	2555.368446
531.497331	2549.165307
531.858743	2548.388969
532.220098	2548.905687
532.581396	2546.133052
532.942638	2549.959288
533.303824	2552.641182
533.664953	2550.773435
534.026025	2554.017417
534.387040	2551.141439
534.747999	2550.818805
535.108902	2550.274360
535.469748	2550.052550
535.830537	2554.239228
536.191270	2550.934752
536.551947	2552.003476
536.912567	2552.013558
537.273131	2553.793086
537.633638	2552.573127
537.994089	2552.353836
538.354483	2551.605225
538.714821	2553.432643
539.075103	2551.464073
539.435328	2553.634289
539.795497	2551.196892
540.155609	2552.260575
540.515665	2552.898281
540.875665	2550.987684
541.235609	2550.697817
541.595496	2551.048178
541.955328	2552.981460
542.315102	2552.303425
542.674821	2552.694114
543.034483	2553.074721
543.394090	2553.742674
543.753640	2551.713610
544.113134	2555.018086
544.472571	2553.641851
544.831953	2554.561862
545.191278	2551.464073
545.550548	2552.316028
545.909761	2551.552293
546.268918	2552.028682
546.628019	2554.793755
546.987064	2554.158569
547.346053	2552.379042
547.704986	2552.066491
548.063863	2556.318704
548.422684	2555.325597
548.781449	2551.012889
549.140158	2554.952551
549.498811	2551.827036
549.857408	2553.276367
550.215949	2551.738816
550.574434	2547.741181
550.932864	2550.327292
551.291237	2546.848896
551.649555	2554.355174
552.007817	2553.790565
552.366022	2551.872406
552.724173	2553.863662
553.082267	2554.745864
553.440305	2554.498847
553.798288	2552.512633
554.156215	2549.629093
554.514086	2553.180586
554.871902	2551.287632
555.229661	2551.960626
555.587365	2553.399876
555.945014	2552.706717
556.302606	2552.121943
556.660143	2551.378373
557.017625	2553.994732
557.375050	2554.342572
557.732421	2552.598332
558.089735	2552.434495
558.446994	2552.101779
558.804197	2554.080432
559.161345	2551.746377
559.518437	2550.465924
559.875474	2550.798640
560.232455	2552.968857
560.589381	2553.452808
560.946251	2554.229146
561.303065	2553.243600
561.659825	2555.915412
562.016528	2553.783003
562.373177	2549.782848
562.729770	2553.399876
563.086307	2552.686552
563.442789	2553.170503
563.799216	2556.079249
564.155587	2552.104299
564.511904	2554.645041
564.868164	2554.466080
565.224370	2554.934907
565.580520	2553.979608
565.936615	2555.237376
566.292654	2552.696635
566.648638	2551.902653
567.004567	2553.639331
567.360441	2554.324927
567.716260	2555.058415
568.072023	2553.251162
568.427732	2550.125646
568.783385	2550.801161
569.138982	2551.864844
569.494525	2550.176058
569.850013	2549.409803
570.205445	2551.869886
570.560823	2552.300904
570.916145	2551.537169
571.271412	2552.295863
571.626625	2553.478014
571.981782	2552.167314
572.336884	2551.733774
572.691931	2554.075390
573.046923	2552.600853
573.401860	2551.151521
573.756743	2551.554813
574.111570	2550.677653
574.466342	2551.312838
574.821059	2555.249979
575.175722	2552.013558
575.530330	2550.929710
575.884882	2553.092365
576.239380	2554.135884
576.593823	2555.575134
576.948211	2553.178065
577.302544	2550.753270
577.656823	2550.435677
578.011047	2549.876109
578.365216	2551.466593
578.719330	2554.367777
579.073389	2551.637993
579.427394	2549.374514
579.781344	2550.803682
580.135239	2553.099927
580.489080	2549.414844
580.842866	2550.849052
581.196597	2552.716799
581.550273	2551.131357
581.903895	2550.458362
582.257463	2552.986501
582.610975	2549.568599
582.964434	2552.310987
583.317837	2550.944834
583.671186	2550.113043
584.024481	2550.712941
584.377721	2551.481717
584.730906	2549.891233
585.084037	2552.603373
585.437113	2551.501881
585.790135	2553.067160
586.143103	2548.956099
586.496016	2550.909546
586.848874	2548.169679
587.201679	2551.600184
587.554428	2544.618186
587.907124	2547.370656
588.259765	2548.273022
588.612352	2553.556152
588.964884	2549.689587
589.317362	2551.401058
589.669786	2550.332334
590.022155	2553.079762
590.374470	2549.508105
590.726731	2552.263096
591.078937	2550.939793
591.431090	2548.686397
591.783188	2550.904505
592.135232	2551.340564
592.487222	2548.333516
592.839157	2553.566234
593.191038	2552.643703
593.542866	2550.566747
593.894639	2549.455173
594.246358	2550.871737
594.598022	2549.515667
594.949633	2551.285112
595.301190	2550.143290
595.652692	2551.552293
596.004141	2553.556152
596.355535	2547.577343
596.706876	2548.096582
597.058162	2549.808054
597.409395	2548.330996
597.760573	2548.658671
598.111698	2548.078938
598.462768	2545.913762
598.813785	2547.131201
599.164748	2549.860986
599.515657	2548.109185
599.866511	2549.288815
600.217312	2549.805533
600.568060	2544.552651
600.918753	2549.621531
601.269392	2547.562220
601.619978	2546.546427
601.970510	2551.038095
602.320988	2548.804864
602.671412	2549.089689
603.021783	2551.320400
603.372100	2550.551624
603.722363	2548.457024
604.072572	2551.156562
604.422728	2547.378218
604.772830	2548.043650
605.122878	2546.858979
605.472872	2548.305790
605.822813	2545.308824
606.172701	2549.051881
606.522534	2548.348640
606.872314	2551.713610
607.222041	2547.897456
607.571714	2550.032385
607.921333	2548.605738
608.270899	2550.780996
608.620411	2548.066335
608.969870	2553.495658
609.319276	2554.340051
609.668627	2553.808209
610.017926	2555.650751
610.367171	2557.773077
610.716362	2556.333827
611.065500	2557.072356
611.414585	2551.481717
611.763616	2552.157231
612.112594	2554.516491
612.461518	2551.196892
612.810389	2553.412479
613.159207	2550.556665
613.507971	2550.670091
613.856682	2551.746377
614.205340	2551.406099
614.553945	2550.281922
614.902496	2546.715306
615.250994	2551.101110
615.599439	2549.949206
615.947830	2549.286294
616.296169	2552.164793
616.644454	2550.092879
616.992686	2550.314690
617.340864	2548.651109
617.688990	2547.458876
618.037063	2551.141439
618.385082	2548.888043
618.733048	2552.316028
619.080961	2547.955430
619.428821	2552.494989
619.776628	2549.523228
620.124382	2554.309804
620.472083	2551.358208
620.819731	2551.113712
621.167326	2548.215049
621.514868	2547.912580
621.862357	2547.529452
622.209793	2550.657488
622.557176	2546.387631
622.904506	2549.288815
623.251783	2546.493495
623.599007	2545.611293
623.946179	2544.376210
624.293297	2546.687579
624.640363	2548.056253
624.987376	2548.247817
625.334336	2548.159596
625.681243	2550.168496
626.028097	2549.130018
626.374899	2549.258568
626.721647	2549.230842
627.068343	2546.042312
627.414987	2548.273022
627.761577	2547.010213
628.108115	2548.633465
628.454600	2547.801674
628.801032	2546.064997
629.147412	2547.226983
629.493739	2546.160779
629.840014	2550.251675
630.186236	2547.942827
630.532405	2550.561706
630.878521	2547.416026
631.224585	2546.952240
631.570597	2544.282949
631.916556	2545.558361
632.262462	2545.449976
632.608316	2548.570450
632.954117	2543.977959
633.299866	2545.722198
633.645562	2546.569112
633.991206	2545.969215
634.336797	2546.261602
634.682336	2545.754966
635.027823	2545.427291
635.373257	2545.739843
635.718639	2543.630120
636.063968	2545.497867
636.409245	2545.240768
636.754470	2546.543907
637.099642	2543.985521
637.444762	2545.875954
637.789829	2546.992569
638.134845	2543.952753
638.479808	2546.037271
638.824719	2546.380069
639.169577	2542.649615
639.514383	2542.422763
639.859137	2545.959133
640.203839	2544.908052
640.548489	2544.121632
640.893086	2541.608617
641.237632	2539.703061
641.582125	2541.044008
641.926566	2539.491332
642.270955	2543.310006
642.615292	2547.962991
642.959576	2545.518032
643.303809	2546.022147
643.647990	2546.185985
643.992118	2545.202960
644.336195	2546.024668
644.680219	2545.792775
645.024192	2546.427960
645.368112	2541.260777
645.711981	2541.742208
646.055797	2546.165820
646.399562	2544.837476
646.743274	2543.289842
647.086935	2543.494008
647.430544	2545.825542
647.774101	2543.680531
648.117606	2543.045346
648.461059	2546.639688
648.804460	2546.848896
649.147810	2543.330171
649.491108	2543.080634
649.834354	2544.459389
650.177548	2542.841179
650.520690	2545.523073
650.863781	2542.319420
651.206820	2547.010213
651.549807	2545.936447
651.892742	2540.829759
652.235626	2541.351518
652.578458	2540.670962
652.921238	2541.412012
653.263967	2543.814122
653.606644	2542.914276
653.949269	2544.867723
654.291843	2541.341436
654.634365	2545.051725
654.976836	2542.909235
655.319255	2542.503422
655.661622	2544.955943
656.003938	2542.785726
656.346203	2542.674821
656.688416	2543.672969
657.030577	2540.746580
657.372687	2543.821683
657.714746	2543.262115
658.056753	2545.165151
658.398708	2538.152906
658.740612	2541.795140
659.082465	2538.432690
659.424266	2539.382947
659.766016	2539.529141
660.107715	2540.849923
660.449362	2541.550644
660.790958	2541.686755
661.132503	2544.063659
661.473996	2541.898483
661.815438	2543.068031
662.156829	2541.129707
662.498168	2546.294369
662.839456	2542.039636
663.180693	2543.539379
663.521879	2541.661549
663.863013	2541.729605
664.204097	2544.625747
664.545129	2543.647764
664.886110	2542.533669
665.227040	2541.096940
665.567918	2543.471323
665.908746	2541.404450
666.249522	2542.142979
666.590248	2543.224307
666.930922	2543.337733
667.271545	2542.730274
667.612118	2544.948381
667.952639	2542.601724
668.293109	2543.957795
668.633528	2544.388813
668.973896	2541.472506
669.314213	2541.764893
669.654480	2544.033412
669.994695	2542.405119
670.334859	2541.855633
670.674973	2542.309337
671.015035	2539.491332
671.355047	2544.091385
671.695008	2542.906714
672.034918	2541.971580
672.374777	2542.221117
672.714585	2542.934440
673.054342	2542.717671
673.394049	2542.032074
673.733705	2543.158772
674.073310	2541.870757
674.412864	2544.575336
674.752368	2541.540561
675.091820	2542.747918
675.431223	2542.737835
675.770574	2543.446118
676.109875	2538.185673
676.449125	2540.524769
676.788324	2540.217258
677.127473	2542.614327
677.466571	2537.167360
677.805619	2542.798329
678.144616	2543.781354
678.483562	2542.289173
678.822458	2540.129038
679.161303	2542.029553
679.500098	2543.645243
679.838842	2541.780016
680.177535	2543.214224
680.516179	2543.277239
680.854771	2541.273380
681.193314	2540.108874
681.531805	2541.185160
681.870247	2542.332022
682.208638	2539.324974
682.546978	2542.702547
682.885268	2541.742207
683.223508	2545.444935
683.561697	2543.574667
683.899836	2541.028884
684.237925	2541.989224
684.575963	2541.338915
684.913951	2542.445448
685.251889	2544.482075
685.589776	2543.375541
685.927614	2540.691127
686.265401	2540.885211
686.603137	2546.047353
686.940824	2541.533000
687.278460	2542.347146
687.616046	2542.591642
687.953582	2545.097095
688.291068	2544.373690
688.628504	2542.354708
688.965889	2541.311189
689.303224	2543.650284
689.640510	2540.940664
689.977745	2540.832279
690.314930	2542.994934
690.652065	2542.082485
690.989150	2542.495860
691.326185	2543.400747
691.663170	2538.349511
692.000105	2541.323792
692.336990	2541.396888
692.673825	2541.636343
693.010610	2540.655839
693.347345	2537.631147
693.684030	2533.827596
694.020665	2536.491846
694.357251	2535.619726
694.693786	2538.115097
695.030272	2539.720705
695.366707	2541.250695
695.703093	2538.135262
696.039429	2542.959646
696.375716	2537.857998
696.711952	2538.949408
697.048139	2538.626774
697.384276	2539.844213
697.720363	2541.260777
698.056400	2539.216589
698.392388	2539.279604
698.728326	2537.810107
699.064214	2539.821528
699.400053	2536.761547
699.735842	2538.278935
700.071581	2538.362114
700.407270	2539.246836
700.742910	2540.207176
701.078501	2541.381765
701.414042	2538.452855
701.749533	2539.622402
702.084974	2540.996117
702.420366	2536.736342
702.755709	2540.529810
703.091002	2536.980838
703.426246	2539.564429
703.761440	2536.280117
704.096584	2541.122146
704.431679	2540.517207
704.766725	2540.660880
705.101721	2539.398071
705.436668	2538.226003
705.771565	2538.604089
706.106413	2539.700540
706.441212	2537.863040
706.775961	2539.403112
707.110661	2540.963349
707.445311	2538.762886
707.779913	2540.413863
708.114465	2538.994779
708.448967	2542.208514
708.783421	2537.673996
709.117825	2537.550488
709.452180	2540.209697
709.786485	2540.426466
710.120742	2540.418905
710.454949	2540.043339
710.789107	2538.352032
711.123216	2535.786084
711.457275	2539.050231
711.791286	2536.451517
712.125247	2539.108205
712.459159	2541.623740
712.793023	2541.278421
713.126837	2539.909748
713.460602	2541.613658
713.794318	2538.503266
714.127985	2539.705581
714.461602	2538.354552
714.795171	2540.814635
715.128691	2538.934285
715.462162	2540.986034
715.795584	2537.865560
716.128957	2541.076775
716.462281	2536.469161
716.795556	2538.662062
717.128782	2537.757175
717.461960	2537.500077
717.795088	2536.234747
718.128167	2540.189532
718.461198	2539.435880
718.794180	2541.406971
719.127113	2537.288348
719.459997	2537.878163
719.792833	2541.071734
720.125619	2541.404450
720.458357	2536.885056
720.791046	2540.055942
721.123686	2536.706095
721.456278	2539.408153
721.788821	2535.264325
722.121315	2538.904038
722.453761	2536.764068
722.786158	2536.920344
723.118506	2539.027546
723.450805	2533.124355
723.783056	2538.982176
724.115259	2540.272711
724.447412	2539.357742
724.779518	2535.667617
725.111574	2539.745911
725.443582	2538.631816
725.775542	2538.009233
726.107453	2537.369007
726.439315	2535.445806
726.771129	2540.181970
727.102895	2538.742721
727.434612	2538.505787
727.766281	2536.764068
728.097901	2539.650129
728.429473	2532.957997
728.760996	2535.889428
729.092471	2532.980682
729.423897	2537.288348
729.755276	2536.680889
730.086606	2539.403112
730.417887	2535.980169
730.749120	2539.405633
731.080305	2537.116949
731.411442	2539.924872
731.742530	2537.426980
732.073570	2538.278935
732.404562	2540.103832
732.735506	2537.323636
733.066401	2538.157947
733.397249	2538.586445
733.728048	2539.294727
734.058798	2537.812628
734.389501	2534.538399
734.720156	2538.135262
735.050762	2537.026208
735.381320	2536.491846
735.711831	2536.741383
736.042293	2540.718853
736.372707	2536.789274
736.703073	2536.456558
737.033391	2535.135775
737.363661	2536.638039
737.693883	2535.768440
738.024056	2541.384286
738.354182	2535.778522
738.684260	2538.783050
739.014290	2537.830272
739.344272	2538.994779
739.674207	2536.307844
740.004093	2537.220292
740.333931	2537.636188
740.663722	2538.432690
740.993464	2536.300282
741.323159	2537.532844
741.652806	2535.917154
741.982405	2540.706250
742.311956	2536.537216
742.641460	2536.186856
742.970915	2537.225334
743.300323	2537.749614
743.629683	2534.934129
743.958996	2537.023687
744.288260	2532.900024
744.617477	2535.977648
744.946647	2534.266176
745.275768	2532.491690
745.604842	2531.715352
745.933869	2533.663758
746.262847	2530.452543
746.591778	2536.169212
746.920662	2535.211393
747.249498	2536.955632
747.578286	2538.132741
747.907027	2536.186856
748.235720	2536.706095
748.564365	2538.157947
748.892963	2539.319933
749.221514	2535.473533
749.550017	2535.803728
749.878473	2535.869263
750.206881	2536.736342
750.535242	2534.840868
750.863555	2537.472350
751.191821	2537.283307
751.520039	2538.357073
751.848210	2535.972607
752.176334	2534.782895
752.504411	2536.315405
752.832440	2538.193235
753.160421	2535.576876
753.488356	2536.322967
753.816243	2537.840354
754.144082	2536.466640
754.471875	2536.350693
754.799620	2534.467823
755.127318	2535.350024
755.454969	2536.151568
755.782572	2535.271887
756.110129	2537.371527
756.437638	2535.460930
756.765100	2536.718698
757.092515	2538.344470
757.419882	2534.346835
757.747203	2536.910262
758.074477	2535.034952
758.401703	2534.180477
758.728882	2535.390354
759.056014	2536.832124
759.383099	2533.628470
759.710138	2535.947401
760.037129	2537.074099
760.364073	2533.177287
760.690970	2535.380271
761.017820	2537.671476
761.344623	2536.005374
761.671379	2535.874304
761.998088	2529.807276
762.324751	2534.800539
762.651366	2532.567308
762.977935	2537.074099
763.304456	2534.293903
763.630931	2541.704399
763.957359	2539.879501
764.283740	2537.217772
764.610074	2536.406146
764.936362	2537.333718
765.262602	2535.213913
765.588796	2538.503266
765.914943	2533.878007
766.241044	2534.039324
766.567097	2532.516896
766.893104	2538.238606
767.219064	2533.487318
767.544978	2536.353214
767.870845	2532.506814
768.196665	2536.297761
768.522438	2534.026722
768.848165	2534.268697
769.173846	2532.232071
769.499479	2532.262318
769.825066	2536.043183
770.150607	2538.107536
770.476101	2534.160312
770.801548	2532.532019
771.126949	2530.560928
771.452303	2533.588141
771.777611	2535.534027
772.102872	2536.582587
772.428087	2536.388502
772.753256	2535.065199
773.078378	2534.709798
773.403453	2534.006557
773.728482	2535.062679
774.053465	2533.734335
774.378401	2536.176774
774.703291	2531.939684
775.028135	2533.063861
775.352932	2535.350024
775.677683	2535.960004
776.002388	2531.846422
776.327046	2533.530168
776.651658	2536.214582
776.976224	2531.909437
777.300743	2537.033770
777.625216	2534.009078
777.949643	2532.658048
778.274024	2534.732483
778.598359	2529.013294
778.922647	2530.495393
779.246889	2533.988913
779.571086	2528.383150
779.895236	2532.106042
780.219339	2533.842719
780.543397	2531.911958
780.867409	2533.938501
781.191374	2534.432534
781.515294	2531.947246
781.839167	2534.387164
782.162995	2532.957997
782.486776	2536.653163
782.810511	2532.703419
783.134201	2533.812472
783.457844	2535.060158
783.781441	2534.699716
784.104993	2530.485311
784.428498	2535.559232
784.751958	2534.306506
785.075372	2535.143337
785.398739	2532.264838
785.722061	2533.512524
786.045337	2531.889272
786.368568	2535.531506
786.691752	2533.835158
787.014891	2532.779036
787.337983	2534.198121
787.661030	2533.189890
787.984031	2533.625950
788.306987	2533.391536
788.629897	2533.104190
788.952760	2533.814993
789.275579	2534.603934
789.598351	2534.382123
789.921078	2533.598223
790.243759	2533.348686
790.566395	2534.440096
790.888984	2535.297092
791.211529	2537.036290
791.534027	2535.125693
791.856480	2535.690302
792.178888	2533.134437
792.501249	2534.548481
792.823566	2534.119983
793.145836	2532.158974
793.468062	2533.769623
793.790241	2534.203162
794.112375	2530.828109
794.434464	2534.498069
794.756507	2531.117976
795.078505	2533.013450
795.400457	2529.731658
795.722364	2531.002029
796.044226	2532.315250
796.366042	2529.824920
796.687812	2529.320804
797.009538	2535.070240
797.331218	2534.359438
797.652852	2532.224509
797.974442	2532.680733
798.295986	2534.009078
798.617484	2530.281144
798.938938	2534.475384
799.260346	2533.472195
799.581709	2534.467823
799.903026	2534.422452
800.224299	2536.000333
800.545526	2532.980682
800.866708	2533.454551
801.187845	2531.319622
801.508936	2533.585621
801.829983	2530.331556
802.150984	2532.779036
802.471940	2532.869777
802.792851	2533.341125
803.113717	2533.998995
803.434538	2530.026566
803.755314	2531.448171
804.076045	2533.787267
804.396731	2533.782226
804.717372	2533.688964
805.037967	2532.554705
805.358518	2533.338604
805.679024	2535.264325
805.999485	2532.443799
806.319901	2535.944881
806.640272	2530.455064
806.960598	2533.217616
807.280879	2531.664941
807.601115	2535.150899
807.921306	2532.816845
808.241453	2536.010416
808.561554	2534.556043
808.881611	2534.462781
809.201623	2534.109901
809.521590	2533.557894
809.841513	2535.428162
810.161390	2532.393388
810.481223	2533.573018
810.801011	2531.140661
811.120755	2531.117976
811.440453	2535.866743
811.760107	2531.231402
812.079716	2530.293747
812.399281	2528.748633
812.718801	2530.399611
813.038276	2527.110258
813.357707	2532.831968
813.677093	2532.791639
813.996434	2533.721732
814.315731	2533.890610
814.634983	2533.177287
814.954191	2533.298275
815.273354	2533.310878
815.592473	2532.050589
815.911547	2531.039838
816.230577	2533.562935
816.549562	2532.287523
816.868502	2533.136958
817.187399	2535.193749
817.506250	2532.095960
817.825058	2534.331711
818.143821	2532.584952
818.462539	2532.070754
818.781213	2533.915816
819.099843	2533.938501
819.418429	2535.760878
819.736970	2533.366330
820.055466	2534.780374
820.373919	2535.362627
820.692327	2534.467823
821.010691	2535.617206
821.329011	2536.179294
821.647286	2548.522559
821.965517	2551.958106
822.283704	2555.638148
822.601847	2557.944476
822.919945	2554.982798
823.237999	2550.309648
823.556010	2551.650595
823.873976	2543.075593
824.191897	2543.052908
824.509775	2537.888245
824.827609	2539.824048
825.145398	2536.353214
825.463144	2538.523431
825.780845	2536.943029
826.098502	2540.592824
826.416116	2540.464275
826.733685	2542.999975
827.051210	2541.613658
827.368692	2542.057280
827.686129	2540.779347
828.003522	2538.341949
828.320872	2531.208717
828.638177	2534.117462
828.955439	2530.142513
829.272656	2531.460774
829.589830	2532.095960
829.906960	2535.211393
830.224046	2530.775177
830.541088	2531.473377
830.858086	2533.245343
831.175041	2534.437576
831.491952	2529.938346
831.808819	2532.227030
832.125642	2534.268697
832.442421	2533.114273
832.759157	2533.373892
833.075849	2535.907072
833.392497	2535.917154
833.709101	2536.993441
834.025662	2536.519572
834.342179	2539.360262
834.658653	2537.240457
834.975083	2534.767771
835.291469	2539.360262
835.607811	2533.328522
835.924110	2533.111752
836.240366	2533.472195
836.556578	2529.887934
836.872746	2533.141999
837.188871	2530.538243
837.504952	2533.131917
837.820990	2532.595034
838.136984	2531.246525
838.452935	2531.422966
838.768842	2530.689478
839.084706	2533.111752
839.400526	2531.601927
839.716303	2534.034283
840.032037	2533.003367
840.347727	2533.598223
840.663373	2531.259128
840.978977	2531.191072
841.294537	2533.673841
841.610054	2532.080836
841.925527	2535.198790
842.240957	2530.553367
842.556344	2531.717873
842.871687	2531.412883
843.186987	2531.047400
843.502244	2528.897347
843.817458	2530.079498
844.132629	2528.536905
844.447756	2530.898686
844.762840	2526.941380
845.077881	2530.076978
845.392879	2528.834333
845.707833	2529.237625
846.022745	2526.167563
846.337613	2530.167718
846.652438	2530.591175
846.967221	2533.696526
847.281960	2527.458098
847.596656	2532.164015
847.911309	2528.584796
848.225919	2531.702750
848.540485	2531.944725
848.855009	2531.576721
849.169490	2532.700898
849.483928	2528.904909
849.798323	2530.926412
850.112675	2529.751823
850.426984	2528.055475
850.741251	2529.593027
851.055474	2532.867256
851.369654	2530.447502
851.683792	2533.242822
851.997887	2532.310209
852.311938	2529.915661
852.625947	2529.698891
852.939914	2531.206196
853.253837	2532.592513
853.567718	2530.399611
853.881555	2530.616381
854.195350	2529.461957
854.509103	2532.176618
854.822812	2530.442461
855.136479	2531.314581
855.450103	2530.989426
855.763685	2530.399611
856.077224	2528.965403
856.390720	2530.634025
856.704173	2532.499252
857.017584	2531.042358
857.330953	2529.547656
857.644278	2530.616381
857.957561	2533.482277
858.270802	2530.661751
858.584000	2531.793490
858.897155	2530.278624
859.210268	2531.503624
859.523339	2531.425486
859.836367	2529.414066
860.149352	2533.361289
860.462295	2529.106555
860.775195	2528.577234
861.088054	2526.459950
861.400869	2530.903727
861.713642	2522.696728
862.026373	2528.720907
862.339062	2528.463808
862.651708	2531.312060
862.964312	2530.180321
863.276873	2530.243336
863.589392	2531.075126
863.901869	2528.436082
864.214303	2529.547656
864.526696	2526.830474
864.839045	2529.706453
865.151353	2533.063861
865.463619	2530.102183
865.775842	2530.606299
866.088023	2529.499765
866.400162	2528.360465
866.712258	2530.036648
867.024313	2530.460105
867.336325	2529.030938
867.648296	2532.242153
867.960224	2529.933305
868.272110	2530.686957
868.583954	2528.695701
868.895755	2529.280475
869.207515	2529.056144
869.519233	2528.703263
869.830909	2529.950949
870.142542	2530.850795
870.454134	2530.281144
870.765684	2529.232584
871.077191	2530.765095
871.388657	2530.457585
871.700081	2529.424148
872.011463	2531.468336
872.322803	2530.008922
872.634101	2529.870290
872.945357	2531.667462
873.256571	2532.814324
873.567744	2529.056144
873.878874	2530.313912
874.189963	2529.696370
874.501010	2529.608150
874.812015	2527.027079
875.122979	2532.350538
875.433900	2530.752492
875.744780	2530.107224
876.055618	2529.114117
876.366415	2529.688809
876.677169	2531.158305
876.987882	2531.289375
877.298554	2524.695546
877.609183	2530.626463
877.919771	2525.355937
878.230317	2528.138654
878.540822	2530.407173
878.851285	2533.913296
879.161707	2530.538243
879.472087	2532.663089
879.782425	2533.646114
880.092722	2534.099818
880.402977	2532.950435
880.713191	2536.776671
881.023363	2540.476878
881.333494	2543.859492
881.643583	2543.967877
881.953631	2542.760521
882.263637	2541.563247
882.573602	2542.919317
882.883526	2541.018802
883.193408	2538.236085
883.503248	2536.328008
883.813048	2535.818852
884.122806	2534.871115
884.432522	2535.007226
884.742197	2533.366330
885.051831	2533.371372
885.361424	2530.863398
885.670975	2532.032945
885.980485	2531.662420
886.289954	2530.550846
886.599382	2530.991947
886.908768	2531.614529
887.218113	2530.407173
887.527417	2530.326515
887.836680	2530.901206
888.145901	2528.698222
888.455082	2531.654859
888.764221	2529.746782
889.073319	2528.630166
889.382376	2528.965403
889.691392	2530.369364
890.000366	2532.942873
890.309300	2531.609488
890.618193	2529.018335
890.927044	2530.636546
891.235855	2528.849457
891.544625	2530.772657
891.853353	2530.389529
892.162041	2528.723428
892.470687	2530.591175
892.779293	2532.216947
893.087858	2525.819723
893.396381	2526.376771
893.704864	2528.181504
894.013306	2526.240659
894.321707	2534.848430
894.630068	2532.748789
894.938387	2537.626105
895.246665	2534.891279
895.554903	2532.458923
895.863100	2531.841381
896.171256	2532.809283
896.479371	2531.513706
896.787446	2533.983872
897.095480	2530.490352
897.403473	2533.719211
897.711425	2532.007739
898.019336	2530.863398
898.327207	2529.872811
898.635038	2529.983716
898.942827	2528.305012
899.250576	2528.642769
899.558284	2530.122348
899.865952	2529.257790
900.173579	2531.959848
900.481165	2528.998171
900.788711	2528.564631
901.096216	2532.532019
901.403681	2528.662934
901.711105	2528.746113
902.018489	2526.593540
902.325832	2530.616381
902.633135	2529.109076
902.940397	2530.775177
903.247619	2530.480270
903.554800	2530.644107
903.861941	2536.325488
904.169041	2535.934798
904.476101	2536.038142
904.783121	2534.651825
905.090100	2534.737524
905.397039	2534.876156
905.703938	2530.621422
906.010796	2535.034952
906.317614	2531.599406
906.624391	2528.642769
906.931129	2530.291227
907.237826	2528.990609
907.544483	2529.648479
907.851099	2529.310722
908.157675	2529.164529
908.464211	2529.600588
908.770707	2526.283509
909.077163	2526.664116
909.383578	2526.354085
909.689954	2526.654034
909.996289	2526.429703
910.302584	2530.913809
910.608839	2528.607481
910.915054	2530.780218
911.221229	2530.578572
911.527363	2531.339787
911.833458	2531.090249
912.139513	2528.236956
912.445527	2527.974816
912.751502	2530.432379
913.057436	2526.832995
913.363331	2528.680578
913.669186	2528.834333
913.975000	2529.245187
914.280775	2529.703932
914.586510	2530.681916
914.892205	2531.402801
915.197859	2532.728624
915.503475	2532.043027
915.809050	2531.657379
916.114585	2534.324150
916.420081	2531.548994
916.725536	2535.133255
917.030952	2534.029242
917.336328	2533.222657
917.641665	2535.579397
917.946961	2530.132430
918.252218	2530.860877
918.557435	2530.838192
918.862612	2528.730989
919.167750	2529.098994
919.472848	2533.802390
919.777906	2529.033459
920.082925	2529.827440
920.387904	2531.097811
920.692843	2530.082019
920.997743	2527.518592
921.302603	2528.836854
921.607423	2529.187214
921.912204	2528.778880
922.216946	2531.092770
922.521647	2528.887265
922.826310	2526.971627
923.130932	2530.296268
923.435516	2528.398273
923.740059	2528.252080
924.044564	2527.246370
924.349028	2528.907430
924.653454	2526.303674
924.957840	2524.607326
925.262186	2523.387366
925.566493	2528.884745
925.870761	2521.023065
926.174989	2528.103366
926.479178	2526.444826
926.783328	2529.058664
927.087438	2530.984385
927.391509	2527.246370
927.695541	2529.560259
927.999533	2531.206196
928.303486	2527.269055
928.607400	2527.861390
928.911275	2527.642100
929.215110	2527.939528
929.518906	2528.746113
929.822663	2528.688140
930.126381	2527.589168
930.430060	2529.771988
930.733699	2529.661082
931.037299	2529.509848
931.340861	2528.317615
931.644383	2526.875845
931.947866	2527.871473
932.251309	2528.224353
932.554714	2527.800897
932.858080	2527.677388
933.161407	2527.589168
933.464694	2529.363654
933.767943	2527.914322
934.071153	2527.150588
934.374323	2528.917512
934.677455	2527.659744
934.980548	2527.213602
935.283602	2528.189065
935.586617	2527.039682
935.889593	2527.896678
936.192530	2525.857532
936.495428	2528.156298
936.798287	2528.579755
937.101108	2525.484486
937.403890	2526.585978
937.706632	2526.701925
938.009336	2526.835516
938.312002	2529.053623
938.614628	2528.799045
938.917216	2529.104035
939.219765	2526.583458
939.522275	2528.937677
939.824747	2526.797707
940.127179	2526.439785
940.429573	2526.515402
940.731929	2523.969620
941.034246	2524.345186
941.336524	2526.462470
941.638763	2528.902389
941.940964	2526.991791
942.243126	2524.433406
942.545250	2526.306194
942.847335	2529.063706
943.149381	2525.897861
943.451389	2528.529343
943.753359	2524.998015
944.055290	2526.971627
944.357182	2527.284178
944.659036	2526.117151
944.960851	2526.462470
945.262628	2526.182686
945.564367	2527.679909
945.866067	2528.657893
946.167729	2526.785104
946.469352	2526.437264
946.770937	2529.663603
947.072484	2526.144877
947.373992	2529.630835
947.675462	2527.551359
947.976893	2528.005063
948.278286	2525.086235
948.579641	2526.817872
948.880958	2527.783252
949.182236	2525.834847
949.483476	2529.151926
949.784678	2526.280989
950.085841	2529.530012
950.386967	2524.652696
950.688054	2526.928777
950.989103	2526.832995
951.290114	2525.471883
951.591087	2526.903571
951.892021	2528.211751
952.192917	2526.359127
952.493776	2528.171421
952.794596	2525.570186
953.095378	2525.580268
953.396122	2527.374919
953.696828	2527.816020
953.997496	2529.159488
954.298126	2524.685463
954.598718	2530.371885
954.899272	2522.973992
955.199788	2528.478932
955.500266	2526.827954
955.800706	2526.477594
956.101108	2525.078673
956.401472	2523.616739
956.701798	2520.697911
957.002087	2523.049609
957.302337	2527.863911
957.602550	2527.327028
957.902724	2527.148067
958.202861	2525.199661
958.502960	2525.802079
958.803022	2526.424662
959.103045	2526.916174
959.403031	2527.437933
959.702979	2525.968437
960.002889	2528.657893
960.302762	2525.333252
960.602596	2527.790814
960.902393	2526.674199
961.202153	2525.764270
961.501875	2525.698735
961.801559	2528.841895
962.101205	2524.715710
962.400814	2525.865093
962.700385	2525.988602
962.999918	2526.651513
963.299414	2526.528005
963.598873	2526.573376
963.898293	2528.146216
964.197677	2527.432892
964.497022	2527.206040
964.796331	2527.949611
965.095601	2525.131606
965.394835	2526.890968
965.694030	2521.638086
965.993189	2525.998684
966.292309	2528.282327
966.591393	2525.872655
966.890439	2525.953314
967.189447	2525.711338
967.488419	2527.011956
967.787353	2528.952800
968.086249	2527.846267
968.385108	2526.505320
968.683930	2528.587317
968.982714	2526.258303
969.281462	2525.527336
969.580172	2526.792666
969.878844	2524.481297
970.177480	2526.560773
970.476078	2527.964734
970.774639	2529.799714
971.073162	2527.354754
971.371649	2523.606657
971.670098	2522.096831
971.968510	2522.328724
972.266885	2523.072294
972.565223	2526.762419
972.863524	2524.998015
973.161788	2528.829292
973.460014	2527.916843
973.758204	2526.762419
974.056356	2525.481966
974.354471	2528.022707
974.652550	2528.131092
974.950591	2525.454239
975.248595	2524.849301
975.546563	2526.681760
975.844493	2523.596574
976.142386	2526.787625
976.440243	2527.566483
976.738062	2527.488345
977.035845	2527.390043
977.333590	2525.068591
977.631299	2525.257634
977.928971	2526.648993
978.226606	2528.355423
978.524204	2528.042872
978.821765	2524.362830
979.119290	2525.862573
979.416777	2523.815864
979.714228	2525.406348
980.011642	2524.458612
980.309020	2525.119003
980.606360	2526.742254
980.903664	2527.594209
981.200931	2527.415248
981.498162	2523.805782
981.795356	2524.642614
982.092513	2528.670496
982.389633	2525.020700
982.686717	2525.686133
982.983764	2526.361647
983.280775	2525.199661
983.577749	2526.275948
983.874686	2528.730989
984.171587	2527.505989
984.468451	2526.611184
984.765279	2527.402645
985.062070	2527.823582
985.358824	2525.368540
985.655543	2525.691174
985.952224	2528.312574
986.248869	2527.422810
986.545478	2521.375946
986.842050	2524.803931
987.138586	2523.324352
987.435086	2524.826616
987.731549	2520.841584
988.027975	2526.618746
988.324366	2524.209074
988.620719	2527.014477
988.917037	2526.409538
989.213318	2525.360978
989.509563	2526.217974
989.805772	2529.003212
990.101944	2526.323838
990.398080	2525.950793
990.694180	2526.744775
990.990244	2524.577079
991.286271	2525.817202
991.582262	2526.933818
991.878217	2523.462984
992.174136	2527.944569
992.470019	2523.712521
992.765865	2528.252080
993.061676	2523.339475
993.357450	2527.372398
993.653188	2526.066740
993.948890	2528.196627
994.244556	2526.596061
994.540186	2526.890968
994.835780	2527.168232
995.131337	2526.341482
995.426859	2526.906092
995.722345	2524.556914
996.017795	2523.142870
996.313208	2526.870804
996.608586	2527.165711
996.903928	2523.228570
997.199234	2527.770650
997.494504	2525.519774
997.789738	2524.239321
998.084936	2525.025741
998.380099	2525.920546
998.675225	2526.197810
998.970316	2526.938859
999.265371	2525.991122
999.560390	2525.035824
999.855373	2523.485669
1000.150320	2524.193951
1000.445232	2524.138498
1000.740108	2524.821575
1001.034948	2528.211751
1001.329752	2525.819723
1001.624521	2526.926256
1001.919254	2522.825278
1002.213951	2523.475587
1002.508613	2520.095493
1002.803239	2526.948942
1003.097829	2524.113293
1003.392384	2525.678571
1003.686903	2522.147242
1003.981386	2524.788807
1004.275834	2525.529857
1004.570246	2524.829136
1004.864623	2525.464322
1005.158964	2527.122861
1005.453270	2526.023890
1005.747540	2524.670340
1006.041775	2524.698066
1006.335974	2525.950793
1006.630138	2525.091276
1006.924266	2525.552542
1007.218359	2524.070443
1007.512416	2527.175793
1007.806438	2526.921215
1008.100425	2524.894671
1008.394376	2526.033972
1008.688292	2525.860052
1008.982172	2523.067253
1009.276017	2525.517254
1009.569827	2524.088087
1009.863602	2528.241998
1010.157341	2525.055988
1010.451045	2524.418282
1010.744714	2526.089425
1011.038347	2524.428365
1011.331945	2525.698735
1011.625508	2523.566327
1011.919036	2526.344003
1012.212528	2526.996832
1012.505986	2524.892151
1012.799408	2524.955165
1013.092795	2524.491379
1013.386147	2525.358457
1013.679464	2523.349558
1013.972745	2523.715041
1014.265992	2524.909795
1014.559204	2525.413910
1014.852380	2527.808458
1015.145521	2524.551873
1015.438628	2524.869466
1015.731699	2526.149919
1016.024736	2521.955679
1016.317737	2527.339631
1016.610703	2526.790145
1016.903635	2524.123375
1017.196531	2519.205729
1017.489393	2525.363499
1017.782219	2519.856038
1018.075011	2521.789321
1018.367768	2525.799558
1018.660490	2525.756709
1018.953177	2525.756709
1019.245829	2525.756709
