Dividing Wavelength (nm)	Counts (n)	Blue Motor Position (mm): 0.000000	Red Motor Position (mm): 9.400000	
326.493990	2112.243462
326.888308	2112.243462
327.282561	2112.243462
327.676750	2107.202308
328.070874	2094.599423
328.464933	2119.805192
328.858929	2046.708462
329.252859	2142.490385
329.646726	2102.161154
330.040528	2089.558269
330.434265	2071.914231
330.827938	2117.284615
331.221547	2240.792885
331.615091	2170.216731
332.008571	2172.737308
332.401986	2185.340192
332.795338	2202.984231
333.188625	2293.725000
333.581847	2298.766154
333.975006	2351.698269
334.368100	2356.739423
334.761129	2341.615962
335.154095	2381.945192
335.546996	2323.971923
335.939833	2409.671538
336.332606	2422.274423
336.725315	2359.260000
337.117960	2384.465769
337.510540	2326.492500
337.903056	2414.712692
338.295508	2409.671538
338.687896	2354.218846
339.080220	2467.644808
339.472480	2533.179808
339.864676	2457.562500
340.256807	2399.589231
340.648875	2392.027500
341.040879	2553.344423
341.432818	2450.000769
341.824694	2457.562500
342.216506	2419.753846
342.608253	2490.330000
342.999937	2475.206538
343.391557	2485.288846
343.783113	2568.467885
344.174605	2565.947308
344.566033	2414.712692
344.957397	2437.397885
345.348697	2482.768269
345.739934	2513.015192
346.131106	2472.685962
346.522215	2432.356731
346.913260	2442.439038
347.304241	2535.700385
347.695159	2394.548077
348.086012	2404.630385
348.476802	2414.712692
348.867528	2490.330000
349.258191	2437.397885
349.648789	2492.850577
350.039324	2427.315577
350.429796	2492.850577
350.820203	2424.795000
351.210548	2518.056346
351.600828	2475.206538
351.991045	2462.603654
352.381198	2429.836154
352.771288	2447.480192
353.161314	2518.056346
353.551276	2487.809423
353.941175	2490.330000
354.331010	2450.000769
354.720782	2452.521346
355.110490	2467.644808
355.500135	2497.891731
355.889717	2460.083077
356.279235	2450.000769
356.668689	2490.330000
357.058080	2447.480192
357.447408	2371.862885
357.836672	2455.041923
358.225873	2419.753846
358.615010	2470.165385
359.004084	2422.274423
359.393095	2450.000769
359.782043	2316.410192
360.170927	2379.424615
360.559748	2429.836154
360.948505	2500.412308
361.337199	2444.959615
361.725830	2462.603654
362.114398	2399.589231
362.502903	2379.424615
362.891344	2500.412308
363.279722	2381.945192
363.668037	2460.083077
364.056289	2540.741538
364.444478	2444.959615
364.832603	2409.671538
365.220665	2429.836154
365.608665	2399.589231
365.996601	2495.371154
366.384474	2412.192115
366.772284	2510.494615
367.160031	2414.712692
367.547715	2500.412308
367.935336	2518.056346
368.322893	2510.494615
368.710388	2323.971923
369.097820	2457.562500
369.485189	2399.589231
369.872495	2442.439038
370.259738	2394.548077
370.646918	2447.480192
371.034035	2442.439038
371.421090	2424.795000
371.808081	2465.124231
372.195010	2386.986346
372.581875	2457.562500
372.968678	2439.918462
373.355418	2467.644808
373.742096	2477.727115
374.128710	2482.768269
374.515262	2452.521346
374.901751	2505.453462
375.288177	2538.220962
375.674540	2487.809423
376.060841	2384.465769
376.447079	2419.753846
376.833254	2432.356731
377.219367	2402.109808
377.605417	2417.233269
377.991404	2507.974038
378.377329	2409.671538
378.763191	2434.877308
379.148991	2419.753846
379.534727	2497.891731
379.920402	2477.727115
380.306013	2495.371154
380.691563	2422.274423
381.077049	2495.371154
381.462474	2472.685962
381.847835	2487.809423
382.233134	2457.562500
382.618371	2525.618077
383.003545	2422.274423
383.388657	2475.206538
383.773706	2412.192115
384.158693	2432.356731
384.543618	2457.562500
384.928480	2439.918462
385.313280	2502.932885
385.698017	2470.165385
386.082692	2480.247692
386.467305	2381.945192
386.851856	2465.124231
387.236344	2565.947308
387.620770	2530.659231
388.005133	2520.576923
388.389435	2414.712692
388.773674	2513.015192
389.157851	2402.109808
389.541965	2475.206538
389.926018	2409.671538
390.310008	2502.932885
390.693936	2495.371154
391.077802	2500.412308
391.461606	2381.945192
391.845348	2455.041923
392.229027	2460.083077
392.612645	2437.397885
392.996200	2515.535769
393.379694	2475.206538
393.763125	2528.138654
394.146494	2409.671538
394.529801	2467.644808
394.913047	2467.644808
395.296230	2422.274423
395.679351	2371.862885
396.062410	2394.548077
396.445408	2482.768269
396.828343	2437.397885
397.211217	2444.959615
397.594028	2495.371154
397.976778	2407.150962
398.359466	2475.206538
398.742092	2397.068654
399.124656	2457.562500
399.507158	2507.974038
399.889598	2417.233269
400.271977	2528.138654
400.654294	2548.303269
401.036549	2533.179808
401.418742	2487.809423
401.800874	2462.603654
402.182944	2447.480192
402.564952	2422.274423
402.946898	2475.206538
403.328783	2477.727115
403.710606	2455.041923
404.092367	2523.097500
404.474067	2424.795000
404.855705	2457.562500
405.237282	2462.603654
405.618797	2437.397885
406.000250	2439.918462
406.381642	2407.150962
406.762972	2477.727115
407.144240	2535.700385
407.525447	2437.397885
407.906593	2475.206538
408.287677	2457.562500
408.668700	2507.974038
409.049661	2467.644808
409.430560	2482.768269
409.811399	2467.644808
410.192176	2452.521346
410.572891	2502.932885
410.953545	2502.932885
411.334138	2510.494615
411.714669	2487.809423
412.095139	2460.083077
412.475547	2520.576923
412.855894	2434.877308
413.236180	2424.795000
413.616405	2578.550192
413.996568	2465.124231
414.376670	2470.165385
414.756711	2523.097500
415.136691	2497.891731
415.516609	2392.027500
415.896466	2407.150962
416.276262	2515.535769
416.655997	2515.535769
417.035670	2477.727115
417.415283	2505.453462
417.794834	2442.439038
418.174324	2497.891731
418.553753	2533.179808
418.933121	2467.644808
419.312428	2392.027500
419.691674	2444.959615
420.070859	2492.850577
420.449983	2444.959615
420.829045	2507.974038
421.208047	2455.041923
421.586988	2422.274423
421.965867	2500.412308
422.344686	2507.974038
422.723444	2402.109808
423.102141	2593.673654
423.480777	2465.124231
423.859352	2576.029615
424.237866	2553.344423
424.616319	2485.288846
424.994712	2500.412308
425.373044	2457.562500
425.751314	2497.891731
426.129524	2450.000769
426.507673	2507.974038
426.885762	2460.083077
427.263789	2603.755962
427.641756	2482.768269
428.019662	2450.000769
428.397508	2462.603654
428.775292	2540.741538
429.153016	2475.206538
429.530679	2480.247692
429.908282	2460.083077
430.285824	2470.165385
430.663305	2414.712692
431.040726	2568.467885
431.418086	2434.877308
431.795385	2465.124231
432.172624	2450.000769
432.549802	2457.562500
432.926920	2497.891731
433.303977	2432.356731
433.680974	2523.097500
434.057910	2505.453462
434.434786	2447.480192
434.811601	2437.397885
435.188355	2450.000769
435.565050	2455.041923
435.941683	2502.932885
436.318257	2437.397885
436.694770	2518.056346
437.071222	2495.371154
437.447614	2492.850577
437.823946	2495.371154
438.200218	2457.562500
438.576429	2452.521346
438.952580	2513.015192
439.328670	2510.494615
439.704700	2452.521346
440.080670	2538.220962
440.456580	2490.330000
440.832429	2465.124231
441.208218	2505.453462
441.583947	2444.959615
441.959616	2502.932885
442.335224	2495.371154
442.710773	2482.768269
443.086261	2482.768269
443.461689	2492.850577
443.837057	2485.288846
444.212365	2472.685962
444.587612	2460.083077
444.962800	2495.371154
445.337927	2500.412308
445.712995	2492.850577
446.088002	2434.877308
446.462949	2535.700385
446.837837	2467.644808
447.212664	2500.412308
447.587431	2439.918462
447.962139	2518.056346
448.336786	2523.097500
448.711374	2518.056346
449.085901	2460.083077
449.460369	2404.630385
449.834776	2432.356731
450.209124	2540.741538
450.583412	2507.974038
450.957640	2510.494615
451.331808	2518.056346
451.705917	2510.494615
452.079965	2500.412308
452.453954	2437.397885
452.827883	2455.041923
453.201752	2487.809423
453.575562	2424.795000
453.949311	2545.782692
454.323001	2467.644808
454.696632	2432.356731
455.070202	2392.027500
455.443713	2513.015192
455.817164	2412.192115
456.190556	2568.467885
456.563888	2475.206538
456.937160	2500.412308
457.310373	2460.083077
457.683526	2460.083077
458.056619	2422.274423
458.429653	2467.644808
458.802628	2525.618077
459.175542	2434.877308
459.548398	2500.412308
459.921194	2530.659231
460.293930	2497.891731
460.666607	2477.727115
461.039224	2472.685962
461.411782	2429.836154
461.784280	2515.535769
462.156719	2437.397885
462.529099	2467.644808
462.901419	2379.424615
463.273680	2480.247692
463.645882	2513.015192
464.018024	2588.632500
464.390106	2492.850577
464.762130	2460.083077
465.134094	2434.877308
465.505999	2460.083077
465.877845	2492.850577
466.249631	2475.206538
466.621358	2439.918462
466.993026	2563.426731
467.364634	2480.247692
467.736184	2439.918462
468.107674	2543.262115
468.479105	2455.041923
468.850477	2530.659231
469.221790	2424.795000
469.593043	2490.330000
469.964238	2505.453462
470.335373	2513.015192
470.706449	2470.165385
471.077467	2523.097500
471.448425	2480.247692
471.819324	2523.097500
472.190164	2490.330000
472.560945	2505.453462
472.931667	2545.782692
473.302330	2525.618077
473.672934	2515.535769
474.043479	2505.453462
474.413965	2437.397885
474.784393	2578.550192
475.154761	2507.974038
475.525070	2513.015192
475.895321	2457.562500
476.265513	2548.303269
476.635645	2492.850577
477.005719	2467.644808
477.375734	2510.494615
477.745691	2492.850577
478.115588	2563.426731
478.485427	2530.659231
478.855207	2548.303269
479.224928	2530.659231
479.594591	2485.288846
479.964194	2444.959615
480.333739	2576.029615
480.703226	2452.521346
481.072653	2470.165385
481.442022	2462.603654
481.811333	2528.138654
482.180584	2467.644808
482.549777	2485.288846
482.918912	2495.371154
483.287988	2475.206538
483.657005	2523.097500
484.025964	2507.974038
484.394864	2487.809423
484.763706	2528.138654
485.132489	2457.562500
485.501213	2460.083077
485.869879	2528.138654
486.238487	2482.768269
486.607036	2518.056346
486.975527	2533.179808
487.343959	2465.124231
487.712333	2482.768269
488.080648	2434.877308
488.448905	2523.097500
488.817104	2429.836154
489.185244	2482.768269
489.553326	2409.671538
489.921350	2502.932885
490.289315	2480.247692
490.657222	2500.412308
491.025070	2505.453462
491.392861	2515.535769
491.760593	2480.247692
492.128267	2495.371154
492.495883	2475.206538
492.863440	2432.356731
493.230939	2487.809423
493.598380	2540.741538
493.965763	2397.068654
494.333088	2533.179808
494.700354	2460.083077
495.067563	2432.356731
495.434713	2470.165385
495.801805	2422.274423
496.168839	2490.330000
496.535815	2560.906154
496.902733	2485.288846
497.269593	2550.823846
497.636395	2434.877308
498.003139	2555.865000
498.369825	2515.535769
498.736453	2518.056346
499.103023	2510.494615
499.469535	2513.015192
499.835989	2568.467885
500.202385	2528.138654
500.568723	2528.138654
500.935003	2535.700385
501.301226	2455.041923
501.667390	2513.015192
502.033497	2533.179808
502.399546	2452.521346
502.765537	2507.974038
503.131470	2462.603654
503.497345	2475.206538
503.863163	2465.124231
504.228923	2475.206538
504.594625	2477.727115
504.960269	2520.576923
505.325856	2487.809423
505.691385	2502.932885
506.056856	2487.809423
506.422270	2402.109808
506.787625	2455.041923
507.152924	2462.603654
507.518164	2470.165385
507.883347	2568.467885
508.248472	2429.836154
508.613540	2452.521346
508.978550	2505.453462
509.343503	2495.371154
509.708398	2442.439038
510.073236	2460.083077
510.438016	2490.330000
510.802738	2492.850577
511.167403	2487.809423
511.532010	2510.494615
511.896561	2495.371154
512.261053	2520.576923
512.625488	2505.453462
512.989866	2543.262115
513.354186	2505.453462
513.718449	2462.603654
514.082655	2439.918462
514.446803	2502.932885
514.810894	2520.576923
515.174927	2442.439038
515.538904	2424.795000
515.902822	2455.041923
516.266684	2545.782692
516.630488	2434.877308
516.994235	2434.877308
517.357925	2553.344423
517.721558	2467.644808
518.085133	2442.439038
518.448651	2593.673654
518.812112	2548.303269
519.175516	2470.165385
519.538863	2407.150962
519.902152	2550.823846
520.265385	2500.412308
520.628560	2462.603654
520.991678	2510.494615
521.354739	2543.262115
521.717743	2490.330000
522.080690	2455.041923
522.443580	2530.659231
522.806413	2545.782692
523.169189	2485.288846
523.531908	2399.589231
523.894569	2553.344423
524.257174	2510.494615
524.619722	2487.809423
524.982213	2497.891731
525.344647	2439.918462
525.707025	2414.712692
526.069345	2460.083077
526.431608	2538.220962
526.793815	2457.562500
527.155964	2495.371154
527.518057	2472.685962
527.880093	2530.659231
528.242072	2437.397885
528.603995	2412.192115
528.965860	2507.974038
529.327669	2565.947308
529.689421	2515.535769
530.051117	2502.932885
530.412755	2505.453462
530.774337	2452.521346
531.135862	2497.891731
531.497331	2487.809423
531.858743	2460.083077
532.220098	2513.015192
532.581396	2439.918462
532.942638	2502.932885
533.303824	2507.974038
533.664953	2515.535769
534.026025	2510.494615
534.387040	2439.918462
534.747999	2525.618077
535.108902	2462.603654
535.469748	2462.603654
535.830537	2510.494615
536.191270	2485.288846
536.551947	2518.056346
536.912567	2460.083077
537.273131	2495.371154
537.633638	2399.589231
537.994089	2523.097500
538.354483	2437.397885
538.714821	2470.165385
539.075103	2492.850577
539.435328	2535.700385
539.795497	2465.124231
540.155609	2502.932885
540.515665	2510.494615
540.875665	2414.712692
541.235609	2412.192115
541.595496	2482.768269
541.955328	2495.371154
542.315102	2520.576923
542.674821	2407.150962
543.034483	2535.700385
543.394090	2465.124231
543.753640	2502.932885
544.113134	2530.659231
544.472571	2523.097500
544.831953	2518.056346
545.191278	2437.397885
545.550548	2540.741538
545.909761	2434.877308
546.268918	2505.453462
546.628019	2507.974038
546.987064	2497.891731
547.346053	2475.206538
547.704986	2513.015192
548.063863	2477.727115
548.422684	2533.179808
548.781449	2457.562500
549.140158	2538.220962
549.498811	2434.877308
549.857408	2528.138654
550.215949	2465.124231
550.574434	2573.509038
550.932864	2477.727115
551.291237	2523.097500
551.649555	2442.439038
552.007817	2543.262115
552.366022	2550.823846
552.724173	2502.932885
553.082267	2510.494615
553.440305	2465.124231
553.798288	2384.465769
554.156215	2495.371154
554.514086	2490.330000
554.871902	2485.288846
555.229661	2437.397885
555.587365	2543.262115
555.945014	2477.727115
556.302606	2550.823846
556.660143	2422.274423
557.017625	2437.397885
557.375050	2460.083077
557.732421	2608.797115
558.089735	2545.782692
558.446994	2439.918462
558.804197	2467.644808
559.161345	2460.083077
559.518437	2578.550192
559.875474	2523.097500
560.232455	2555.865000
560.589381	2467.644808
560.946251	2434.877308
561.303065	2442.439038
561.659825	2480.247692
562.016528	2502.932885
562.373177	2513.015192
562.729770	2548.303269
563.086307	2475.206538
563.442789	2505.453462
563.799216	2465.124231
564.155587	2520.576923
564.511904	2528.138654
564.868164	2558.385577
565.224370	2507.974038
565.580520	2452.521346
565.936615	2525.618077
566.292654	2467.644808
566.648638	2477.727115
567.004567	2573.509038
567.360441	2500.412308
567.716260	2432.356731
568.072023	2523.097500
568.427732	2487.809423
568.783385	2500.412308
569.138982	2560.906154
569.494525	2500.412308
569.850013	2581.070769
570.205445	2528.138654
570.560823	2500.412308
570.916145	2520.576923
571.271412	2510.494615
571.626625	2596.194231
571.981782	2502.932885
572.336884	2535.700385
572.691931	2505.453462
573.046923	2560.906154
573.401860	2442.439038
573.756743	2475.206538
574.111570	2568.467885
574.466342	2412.192115
574.821059	2470.165385
575.175722	2460.083077
575.530330	2523.097500
575.884882	2497.891731
576.239380	2470.165385
576.593823	2465.124231
576.948211	2565.947308
577.302544	2500.412308
577.656823	2568.467885
578.011047	2520.576923
578.365216	2497.891731
578.719330	2437.397885
579.073389	2490.330000
579.427394	2432.356731
579.781344	2535.700385
580.135239	2583.591346
580.489080	2447.480192
580.842866	2555.865000
581.196597	2530.659231
581.550273	2518.056346
581.903895	2490.330000
582.257463	2467.644808
582.610975	2472.685962
582.964434	2470.165385
583.317837	2518.056346
583.671186	2439.918462
584.024481	2457.562500
584.377721	2510.494615
584.730906	2475.206538
585.084037	2487.809423
585.437113	2545.782692
585.790135	2462.603654
586.143103	2500.412308
586.496016	2386.986346
586.848874	2528.138654
587.201679	2553.344423
587.554428	2515.535769
587.907124	2525.618077
588.259765	2432.356731
588.612352	2538.220962
588.964884	2505.453462
589.317362	2497.891731
589.669786	2442.439038
590.022155	2530.659231
590.374470	2603.755962
590.726731	2467.644808
591.078937	2487.809423
591.431090	2525.618077
591.783188	2470.165385
592.135232	2450.000769
592.487222	2432.356731
592.839157	2507.974038
593.191038	2533.179808
593.542866	2419.753846
593.894639	2480.247692
594.246358	2525.618077
594.598022	2472.685962
594.949633	2555.865000
595.301190	2455.041923
595.652692	2505.453462
596.004141	2528.138654
596.355535	2535.700385
596.706876	2447.480192
597.058162	2482.768269
597.409395	2563.426731
597.760573	2533.179808
598.111698	2422.274423
598.462768	2513.015192
598.813785	2490.330000
599.164748	2460.083077
599.515657	2560.906154
599.866511	2500.412308
600.217312	2480.247692
600.568060	2490.330000
600.918753	2515.535769
601.269392	2576.029615
601.619978	2439.918462
601.970510	2520.576923
602.320988	2485.288846
602.671412	2583.591346
603.021783	2507.974038
603.372100	2530.659231
603.722363	2545.782692
604.072572	2507.974038
604.422728	2394.548077
604.772830	2492.850577
605.122878	2490.330000
605.472872	2482.768269
605.822813	2427.315577
606.172701	2507.974038
606.522534	2455.041923
606.872314	2444.959615
607.222041	2555.865000
607.571714	2447.480192
607.921333	2447.480192
608.270899	2487.809423
608.620411	2513.015192
608.969870	2472.685962
609.319276	2507.974038
609.668627	2523.097500
610.017926	2497.891731
610.367171	2535.700385
610.716362	2470.165385
611.065500	2513.015192
611.414585	2470.165385
611.763616	2447.480192
612.112594	2462.603654
612.461518	2450.000769
612.810389	2540.741538
613.159207	2520.576923
613.507971	2402.109808
613.856682	2510.494615
614.205340	2460.083077
614.553945	2586.111923
614.902496	2465.124231
615.250994	2465.124231
615.599439	2576.029615
615.947830	2455.041923
616.296169	2513.015192
616.644454	2472.685962
616.992686	2528.138654
617.340864	2477.727115
617.688990	2523.097500
618.037063	2475.206538
618.385082	2485.288846
618.733048	2513.015192
619.080961	2472.685962
619.428821	2490.330000
619.776628	2507.974038
620.124382	2497.891731
620.472083	2621.400000
620.819731	2485.288846
621.167326	2444.959615
621.514868	2457.562500
621.862357	2487.809423
622.209793	2460.083077
622.557176	2462.603654
622.904506	2482.768269
623.251783	2447.480192
623.599007	2507.974038
623.946179	2490.330000
624.293297	2520.576923
624.640363	2485.288846
624.987376	2573.509038
625.334336	2437.397885
625.681243	2545.782692
626.028097	2455.041923
626.374899	2518.056346
626.721647	2560.906154
627.068343	2523.097500
627.414987	2472.685962
627.761577	2452.521346
628.108115	2598.714808
628.454600	2555.865000
628.801032	2495.371154
629.147412	2550.823846
629.493739	2505.453462
629.840014	2462.603654
630.186236	2462.603654
630.532405	2533.179808
630.878521	2510.494615
631.224585	2543.262115
631.570597	2455.041923
631.916556	2520.576923
632.262462	2515.535769
632.608316	2465.124231
632.954117	2540.741538
633.299866	2457.562500
633.645562	2460.083077
633.991206	2487.809423
634.336797	2472.685962
634.682336	2470.165385
635.027823	2523.097500
635.373257	2475.206538
635.718639	2462.603654
636.063968	2490.330000
636.409245	2510.494615
636.754470	2490.330000
637.099642	2518.056346
637.444762	2389.506923
637.789829	2535.700385
638.134845	2450.000769
638.479808	2505.453462
638.824719	2467.644808
639.169577	2530.659231
639.514383	2588.632500
639.859137	2470.165385
640.203839	2477.727115
640.548489	2487.809423
640.893086	2485.288846
641.237632	2442.439038
641.582125	2490.330000
641.926566	2462.603654
642.270955	2528.138654
642.615292	2513.015192
642.959576	2560.906154
643.303809	2495.371154
643.647990	2505.453462
643.992118	2472.685962
644.336195	2535.700385
644.680219	2490.330000
645.024192	2608.797115
645.368112	2472.685962
645.711981	2470.165385
646.055797	2482.768269
646.399562	2515.535769
646.743274	2447.480192
647.086935	2485.288846
647.430544	2470.165385
647.774101	2520.576923
648.117606	2477.727115
648.461059	2462.603654
648.804460	2472.685962
649.147810	2550.823846
649.491108	2460.083077
649.834354	2543.262115
650.177548	2495.371154
650.520690	2475.206538
650.863781	2545.782692
651.206820	2419.753846
651.549807	2515.535769
651.892742	2588.632500
652.235626	2462.603654
652.578458	2492.850577
652.921238	2480.247692
653.263967	2588.632500
653.606644	2513.015192
653.949269	2470.165385
654.291843	2550.823846
654.634365	2490.330000
654.976836	2492.850577
655.319255	2470.165385
655.661622	2465.124231
656.003938	2455.041923
656.346203	2475.206538
656.688416	2591.153077
657.030577	2535.700385
657.372687	2548.303269
657.714746	2472.685962
658.056753	2563.426731
658.398708	2450.000769
658.740612	2523.097500
659.082465	2507.974038
659.424266	2515.535769
659.766016	2485.288846
660.107715	2530.659231
660.449362	2510.494615
660.790958	2442.439038
661.132503	2417.233269
661.473996	2518.056346
661.815438	2429.836154
662.156829	2505.453462
662.498168	2414.712692
662.839456	2477.727115
663.180693	2492.850577
663.521879	2510.494615
663.863013	2392.027500
664.204097	2422.274423
664.545129	2457.562500
664.886110	2596.194231
665.227040	2515.535769
665.567918	2540.741538
665.908746	2470.165385
666.249522	2518.056346
666.590248	2442.439038
666.930922	2502.932885
667.271545	2460.083077
667.612118	2409.671538
667.952639	2573.509038
668.293109	2419.753846
668.633528	2490.330000
668.973896	2500.412308
669.314213	2475.206538
669.654480	2495.371154
669.994695	2475.206538
670.334859	2500.412308
670.674973	2460.083077
671.015035	2543.262115
671.355047	2482.768269
671.695008	2518.056346
672.034918	2500.412308
672.374777	2409.671538
672.714585	2540.741538
673.054342	2439.918462
673.394049	2523.097500
673.733705	2495.371154
674.073310	2515.535769
674.412864	2485.288846
674.752368	2470.165385
675.091820	2444.959615
675.431223	2507.974038
675.770574	2467.644808
676.109875	2518.056346
676.449125	2586.111923
676.788324	2523.097500
677.127473	2482.768269
677.466571	2543.262115
677.805619	2442.439038
678.144616	2492.850577
678.483562	2490.330000
678.822458	2485.288846
679.161303	2439.918462
679.500098	2465.124231
679.838842	2505.453462
680.177535	2490.330000
680.516179	2548.303269
680.854771	2475.206538
681.193314	2492.850577
681.531805	2422.274423
681.870247	2480.247692
682.208638	2523.097500
682.546978	2477.727115
682.885268	2475.206538
683.223508	2429.836154
683.561697	2586.111923
683.899836	2455.041923
684.237925	2412.192115
684.575963	2553.344423
684.913951	2550.823846
685.251889	2467.644808
685.589776	2507.974038
685.927614	2485.288846
686.265401	2550.823846
686.603137	2434.877308
686.940824	2472.685962
687.278460	2467.644808
687.616046	2507.974038
687.953582	2495.371154
688.291068	2538.220962
688.628504	2505.453462
688.965889	2543.262115
689.303224	2492.850577
689.640510	2437.397885
689.977745	2543.262115
690.314930	2442.439038
690.652065	2515.535769
690.989150	2465.124231
691.326185	2507.974038
691.663170	2465.124231
692.000105	2540.741538
692.336990	2492.850577
692.673825	2523.097500
693.010610	2442.439038
693.347345	2482.768269
693.684030	2480.247692
694.020665	2475.206538
694.357251	2510.494615
694.693786	2500.412308
695.030272	2535.700385
695.366707	2510.494615
695.703093	2528.138654
696.039429	2465.124231
696.375716	2560.906154
696.711952	2502.932885
697.048139	2626.441154
697.384276	2477.727115
697.720363	2477.727115
698.056400	2505.453462
698.392388	2480.247692
698.728326	2502.932885
699.064214	2487.809423
699.400053	2543.262115
699.735842	2523.097500
700.071581	2450.000769
700.407270	2505.453462
700.742910	2467.644808
701.078501	2475.206538
701.414042	2560.906154
701.749533	2515.535769
702.084974	2497.891731
702.420366	2548.303269
702.755709	2467.644808
703.091002	2470.165385
703.426246	2386.986346
703.761440	2487.809423
704.096584	2422.274423
704.431679	2507.974038
704.766725	2470.165385
705.101721	2452.521346
705.436668	2528.138654
705.771565	2439.918462
706.106413	2462.603654
706.441212	2434.877308
706.775961	2525.618077
707.110661	2518.056346
707.445311	2450.000769
707.779913	2480.247692
708.114465	2432.356731
708.448967	2402.109808
708.783421	2492.850577
709.117825	2475.206538
709.452180	2525.618077
709.786485	2540.741538
710.120742	2465.124231
710.454949	2550.823846
710.789107	2558.385577
711.123216	2507.974038
711.457275	2485.288846
711.791286	2507.974038
712.125247	2510.494615
712.459159	2548.303269
712.793023	2437.397885
713.126837	2548.303269
713.460602	2578.550192
713.794318	2424.795000
714.127985	2472.685962
714.461602	2563.426731
714.795171	2452.521346
715.128691	2573.509038
715.462162	2553.344423
715.795584	2525.618077
716.128957	2495.371154
716.462281	2480.247692
716.795556	2470.165385
717.128782	2535.700385
717.461960	2568.467885
717.795088	2492.850577
718.128167	2510.494615
718.461198	2475.206538
718.794180	2442.439038
719.127113	2417.233269
719.459997	2550.823846
719.792833	2434.877308
720.125619	2548.303269
720.458357	2439.918462
720.791046	2578.550192
721.123686	2545.782692
721.456278	2533.179808
721.788821	2603.755962
722.121315	2470.165385
722.453761	2518.056346
722.786158	2497.891731
723.118506	2480.247692
723.450805	2550.823846
723.783056	2515.535769
724.115259	2502.932885
724.447412	2487.809423
724.779518	2530.659231
725.111574	2414.712692
725.443582	2482.768269
725.775542	2455.041923
726.107453	2528.138654
726.439315	2520.576923
726.771129	2432.356731
727.102895	2530.659231
727.434612	2457.562500
727.766281	2518.056346
728.097901	2515.535769
728.429473	2505.453462
728.760996	2515.535769
729.092471	2533.179808
729.423897	2482.768269
729.755276	2472.685962
730.086606	2452.521346
730.417887	2467.644808
730.749120	2470.165385
731.080305	2384.465769
731.411442	2485.288846
731.742530	2520.576923
732.073570	2513.015192
732.404562	2560.906154
732.735506	2432.356731
733.066401	2472.685962
733.397249	2444.959615
733.728048	2545.782692
734.058798	2480.247692
734.389501	2500.412308
734.720156	2439.918462
735.050762	2502.932885
735.381320	2402.109808
735.711831	2465.124231
736.042293	2545.782692
736.372707	2480.247692
736.703073	2399.589231
737.033391	2470.165385
737.363661	2507.974038
737.693883	2422.274423
738.024056	2434.877308
738.354182	2419.753846
738.684260	2576.029615
739.014290	2518.056346
739.344272	2490.330000
739.674207	2492.850577
740.004093	2465.124231
740.333931	2457.562500
740.663722	2432.356731
740.993464	2439.918462
741.323159	2465.124231
741.652806	2482.768269
741.982405	2543.262115
742.311956	2465.124231
742.641460	2465.124231
742.970915	2523.097500
743.300323	2500.412308
743.629683	2515.535769
743.958996	2502.932885
744.288260	2553.344423
744.617477	2500.412308
744.946647	2535.700385
745.275768	2462.603654
745.604842	2460.083077
745.933869	2530.659231
746.262847	2515.535769
746.591778	2538.220962
746.920662	2591.153077
747.249498	2495.371154
747.578286	2409.671538
747.907027	2528.138654
748.235720	2452.521346
748.564365	2505.453462
748.892963	2487.809423
749.221514	2434.877308
749.550017	2548.303269
749.878473	2389.506923
750.206881	2528.138654
750.535242	2543.262115
750.863555	2467.644808
751.191821	2507.974038
751.520039	2525.618077
751.848210	2482.768269
752.176334	2460.083077
752.504411	2467.644808
752.832440	2548.303269
753.160421	2452.521346
753.488356	2460.083077
753.816243	2480.247692
754.144082	2427.315577
754.471875	2538.220962
754.799620	2480.247692
755.127318	2490.330000
755.454969	2520.576923
755.782572	2502.932885
756.110129	2568.467885
756.437638	2450.000769
756.765100	2535.700385
757.092515	2520.576923
757.419882	2485.288846
757.747203	2523.097500
758.074477	2520.576923
758.401703	2477.727115
758.728882	2530.659231
759.056014	2533.179808
759.383099	2530.659231
759.710138	2535.700385
760.037129	2543.262115
760.364073	2505.453462
760.690970	2500.412308
761.017820	2429.836154
761.344623	2513.015192
761.671379	2510.494615
761.998088	2467.644808
762.324751	2540.741538
762.651366	2500.412308
762.977935	2555.865000
763.304456	2470.165385
763.630931	2457.562500
763.957359	2470.165385
764.283740	2520.576923
764.610074	2513.015192
764.936362	2591.153077
765.262602	2548.303269
765.588796	2455.041923
765.914943	2535.700385
766.241044	2515.535769
766.567097	2540.741538
766.893104	2623.920577
767.219064	2538.220962
767.544978	2533.179808
767.870845	2533.179808
768.196665	2495.371154
768.522438	2510.494615
768.848165	2487.809423
769.173846	2500.412308
769.499479	2555.865000
769.825066	2477.727115
770.150607	2475.206538
770.476101	2507.974038
770.801548	2490.330000
771.126949	2543.262115
771.452303	2417.233269
771.777611	2513.015192
772.102872	2386.986346
772.428087	2470.165385
772.753256	2419.753846
773.078378	2462.603654
773.403453	2515.535769
773.728482	2603.755962
774.053465	2510.494615
774.378401	2465.124231
774.703291	2586.111923
775.028135	2477.727115
775.352932	2505.453462
775.677683	2535.700385
776.002388	2513.015192
776.327046	2533.179808
776.651658	2422.274423
776.976224	2477.727115
777.300743	2442.439038
777.625216	2525.618077
777.949643	2530.659231
778.274024	2490.330000
778.598359	2487.809423
778.922647	2576.029615
779.246889	2533.179808
779.571086	2450.000769
779.895236	2495.371154
780.219339	2523.097500
780.543397	2523.097500
780.867409	2495.371154
781.191374	2535.700385
781.515294	2457.562500
781.839167	2490.330000
782.162995	2490.330000
782.486776	2386.986346
782.810511	2518.056346
783.134201	2472.685962
783.457844	2560.906154
783.781441	2490.330000
784.104993	2583.591346
784.428498	2507.974038
784.751958	2480.247692
785.075372	2520.576923
785.398739	2475.206538
785.722061	2545.782692
786.045337	2432.356731
786.368568	2495.371154
786.691752	2500.412308
787.014891	2538.220962
787.337983	2467.644808
787.661030	2515.535769
787.984031	2447.480192
788.306987	2510.494615
788.629897	2422.274423
788.952760	2452.521346
789.275579	2513.015192
789.598351	2507.974038
789.921078	2439.918462
790.243759	2515.535769
790.566395	2409.671538
790.888984	2450.000769
791.211529	2528.138654
791.534027	2470.165385
791.856480	2507.974038
792.178888	2434.877308
792.501249	2545.782692
792.823566	2432.356731
793.145836	2455.041923
793.468062	2427.315577
793.790241	2502.932885
794.112375	2523.097500
794.434464	2465.124231
794.756507	2513.015192
795.078505	2507.974038
795.400457	2581.070769
795.722364	2550.823846
796.044226	2452.521346
796.366042	2535.700385
796.687812	2573.509038
797.009538	2545.782692
797.331218	2369.342308
797.652852	2520.576923
797.974442	2528.138654
798.295986	2505.453462
798.617484	2356.739423
798.938938	2540.741538
799.260346	2404.630385
799.581709	2573.509038
799.903026	2553.344423
800.224299	2417.233269
800.545526	2475.206538
800.866708	2507.974038
801.187845	2520.576923
801.508936	2565.947308
801.829983	2497.891731
802.150984	2523.097500
802.471940	2482.768269
802.792851	2424.795000
803.113717	2533.179808
803.434538	2533.179808
803.755314	2555.865000
804.076045	2500.412308
804.396731	2502.932885
804.717372	2444.959615
805.037967	2434.877308
805.358518	2422.274423
805.679024	2450.000769
805.999485	2460.083077
806.319901	2548.303269
806.640272	2502.932885
806.960598	2565.947308
807.280879	2485.288846
807.601115	2530.659231
807.921306	2533.179808
808.241453	2480.247692
808.561554	2417.233269
808.881611	2518.056346
809.201623	2485.288846
809.521590	2419.753846
809.841513	2495.371154
810.161390	2497.891731
810.481223	2477.727115
810.801011	2507.974038
811.120755	2495.371154
811.440453	2507.974038
811.760107	2457.562500
812.079716	2523.097500
812.399281	2518.056346
812.718801	2482.768269
813.038276	2553.344423
813.357707	2513.015192
813.677093	2495.371154
813.996434	2482.768269
814.315731	2565.947308
814.634983	2576.029615
814.954191	2450.000769
815.273354	2513.015192
815.592473	2429.836154
815.911547	2502.932885
816.230577	2442.439038
816.549562	2530.659231
816.868502	2495.371154
817.187399	2485.288846
817.506250	2490.330000
817.825058	2455.041923
818.143821	2515.535769
818.462539	2477.727115
818.781213	2558.385577
819.099843	2530.659231
819.418429	2538.220962
819.736970	2402.109808
820.055466	2477.727115
820.373919	2492.850577
820.692327	2500.412308
821.010691	2548.303269
821.329011	2470.165385
821.647286	2518.056346
821.965517	2404.630385
822.283704	2520.576923
822.601847	2523.097500
822.919945	2424.795000
823.237999	2518.056346
823.556010	2447.480192
823.873976	2550.823846
824.191897	2581.070769
824.509775	2507.974038
824.827609	2497.891731
825.145398	2467.644808
825.463144	2510.494615
825.780845	2555.865000
826.098502	2472.685962
826.416116	2477.727115
826.733685	2492.850577
827.051210	2480.247692
827.368692	2452.521346
827.686129	2515.535769
828.003522	2507.974038
828.320872	2495.371154
828.638177	2510.494615
828.955439	2515.535769
829.272656	2467.644808
829.589830	2502.932885
829.906960	2487.809423
830.224046	2399.589231
830.541088	2502.932885
830.858086	2462.603654
831.175041	2510.494615
831.491952	2507.974038
831.808819	2520.576923
832.125642	2490.330000
832.442421	2510.494615
832.759157	2495.371154
833.075849	2492.850577
833.392497	2439.918462
833.709101	2500.412308
834.025662	2465.124231
834.342179	2442.439038
834.658653	2429.836154
834.975083	2450.000769
835.291469	2490.330000
835.607811	2432.356731
835.924110	2465.124231
836.240366	2465.124231
836.556578	2535.700385
836.872746	2455.041923
837.188871	2520.576923
837.504952	2477.727115
837.820990	2543.262115
838.136984	2417.233269
838.452935	2482.768269
838.768842	2565.947308
839.084706	2507.974038
839.400526	2500.412308
839.716303	2412.192115
840.032037	2495.371154
840.347727	2437.397885
840.663373	2513.015192
840.978977	2540.741538
841.294537	2455.041923
841.610054	2417.233269
841.925527	2492.850577
842.240957	2444.959615
842.556344	2505.453462
842.871687	2462.603654
843.186987	2492.850577
843.502244	2490.330000
843.817458	2397.068654
844.132629	2432.356731
844.447756	2444.959615
844.762840	2460.083077
845.077881	2540.741538
845.392879	2543.262115
845.707833	2560.906154
846.022745	2487.809423
846.337613	2434.877308
846.652438	2450.000769
846.967221	2535.700385
847.281960	2470.165385
847.596656	2457.562500
847.911309	2502.932885
848.225919	2545.782692
848.540485	2502.932885
848.855009	2485.288846
849.169490	2477.727115
849.483928	2505.453462
849.798323	2487.809423
850.112675	2500.412308
850.426984	2472.685962
850.741251	2502.932885
851.055474	2487.809423
851.369654	2482.768269
851.683792	2470.165385
851.997887	2505.453462
852.311938	2409.671538
852.625947	2437.397885
852.939914	2439.918462
853.253837	2550.823846
853.567718	2487.809423
853.881555	2505.453462
854.195350	2462.603654
854.509103	2530.659231
854.822812	2460.083077
855.136479	2523.097500
855.450103	2482.768269
855.763685	2560.906154
856.077224	2485.288846
856.390720	2520.576923
856.704173	2455.041923
857.017584	2591.153077
857.330953	2500.412308
857.644278	2583.591346
857.957561	2439.918462
858.270802	2518.056346
858.584000	2586.111923
858.897155	2495.371154
859.210268	2505.453462
859.523339	2540.741538
859.836367	2472.685962
860.149352	2528.138654
860.462295	2578.550192
860.775195	2482.768269
861.088054	2555.865000
861.400869	2500.412308
861.713642	2533.179808
862.026373	2507.974038
862.339062	2444.959615
862.651708	2487.809423
862.964312	2510.494615
863.276873	2414.712692
863.589392	2452.521346
863.901869	2402.109808
864.214303	2528.138654
864.526696	2510.494615
864.839045	2477.727115
865.151353	2490.330000
865.463619	2520.576923
865.775842	2412.192115
866.088023	2414.712692
866.400162	2482.768269
866.712258	2520.576923
867.024313	2444.959615
867.336325	2460.083077
867.648296	2518.056346
867.960224	2394.548077
868.272110	2550.823846
868.583954	2447.480192
868.895755	2565.947308
869.207515	2462.603654
869.519233	2472.685962
869.830909	2500.412308
870.142542	2427.315577
870.454134	2472.685962
870.765684	2505.453462
871.077191	2535.700385
871.388657	2515.535769
871.700081	2482.768269
872.011463	2530.659231
872.322803	2427.315577
872.634101	2543.262115
872.945357	2472.685962
873.256571	2475.206538
873.567744	2596.194231
873.878874	2457.562500
874.189963	2465.124231
874.501010	2419.753846
874.812015	2487.809423
875.122979	2507.974038
875.433900	2447.480192
875.744780	2467.644808
876.055618	2525.618077
876.366415	2523.097500
876.677169	2563.426731
876.987882	2462.603654
877.298554	2578.550192
877.609183	2432.356731
877.919771	2485.288846
878.230317	2480.247692
878.540822	2500.412308
878.851285	2563.426731
879.161707	2505.453462
879.472087	2528.138654
879.782425	2455.041923
880.092722	2495.371154
880.402977	2439.918462
880.713191	2502.932885
881.023363	2467.644808
881.333494	2402.109808
881.643583	2447.480192
881.953631	2465.124231
882.263637	2550.823846
882.573602	2457.562500
882.883526	2565.947308
883.193408	2533.179808
883.503248	2513.015192
883.813048	2530.659231
884.122806	2502.932885
884.432522	2507.974038
884.742197	2540.741538
885.051831	2409.671538
885.361424	2535.700385
885.670975	2490.330000
885.980485	2502.932885
886.289954	2520.576923
886.599382	2450.000769
886.908768	2528.138654
887.218113	2429.836154
887.527417	2480.247692
887.836680	2434.877308
888.145901	2444.959615
888.455082	2482.768269
888.764221	2525.618077
889.073319	2465.124231
889.382376	2538.220962
889.691392	2437.397885
890.000366	2586.111923
890.309300	2452.521346
890.618193	2523.097500
890.927044	2457.562500
891.235855	2492.850577
891.544625	2568.467885
891.853353	2495.371154
892.162041	2485.288846
892.470687	2518.056346
892.779293	2485.288846
893.087858	2513.015192
893.396381	2467.644808
893.704864	2533.179808
894.013306	2518.056346
894.321707	2507.974038
894.630068	2485.288846
894.938387	2513.015192
895.246665	2535.700385
895.554903	2467.644808
895.863100	2427.315577
896.171256	2502.932885
896.479371	2465.124231
896.787446	2457.562500
897.095480	2523.097500
897.403473	2573.509038
897.711425	2394.548077
898.019336	2407.150962
898.327207	2442.439038
898.635038	2485.288846
898.942827	2450.000769
899.250576	2487.809423
899.558284	2467.644808
899.865952	2490.330000
900.173579	2477.727115
900.481165	2450.000769
900.788711	2462.603654
901.096216	2457.562500
901.403681	2530.659231
901.711105	2513.015192
902.018489	2515.535769
902.325832	2576.029615
902.633135	2462.603654
902.940397	2550.823846
903.247619	2455.041923
903.554800	2507.974038
903.861941	2528.138654
904.169041	2490.330000
904.476101	2515.535769
904.783121	2472.685962
905.090100	2507.974038
905.397039	2568.467885
905.703938	2450.000769
906.010796	2482.768269
906.317614	2535.700385
906.624391	2467.644808
906.931129	2467.644808
907.237826	2510.494615
907.544483	2495.371154
907.851099	2477.727115
908.157675	2538.220962
908.464211	2507.974038
908.770707	2515.535769
909.077163	2563.426731
909.383578	2518.056346
909.689954	2452.521346
909.996289	2427.315577
910.302584	2563.426731
910.608839	2540.741538
910.915054	2492.850577
911.221229	2505.453462
911.527363	2432.356731
911.833458	2540.741538
912.139513	2525.618077
912.445527	2505.453462
912.751502	2472.685962
913.057436	2576.029615
913.363331	2450.000769
913.669186	2452.521346
913.975000	2422.274423
914.280775	2434.877308
914.586510	2477.727115
914.892205	2480.247692
915.197859	2565.947308
915.503475	2515.535769
915.809050	2422.274423
916.114585	2457.562500
916.420081	2460.083077
916.725536	2452.521346
917.030952	2513.015192
917.336328	2434.877308
917.641665	2523.097500
917.946961	2570.988462
918.252218	2515.535769
918.557435	2525.618077
918.862612	2487.809423
919.167750	2540.741538
919.472848	2465.124231
919.777906	2528.138654
920.082925	2462.603654
920.387904	2457.562500
920.692843	2530.659231
920.997743	2523.097500
921.302603	2502.932885
921.607423	2505.453462
921.912204	2437.397885
922.216946	2535.700385
922.521647	2414.712692
922.826310	2525.618077
923.130932	2553.344423
923.435516	2467.644808
923.740059	2543.262115
924.044564	2533.179808
924.349028	2518.056346
924.653454	2545.782692
924.957840	2467.644808
925.262186	2530.659231
925.566493	2550.823846
925.870761	2513.015192
926.174989	2558.385577
926.479178	2507.974038
926.783328	2455.041923
927.087438	2475.206538
927.391509	2470.165385
927.695541	2477.727115
927.999533	2452.521346
928.303486	2513.015192
928.607400	2513.015192
928.911275	2550.823846
929.215110	2477.727115
929.518906	2576.029615
929.822663	2470.165385
930.126381	2495.371154
930.430060	2439.918462
930.733699	2497.891731
931.037299	2447.480192
931.340861	2490.330000
931.644383	2593.673654
931.947866	2510.494615
932.251309	2502.932885
932.554714	2432.356731
932.858080	2480.247692
933.161407	2439.918462
933.464694	2399.589231
933.767943	2475.206538
934.071153	2550.823846
934.374323	2545.782692
934.677455	2460.083077
934.980548	2495.371154
935.283602	2432.356731
935.586617	2485.288846
935.889593	2472.685962
936.192530	2450.000769
936.495428	2538.220962
936.798287	2505.453462
937.101108	2482.768269
937.403890	2490.330000
937.706632	2485.288846
938.009336	2447.480192
938.312002	2513.015192
938.614628	2530.659231
938.917216	2485.288846
939.219765	2528.138654
939.522275	2497.891731
939.824747	2444.959615
940.127179	2444.959615
940.429573	2513.015192
940.731929	2467.644808
941.034246	2513.015192
941.336524	2502.932885
941.638763	2513.015192
941.940964	2389.506923
942.243126	2553.344423
942.545250	2490.330000
942.847335	2495.371154
943.149381	2455.041923
943.451389	2540.741538
943.753359	2515.535769
944.055290	2530.659231
944.357182	2467.644808
944.659036	2462.603654
944.960851	2495.371154
945.262628	2553.344423
945.564367	2505.453462
945.866067	2482.768269
946.167729	2530.659231
946.469352	2437.397885
946.770937	2535.700385
947.072484	2442.439038
947.373992	2515.535769
947.675462	2510.494615
947.976893	2467.644808
948.278286	2533.179808
948.579641	2535.700385
948.880958	2447.480192
949.182236	2455.041923
949.483476	2523.097500
949.784678	2419.753846
950.085841	2518.056346
950.386967	2457.562500
950.688054	2533.179808
950.989103	2530.659231
951.290114	2450.000769
951.591087	2442.439038
951.892021	2452.521346
952.192917	2419.753846
952.493776	2480.247692
952.794596	2505.453462
953.095378	2465.124231
953.396122	2490.330000
953.696828	2475.206538
953.997496	2404.630385
954.298126	2543.262115
954.598718	2573.509038
954.899272	2480.247692
955.199788	2422.274423
955.500266	2497.891731
955.800706	2419.753846
956.101108	2470.165385
956.401472	2409.671538
956.701798	2545.782692
957.002087	2563.426731
957.302337	2475.206538
957.602550	2490.330000
957.902724	2439.918462
958.202861	2578.550192
958.502960	2465.124231
958.803022	2497.891731
959.103045	2525.618077
959.403031	2500.412308
959.702979	2482.768269
960.002889	2487.809423
960.302762	2467.644808
960.602596	2467.644808
960.902393	2545.782692
961.202153	2510.494615
961.501875	2482.768269
961.801559	2558.385577
962.101205	2553.344423
962.400814	2507.974038
962.700385	2525.618077
962.999918	2550.823846
963.299414	2472.685962
963.598873	2565.947308
963.898293	2513.015192
964.197677	2553.344423
964.497022	2485.288846
964.796331	2515.535769
965.095601	2482.768269
965.394835	2379.424615
965.694030	2505.453462
965.993189	2381.945192
966.292309	2563.426731
966.591393	2444.959615
966.890439	2520.576923
967.189447	2412.192115
967.488419	2455.041923
967.787353	2520.576923
968.086249	2492.850577
968.385108	2525.618077
968.683930	2455.041923
968.982714	2462.603654
969.281462	2545.782692
969.580172	2475.206538
969.878844	2452.521346
970.177480	2497.891731
970.476078	2404.630385
970.774639	2487.809423
971.073162	2407.150962
971.371649	2470.165385
971.670098	2518.056346
971.968510	2492.850577
972.266885	2457.562500
972.565223	2548.303269
972.863524	2525.618077
973.161788	2518.056346
973.460014	2455.041923
973.758204	2467.644808
974.056356	2477.727115
974.354471	2578.550192
974.652550	2487.809423
974.950591	2538.220962
975.248595	2452.521346
975.546563	2457.562500
975.844493	2538.220962
976.142386	2447.480192
976.440243	2518.056346
976.738062	2515.535769
977.035845	2427.315577
977.333590	2573.509038
977.631299	2457.562500
977.928971	2492.850577
978.226606	2457.562500
978.524204	2553.344423
978.821765	2581.070769
979.119290	2467.644808
979.416777	2460.083077
979.714228	2528.138654
980.011642	2444.959615
980.309020	2434.877308
980.606360	2467.644808
980.903664	2505.453462
981.200931	2487.809423
981.498162	2447.480192
981.795356	2492.850577
982.092513	2538.220962
982.389633	2487.809423
982.686717	2502.932885
982.983764	2447.480192
983.280775	2444.959615
983.577749	2528.138654
983.874686	2442.439038
984.171587	2455.041923
984.468451	2502.932885
984.765279	2513.015192
985.062070	2533.179808
985.358824	2525.618077
985.655543	2487.809423
985.952224	2455.041923
986.248869	2470.165385
986.545478	2414.712692
986.842050	2533.179808
987.138586	2538.220962
987.435086	2447.480192
987.731549	2505.453462
988.027975	2487.809423
988.324366	2450.000769
988.620719	2457.562500
988.917037	2568.467885
989.213318	2487.809423
989.509563	2437.397885
989.805772	2525.618077
990.101944	2462.603654
990.398080	2482.768269
990.694180	2507.974038
990.990244	2452.521346
991.286271	2457.562500
991.582262	2359.260000
991.878217	2500.412308
992.174136	2553.344423
992.470019	2540.741538
992.765865	2502.932885
993.061676	2525.618077
993.357450	2581.070769
993.653188	2409.671538
993.948890	2495.371154
994.244556	2460.083077
994.540186	2477.727115
994.835780	2419.753846
995.131337	2525.618077
995.426859	2477.727115
995.722345	2480.247692
996.017795	2477.727115
996.313208	2515.535769
996.608586	2432.356731
996.903928	2422.274423
997.199234	2495.371154
997.494504	2487.809423
997.789738	2533.179808
998.084936	2470.165385
998.380099	2455.041923
998.675225	2452.521346
998.970316	2558.385577
999.265371	2606.276538
999.560390	2450.000769
999.855373	2528.138654
1000.150320	2525.618077
1000.445232	2487.809423
1000.740108	2558.385577
1001.034948	2419.753846
1001.329752	2533.179808
1001.624521	2482.768269
1001.919254	2507.974038
1002.213951	2457.562500
1002.508613	2555.865000
1002.803239	2444.959615
1003.097829	2545.782692
1003.392384	2452.521346
1003.686903	2518.056346
1003.981386	2412.192115
1004.275834	2497.891731
1004.570246	2533.179808
1004.864623	2455.041923
1005.158964	2528.138654
1005.453270	2470.165385
1005.747540	2447.480192
1006.041775	2505.453462
1006.335974	2507.974038
1006.630138	2487.809423
1006.924266	2419.753846
1007.218359	2487.809423
1007.512416	2502.932885
1007.806438	2462.603654
1008.100425	2482.768269
1008.394376	2550.823846
1008.688292	2442.439038
1008.982172	2591.153077
1009.276017	2485.288846
1009.569827	2485.288846
1009.863602	2470.165385
1010.157341	2485.288846
1010.451045	2429.836154
1010.744714	2432.356731
1011.038347	2533.179808
1011.331945	2550.823846
1011.625508	2457.562500
1011.919036	2434.877308
1012.212528	2434.877308
1012.505986	2485.288846
1012.799408	2480.247692
1013.092795	2487.809423
1013.386147	2462.603654
1013.679464	2447.480192
1013.972745	2432.356731
1014.265992	2555.865000
1014.559204	2432.356731
1014.852380	2505.453462
1015.145521	2467.644808
1015.438628	2576.029615
1015.731699	2492.850577
1016.024736	2439.918462
1016.317737	2447.480192
1016.610703	2447.480192
1016.903635	2513.015192
1017.196531	2485.288846
1017.489393	2480.247692
1017.782219	2477.727115
1018.075011	2412.192115
1018.367768	2480.247692
1018.660490	2482.768269
1018.953177	2482.768269
1019.245829	2482.768269
