Dividing Wavelength (nm)	Counts (n)	Blue Motor Position (mm): 0.000000	Red Motor Position (mm): 47.800000	
326.493990	2125.078239
326.888308	2125.078239
327.282561	2125.078239
327.676750	2094.261666
328.070874	2093.407190
328.464933	2098.960021
328.858929	2103.043356
329.252859	2114.315376
329.646726	2125.221912
330.040528	2137.429066
330.434265	2152.315593
330.827938	2171.207318
331.221547	2188.216171
331.615091	2209.872968
332.008571	2229.319218
332.401986	2249.083062
332.795338	2268.289858
333.188625	2288.557817
333.581847	2303.436783
333.975006	2323.855977
334.368100	2342.157886
334.761129	2361.757892
335.154095	2376.853627
335.546996	2400.400857
335.939833	2421.354412
336.332606	2439.646239
336.725315	2450.734257
337.117960	2462.215485
337.510540	2469.636063
337.903056	2479.216776
338.295508	2490.710607
338.687896	2495.194713
339.080220	2506.038235
339.472480	2512.541324
339.864676	2513.849503
340.256807	2518.154649
340.648875	2527.480783
341.040879	2525.426513
341.432818	2525.058509
341.824694	2530.502955
342.216506	2529.661082
342.608253	2531.266690
342.999937	2527.339631
343.391557	2526.928777
343.783113	2526.102028
344.174605	2527.511030
344.566033	2526.722090
344.957397	2523.904085
345.348697	2520.569361
345.739934	2518.759587
346.131106	2518.131963
346.522215	2518.363857
346.913260	2513.526869
347.304241	2514.996366
347.695159	2513.678104
348.086012	2510.668535
348.476802	2509.362876
348.867528	2509.413288
349.258191	2505.491270
349.648789	2502.965652
350.039324	2499.436844
350.429796	2501.176042
350.820203	2498.814262
351.210548	2500.087153
351.600828	2502.108656
351.991045	2499.555312
352.381198	2496.669251
352.771288	2496.540702
353.161314	2496.192862
353.551276	2499.923316
353.941175	2498.002636
354.331010	2494.546925
354.720782	2497.967348
355.110490	2494.718324
355.500135	2496.601195
355.889717	2496.525578
356.279235	2498.836947
356.668689	2496.747389
357.058080	2500.228306
357.447408	2498.647904
357.836672	2495.436689
358.225873	2497.513644
358.615010	2497.503562
359.004084	2500.235867
359.393095	2504.104953
359.782043	2502.796773
360.170927	2504.122597
360.559748	2501.975065
360.948505	2505.917248
361.337199	2506.600324
361.725830	2502.711074
362.114398	2509.302383
362.502903	2506.774244
362.891344	2508.868843
363.279722	2507.570746
363.668037	2507.144769
364.056289	2510.587877
364.444478	2507.530417
364.832603	2511.825480
365.220665	2512.627023
365.608665	2510.416477
365.996601	2512.327075
366.384474	2511.669204
366.772284	2511.606190
367.160031	2517.259844
367.547715	2520.213960
367.935336	2517.499299
368.322893	2523.243693
368.710388	2526.061698
369.097820	2534.482946
369.485189	2534.646783
369.872495	2541.999306
370.259738	2549.649257
370.646918	2555.655792
371.034035	2562.915054
371.421090	2575.769996
371.808081	2585.464135
372.195010	2591.024528
372.581875	2605.575818
372.968678	2620.744650
373.355418	2628.288737
373.742096	2644.405306
374.128710	2660.693274
374.515262	2674.712722
374.901751	2694.269879
375.288177	2705.350335
375.674540	2727.791031
376.060841	2747.706110
376.447079	2766.136568
376.833254	2783.513425
377.219367	2798.737710
377.605417	2834.600478
377.991404	2842.883094
378.377329	2866.311857
378.763191	2884.701986
379.148991	2922.989549
379.534727	2944.099381
379.920402	2976.632468
380.306013	2988.159066
380.691563	3036.206303
381.077049	3057.769839
381.462474	3077.062334
381.847835	3114.823097
382.233134	3137.430152
382.618371	3135.519554
383.003545	3205.337015
383.388657	3211.595607
383.773706	3245.451996
384.158693	3260.865324
384.543618	3285.813995
384.928480	3325.412258
385.313280	3371.415308
385.698017	3369.209803
386.082692	3420.619490
386.467305	3427.026796
386.851856	3458.118113
387.236344	3480.485712
387.620770	3510.147861
388.005133	3539.663817
388.389435	3564.509144
388.773674	3578.369796
389.157851	3620.092906
389.541965	3636.027993
389.926018	3598.877210
390.310008	3671.179959
390.693936	3690.956406
391.077802	3728.437385
391.461606	3718.319789
391.845348	3781.868574
392.229027	3780.169705
392.612645	3795.358702
392.996200	3874.598079
393.379694	3914.231630
393.763125	3976.963749
394.146494	3943.266156
394.529801	4004.702698
394.913047	4052.636509
395.296230	4018.124770
395.679351	4075.558636
396.062410	4098.410186
396.445408	4080.088112
396.828343	4114.980459
397.211217	4135.192965
397.594028	4056.281263
397.976778	4122.484216
398.359466	4146.343997
398.742092	4177.337011
399.124656	4102.097790
399.507158	4181.972352
399.889598	4204.539077
400.271977	4267.719858
400.654294	4236.252976
401.036549	4245.831168
401.418742	4219.095409
401.800874	4319.081654
402.182944	4340.425900
402.564952	4405.557608
402.946898	4390.529928
403.328783	4388.268970
403.710606	4299.471566
404.092367	4492.895598
404.474067	4460.478458
404.855705	4470.638904
405.237282	4393.849528
405.618797	4504.253318
406.000250	4538.976785
406.381642	4621.061893
406.762972	4580.326850
407.144240	4591.682049
407.525447	4593.035598
407.906593	4651.081964
408.287677	4694.947565
408.668700	4622.228920
409.049661	4677.190100
409.430560	4715.853230
409.811399	4643.898320
410.192176	4804.302794
410.572891	4742.936829
410.953545	4844.674875
411.334138	4724.403027
411.714669	4793.393737
412.095139	4686.301986
412.475547	4828.689376
412.855894	4813.928878
413.236180	4821.062110
413.616405	4771.041261
413.996568	4862.497874
414.376670	4800.852125
414.756711	4755.459055
415.136691	4789.537255
415.516609	4867.087845
415.896466	4907.525461
416.276262	4939.688022
416.655997	4921.489457
417.035670	5103.134833
417.415283	5194.087330
417.794834	5137.107168
418.174324	5090.423563
418.553753	5000.144060
418.933121	5179.828427
419.312428	5249.350979
419.691674	5187.793450
420.070859	5314.782636
420.449983	5227.600921
420.829045	5340.507644
421.208047	5250.581021
421.586988	5320.897555
421.965867	5328.285366
422.344686	5466.120595
422.723444	5318.371937
423.102141	5136.865193
423.480777	5431.853352
423.859352	5204.537642
424.237866	5464.943485
424.616319	5457.225479
424.994712	5563.525769
425.373044	5443.198468
425.751314	5584.254994
426.129524	5384.272421
426.507673	5581.341207
426.885762	5668.137273
427.263789	5594.780923
427.641756	5478.544518
428.019662	5602.151090
428.397508	5603.855000
428.775292	5551.366506
429.153016	5654.689996
429.530679	5582.883800
429.908282	5663.191902
430.285824	5534.408065
430.663305	5809.733203
431.040726	5542.365526
431.418086	5546.622781
431.795385	5656.449358
432.172624	5664.386655
432.549802	5654.455582
432.926920	5666.952602
433.303977	5678.615312
433.680974	5714.709973
434.057910	5733.765535
434.434786	5739.736782
434.811601	5710.956834
435.188355	5942.393687
435.565050	5816.982382
435.941683	5800.253313
436.318257	6013.015211
436.694770	5995.514845
437.071222	6032.348036
437.447614	5956.163598
437.823946	5869.652357
438.200218	6026.712026
438.576429	5896.002468
438.952580	5992.260781
439.328670	6037.699221
439.704700	5940.077277
440.080670	5932.966729
440.456580	6205.897319
440.832429	6082.699081
441.208218	5933.314569
441.583947	6086.217806
441.959616	6085.930460
442.335224	6020.531571
442.710773	6153.068547
443.086261	6184.565676
443.461689	5973.853007
443.837057	6126.605010
444.212365	6280.413134
444.587612	6174.823647
444.962800	6326.063303
445.337927	6306.705272
445.712995	5920.802425
446.088002	6492.199569
446.462949	6326.390978
446.837837	6253.400112
447.212664	6430.815959
447.587431	6566.140693
447.962139	7107.270750
448.336786	8039.949747
448.711374	7779.246475
449.085901	6857.408480
449.460369	6777.362519
449.834776	6704.469955
450.209124	7098.317661
450.583412	7255.349603
450.957640	7398.467961
451.331808	7166.322826
451.705917	6713.478497
452.079965	6643.703886
452.453954	6852.894127
452.827883	6726.930816
453.201752	6821.119734
453.575562	6612.398321
453.949311	6825.145096
454.323001	6712.054371
454.696632	6788.170753
455.070202	6922.832575
455.443713	7078.352171
455.817164	7180.213726
456.190556	7258.767505
456.563888	7336.297931
456.937160	7380.473562
457.310373	7039.943620
457.683526	7057.680920
458.056619	6953.482790
458.429653	6939.861593
458.802628	6872.302569
459.175542	6978.562531
459.548398	7341.301276
459.921194	7501.037798
460.293930	7501.985534
460.666607	8036.158799
461.039224	8341.887136
461.411782	8472.553843
461.784280	8483.089855
462.156719	8379.463896
462.529099	8258.493848
462.901419	7844.022782
463.273680	7732.953560
463.645882	7750.348061
464.018024	7613.793286
464.390106	7783.644882
464.762130	8167.324581
465.134094	8637.094584
465.505999	9660.889916
465.877845	10885.275280
466.249631	11532.778724
466.621358	11149.066258
466.993026	10521.215752
467.364634	10261.021637
467.736184	9897.188961
468.107674	9567.174866
468.479105	9602.394887
468.850477	9364.260862
469.221790	9134.298547
469.593043	8807.117580
469.964238	8670.857712
470.335373	8676.460955
470.706449	8734.310716
471.077467	8718.549548
471.448425	10025.143528
471.819324	11099.625141
472.190164	11131.840635
472.560945	9882.625068
472.931667	9089.777597
473.302330	8957.492679
473.672934	8603.207948
474.043479	8957.432185
474.413965	8899.174090
474.784393	8774.433259
475.154761	8944.693189
475.525070	9029.644193
475.895321	8852.969395
476.265513	9026.717803
476.635645	9197.817085
477.005719	9199.321870
477.375734	9310.691041
477.745691	9548.595693
478.115588	9684.240541
478.485427	9922.966902
478.855207	10460.467328
479.224928	11283.954932
479.594591	11909.415931
479.964194	11716.685057
480.333739	11660.380410
480.703226	11571.217522
481.072653	11659.699854
481.442022	11906.678584
481.811333	12097.012389
482.180584	11901.488716
482.549777	11611.196392
482.918912	11430.329875
483.287988	11451.510283
483.657005	11468.650206
484.025964	11146.485187
484.394864	11275.342120
484.763706	11246.804148
485.132489	10999.601087
485.501213	10974.254166
485.869879	11044.537933
486.238487	10882.111956
486.607036	11001.811633
486.975527	10774.556418
487.343959	10967.040275
487.712333	11019.334684
488.080648	10942.583117
488.448905	10988.840744
488.817104	10923.880436
489.185244	11186.824500
489.553326	11337.784372
489.921350	11888.091850
490.289315	12942.406327
490.657222	13290.321560
491.025070	13202.156820
491.392861	13069.902149
491.760593	12691.762678
492.128267	12339.325531
492.495883	12006.369922
492.863440	11679.083091
493.230939	11339.198416
493.598380	11277.933273
493.965763	11144.882100
494.333088	11042.355113
494.700354	10962.243617
495.067563	11023.665035
495.434713	10853.049704
495.801805	10986.307565
496.168839	10910.004660
496.535815	10843.751296
496.902733	10839.993115
497.269593	10770.503330
497.636395	10875.074505
498.003139	10861.498678
498.369825	10727.837525
498.736453	10889.721578
499.103023	10812.047479
499.469535	10842.130565
499.835989	10831.062711
500.202385	10792.800354
500.568723	10644.698815
500.935003	10866.688546
501.301226	10671.545480
501.667390	10927.089130
502.033497	11026.903977
502.399546	10887.647143
502.765537	10790.355394
503.131470	10864.409944
503.497345	11046.619929
503.863163	10652.152161
504.228923	10964.083638
504.594625	11034.322034
504.960269	10776.983733
505.325856	10999.356591
505.691385	10793.581733
506.056856	10942.510020
506.422270	10973.056892
506.787625	10855.174550
507.152924	10979.262552
507.518164	10959.544079
507.883347	10877.877387
508.248472	10798.806888
508.613540	11030.337002
508.978550	10913.140258
509.343503	10890.848275
509.708398	11008.755823
510.073236	11127.235541
510.438016	11119.678851
510.802738	11071.843343
511.167403	11120.218255
511.532010	11027.806343
511.896561	11252.258677
512.261053	11323.273411
512.625488	11191.777434
512.989866	11181.443068
513.354186	11165.702065
513.718449	11068.075080
514.082655	11262.361149
514.446803	11155.181177
514.810894	11280.821855
515.174927	11149.411577
515.538904	11167.065697
515.902822	11323.280973
516.266684	11203.553569
516.630488	11147.750517
516.994235	11204.478621
517.357925	11273.199630
517.721558	11356.439162
518.085133	11376.051771
518.448651	11388.659697
518.812112	11266.583116
519.175516	11282.288830
519.538863	11406.732234
519.902152	11314.327884
520.265385	11474.893675
520.628560	11390.545089
520.991678	11361.497960
521.354739	11429.470358
521.717743	11369.231090
522.080690	11347.443223
522.443580	11472.879734
522.806413	11430.115626
523.169189	11467.568878
523.531908	11511.578151
523.894569	11339.604229
524.257174	11336.546769
524.619722	11460.849020
524.982213	11403.616801
525.344647	11459.165275
525.707025	11412.012842
526.069345	11502.065494
526.431608	11422.077506
526.793815	11536.768797
527.155964	11324.994965
527.518057	11378.504293
527.880093	11327.240799
528.242072	11398.802499
528.603995	11294.679987
528.965860	11216.970600
529.327669	11274.149887
529.689421	11220.862371
530.051117	11194.013185
530.412755	11299.892540
530.774337	11191.918586
531.135862	11171.388487
531.497331	11196.581653
531.858743	11043.759074
532.220098	11210.187728
532.581396	11082.054200
532.942638	11070.404093
533.303824	11027.284584
533.664953	11039.867304
534.026025	10948.070413
534.387040	11055.749459
534.747999	11058.227186
535.108902	11116.989396
535.469748	10873.342869
535.830537	10974.508744
536.191270	10949.890269
536.551947	10977.329270
536.912567	10975.469084
537.273131	10900.098793
537.633638	10881.043231
537.994089	10872.483352
538.354483	10815.006636
538.714821	10965.464914
539.075103	10969.021448
539.435328	10935.661613
539.795497	10765.217680
540.155609	10920.462534
540.515665	11006.605771
540.875665	10744.526264
541.235609	10815.619137
541.595496	10811.926491
541.955328	10966.117743
542.315102	10846.564259
542.674821	10796.704727
543.034483	10800.379728
543.394090	10805.766201
543.753640	10735.283309
544.113134	10953.701382
544.472571	10812.279372
544.831953	10949.615526
545.191278	10757.570250
545.550548	10787.791967
545.909761	10920.303737
546.268918	10896.532176
546.628019	10979.287758
546.987064	10845.402273
547.346053	10766.603998
547.704986	10868.296674
548.063863	10853.092554
548.422684	10846.395381
548.781449	10761.167113
549.140158	10865.277022
549.498811	10737.899668
549.857408	10595.862638
550.215949	10818.545526
550.574434	10678.431696
550.932864	10764.375808
551.291237	10834.402476
551.649555	10777.956676
552.007817	10796.377052
552.366022	10762.918914
552.724173	10752.360218
553.082267	10735.137115
553.440305	10873.957889
553.798288	10669.191261
554.156215	10825.320837
554.514086	10799.202619
554.871902	10649.069496
555.229661	10694.583553
555.587365	10671.679071
555.945014	10555.367049
556.302606	10684.967552
556.660143	10576.920502
557.017625	10732.339275
557.375050	10630.160128
557.732421	10770.031982
558.089735	10681.660555
558.446994	10683.724908
558.804197	10720.580784
559.161345	10715.711029
559.518437	10564.587319
559.875474	10658.420836
560.232455	10688.748418
560.589381	10633.646086
560.946251	10640.474328
561.303065	10742.126675
561.659825	10672.662096
562.016528	10604.538463
562.373177	10490.444549
562.729770	10604.936714
563.086307	10513.638898
563.442789	10604.886303
563.799216	10486.651081
564.155587	10533.589264
564.511904	10486.769548
564.868164	10480.697478
565.224370	10496.256999
565.580520	10413.335060
565.936615	10422.358725
566.292654	10293.332913
566.648638	10424.135732
567.004567	10381.018743
567.360441	10357.393375
567.716260	10278.254822
568.072023	10369.802176
568.427732	10321.414660
568.783385	10228.743129
569.138982	10303.606784
569.494525	10319.022633
569.850013	10185.623620
570.205445	10269.947000
570.560823	10169.532257
570.916145	10083.353732
571.271412	10161.663016
571.626625	10099.301422
571.981782	10081.508669
572.336884	10055.773579
572.691931	10060.731554
573.046923	10003.879941
573.401860	9961.299835
573.756743	9900.344724
574.111570	9939.317884
574.466342	9928.428992
574.821059	9958.559968
575.175722	9849.323206
575.530330	9856.559782
575.884882	9847.062248
576.239380	9774.182287
576.593823	9755.552703
576.948211	9771.339076
577.302544	9645.998347
577.656823	9663.768415
578.011047	9660.867231
578.365216	9639.593562
578.719330	9557.175737
579.073389	9568.583868
579.427394	9517.786682
579.781344	9493.884051
580.135239	9449.234551
580.489080	9457.209657
580.842866	9355.005303
581.196597	9359.993525
581.550273	9395.957117
581.903895	9369.342345
582.257463	9439.305999
582.610975	9314.257657
582.964434	9334.835647
583.317837	9261.015511
583.671186	9242.620340
584.024481	9237.952232
584.377721	9160.338627
584.730906	9138.533116
585.084037	9164.164863
585.437113	9105.130431
585.790135	9123.424778
586.143103	9024.106486
586.496016	8987.482503
586.848874	9050.544817
587.201679	9039.597951
587.554428	8925.020086
587.907124	8973.571439
588.259765	8942.953991
588.612352	8949.757028
588.964884	8829.361671
589.317362	8851.865382
589.669786	8842.879525
590.022155	8891.335096
590.374470	8906.229185
590.726731	8836.865429
591.078937	8689.678860
591.431090	8800.521230
591.783188	8679.684772
592.135232	8674.061365
592.487222	8672.228906
592.839157	8721.528870
593.191038	8655.225094
593.542866	8596.719983
593.894639	8495.886824
594.246358	8547.747694
594.598022	8565.162360
594.949633	8468.639387
595.301190	8437.911034
595.652692	8468.699881
596.004141	8576.091582
596.355535	8354.079166
596.706876	8340.405036
597.058162	8270.653111
597.409395	8344.304369
597.760573	8403.338801
598.111698	8311.990573
598.462768	8301.802401
598.813785	8261.916792
599.164748	8236.595076
599.515657	8224.221564
599.866511	8131.366030
600.217312	8256.769773
600.568060	8126.060216
600.918753	8223.273827
601.269392	8193.026904
601.619978	8108.479192
601.970510	8167.511103
602.320988	8168.327770
602.671412	8222.086635
603.021783	8160.513982
603.372100	8140.087227
603.722363	8135.842575
604.072572	8108.244778
604.422728	8126.362685
604.772830	8050.889050
605.122878	8059.801810
605.472872	8051.171355
605.822813	8084.901715
606.172701	8026.948611
606.522534	8106.707226
606.872314	8107.788554
607.222041	8071.277997
607.571714	8125.982078
607.921333	8091.556038
608.270899	8093.779187
608.620411	8184.114144
608.969870	8087.717200
609.319276	8073.727998
609.668627	8096.403108
610.017926	8134.171432
610.367171	8176.852362
610.716362	8155.180441
611.065500	8142.708627
611.414585	8168.327770
611.763616	8163.147985
612.112594	8145.261971
612.461518	8157.539701
612.810389	8218.207467
613.159207	8157.431316
613.507971	8105.237730
613.856682	8227.823468
614.205340	8180.716406
614.553945	8257.319259
614.902496	8153.458887
615.250994	8218.031027
615.599439	8194.269548
615.947830	8200.649128
616.296169	8179.693052
616.644454	8196.258283
616.992686	8194.025052
617.340864	8247.937672
617.688990	8146.176940
618.037063	8247.723423
618.385082	8193.672171
618.733048	8276.246271
619.080961	8219.707210
619.428821	8237.177329
619.776628	8235.740600
620.124382	8186.788476
620.472083	8173.505035
620.819731	8201.911937
621.167326	8091.450174
621.514868	8106.777802
621.862357	7990.097776
622.209793	8009.178543
622.557176	7944.487937
622.904506	7910.981908
623.251783	7843.788368
623.599007	7798.589383
623.946179	7805.571381
624.293297	7754.748988
624.640363	7681.382556
624.987376	7655.619739
625.334336	7604.371369
625.681243	7560.848567
626.028097	7542.022378
626.374899	7520.073194
626.721647	7514.023810
627.068343	7443.782893
627.414987	7420.064264
627.761577	7371.795216
628.108115	7412.081597
628.454600	7304.286604
628.801032	7352.033893
629.147412	7313.668191
629.493739	7301.652601
629.840014	7240.382417
630.186236	7296.636653
630.532405	7178.507295
630.878521	7225.712660
631.224585	7187.387287
631.570597	7108.263857
631.916556	7144.330793
632.262462	7139.035060
632.608316	7098.491581
632.954117	7081.802841
633.299866	7068.428660
633.645562	7059.294089
633.991206	6977.506409
634.336797	6922.877945
634.682336	6877.260544
635.027823	6844.251069
635.373257	6838.786458
635.718639	6766.592094
636.063968	6785.143540
636.409245	6673.555079
636.754470	6672.435943
637.099642	6628.993799
637.444762	6575.817188
637.789829	6584.566111
638.134845	6528.082502
638.479808	6509.082393
638.824719	6518.915164
639.169577	6443.602846
639.514383	6469.900025
639.859137	6392.825824
640.203839	6399.344036
640.548489	6388.334156
640.893086	6368.827411
641.237632	6332.019426
641.582125	6357.600762
641.926566	6326.272511
642.270955	6340.024779
642.615292	6333.441032
642.959576	6354.455082
643.303809	6342.386559
643.647990	6345.456622
643.992118	6339.369429
644.336195	6284.073012
644.680219	6301.462472
645.024192	6304.557741
645.368112	6395.240537
645.711981	6416.826757
646.055797	6489.628581
646.399562	6453.609537
646.743274	6579.613177
647.086935	6633.278780
647.430544	6628.194777
647.774101	6647.565410
648.117606	6655.709394
648.461059	6647.131871
648.804460	6606.739626
649.147810	6513.500965
649.491108	6486.702191
649.834354	6463.061700
650.177548	6375.655654
650.520690	6289.381347
650.863781	6265.496360
651.206820	6288.650380
651.549807	6211.465273
651.892742	6149.932949
652.235626	6154.089381
652.578458	6139.301156
652.921238	6047.978133
653.263967	6090.815338
653.606644	6026.986769
653.949269	6032.010279
654.291843	5975.161187
654.634365	6018.031159
654.976836	5976.020703
655.319255	5971.249251
655.661622	5950.928360
656.003938	5949.960459
656.346203	5911.380508
656.688416	5945.493996
657.030577	5892.624895
657.372687	5866.889805
657.714746	5853.450089
658.056753	5894.253188
658.398708	5836.983160
658.740612	5825.834648
659.082465	5871.905753
659.424266	5868.271081
659.766016	5865.944589
660.107715	5838.866031
660.449362	5857.767837
660.790958	5850.538823
661.132503	5835.122974
661.473996	5877.292226
661.815438	5859.479309
662.156829	5859.002920
662.498168	5853.951684
662.839456	5828.279608
663.180693	5859.171798
663.521879	5863.892839
663.863013	5851.962948
664.204097	5868.583633
664.545129	5914.954686
664.886110	5903.370115
665.227040	5944.793276
665.567918	5908.252472
665.908746	5934.479075
666.249522	5938.832112
666.590248	5925.906593
666.930922	5954.164781
667.271545	5965.830011
667.612118	5969.048788
667.952639	5946.955931
668.293109	5961.643333
668.633528	5926.503970
668.973896	5924.429535
669.314213	5917.828144
669.654480	5901.537655
669.994695	5889.529627
670.334859	5879.684253
670.674973	5871.706628
671.015035	5878.691146
671.355047	5875.288367
671.695008	5859.922930
672.034918	5834.394527
672.374777	5843.203944
672.714585	5829.723898
673.054342	5833.640875
673.394049	5823.177960
673.733705	5856.749524
674.073310	5846.871383
674.412864	5806.995856
674.752368	5798.993024
675.091820	5801.334640
675.431223	5732.265792
675.770574	5738.504219
676.109875	5687.084450
676.449125	5695.614083
676.788324	5658.516231
677.127473	5603.517243
677.466571	5596.038691
677.805619	5582.430096
678.144616	5571.440381
678.483562	5549.312236
678.822458	5515.828892
679.161303	5509.328324
679.500098	5506.971585
679.838842	5486.698585
680.177535	5492.566488
680.516179	5508.315052
680.854771	5516.396022
681.193314	5596.492395
681.531805	5706.039189
681.870247	5854.755748
682.208638	5963.155679
682.546978	5975.839222
682.885268	5953.239729
683.223508	5867.015834
683.561697	5814.081198
683.899836	5781.918636
684.237925	5737.911884
684.575963	5702.674218
684.913951	5662.271891
685.251889	5725.122477
685.589776	5696.382858
685.927614	5665.974618
686.265401	5738.146298
686.603137	5716.018153
686.940824	5793.964473
687.278460	5819.056817
687.616046	5828.617365
687.953582	5898.308796
688.291068	5878.514706
688.628504	5939.116937
688.965889	5901.618314
689.303224	5846.989850
689.640510	5796.127128
689.977745	5725.281273
690.314930	5622.792095
690.652065	5569.270164
690.989150	5474.690556
691.326185	5397.273557
691.663170	5345.730279
692.000105	5268.739257
692.336990	5188.148851
692.673825	5164.536087
693.010610	5098.320531
693.347345	5028.624058
693.684030	5011.983209
694.020665	4969.957630
694.357251	4882.458323
694.693786	4896.008945
695.030272	4858.855641
695.366707	4826.761135
695.703093	4790.580774
696.039429	4807.952590
696.375716	4796.519253
696.711952	4769.538997
697.048139	4754.954939
697.384276	4735.455756
697.720363	4751.204321
698.056400	4756.827728
698.392388	4704.535839
698.728326	4684.570349
699.064214	4664.322555
699.400053	4661.600332
699.735842	4625.316627
700.071581	4599.886527
700.407270	4573.080191
700.742910	4555.481523
701.078501	4499.862473
701.414042	4499.239890
701.749533	4471.808451
702.084974	4401.998553
702.420366	4463.321669
702.755709	4403.465529
703.091002	4349.883104
703.426246	4393.947830
703.761440	4351.972663
704.096584	4313.629647
704.431679	4337.181917
704.766725	4321.433353
705.101721	4308.986744
705.436668	4338.283409
705.771565	4287.493784
706.106413	4312.061848
706.441212	4345.146940
706.775961	4353.348898
707.110661	4338.023790
707.445311	4359.761245
707.779913	4387.233013
708.114465	4396.062594
708.448967	4420.882715
708.783421	4485.515349
709.117825	4528.135784
709.452180	4527.505640
709.786485	4575.230243
710.120742	4660.899612
710.454949	4645.256911
710.789107	4711.333835
711.123216	4785.882418
711.457275	4779.253301
711.791286	4852.390361
712.125247	4867.349985
712.459159	4774.083598
712.793023	4843.598589
713.126837	4801.368843
713.460602	4802.193072
713.794318	4716.712746
714.127985	4725.438984
714.461602	4642.010408
714.795171	4611.859267
715.128691	4544.905182
715.462162	4492.605732
715.795584	4439.706384
716.128957	4420.587808
716.462281	4374.088205
716.795556	4345.391436
717.128782	4303.403666
717.461960	4234.231473
717.795088	4247.101539
718.128167	4205.484294
718.461198	4145.005571
718.794180	4143.185714
719.127113	4121.228969
719.459997	4097.971606
719.792833	4058.368301
720.125619	4044.245508
720.458357	4009.585055
720.791046	4014.321219
721.123686	3988.949092
721.456278	3945.403605
721.788821	3961.172334
722.121315	3939.220630
722.453761	3914.975200
722.786158	3925.919545
723.118506	3952.050366
723.450805	3898.815782
723.783056	3922.541972
724.115259	3938.754323
724.447412	3945.491825
724.779518	3932.951955
725.111574	3939.941515
725.443582	3974.309581
725.775542	3952.378041
726.107453	4003.666741
726.439315	4003.485259
726.771129	4020.683155
727.102895	4055.598187
727.434612	4106.816310
727.766281	4118.481540
728.097901	4117.122949
728.429473	4121.672590
728.760996	4127.916059
729.092471	4124.878764
729.423897	4109.848564
729.755276	4112.865695
730.086606	4114.690592
730.417887	4152.988238
730.749120	4220.123804
731.080305	4282.021612
731.411442	4306.927433
731.742530	4280.025315
732.073570	4282.848361
732.404562	4336.014890
732.735506	4326.971060
733.066401	4291.713230
733.397249	4230.899271
733.728048	4152.491684
734.058798	4064.820978
734.389501	3994.068384
734.720156	3934.935649
735.050762	3889.154410
735.381320	3881.847258
735.711831	3828.902540
736.042293	3801.617294
736.372707	3824.604956
736.703073	3797.352478
737.033391	3787.411323
737.363661	3803.061585
737.693883	3828.698373
738.024056	3840.267821
738.354182	3834.483097
738.684260	3897.918456
739.014290	3920.704472
739.344272	3912.121907
739.674207	3954.114719
740.004093	3958.553455
740.333931	3955.997590
740.663722	3957.877940
740.993464	3955.793423
741.323159	3933.067902
741.652806	3898.367119
741.982405	3872.296792
742.311956	3839.667924
742.641460	3828.065708
742.970915	3807.011329
743.300323	3769.590844
743.629683	3732.344279
743.958996	3721.175603
744.288260	3694.822971
744.617477	3662.748629
744.946647	3650.002072
745.275768	3622.542907
745.604842	3619.382103
745.933869	3574.541040
746.262847	3564.146181
746.591778	3601.112962
746.920662	3575.929878
747.249498	3537.458312
747.578286	3589.369594
747.907027	3605.430710
748.235720	3605.995319
748.564365	3626.805202
748.892963	3629.388794
749.221514	3610.585290
749.550017	3588.195005
749.878473	3585.563523
750.206881	3557.242321
750.535242	3551.069428
750.863555	3556.897002
751.191821	3551.704613
751.520039	3530.544370
751.848210	3512.885208
752.176334	3543.379148
752.504411	3546.471895
752.832440	3508.907738
753.160421	3492.249245
753.488356	3501.908095
753.816243	3514.929396
754.144082	3471.724187
754.471875	3454.586784
754.799620	3475.414311
755.127318	3465.027014
755.454969	3467.993733
755.782572	3471.182263
756.110129	3450.284159
756.437638	3439.213786
756.765100	3452.514870
757.092515	3464.843012
757.419882	3468.018939
757.747203	3441.648663
758.074477	3444.123869
758.401703	3459.065849
758.728882	3481.211638
759.056014	3488.596929
759.383099	3491.334275
759.710138	3487.860920
760.037129	3505.275586
760.364073	3533.493445
760.690970	3524.205119
761.017820	3496.128413
761.344623	3518.869058
761.671379	3562.724575
761.998088	3614.797174
762.324751	3742.867688
762.651366	3990.348012
762.977935	4463.062049
763.304456	4908.831119
763.630931	5008.285523
763.957359	4648.936953
764.283740	4302.418120
764.610074	4105.994602
764.936362	3910.662493
765.262602	3748.591918
765.588796	3638.311636
765.914943	3548.332081
766.241044	3461.185655
766.567097	3427.435130
766.893104	3381.782440
767.219064	3349.677852
767.544978	3322.271619
767.870845	3270.622477
768.196665	3248.209508
768.522438	3258.430447
768.848165	3253.485075
769.173846	3215.202553
769.499479	3201.344421
769.825066	3184.428829
770.150607	3166.026097
770.476101	3182.692152
770.801548	3179.125535
771.126949	3132.308339
771.452303	3115.460803
771.777611	3122.218470
772.102872	3124.318111
772.428087	3100.385233
772.753256	3092.324428
773.078378	3082.794126
773.403453	3050.014023
773.728482	3036.801159
774.053465	3058.659602
774.378401	3048.095864
774.703291	3016.142511
775.028135	3018.857172
775.352932	3012.724608
775.677683	2999.153822
776.002388	2994.412617
776.327046	2998.737927
776.651658	2985.164620
776.976224	2975.916624
777.300743	2978.671614
777.625216	2964.475725
777.949643	2963.336424
778.274024	2960.979685
778.598359	2951.048612
778.922647	2957.642441
779.246889	2954.080866
779.571086	2940.855399
779.895236	2934.773247
780.219339	2947.421502
780.543397	2960.200827
780.867409	2959.802575
781.191374	2954.814354
781.515294	2951.245217
781.839167	2952.618931
782.162995	2943.350770
782.486776	2953.463324
782.810511	2948.182716
783.134201	2936.164605
783.457844	2946.375462
783.781441	2936.850202
784.104993	2913.010585
784.428498	2914.202818
784.751958	2927.357709
785.075372	2922.823191
785.398739	2905.920203
785.722061	2925.036258
786.045337	2933.460026
786.368568	2919.773293
786.691752	2911.014288
787.014891	2959.668985
787.337983	2990.165445
787.661030	3016.482789
787.984031	3086.995928
788.306987	3132.010911
788.629897	3124.610497
788.952760	3107.165585
789.275579	3093.725868
789.598351	3036.342414
789.921078	2987.725527
790.243759	2979.183291
790.566395	2962.454222
790.888984	2939.552260
791.211529	2919.564085
791.534027	2910.681572
791.856480	2904.002043
792.178888	2884.964126
792.501249	2876.996582
792.823566	2877.024309
793.145836	2874.642363
793.468062	2867.030221
793.790241	2864.003008
794.112375	2873.059441
794.434464	2884.676780
794.756507	2891.618449
795.078505	2894.602812
795.400457	2911.228538
795.722364	2943.055862
796.044226	2973.111222
796.366042	2973.375882
796.687812	2963.419603
797.009538	2982.008858
797.331218	2971.087198
797.652852	2953.884261
797.974442	2937.046807
798.295986	2932.799635
798.617484	2928.421393
798.938938	2914.170051
799.260346	2897.960221
799.581709	2893.274468
799.903026	2885.831204
800.224299	2878.692931
800.545526	2870.508617
800.866708	2854.760053
801.187845	2844.269412
801.508936	2845.597756
801.829983	2853.338447
802.150984	2838.474605
802.471940	2827.144612
802.792851	2827.545384
803.113717	2827.510096
803.434538	2832.629387
803.755314	2823.961123
804.076045	2819.350988
804.396731	2817.248827
804.717372	2818.441060
805.037967	2814.657674
805.358518	2818.993066
805.679024	2832.236177
805.999485	2825.355002
806.319901	2830.214675
806.640272	2823.227635
806.960598	2827.182421
807.280879	2838.018381
807.601115	2845.469206
807.921306	2831.774912
808.241453	2829.128306
808.561554	2833.367916
808.881611	2836.803463
809.201623	2831.477484
809.521590	2828.331804
809.841513	2826.416165
810.161390	2829.135868
810.481223	2825.133192
810.801011	2814.264464
811.120755	2809.855975
811.440453	2814.682880
811.760107	2813.588949
812.079716	2814.067859
812.399281	2800.471867
812.718801	2794.868624
813.038276	2789.270423
813.357707	2798.223512
813.677093	2806.304482
813.996434	2795.503810
814.315731	2791.528860
814.634983	2786.941410
814.954191	2789.930814
815.273354	2803.368010
815.592473	2812.991572
815.911547	2814.776141
816.230577	2820.974240
816.549562	2834.287927
816.868502	2829.385405
817.187399	2838.530058
817.506250	2857.066381
817.825058	2849.489526
818.143821	2863.352699
818.462539	2878.574463
818.781213	2905.801735
819.099843	2943.844803
819.418429	3002.687671
819.736970	3064.046075
820.055466	3135.461581
820.373919	3240.771285
820.692327	3385.192781
821.010691	3552.664953
821.329011	3996.087366
821.647286	4906.721397
821.965517	6307.312731
822.283704	7069.666263
822.601847	7057.406177
822.919945	6413.413896
823.237999	5891.528444
823.556010	5304.087828
823.873976	4743.498917
824.191897	4327.475176
824.509775	4030.979712
824.827609	3752.725664
825.145398	3629.696304
825.463144	3618.356229
825.780845	3711.204200
826.098502	3812.891835
826.416116	4100.222481
826.733685	4425.621400
827.051210	4494.130681
827.368692	4370.004870
827.686129	4105.399746
828.003522	3775.887245
828.320872	3513.427132
828.638177	3314.107471
828.955439	3176.461285
829.272656	3091.222936
829.589830	3021.443284
829.906960	2970.116776
830.224046	2926.873758
830.541088	2891.041237
830.858086	2875.900131
831.175041	2858.203161
831.491952	2860.804396
831.808819	2873.669421
832.125642	2897.143554
832.442421	2944.981583
832.759157	3025.748429
833.075849	3204.338866
833.392497	3485.814212
833.709101	3694.081921
834.025662	3644.232471
834.342179	3487.283708
834.658653	3304.781336
834.975083	3155.454797
835.291469	3055.614745
835.607811	2971.994606
835.924110	2909.978331
836.240366	2858.528315
836.556578	2815.892757
836.872746	2792.234622
837.188871	2770.792074
837.504952	2755.169538
837.820990	2742.949781
838.136984	2732.133985
838.452935	2723.795917
838.768842	2722.870865
839.084706	2738.952146
839.400526	2819.814774
839.716303	2951.446863
840.032037	3037.065820
840.347727	3022.703573
840.663373	2960.737709
840.978977	2885.669887
841.294537	2810.869247
841.610054	2760.508120
841.925527	2740.237640
842.240957	2715.896429
842.556344	2695.026052
842.871687	2680.237827
843.186987	2668.174346
843.502244	2664.398522
843.817458	2661.409117
844.132629	2646.489823
844.447756	2640.881539
844.762840	2631.953656
845.077881	2636.324336
845.392879	2633.743265
845.707833	2630.080867
846.022745	2622.809002
846.337613	2624.959055
846.652438	2624.812861
846.967221	2625.014507
847.281960	2622.249434
847.596656	2621.168107
847.911309	2620.936214
848.225919	2619.096193
848.540485	2612.492281
848.855009	2615.269957
849.169490	2612.898094
849.483928	2612.696448
849.798323	2611.630244
850.112675	2611.607559
850.426984	2610.251488
850.741251	2611.292487
851.055474	2608.950871
851.369654	2615.622838
851.683792	2616.545369
851.997887	2615.711058
852.311938	2609.628906
852.625947	2614.017230
852.939914	2616.747015
853.253837	2614.107971
853.567718	2609.311313
853.881555	2608.653442
854.195350	2611.274843
854.509103	2613.248454
854.822812	2609.704523
855.136479	2609.117229
855.450103	2611.983125
855.763685	2615.975718
856.077224	2610.644698
856.390720	2607.504059
856.704173	2610.838783
857.017584	2615.159052
857.330953	2618.995370
857.644278	2619.675925
857.957561	2619.877572
858.270802	2616.250461
858.584000	2615.209463
858.897155	2618.299690
859.210268	2619.534773
859.523339	2613.240892
859.836367	2610.427929
860.149352	2610.438011
860.462295	2611.073196
860.775195	2607.070520
861.088054	2607.204111
861.400869	2609.064297
861.713642	2602.835951
862.026373	2607.380551
862.339062	2610.435490
862.651708	2613.591253
862.964312	2613.313989
863.276873	2611.935234
863.589392	2613.298866
863.901869	2621.599126
864.214303	2624.623818
864.526696	2626.733541
864.839045	2632.540950
865.151353	2631.625981
865.463619	2630.821917
865.775842	2634.280148
866.088023	2631.263017
866.400162	2633.864253
866.712258	2630.804272
867.024313	2628.646659
867.336325	2629.516258
867.648296	2629.390229
867.960224	2635.583286
868.272110	2632.735034
868.583954	2627.504837
868.895755	2628.855867
869.207515	2633.120683
869.519233	2640.180819
869.830909	2632.334263
870.142542	2630.527009
870.454134	2635.701753
870.765684	2637.690489
871.077191	2639.003709
871.388657	2647.220790
871.700081	2642.514873
872.011463	2641.529327
872.322803	2643.500418
872.634101	2646.540234
872.945357	2655.795793
873.256571	2660.189158
873.567744	2659.513644
873.878874	2657.434168
874.189963	2658.026503
874.501010	2661.525064
874.812015	2665.605878
875.122979	2665.905827
875.433900	2657.993736
875.744780	2655.243786
876.055618	2661.283089
876.366415	2669.182577
876.677169	2668.277690
876.987882	2662.261072
877.298554	2661.560352
877.609183	2672.328257
877.919771	2681.785461
878.230317	2685.528518
878.540822	2696.558563
878.851285	2707.916282
879.161707	2732.542319
879.472087	2774.290634
879.782425	2824.240907
880.092722	2939.711057
880.402977	3131.184162
880.713191	3395.353227
881.023363	3700.358158
881.333494	3899.125813
881.643583	4073.403542
881.953631	4068.730393
882.263637	3892.358064
882.573602	3667.472191
882.883526	3531.081253
883.193408	3414.744025
883.503248	3307.347283
883.813048	3191.831763
884.122806	3076.132242
884.432522	2988.998418
884.742197	2923.375198
885.051831	2881.158055
885.361424	2844.710512
885.670975	2809.926551
885.980485	2774.731735
886.289954	2757.896802
886.599382	2745.795512
886.908768	2730.740106
887.218113	2713.496840
887.527417	2700.016794
887.836680	2690.864579
888.145901	2685.899043
888.455082	2678.087775
888.764221	2667.133348
889.073319	2658.974240
889.382376	2656.957779
889.691392	2657.499703
890.000366	2659.188489
890.309300	2656.183962
890.618193	2660.484066
890.927044	2663.370126
891.235855	2665.273162
891.544625	2660.232008
891.853353	2661.575476
892.162041	2667.007319
892.470687	2690.078159
892.779293	2698.965714
893.087858	2711.797971
893.396381	2733.815210
893.704864	2776.246602
894.013306	2847.578929
894.321707	2944.916048
894.630068	2996.608040
894.938387	3018.554703
895.246665	3011.131604
895.554903	2966.913123
895.863100	2919.987542
896.171256	2862.168028
896.479371	2800.910447
896.787446	2758.466452
897.095480	2738.029615
897.403473	2731.861763
897.711425	2719.100082
898.019336	2697.460929
898.327207	2683.002900
898.635038	2684.968950
898.942827	2681.732529
899.250576	2672.781961
899.558284	2660.191679
899.865952	2652.811430
900.173579	2651.742705
900.481165	2650.245482
900.788711	2641.804070
901.096216	2634.101187
901.403681	2634.373409
901.711105	2631.346197
902.018489	2630.645476
902.325832	2632.079684
902.633135	2637.135962
902.940397	2650.520225
903.247619	2689.382480
903.554800	2759.404107
903.861941	2890.854714
904.169041	3023.134591
904.476101	3086.789241
904.783121	3081.947212
905.090100	3021.581916
905.397039	2941.183074
905.703938	2867.529295
906.010796	2802.233750
906.317614	2749.389855
906.624391	2713.103630
906.931129	2685.314269
907.237826	2660.620177
907.544483	2642.232568
907.851099	2628.419807
908.157675	2617.430091
908.464211	2611.284925
908.770707	2599.987699
909.077163	2596.854622
909.383578	2588.740885
909.689954	2592.078129
909.996289	2588.849270
910.302584	2587.755339
910.608839	2586.018662
910.915054	2586.689135
911.221229	2590.475042
911.527363	2591.342120
911.833458	2590.265834
912.139513	2591.533684
912.445527	2592.632656
912.751502	2597.814962
913.057436	2602.735128
913.363331	2609.543206
913.669186	2619.393621
913.975000	2633.972638
914.280775	2654.633807
914.586510	2672.693740
914.892205	2711.946685
915.197859	2778.880605
915.503475	2866.389995
915.809050	2931.856939
916.114585	2952.482820
916.420081	2964.127885
916.725536	2976.387972
917.030952	2947.040894
917.336328	2897.201527
917.641665	2847.962057
917.946961	2796.557411
918.252218	2761.181114
918.557435	2734.289079
918.862612	2710.749411
919.167750	2691.996318
919.472848	2674.576611
919.777906	2657.560197
920.082925	2644.223824
920.387904	2634.665796
920.692843	2632.926598
920.997743	2628.671864
921.302603	2619.136522
921.607423	2608.678648
921.912204	2604.802001
922.216946	2600.554829
922.521647	2601.653800
922.826310	2596.421083
923.130932	2593.885382
923.435516	2586.421954
923.740059	2584.365163
924.044564	2583.954309
924.349028	2578.961046
924.653454	2573.912331
924.957840	2572.329408
925.262186	2565.196176
925.566493	2567.492421
925.870761	2564.772719
926.174989	2565.090312
926.479178	2561.914385
926.783328	2560.868345
927.087438	2561.385063
927.391509	2559.567727
927.695541	2557.548745
927.999533	2556.497665
928.303486	2554.609753
928.607400	2554.801317
928.911275	2552.754608
929.215110	2557.712583
929.518906	2555.146636
929.822663	2553.394835
930.126381	2555.408776
930.430060	2553.150339
930.733699	2553.662016
931.037299	2556.258210
931.340861	2556.154866
931.644383	2555.028168
931.947866	2554.950031
932.251309	2556.190154
932.554714	2557.342058
932.858080	2555.169321
933.161407	2554.919784
933.464694	2552.404248
933.767943	2551.731254
934.071153	2554.007335
934.374323	2552.197561
934.677455	2552.590771
934.980548	2551.310317
935.283602	2552.406768
935.586617	2551.532128
935.889593	2553.215874
936.192530	2548.910728
936.495428	2553.762839
936.798287	2551.403579
937.101108	2553.672098
937.403890	2556.742161
937.706632	2559.658468
938.009336	2564.117369
938.312002	2565.387740
938.614628	2569.337484
938.917216	2573.887125
939.219765	2578.766962
939.522275	2577.433577
939.824747	2576.276632
940.127179	2570.431414
940.429573	2566.219530
940.731929	2568.387226
941.034246	2562.176525
941.336524	2564.936556
941.638763	2566.159036
941.940964	2565.450754
942.243126	2562.720969
942.545250	2562.983109
942.847335	2561.266596
943.149381	2558.584703
943.451389	2558.811554
943.753359	2561.130485
944.055290	2555.305432
944.357182	2554.375339
944.659036	2556.550597
944.960851	2556.772408
945.262628	2554.791234
945.564367	2554.181255
945.866067	2553.127653
946.167729	2555.108827
946.469352	2556.974054
946.770937	2557.561348
947.072484	2555.993549
947.373992	2555.547407
947.675462	2556.507747
947.976893	2551.975750
948.278286	2551.711089
948.579641	2552.999104
948.880958	2553.145297
949.182236	2552.386604
949.483476	2550.733105
949.784678	2552.978939
950.085841	2550.412992
950.386967	2553.727551
950.688054	2550.286963
950.989103	2550.491130
951.290114	2553.009186
951.591087	2554.624876
951.892021	2559.608057
952.192917	2559.061092
952.493776	2558.894733
952.794596	2559.424055
953.095378	2558.602347
953.396122	2560.071843
953.696828	2559.895402
953.997496	2556.086811
954.298126	2553.793086
954.598718	2552.840308
954.899272	2555.859959
955.199788	2550.556665
955.500266	2550.813764
955.800706	2545.812939
956.101108	2544.771941
956.401472	2542.228679
956.701798	2538.571322
957.002087	2540.393699
957.302337	2543.231868
957.602550	2540.638195
957.902724	2542.276570
958.202861	2540.663401
958.502960	2539.892104
958.803022	2541.540561
959.103045	2537.343801
959.403031	2542.226158
959.702979	2540.227341
960.002889	2536.514531
960.302762	2540.970911
960.602596	2536.481763
960.902393	2538.566281
961.202153	2537.089223
961.501875	2536.577545
961.801559	2536.350693
962.101205	2537.434542
962.400814	2536.275076
962.700385	2537.467309
962.999918	2538.785571
963.299414	2534.714839
963.598873	2533.041176
963.898293	2533.487318
964.197677	2535.166022
964.497022	2534.679551
964.796331	2533.983872
965.095601	2533.996475
965.394835	2535.896990
965.694030	2535.037473
965.993189	2537.817669
966.292309	2535.395395
966.591393	2537.028729
966.890439	2534.964376
967.189447	2535.584438
967.488419	2534.455220
967.787353	2534.288862
968.086249	2535.332380
968.385108	2537.114428
968.683930	2534.084695
968.982714	2537.787422
969.281462	2534.740045
969.580172	2534.883718
969.878844	2536.388502
970.177480	2535.302133
970.476078	2537.071578
970.774639	2538.404964
971.073162	2536.264994
971.371649	2535.007226
971.670098	2531.425486
971.968510	2535.259284
972.266885	2529.504807
972.565223	2539.365303
972.863524	2537.381609
973.161788	2535.997813
973.460014	2534.919006
973.758204	2536.464119
974.056356	2535.561753
974.354471	2533.623429
974.652550	2540.222300
974.950591	2537.568132
975.248595	2537.411856
975.546563	2533.502442
975.844493	2539.254398
976.142386	2534.210724
976.440243	2534.921526
976.738062	2534.054448
977.035845	2532.867256
977.333590	2534.752648
977.631299	2535.765920
977.928971	2535.082843
978.226606	2533.530168
978.524204	2535.954963
978.821765	2533.242822
979.119290	2533.865405
979.416777	2531.642256
979.714228	2535.413039
980.011642	2535.957483
980.309020	2537.842875
980.606360	2533.878008
980.903664	2533.920857
981.200931	2536.091074
981.498162	2535.302133
981.795356	2539.624923
982.092513	2542.722712
982.389633	2543.693134
982.686717	2549.860986
982.983764	2549.606408
983.280775	2552.096738
983.577749	2551.380894
983.874686	2549.152704
984.171587	2547.413506
984.468451	2544.872764
984.765279	2542.614327
985.062070	2539.609799
985.358824	2540.050900
985.655543	2539.554347
985.952224	2537.225334
986.248869	2533.429345
986.545478	2528.738551
986.842050	2533.341125
987.138586	2529.537574
987.435086	2530.104704
987.731549	2529.325846
988.027975	2533.247863
988.324366	2534.664428
988.620719	2532.128727
988.917037	2532.093439
989.213318	2532.269879
989.509563	2532.663089
989.805772	2533.840199
990.101944	2529.633356
990.398080	2532.267359
990.694180	2533.517565
990.990244	2531.249046
991.286271	2530.749972
991.582262	2533.220137
991.878217	2532.653007
992.174136	2531.899355
992.470019	2530.755013
992.765865	2531.312060
993.061676	2530.611340
993.357450	2531.559077
993.653188	2531.959848
993.948890	2529.182173
994.244556	2531.291896
994.540186	2533.941022
994.835780	2531.700229
995.131337	2534.959335
995.426859	2533.709129
995.722345	2532.731145
996.017795	2534.621578
996.313208	2535.793646
996.608586	2533.562935
996.903928	2535.097967
997.199234	2535.246681
997.494504	2539.841693
997.789738	2534.132586
998.084936	2536.406146
998.380099	2531.911957
998.675225	2533.396577
998.970316	2534.571166
999.265371	2532.302647
999.560390	2529.739220
999.855373	2532.370702
1000.150320	2532.965559
1000.445232	2530.893644
1000.740108	2531.813655
1001.034948	2530.815507
1001.329752	2531.508665
1001.624521	2529.048582
1001.919254	2525.461801
1002.213951	2528.191586
1002.508613	2529.177132
1002.803239	2530.364323
1003.097829	2526.470032
1003.392384	2529.522451
1003.686903	2529.280475
1003.981386	2530.697039
1004.275834	2531.901875
1004.570246	2530.921371
1004.864623	2527.639580
1005.158964	2528.925074
1005.453270	2530.286185
1005.747540	2528.433561
1006.041775	2529.593027
1006.335974	2531.730476
1006.630138	2532.249715
1006.924266	2529.560259
1007.218359	2531.105373
1007.512416	2530.354241
1007.806438	2528.536905
1008.100425	2530.147554
1008.394376	2530.805424
1008.688292	2528.980527
1008.982172	2528.509179
1009.276017	2529.466998
1009.569827	2527.571524
1009.863602	2528.610002
1010.157341	2530.225692
1010.451045	2533.056299
1010.744714	2531.319622
1011.038347	2530.092101
1011.331945	2527.944569
1011.625508	2530.969262
1011.919036	2530.634025
1012.212528	2528.105886
1012.505986	2530.192924
1012.799408	2530.293747
1013.092795	2530.462626
1013.386147	2528.917512
1013.679464	2522.230422
1013.972745	2528.647810
1014.265992	2527.760567
1014.559204	2529.625794
1014.852380	2528.917512
1015.145521	2528.516740
1015.438628	2528.864580
1015.731699	2527.808458
1016.024736	2530.828109
1016.317737	2530.528161
1016.610703	2531.584283
1016.903635	2523.904085
1017.196531	2522.338806
1017.489393	2526.991791
1017.782219	2523.838550
1018.075011	2528.257121
1018.367768	2527.596730
1018.660490	2531.148223
1018.953177	2531.148223
1019.245829	2531.148223
