Dividing Wavelength (nm)	Counts (n)	Blue Motor Position (mm): 0.000000	Red Motor Position (mm): 5.200000	
326.493990	2084.517115
326.888308	2084.517115
327.282561	2084.517115
327.676750	2114.764038
328.070874	1988.735192
328.464933	2074.434808
328.858929	2079.475962
329.252859	2064.352500
329.646726	2124.846346
330.040528	2132.408077
330.434265	2079.475962
330.827938	2132.408077
331.221547	2134.928654
331.615091	2155.093269
332.008571	2210.545962
332.401986	2182.819615
332.795338	2175.257885
333.188625	2265.998654
333.581847	2276.080962
333.975006	2258.436923
334.368100	2336.574808
334.761129	2361.780577
335.154095	2276.080962
335.546996	2326.492500
335.939833	2354.218846
336.332606	2417.233269
336.725315	2450.000769
337.117960	2397.068654
337.510540	2402.109808
337.903056	2442.439038
338.295508	2477.727115
338.687896	2389.506923
339.080220	2472.685962
339.472480	2535.700385
339.864676	2485.288846
340.256807	2462.603654
340.648875	2460.083077
341.040879	2485.288846
341.432818	2467.644808
341.824694	2462.603654
342.216506	2323.971923
342.608253	2480.247692
342.999937	2457.562500
343.391557	2583.591346
343.783113	2399.589231
344.174605	2518.056346
344.566033	2409.671538
344.957397	2477.727115
345.348697	2460.083077
345.739934	2404.630385
346.131106	2442.439038
346.522215	2414.712692
346.913260	2386.986346
347.304241	2485.288846
347.695159	2497.891731
348.086012	2475.206538
348.476802	2462.603654
348.867528	2497.891731
349.258191	2422.274423
349.648789	2507.974038
350.039324	2422.274423
350.429796	2495.371154
350.820203	2467.644808
351.210548	2419.753846
351.600828	2402.109808
351.991045	2439.918462
352.381198	2437.397885
352.771288	2507.974038
353.161314	2434.877308
353.551276	2470.165385
353.941175	2470.165385
354.331010	2392.027500
354.720782	2392.027500
355.110490	2523.097500
355.500135	2485.288846
355.889717	2419.753846
356.279235	2515.535769
356.668689	2414.712692
357.058080	2409.671538
357.447408	2407.150962
357.836672	2369.342308
358.225873	2482.768269
358.615010	2412.192115
359.004084	2460.083077
359.393095	2447.480192
359.782043	2525.618077
360.170927	2399.589231
360.559748	2308.848462
360.948505	2480.247692
361.337199	2331.533654
361.725830	2432.356731
362.114398	2460.083077
362.502903	2520.576923
362.891344	2591.153077
363.279722	2444.959615
363.668037	2515.535769
364.056289	2419.753846
364.444478	2465.124231
364.832603	2520.576923
365.220665	2548.303269
365.608665	2427.315577
365.996601	2424.795000
366.384474	2442.439038
366.772284	2485.288846
367.160031	2462.603654
367.547715	2447.480192
367.935336	2523.097500
368.322893	2399.589231
368.710388	2497.891731
369.097820	2399.589231
369.485189	2422.274423
369.872495	2434.877308
370.259738	2465.124231
370.646918	2518.056346
371.034035	2434.877308
371.421090	2424.795000
371.808081	2523.097500
372.195010	2432.356731
372.581875	2507.974038
372.968678	2437.397885
373.355418	2432.356731
373.742096	2399.589231
374.128710	2525.618077
374.515262	2412.192115
374.901751	2472.685962
375.288177	2424.795000
375.674540	2419.753846
376.060841	2472.685962
376.447079	2429.836154
376.833254	2465.124231
377.219367	2447.480192
377.605417	2515.535769
377.991404	2444.959615
378.377329	2434.877308
378.763191	2412.192115
379.148991	2523.097500
379.534727	2457.562500
379.920402	2427.315577
380.306013	2361.780577
380.691563	2429.836154
381.077049	2525.618077
381.462474	2432.356731
381.847835	2447.480192
382.233134	2500.412308
382.618371	2485.288846
383.003545	2477.727115
383.388657	2515.535769
383.773706	2417.233269
384.158693	2515.535769
384.543618	2467.644808
384.928480	2482.768269
385.313280	2513.015192
385.698017	2553.344423
386.082692	2502.932885
386.467305	2497.891731
386.851856	2394.548077
387.236344	2510.494615
387.620770	2490.330000
388.005133	2465.124231
388.389435	2381.945192
388.773674	2507.974038
389.157851	2500.412308
389.541965	2455.041923
389.926018	2507.974038
390.310008	2510.494615
390.693936	2442.439038
391.077802	2460.083077
391.461606	2457.562500
391.845348	2452.521346
392.229027	2475.206538
392.612645	2525.618077
392.996200	2455.041923
393.379694	2492.850577
393.763125	2581.070769
394.146494	2482.768269
394.529801	2447.480192
394.913047	2472.685962
395.296230	2429.836154
395.679351	2404.630385
396.062410	2480.247692
396.445408	2518.056346
396.828343	2444.959615
397.211217	2520.576923
397.594028	2392.027500
397.976778	2490.330000
398.359466	2518.056346
398.742092	2487.809423
399.124656	2530.659231
399.507158	2470.165385
399.889598	2520.576923
400.271977	2467.644808
400.654294	2412.192115
401.036549	2444.959615
401.418742	2520.576923
401.800874	2399.589231
402.182944	2502.932885
402.564952	2419.753846
402.946898	2402.109808
403.328783	2495.371154
403.710606	2545.782692
404.092367	2525.618077
404.474067	2535.700385
404.855705	2439.918462
405.237282	2477.727115
405.618797	2417.233269
406.000250	2523.097500
406.381642	2402.109808
406.762972	2450.000769
407.144240	2543.262115
407.525447	2417.233269
407.906593	2470.165385
408.287677	2540.741538
408.668700	2480.247692
409.049661	2505.453462
409.430560	2482.768269
409.811399	2409.671538
410.192176	2404.630385
410.572891	2470.165385
410.953545	2437.397885
411.334138	2515.535769
411.714669	2540.741538
412.095139	2502.932885
412.475547	2439.918462
412.855894	2548.303269
413.236180	2523.097500
413.616405	2475.206538
413.996568	2555.865000
414.376670	2505.453462
414.756711	2523.097500
415.136691	2389.506923
415.516609	2497.891731
415.896466	2492.850577
416.276262	2497.891731
416.655997	2515.535769
417.035670	2510.494615
417.415283	2482.768269
417.794834	2535.700385
418.174324	2477.727115
418.553753	2467.644808
418.933121	2374.383462
419.312428	2510.494615
419.691674	2477.727115
420.070859	2407.150962
420.449983	2452.521346
420.829045	2533.179808
421.208047	2490.330000
421.586988	2588.632500
421.965867	2492.850577
422.344686	2515.535769
422.723444	2379.424615
423.102141	2409.671538
423.480777	2553.344423
423.859352	2424.795000
424.237866	2477.727115
424.616319	2520.576923
424.994712	2505.453462
425.373044	2525.618077
425.751314	2482.768269
426.129524	2528.138654
426.507673	2550.823846
426.885762	2452.521346
427.263789	2467.644808
427.641756	2419.753846
428.019662	2477.727115
428.397508	2555.865000
428.775292	2444.959615
429.153016	2523.097500
429.530679	2450.000769
429.908282	2482.768269
430.285824	2467.644808
430.663305	2513.015192
431.040726	2450.000769
431.418086	2455.041923
431.795385	2399.589231
432.172624	2543.262115
432.549802	2581.070769
432.926920	2525.618077
433.303977	2427.315577
433.680974	2485.288846
434.057910	2455.041923
434.434786	2525.618077
434.811601	2472.685962
435.188355	2558.385577
435.565050	2588.632500
435.941683	2528.138654
436.318257	2452.521346
436.694770	2384.465769
437.071222	2533.179808
437.447614	2432.356731
437.823946	2502.932885
438.200218	2560.906154
438.576429	2523.097500
438.952580	2565.947308
439.328670	2525.618077
439.704700	2475.206538
440.080670	2444.959615
440.456580	2525.618077
440.832429	2492.850577
441.208218	2482.768269
441.583947	2513.015192
441.959616	2482.768269
442.335224	2487.809423
442.710773	2485.288846
443.086261	2500.412308
443.461689	2465.124231
443.837057	2535.700385
444.212365	2472.685962
444.587612	2502.932885
444.962800	2485.288846
445.337927	2543.262115
445.712995	2497.891731
446.088002	2450.000769
446.462949	2515.535769
446.837837	2518.056346
447.212664	2540.741538
447.587431	2432.356731
447.962139	2399.589231
448.336786	2497.891731
448.711374	2417.233269
449.085901	2379.424615
449.460369	2450.000769
449.834776	2550.823846
450.209124	2497.891731
450.583412	2452.521346
450.957640	2540.741538
451.331808	2434.877308
451.705917	2606.276538
452.079965	2548.303269
452.453954	2565.947308
452.827883	2510.494615
453.201752	2588.632500
453.575562	2457.562500
453.949311	2502.932885
454.323001	2502.932885
454.696632	2570.988462
455.070202	2538.220962
455.443713	2528.138654
455.817164	2439.918462
456.190556	2409.671538
456.563888	2470.165385
456.937160	2482.768269
457.310373	2467.644808
457.683526	2550.823846
458.056619	2439.918462
458.429653	2429.836154
458.802628	2515.535769
459.175542	2538.220962
459.548398	2485.288846
459.921194	2530.659231
460.293930	2520.576923
460.666607	2417.233269
461.039224	2442.439038
461.411782	2457.562500
461.784280	2485.288846
462.156719	2414.712692
462.529099	2533.179808
462.901419	2540.741538
463.273680	2492.850577
463.645882	2492.850577
464.018024	2477.727115
464.390106	2581.070769
464.762130	2450.000769
465.134094	2444.959615
465.505999	2520.576923
465.877845	2477.727115
466.249631	2424.795000
466.621358	2470.165385
466.993026	2371.862885
467.364634	2570.988462
467.736184	2513.015192
468.107674	2412.192115
468.479105	2470.165385
468.850477	2434.877308
469.221790	2545.782692
469.593043	2581.070769
469.964238	2515.535769
470.335373	2500.412308
470.706449	2563.426731
471.077467	2442.439038
471.448425	2510.494615
471.819324	2477.727115
472.190164	2520.576923
472.560945	2434.877308
472.931667	2505.453462
473.302330	2485.288846
473.672934	2558.385577
474.043479	2470.165385
474.413965	2417.233269
474.784393	2558.385577
475.154761	2543.262115
475.525070	2412.192115
475.895321	2495.371154
476.265513	2568.467885
476.635645	2447.480192
477.005719	2540.741538
477.375734	2581.070769
477.745691	2477.727115
478.115588	2457.562500
478.485427	2502.932885
478.855207	2555.865000
479.224928	2470.165385
479.594591	2487.809423
479.964194	2502.932885
480.333739	2465.124231
480.703226	2573.509038
481.072653	2515.535769
481.442022	2513.015192
481.811333	2525.618077
482.180584	2553.344423
482.549777	2444.959615
482.918912	2487.809423
483.287988	2555.865000
483.657005	2513.015192
484.025964	2505.453462
484.394864	2523.097500
484.763706	2472.685962
485.132489	2523.097500
485.501213	2500.412308
485.869879	2477.727115
486.238487	2450.000769
486.607036	2455.041923
486.975527	2414.712692
487.343959	2490.330000
487.712333	2472.685962
488.080648	2460.083077
488.448905	2452.521346
488.817104	2502.932885
489.185244	2510.494615
489.553326	2450.000769
489.921350	2500.412308
490.289315	2470.165385
490.657222	2510.494615
491.025070	2555.865000
491.392861	2460.083077
491.760593	2570.988462
492.128267	2515.535769
492.495883	2510.494615
492.863440	2558.385577
493.230939	2510.494615
493.598380	2505.453462
493.965763	2513.015192
494.333088	2455.041923
494.700354	2492.850577
495.067563	2465.124231
495.434713	2467.644808
495.801805	2429.836154
496.168839	2432.356731
496.535815	2424.795000
496.902733	2477.727115
497.269593	2497.891731
497.636395	2485.288846
498.003139	2485.288846
498.369825	2497.891731
498.736453	2447.480192
499.103023	2533.179808
499.469535	2497.891731
499.835989	2507.974038
500.202385	2507.974038
500.568723	2457.562500
500.935003	2480.247692
501.301226	2492.850577
501.667390	2502.932885
502.033497	2492.850577
502.399546	2492.850577
502.765537	2399.589231
503.131470	2530.659231
503.497345	2465.124231
503.863163	2465.124231
504.228923	2530.659231
504.594625	2505.453462
504.960269	2470.165385
505.325856	2573.509038
505.691385	2497.891731
506.056856	2586.111923
506.422270	2538.220962
506.787625	2576.029615
507.152924	2490.330000
507.518164	2497.891731
507.883347	2518.056346
508.248472	2533.179808
508.613540	2507.974038
508.978550	2540.741538
509.343503	2533.179808
509.708398	2533.179808
510.073236	2444.959615
510.438016	2447.480192
510.802738	2485.288846
511.167403	2485.288846
511.532010	2500.412308
511.896561	2472.685962
512.261053	2487.809423
512.625488	2507.974038
512.989866	2462.603654
513.354186	2535.700385
513.718449	2495.371154
514.082655	2452.521346
514.446803	2432.356731
514.810894	2444.959615
515.174927	2452.521346
515.538904	2467.644808
515.902822	2475.206538
516.266684	2555.865000
516.630488	2467.644808
516.994235	2500.412308
517.357925	2568.467885
517.721558	2452.521346
518.085133	2502.932885
518.448651	2502.932885
518.812112	2439.918462
519.175516	2578.550192
519.538863	2399.589231
519.902152	2510.494615
520.265385	2505.453462
520.628560	2480.247692
520.991678	2578.550192
521.354739	2535.700385
521.717743	2444.959615
522.080690	2477.727115
522.443580	2520.576923
522.806413	2477.727115
523.169189	2447.480192
523.531908	2502.932885
523.894569	2437.397885
524.257174	2439.918462
524.619722	2467.644808
524.982213	2472.685962
525.344647	2444.959615
525.707025	2502.932885
526.069345	2535.700385
526.431608	2502.932885
526.793815	2535.700385
527.155964	2492.850577
527.518057	2455.041923
527.880093	2538.220962
528.242072	2515.535769
528.603995	2507.974038
528.965860	2601.235385
529.327669	2538.220962
529.689421	2533.179808
530.051117	2548.303269
530.412755	2462.603654
530.774337	2586.111923
531.135862	2507.974038
531.497331	2465.124231
531.858743	2497.891731
532.220098	2570.988462
532.581396	2442.439038
532.942638	2533.179808
533.303824	2462.603654
533.664953	2442.439038
534.026025	2439.918462
534.387040	2540.741538
534.747999	2460.083077
535.108902	2490.330000
535.469748	2490.330000
535.830537	2505.453462
536.191270	2530.659231
536.551947	2485.288846
536.912567	2490.330000
537.273131	2444.959615
537.633638	2502.932885
537.994089	2530.659231
538.354483	2422.274423
538.714821	2470.165385
539.075103	2457.562500
539.435328	2520.576923
539.795497	2515.535769
540.155609	2490.330000
540.515665	2490.330000
540.875665	2502.932885
541.235609	2545.782692
541.595496	2518.056346
541.955328	2434.877308
542.315102	2515.535769
542.674821	2495.371154
543.034483	2497.891731
543.394090	2558.385577
543.753640	2422.274423
544.113134	2477.727115
544.472571	2553.344423
544.831953	2523.097500
545.191278	2482.768269
545.550548	2520.576923
545.909761	2487.809423
546.268918	2530.659231
546.628019	2586.111923
546.987064	2550.823846
547.346053	2545.782692
547.704986	2422.274423
548.063863	2500.412308
548.422684	2507.974038
548.781449	2510.494615
549.140158	2422.274423
549.498811	2540.741538
549.857408	2510.494615
550.215949	2528.138654
550.574434	2495.371154
550.932864	2535.700385
551.291237	2586.111923
551.649555	2570.988462
552.007817	2568.467885
552.366022	2513.015192
552.724173	2507.974038
553.082267	2553.344423
553.440305	2505.453462
553.798288	2432.356731
554.156215	2535.700385
554.514086	2422.274423
554.871902	2490.330000
555.229661	2472.685962
555.587365	2510.494615
555.945014	2608.797115
556.302606	2515.535769
556.660143	2525.618077
557.017625	2465.124231
557.375050	2581.070769
557.732421	2467.644808
558.089735	2462.603654
558.446994	2502.932885
558.804197	2563.426731
559.161345	2535.700385
559.518437	2502.932885
559.875474	2525.618077
560.232455	2490.330000
560.589381	2510.494615
560.946251	2492.850577
561.303065	2540.741538
561.659825	2412.192115
562.016528	2510.494615
562.373177	2460.083077
562.729770	2475.206538
563.086307	2550.823846
563.442789	2545.782692
563.799216	2450.000769
564.155587	2480.247692
564.511904	2492.850577
564.868164	2515.535769
565.224370	2492.850577
565.580520	2404.630385
565.936615	2450.000769
566.292654	2505.453462
566.648638	2452.521346
567.004567	2439.918462
567.360441	2437.397885
567.716260	2530.659231
568.072023	2492.850577
568.427732	2515.535769
568.783385	2500.412308
569.138982	2518.056346
569.494525	2495.371154
569.850013	2535.700385
570.205445	2487.809423
570.560823	2510.494615
570.916145	2528.138654
571.271412	2533.179808
571.626625	2603.755962
571.981782	2528.138654
572.336884	2409.671538
572.691931	2513.015192
573.046923	2475.206538
573.401860	2581.070769
573.756743	2533.179808
574.111570	2560.906154
574.466342	2460.083077
574.821059	2588.632500
575.175722	2565.947308
575.530330	2505.453462
575.884882	2505.453462
576.239380	2565.947308
576.593823	2548.303269
576.948211	2482.768269
577.302544	2538.220962
577.656823	2452.521346
578.011047	2507.974038
578.365216	2523.097500
578.719330	2555.865000
579.073389	2523.097500
579.427394	2404.630385
579.781344	2518.056346
580.135239	2485.288846
580.489080	2518.056346
580.842866	2495.371154
581.196597	2548.303269
581.550273	2467.644808
581.903895	2482.768269
582.257463	2467.644808
582.610975	2472.685962
582.964434	2482.768269
583.317837	2482.768269
583.671186	2535.700385
584.024481	2447.480192
584.377721	2515.535769
584.730906	2399.589231
585.084037	2576.029615
585.437113	2462.603654
585.790135	2513.015192
586.143103	2533.179808
586.496016	2450.000769
586.848874	2502.932885
587.201679	2460.083077
587.554428	2535.700385
587.907124	2601.235385
588.259765	2525.618077
588.612352	2515.535769
588.964884	2455.041923
589.317362	2518.056346
589.669786	2480.247692
590.022155	2386.986346
590.374470	2432.356731
590.726731	2507.974038
591.078937	2492.850577
591.431090	2520.576923
591.783188	2482.768269
592.135232	2460.083077
592.487222	2513.015192
592.839157	2485.288846
593.191038	2500.412308
593.542866	2505.453462
593.894639	2530.659231
594.246358	2444.959615
594.598022	2518.056346
594.949633	2525.618077
595.301190	2523.097500
595.652692	2545.782692
596.004141	2533.179808
596.355535	2467.644808
596.706876	2533.179808
597.058162	2515.535769
597.409395	2533.179808
597.760573	2495.371154
598.111698	2573.509038
598.462768	2450.000769
598.813785	2422.274423
599.164748	2465.124231
599.515657	2553.344423
599.866511	2576.029615
600.217312	2565.947308
600.568060	2581.070769
600.918753	2528.138654
601.269392	2480.247692
601.619978	2492.850577
601.970510	2502.932885
602.320988	2565.947308
602.671412	2422.274423
603.021783	2500.412308
603.372100	2485.288846
603.722363	2520.576923
604.072572	2472.685962
604.422728	2540.741538
604.772830	2460.083077
605.122878	2472.685962
605.472872	2460.083077
605.822813	2550.823846
606.172701	2525.618077
606.522534	2601.235385
606.872314	2460.083077
607.222041	2404.630385
607.571714	2490.330000
607.921333	2598.714808
608.270899	2444.959615
608.620411	2555.865000
608.969870	2482.768269
609.319276	2525.618077
609.668627	2513.015192
610.017926	2492.850577
610.367171	2447.480192
610.716362	2475.206538
611.065500	2497.891731
611.414585	2525.618077
611.763616	2495.371154
612.112594	2502.932885
612.461518	2487.809423
612.810389	2518.056346
613.159207	2558.385577
613.507971	2588.632500
613.856682	2510.494615
614.205340	2477.727115
614.553945	2548.303269
614.902496	2427.315577
615.250994	2497.891731
615.599439	2490.330000
615.947830	2427.315577
616.296169	2492.850577
616.644454	2533.179808
616.992686	2558.385577
617.340864	2510.494615
617.688990	2477.727115
618.037063	2505.453462
618.385082	2581.070769
618.733048	2452.521346
619.080961	2515.535769
619.428821	2497.891731
619.776628	2523.097500
620.124382	2565.947308
620.472083	2455.041923
620.819731	2533.179808
621.167326	2437.397885
621.514868	2399.589231
621.862357	2588.632500
622.209793	2477.727115
622.557176	2560.906154
622.904506	2487.809423
623.251783	2490.330000
623.599007	2397.068654
623.946179	2442.439038
624.293297	2414.712692
624.640363	2507.974038
624.987376	2424.795000
625.334336	2462.603654
625.681243	2424.795000
626.028097	2497.891731
626.374899	2422.274423
626.721647	2558.385577
627.068343	2480.247692
627.414987	2548.303269
627.761577	2568.467885
628.108115	2555.865000
628.454600	2518.056346
628.801032	2465.124231
629.147412	2462.603654
629.493739	2533.179808
629.840014	2487.809423
630.186236	2427.315577
630.532405	2477.727115
630.878521	2510.494615
631.224585	2490.330000
631.570597	2492.850577
631.916556	2573.509038
632.262462	2487.809423
632.608316	2480.247692
632.954117	2379.424615
633.299866	2475.206538
633.645562	2515.535769
633.991206	2477.727115
634.336797	2485.288846
634.682336	2520.576923
635.027823	2482.768269
635.373257	2507.974038
635.718639	2462.603654
636.063968	2477.727115
636.409245	2545.782692
636.754470	2460.083077
637.099642	2553.344423
637.444762	2586.111923
637.789829	2583.591346
638.134845	2392.027500
638.479808	2439.918462
638.824719	2419.753846
639.169577	2553.344423
639.514383	2565.947308
639.859137	2439.918462
640.203839	2495.371154
640.548489	2495.371154
640.893086	2525.618077
641.237632	2563.426731
641.582125	2419.753846
641.926566	2467.644808
642.270955	2502.932885
642.615292	2472.685962
642.959576	2555.865000
643.303809	2475.206538
643.647990	2482.768269
643.992118	2505.453462
644.336195	2495.371154
644.680219	2563.426731
645.024192	2487.809423
645.368112	2596.194231
645.711981	2477.727115
646.055797	2513.015192
646.399562	2444.959615
646.743274	2407.150962
647.086935	2482.768269
647.430544	2477.727115
647.774101	2510.494615
648.117606	2467.644808
648.461059	2533.179808
648.804460	2530.659231
649.147810	2472.685962
649.491108	2555.865000
649.834354	2538.220962
650.177548	2384.465769
650.520690	2525.618077
650.863781	2560.906154
651.206820	2457.562500
651.549807	2528.138654
651.892742	2507.974038
652.235626	2507.974038
652.578458	2475.206538
652.921238	2497.891731
653.263967	2422.274423
653.606644	2553.344423
653.949269	2558.385577
654.291843	2467.644808
654.634365	2497.891731
654.976836	2505.453462
655.319255	2591.153077
655.661622	2533.179808
656.003938	2593.673654
656.346203	2477.727115
656.688416	2513.015192
657.030577	2510.494615
657.372687	2500.412308
657.714746	2460.083077
658.056753	2467.644808
658.398708	2480.247692
658.740612	2485.288846
659.082465	2455.041923
659.424266	2480.247692
659.766016	2457.562500
660.107715	2485.288846
660.449362	2507.974038
660.790958	2513.015192
661.132503	2520.576923
661.473996	2507.974038
661.815438	2543.262115
662.156829	2593.673654
662.498168	2475.206538
662.839456	2480.247692
663.180693	2452.521346
663.521879	2490.330000
663.863013	2480.247692
664.204097	2477.727115
664.545129	2495.371154
664.886110	2439.918462
665.227040	2434.877308
665.567918	2439.918462
665.908746	2487.809423
666.249522	2523.097500
666.590248	2515.535769
666.930922	2538.220962
667.271545	2535.700385
667.612118	2487.809423
667.952639	2490.330000
668.293109	2593.673654
668.633528	2472.685962
668.973896	2487.809423
669.314213	2457.562500
669.654480	2525.618077
669.994695	2525.618077
670.334859	2545.782692
670.674973	2507.974038
671.015035	2412.192115
671.355047	2497.891731
671.695008	2452.521346
672.034918	2462.603654
672.374777	2507.974038
672.714585	2505.453462
673.054342	2442.439038
673.394049	2560.906154
673.733705	2470.165385
674.073310	2573.509038
674.412864	2588.632500
674.752368	2500.412308
675.091820	2515.535769
675.431223	2500.412308
675.770574	2480.247692
676.109875	2462.603654
676.449125	2540.741538
676.788324	2472.685962
677.127473	2480.247692
677.466571	2515.535769
677.805619	2535.700385
678.144616	2555.865000
678.483562	2419.753846
678.822458	2586.111923
679.161303	2462.603654
679.500098	2528.138654
679.838842	2457.562500
680.177535	2560.906154
680.516179	2427.315577
680.854771	2490.330000
681.193314	2583.591346
681.531805	2487.809423
681.870247	2540.741538
682.208638	2457.562500
682.546978	2460.083077
682.885268	2379.424615
683.223508	2467.644808
683.561697	2581.070769
683.899836	2507.974038
684.237925	2525.618077
684.575963	2586.111923
684.913951	2523.097500
685.251889	2460.083077
685.589776	2412.192115
685.927614	2492.850577
686.265401	2467.644808
686.603137	2530.659231
686.940824	2480.247692
687.278460	2515.535769
687.616046	2505.453462
687.953582	2578.550192
688.291068	2530.659231
688.628504	2465.124231
688.965889	2538.220962
689.303224	2447.480192
689.640510	2492.850577
689.977745	2530.659231
690.314930	2528.138654
690.652065	2507.974038
690.989150	2497.891731
691.326185	2510.494615
691.663170	2505.453462
692.000105	2482.768269
692.336990	2452.521346
692.673825	2513.015192
693.010610	2510.494615
693.347345	2417.233269
693.684030	2540.741538
694.020665	2465.124231
694.357251	2434.877308
694.693786	2455.041923
695.030272	2452.521346
695.366707	2490.330000
695.703093	2452.521346
696.039429	2507.974038
696.375716	2568.467885
696.711952	2490.330000
697.048139	2530.659231
697.384276	2480.247692
697.720363	2568.467885
698.056400	2583.591346
698.392388	2470.165385
698.728326	2581.070769
699.064214	2404.630385
699.400053	2402.109808
699.735842	2525.618077
700.071581	2500.412308
700.407270	2555.865000
700.742910	2472.685962
701.078501	2565.947308
701.414042	2563.426731
701.749533	2475.206538
702.084974	2452.521346
702.420366	2540.741538
702.755709	2513.015192
703.091002	2530.659231
703.426246	2563.426731
703.761440	2470.165385
704.096584	2505.453462
704.431679	2560.906154
704.766725	2490.330000
705.101721	2500.412308
705.436668	2586.111923
705.771565	2477.727115
706.106413	2530.659231
706.441212	2460.083077
706.775961	2576.029615
707.110661	2513.015192
707.445311	2482.768269
707.779913	2510.494615
708.114465	2460.083077
708.448967	2502.932885
708.783421	2500.412308
709.117825	2490.330000
709.452180	2510.494615
709.786485	2525.618077
710.120742	2550.823846
710.454949	2515.535769
710.789107	2525.618077
711.123216	2495.371154
711.457275	2482.768269
711.791286	2515.535769
712.125247	2497.891731
712.459159	2573.509038
712.793023	2452.521346
713.126837	2550.823846
713.460602	2447.480192
713.794318	2543.262115
714.127985	2475.206538
714.461602	2475.206538
714.795171	2525.618077
715.128691	2533.179808
715.462162	2525.618077
715.795584	2397.068654
716.128957	2568.467885
716.462281	2487.809423
716.795556	2455.041923
717.128782	2502.932885
717.461960	2507.974038
717.795088	2513.015192
718.128167	2437.397885
718.461198	2533.179808
718.794180	2520.576923
719.127113	2507.974038
719.459997	2525.618077
719.792833	2487.809423
720.125619	2470.165385
720.458357	2550.823846
720.791046	2432.356731
721.123686	2558.385577
721.456278	2432.356731
721.788821	2505.453462
722.121315	2460.083077
722.453761	2560.906154
722.786158	2487.809423
723.118506	2576.029615
723.450805	2502.932885
723.783056	2434.877308
724.115259	2475.206538
724.447412	2543.262115
724.779518	2487.809423
725.111574	2520.576923
725.443582	2422.274423
725.775542	2533.179808
726.107453	2525.618077
726.439315	2548.303269
726.771129	2520.576923
727.102895	2439.918462
727.434612	2500.412308
727.766281	2573.509038
728.097901	2482.768269
728.429473	2510.494615
728.760996	2455.041923
729.092471	2560.906154
729.423897	2550.823846
729.755276	2545.782692
730.086606	2485.288846
730.417887	2482.768269
730.749120	2535.700385
731.080305	2424.795000
731.411442	2507.974038
731.742530	2457.562500
732.073570	2525.618077
732.404562	2452.521346
732.735506	2366.821731
733.066401	2502.932885
733.397249	2412.192115
733.728048	2513.015192
734.058798	2424.795000
734.389501	2603.755962
734.720156	2460.083077
735.050762	2515.535769
735.381320	2404.630385
735.711831	2507.974038
736.042293	2500.412308
736.372707	2545.782692
736.703073	2578.550192
737.033391	2477.727115
737.363661	2502.932885
737.693883	2545.782692
738.024056	2457.562500
738.354182	2548.303269
738.684260	2492.850577
739.014290	2434.877308
739.344272	2507.974038
739.674207	2402.109808
740.004093	2477.727115
740.333931	2490.330000
740.663722	2477.727115
740.993464	2523.097500
741.323159	2419.753846
741.652806	2528.138654
741.982405	2545.782692
742.311956	2548.303269
742.641460	2570.988462
742.970915	2500.412308
743.300323	2472.685962
743.629683	2447.480192
743.958996	2477.727115
744.288260	2460.083077
744.617477	2480.247692
744.946647	2525.618077
745.275768	2447.480192
745.604842	2523.097500
745.933869	2601.235385
746.262847	2565.947308
746.591778	2558.385577
746.920662	2467.644808
747.249498	2475.206538
747.578286	2460.083077
747.907027	2573.509038
748.235720	2523.097500
748.564365	2548.303269
748.892963	2578.550192
749.221514	2520.576923
749.550017	2460.083077
749.878473	2540.741538
750.206881	2583.591346
750.535242	2442.439038
750.863555	2520.576923
751.191821	2500.412308
751.520039	2515.535769
751.848210	2540.741538
752.176334	2586.111923
752.504411	2581.070769
752.832440	2465.124231
753.160421	2472.685962
753.488356	2495.371154
753.816243	2533.179808
754.144082	2581.070769
754.471875	2518.056346
754.799620	2490.330000
755.127318	2502.932885
755.454969	2490.330000
755.782572	2560.906154
756.110129	2472.685962
756.437638	2465.124231
756.765100	2520.576923
757.092515	2419.753846
757.419882	2475.206538
757.747203	2535.700385
758.074477	2447.480192
758.401703	2576.029615
758.728882	2470.165385
759.056014	2558.385577
759.383099	2482.768269
759.710138	2492.850577
760.037129	2523.097500
760.364073	2560.906154
760.690970	2482.768269
761.017820	2540.741538
761.344623	2565.947308
761.671379	2404.630385
761.998088	2475.206538
762.324751	2535.700385
762.651366	2520.576923
762.977935	2568.467885
763.304456	2598.714808
763.630931	2492.850577
763.957359	2507.974038
764.283740	2455.041923
764.610074	2497.891731
764.936362	2513.015192
765.262602	2611.317692
765.588796	2487.809423
765.914943	2482.768269
766.241044	2487.809423
766.567097	2429.836154
766.893104	2465.124231
767.219064	2543.262115
767.544978	2475.206538
767.870845	2457.562500
768.196665	2414.712692
768.522438	2432.356731
768.848165	2429.836154
769.173846	2412.192115
769.499479	2447.480192
769.825066	2462.603654
770.150607	2535.700385
770.476101	2465.124231
770.801548	2535.700385
771.126949	2538.220962
771.452303	2525.618077
771.777611	2472.685962
772.102872	2492.850577
772.428087	2533.179808
772.753256	2497.891731
773.078378	2518.056346
773.403453	2510.494615
773.728482	2450.000769
774.053465	2470.165385
774.378401	2472.685962
774.703291	2402.109808
775.028135	2505.453462
775.352932	2530.659231
775.677683	2490.330000
776.002388	2540.741538
776.327046	2540.741538
776.651658	2472.685962
776.976224	2485.288846
777.300743	2591.153077
777.625216	2555.865000
777.949643	2460.083077
778.274024	2475.206538
778.598359	2437.397885
778.922647	2470.165385
779.246889	2402.109808
779.571086	2530.659231
779.895236	2563.426731
780.219339	2432.356731
780.543397	2515.535769
780.867409	2480.247692
781.191374	2500.412308
781.515294	2505.453462
781.839167	2384.465769
782.162995	2563.426731
782.486776	2505.453462
782.810511	2455.041923
783.134201	2472.685962
783.457844	2538.220962
783.781441	2555.865000
784.104993	2412.192115
784.428498	2568.467885
784.751958	2570.988462
785.075372	2593.673654
785.398739	2392.027500
785.722061	2485.288846
786.045337	2538.220962
786.368568	2480.247692
786.691752	2540.741538
787.014891	2465.124231
787.337983	2588.632500
787.661030	2462.603654
787.984031	2525.618077
788.306987	2525.618077
788.629897	2477.727115
788.952760	2502.932885
789.275579	2434.877308
789.598351	2507.974038
789.921078	2397.068654
790.243759	2538.220962
790.566395	2444.959615
790.888984	2507.974038
791.211529	2477.727115
791.534027	2548.303269
791.856480	2422.274423
792.178888	2457.562500
792.501249	2422.274423
792.823566	2553.344423
793.145836	2472.685962
793.468062	2596.194231
793.790241	2462.603654
794.112375	2444.959615
794.434464	2490.330000
794.756507	2545.782692
795.078505	2518.056346
795.400457	2424.795000
795.722364	2553.344423
796.044226	2591.153077
796.366042	2477.727115
796.687812	2467.644808
797.009538	2452.521346
797.331218	2444.959615
797.652852	2475.206538
797.974442	2528.138654
798.295986	2538.220962
798.617484	2565.947308
798.938938	2502.932885
799.260346	2487.809423
799.581709	2513.015192
799.903026	2507.974038
800.224299	2452.521346
800.545526	2560.906154
800.866708	2497.891731
801.187845	2520.576923
801.508936	2513.015192
801.829983	2581.070769
802.150984	2485.288846
802.471940	2583.591346
802.792851	2510.494615
803.113717	2490.330000
803.434538	2555.865000
803.755314	2482.768269
804.076045	2525.618077
804.396731	2485.288846
804.717372	2465.124231
805.037967	2533.179808
805.358518	2545.782692
805.679024	2528.138654
805.999485	2543.262115
806.319901	2507.974038
806.640272	2500.412308
806.960598	2583.591346
807.280879	2442.439038
807.601115	2485.288846
807.921306	2447.480192
808.241453	2495.371154
808.561554	2545.782692
808.881611	2520.576923
809.201623	2523.097500
809.521590	2588.632500
809.841513	2447.480192
810.161390	2482.768269
810.481223	2500.412308
810.801011	2525.618077
811.120755	2482.768269
811.440453	2528.138654
811.760107	2500.412308
812.079716	2480.247692
812.399281	2467.644808
812.718801	2545.782692
813.038276	2507.974038
813.357707	2525.618077
813.677093	2500.412308
813.996434	2538.220962
814.315731	2482.768269
814.634983	2432.356731
814.954191	2432.356731
815.273354	2570.988462
815.592473	2427.315577
815.911547	2500.412308
816.230577	2530.659231
816.549562	2414.712692
816.868502	2450.000769
817.187399	2528.138654
817.506250	2500.412308
817.825058	2475.206538
818.143821	2507.974038
818.462539	2550.823846
818.781213	2422.274423
819.099843	2505.453462
819.418429	2427.315577
819.736970	2472.685962
820.055466	2500.412308
820.373919	2535.700385
820.692327	2462.603654
821.010691	2568.467885
821.329011	2540.741538
821.647286	2495.371154
821.965517	2472.685962
822.283704	2495.371154
822.601847	2432.356731
822.919945	2424.795000
823.237999	2528.138654
823.556010	2444.959615
823.873976	2518.056346
824.191897	2450.000769
824.509775	2472.685962
824.827609	2492.850577
825.145398	2497.891731
825.463144	2507.974038
825.780845	2540.741538
826.098502	2465.124231
826.416116	2591.153077
826.733685	2598.714808
827.051210	2502.932885
827.368692	2555.865000
827.686129	2447.480192
828.003522	2490.330000
828.320872	2492.850577
828.638177	2540.741538
828.955439	2523.097500
829.272656	2452.521346
829.589830	2510.494615
829.906960	2450.000769
830.224046	2535.700385
830.541088	2500.412308
830.858086	2545.782692
831.175041	2470.165385
831.491952	2460.083077
831.808819	2442.439038
832.125642	2480.247692
832.442421	2482.768269
832.759157	2495.371154
833.075849	2475.206538
833.392497	2540.741538
833.709101	2500.412308
834.025662	2510.494615
834.342179	2482.768269
834.658653	2487.809423
834.975083	2525.618077
835.291469	2530.659231
835.607811	2490.330000
835.924110	2485.288846
836.240366	2457.562500
836.556578	2507.974038
836.872746	2525.618077
837.188871	2460.083077
837.504952	2497.891731
837.820990	2543.262115
838.136984	2482.768269
838.452935	2487.809423
838.768842	2460.083077
839.084706	2507.974038
839.400526	2505.453462
839.716303	2470.165385
840.032037	2533.179808
840.347727	2475.206538
840.663373	2422.274423
840.978977	2502.932885
841.294537	2495.371154
841.610054	2520.576923
841.925527	2492.850577
842.240957	2505.453462
842.556344	2550.823846
842.871687	2457.562500
843.186987	2490.330000
843.502244	2581.070769
843.817458	2528.138654
844.132629	2581.070769
844.447756	2427.315577
844.762840	2581.070769
845.077881	2626.441154
845.392879	2417.233269
845.707833	2485.288846
846.022745	2523.097500
846.337613	2444.959615
846.652438	2507.974038
846.967221	2482.768269
847.281960	2467.644808
847.596656	2475.206538
847.911309	2497.891731
848.225919	2497.891731
848.540485	2475.206538
848.855009	2568.467885
849.169490	2528.138654
849.483928	2467.644808
849.798323	2492.850577
850.112675	2523.097500
850.426984	2447.480192
850.741251	2487.809423
851.055474	2467.644808
851.369654	2510.494615
851.683792	2530.659231
851.997887	2472.685962
852.311938	2497.891731
852.625947	2623.920577
852.939914	2510.494615
853.253837	2505.453462
853.567718	2465.124231
853.881555	2487.809423
854.195350	2495.371154
854.509103	2434.877308
854.822812	2513.015192
855.136479	2497.891731
855.450103	2528.138654
855.763685	2528.138654
856.077224	2447.480192
856.390720	2505.453462
856.704173	2513.015192
857.017584	2472.685962
857.330953	2548.303269
857.644278	2422.274423
857.957561	2513.015192
858.270802	2510.494615
858.584000	2510.494615
858.897155	2543.262115
859.210268	2510.494615
859.523339	2565.947308
859.836367	2535.700385
860.149352	2576.029615
860.462295	2460.083077
860.775195	2500.412308
861.088054	2477.727115
861.400869	2477.727115
861.713642	2482.768269
862.026373	2485.288846
862.339062	2525.618077
862.651708	2442.439038
862.964312	2538.220962
863.276873	2515.535769
863.589392	2553.344423
863.901869	2452.521346
864.214303	2545.782692
864.526696	2487.809423
864.839045	2437.397885
865.151353	2560.906154
865.463619	2495.371154
865.775842	2548.303269
866.088023	2487.809423
866.400162	2553.344423
866.712258	2560.906154
867.024313	2482.768269
867.336325	2502.932885
867.648296	2422.274423
867.960224	2465.124231
868.272110	2520.576923
868.583954	2505.453462
868.895755	2596.194231
869.207515	2444.959615
869.519233	2417.233269
869.830909	2485.288846
870.142542	2336.574808
870.454134	2507.974038
870.765684	2452.521346
871.077191	2427.315577
871.388657	2523.097500
871.700081	2502.932885
872.011463	2492.850577
872.322803	2565.947308
872.634101	2457.562500
872.945357	2490.330000
873.256571	2510.494615
873.567744	2540.741538
873.878874	2482.768269
874.189963	2477.727115
874.501010	2495.371154
874.812015	2389.506923
875.122979	2475.206538
875.433900	2530.659231
875.744780	2507.974038
876.055618	2422.274423
876.366415	2535.700385
876.677169	2497.891731
876.987882	2515.535769
877.298554	2507.974038
877.609183	2389.506923
877.919771	2487.809423
878.230317	2513.015192
878.540822	2507.974038
878.851285	2472.685962
879.161707	2490.330000
879.472087	2482.768269
879.782425	2505.453462
880.092722	2432.356731
880.402977	2530.659231
880.713191	2475.206538
881.023363	2540.741538
881.333494	2543.262115
881.643583	2545.782692
881.953631	2515.535769
882.263637	2613.838269
882.573602	2510.494615
882.883526	2530.659231
883.193408	2492.850577
883.503248	2528.138654
883.813048	2450.000769
884.122806	2465.124231
884.432522	2500.412308
884.742197	2545.782692
885.051831	2492.850577
885.361424	2581.070769
885.670975	2502.932885
885.980485	2576.029615
886.289954	2412.192115
886.599382	2429.836154
886.908768	2545.782692
887.218113	2485.288846
887.527417	2457.562500
887.836680	2515.535769
888.145901	2414.712692
888.455082	2417.233269
888.764221	2543.262115
889.073319	2417.233269
889.382376	2513.015192
889.691392	2513.015192
890.000366	2497.891731
890.309300	2389.506923
890.618193	2467.644808
890.927044	2450.000769
891.235855	2530.659231
891.544625	2492.850577
891.853353	2510.494615
892.162041	2528.138654
892.470687	2429.836154
892.779293	2490.330000
893.087858	2455.041923
893.396381	2515.535769
893.704864	2467.644808
894.013306	2550.823846
894.321707	2520.576923
894.630068	2558.385577
894.938387	2518.056346
895.246665	2457.562500
895.554903	2460.083077
895.863100	2455.041923
896.171256	2533.179808
896.479371	2407.150962
896.787446	2467.644808
897.095480	2455.041923
897.403473	2563.426731
897.711425	2510.494615
898.019336	2427.315577
898.327207	2432.356731
898.635038	2467.644808
898.942827	2460.083077
899.250576	2485.288846
899.558284	2528.138654
899.865952	2505.453462
900.173579	2472.685962
900.481165	2480.247692
900.788711	2442.439038
901.096216	2492.850577
901.403681	2477.727115
901.711105	2490.330000
902.018489	2500.412308
902.325832	2490.330000
902.633135	2495.371154
902.940397	2381.945192
903.247619	2520.576923
903.554800	2455.041923
903.861941	2550.823846
904.169041	2492.850577
904.476101	2530.659231
904.783121	2444.959615
905.090100	2528.138654
905.397039	2520.576923
905.703938	2510.494615
906.010796	2490.330000
906.317614	2457.562500
906.624391	2432.356731
906.931129	2460.083077
907.237826	2439.918462
907.544483	2490.330000
907.851099	2457.562500
908.157675	2490.330000
908.464211	2444.959615
908.770707	2505.453462
909.077163	2389.506923
909.383578	2482.768269
909.689954	2455.041923
909.996289	2417.233269
910.302584	2457.562500
910.608839	2475.206538
910.915054	2455.041923
911.221229	2412.192115
911.527363	2543.262115
911.833458	2492.850577
912.139513	2528.138654
912.445527	2502.932885
912.751502	2419.753846
913.057436	2490.330000
913.363331	2525.618077
913.669186	2487.809423
913.975000	2490.330000
914.280775	2535.700385
914.586510	2450.000769
914.892205	2467.644808
915.197859	2472.685962
915.503475	2505.453462
915.809050	2447.480192
916.114585	2450.000769
916.420081	2548.303269
916.725536	2490.330000
917.030952	2502.932885
917.336328	2528.138654
917.641665	2505.453462
917.946961	2513.015192
918.252218	2510.494615
918.557435	2460.083077
918.862612	2513.015192
919.167750	2487.809423
919.472848	2555.865000
919.777906	2530.659231
920.082925	2520.576923
920.387904	2530.659231
920.692843	2437.397885
920.997743	2447.480192
921.302603	2450.000769
921.607423	2510.494615
921.912204	2510.494615
922.216946	2462.603654
922.521647	2467.644808
922.826310	2576.029615
923.130932	2515.535769
923.435516	2500.412308
923.740059	2555.865000
924.044564	2507.974038
924.349028	2361.780577
924.653454	2578.550192
924.957840	2510.494615
925.262186	2452.521346
925.566493	2578.550192
925.870761	2419.753846
926.174989	2502.932885
926.479178	2455.041923
926.783328	2520.576923
927.087438	2452.521346
927.391509	2530.659231
927.695541	2480.247692
927.999533	2538.220962
928.303486	2510.494615
928.607400	2460.083077
928.911275	2455.041923
929.215110	2570.988462
929.518906	2482.768269
929.822663	2500.412308
930.126381	2611.317692
930.430060	2457.562500
930.733699	2434.877308
931.037299	2525.618077
931.340861	2465.124231
931.644383	2470.165385
931.947866	2437.397885
932.251309	2487.809423
932.554714	2407.150962
932.858080	2548.303269
933.161407	2515.535769
933.464694	2447.480192
933.767943	2507.974038
934.071153	2472.685962
934.374323	2457.562500
934.677455	2613.838269
934.980548	2528.138654
935.283602	2518.056346
935.586617	2485.288846
935.889593	2548.303269
936.192530	2475.206538
936.495428	2422.274423
936.798287	2457.562500
937.101108	2513.015192
937.403890	2553.344423
937.706632	2472.685962
938.009336	2444.959615
938.312002	2492.850577
938.614628	2525.618077
938.917216	2505.453462
939.219765	2470.165385
939.522275	2417.233269
939.824747	2394.548077
940.127179	2467.644808
940.429573	2447.480192
940.731929	2500.412308
941.034246	2507.974038
941.336524	2412.192115
941.638763	2482.768269
941.940964	2467.644808
942.243126	2510.494615
942.545250	2497.891731
942.847335	2505.453462
943.149381	2500.412308
943.451389	2487.809423
943.753359	2450.000769
944.055290	2518.056346
944.357182	2553.344423
944.659036	2389.506923
944.960851	2457.562500
945.262628	2490.330000
945.564367	2447.480192
945.866067	2576.029615
946.167729	2515.535769
946.469352	2497.891731
946.770937	2540.741538
947.072484	2507.974038
947.373992	2513.015192
947.675462	2598.714808
947.976893	2482.768269
948.278286	2465.124231
948.579641	2538.220962
948.880958	2555.865000
949.182236	2533.179808
949.483476	2404.630385
949.784678	2477.727115
950.085841	2507.974038
950.386967	2412.192115
950.688054	2470.165385
950.989103	2472.685962
951.290114	2538.220962
951.591087	2507.974038
951.892021	2485.288846
952.192917	2450.000769
952.493776	2475.206538
952.794596	2482.768269
953.095378	2487.809423
953.396122	2513.015192
953.696828	2485.288846
953.997496	2533.179808
954.298126	2520.576923
954.598718	2472.685962
954.899272	2540.741538
955.199788	2497.891731
955.500266	2520.576923
955.800706	2480.247692
956.101108	2485.288846
956.401472	2434.877308
956.701798	2543.262115
957.002087	2470.165385
957.302337	2520.576923
957.602550	2563.426731
957.902724	2432.356731
958.202861	2540.741538
958.502960	2601.235385
958.803022	2570.988462
959.103045	2455.041923
959.403031	2490.330000
959.702979	2560.906154
960.002889	2510.494615
960.302762	2480.247692
960.602596	2533.179808
960.902393	2495.371154
961.202153	2530.659231
961.501875	2475.206538
961.801559	2429.836154
962.101205	2465.124231
962.400814	2568.467885
962.700385	2465.124231
962.999918	2482.768269
963.299414	2455.041923
963.598873	2513.015192
963.898293	2452.521346
964.197677	2538.220962
964.497022	2465.124231
964.796331	2477.727115
965.095601	2495.371154
965.394835	2475.206538
965.694030	2482.768269
965.993189	2528.138654
966.292309	2568.467885
966.591393	2482.768269
966.890439	2518.056346
967.189447	2394.548077
967.488419	2462.603654
967.787353	2467.644808
968.086249	2550.823846
968.385108	2442.439038
968.683930	2523.097500
968.982714	2505.453462
969.281462	2502.932885
969.580172	2439.918462
969.878844	2495.371154
970.177480	2450.000769
970.476078	2467.644808
970.774639	2444.959615
971.073162	2550.823846
971.371649	2462.603654
971.670098	2465.124231
971.968510	2477.727115
972.266885	2462.603654
972.565223	2394.548077
972.863524	2495.371154
973.161788	2437.397885
973.460014	2427.315577
973.758204	2485.288846
974.056356	2447.480192
974.354471	2528.138654
974.652550	2533.179808
974.950591	2538.220962
975.248595	2543.262115
975.546563	2482.768269
975.844493	2558.385577
976.142386	2465.124231
976.440243	2507.974038
976.738062	2555.865000
977.035845	2560.906154
977.333590	2558.385577
977.631299	2518.056346
977.928971	2432.356731
978.226606	2568.467885
978.524204	2470.165385
978.821765	2528.138654
979.119290	2477.727115
979.416777	2485.288846
979.714228	2543.262115
980.011642	2606.276538
980.309020	2437.397885
980.606360	2507.974038
980.903664	2528.138654
981.200931	2510.494615
981.498162	2548.303269
981.795356	2502.932885
982.092513	2548.303269
982.389633	2487.809423
982.686717	2460.083077
982.983764	2472.685962
983.280775	2525.618077
983.577749	2502.932885
983.874686	2467.644808
984.171587	2444.959615
984.468451	2495.371154
984.765279	2578.550192
985.062070	2399.589231
985.358824	2533.179808
985.655543	2427.315577
985.952224	2583.591346
986.248869	2442.439038
986.545478	2455.041923
986.842050	2465.124231
987.138586	2492.850577
987.435086	2525.618077
987.731549	2500.412308
988.027975	2487.809423
988.324366	2502.932885
988.620719	2560.906154
988.917037	2407.150962
989.213318	2525.618077
989.509563	2442.439038
989.805772	2505.453462
990.101944	2576.029615
990.398080	2422.274423
990.694180	2528.138654
990.990244	2470.165385
991.286271	2407.150962
991.582262	2492.850577
991.878217	2530.659231
992.174136	2437.397885
992.470019	2545.782692
992.765865	2427.315577
993.061676	2465.124231
993.357450	2409.671538
993.653188	2548.303269
993.948890	2427.315577
994.244556	2452.521346
994.540186	2462.603654
994.835780	2530.659231
995.131337	2518.056346
995.426859	2457.562500
995.722345	2550.823846
996.017795	2525.618077
996.313208	2485.288846
996.608586	2447.480192
996.903928	2467.644808
997.199234	2475.206538
997.494504	2452.521346
997.789738	2422.274423
998.084936	2492.850577
998.380099	2427.315577
998.675225	2558.385577
998.970316	2439.918462
999.265371	2540.741538
999.560390	2505.453462
999.855373	2553.344423
1000.150320	2538.220962
1000.445232	2465.124231
1000.740108	2455.041923
1001.034948	2492.850577
1001.329752	2460.083077
1001.624521	2472.685962
1001.919254	2523.097500
1002.213951	2538.220962
1002.508613	2616.358846
1002.803239	2606.276538
1003.097829	2480.247692
1003.392384	2495.371154
1003.686903	2528.138654
1003.981386	2492.850577
1004.275834	2452.521346
1004.570246	2520.576923
1004.864623	2533.179808
1005.158964	2553.344423
1005.453270	2505.453462
1005.747540	2530.659231
1006.041775	2424.795000
1006.335974	2495.371154
1006.630138	2540.741538
1006.924266	2497.891731
1007.218359	2520.576923
1007.512416	2432.356731
1007.806438	2533.179808
1008.100425	2460.083077
1008.394376	2366.821731
1008.688292	2500.412308
1008.982172	2450.000769
1009.276017	2460.083077
1009.569827	2460.083077
1009.863602	2528.138654
1010.157341	2485.288846
1010.451045	2535.700385
1010.744714	2460.083077
1011.038347	2510.494615
1011.331945	2477.727115
1011.625508	2477.727115
1011.919036	2502.932885
1012.212528	2555.865000
1012.505986	2530.659231
1012.799408	2507.974038
1013.092795	2447.480192
1013.386147	2525.618077
1013.679464	2513.015192
1013.972745	2444.959615
1014.265992	2523.097500
1014.559204	2497.891731
1014.852380	2482.768269
1015.145521	2565.947308
1015.438628	2497.891731
1015.731699	2450.000769
1016.024736	2487.809423
1016.317737	2570.988462
1016.610703	2472.685962
1016.903635	2422.274423
1017.196531	2490.330000
1017.489393	2492.850577
1017.782219	2475.206538
1018.075011	2540.741538
1018.367768	2505.453462
1018.660490	2465.124231
1018.953177	2465.124231
1019.245829	2465.124231
