Dividing Wavelength (nm)	Counts (n)	Blue Motor Position (mm): 0.000000	Red Motor Position (mm): 9.000000	
326.493990	2213.066538
326.888308	2213.066538
327.282561	2213.066538
327.676750	2147.531538
328.070874	2202.984231
328.464933	2139.969808
328.858929	2142.490385
329.252859	2248.354615
329.646726	2208.025385
330.040528	2255.916346
330.434265	2258.436923
330.827938	2301.286731
331.221547	2223.148846
331.615091	2228.190000
332.008571	2220.628269
332.401986	2374.383462
332.795338	2258.436923
333.188625	2366.821731
333.581847	2334.054231
333.975006	2389.506923
334.368100	2457.562500
334.761129	2323.971923
335.154095	2381.945192
335.546996	2397.068654
335.939833	2515.535769
336.332606	2392.027500
336.725315	2432.356731
337.117960	2495.371154
337.510540	2452.521346
337.903056	2533.179808
338.295508	2586.111923
338.687896	2596.194231
339.080220	2628.961731
339.472480	2485.288846
339.864676	2596.194231
340.256807	2538.220962
340.648875	2568.467885
341.040879	2598.714808
341.432818	2659.208654
341.824694	2583.591346
342.216506	2538.220962
342.608253	2518.056346
342.999937	2568.467885
343.391557	2608.797115
343.783113	2646.605769
344.174605	2548.303269
344.566033	2608.797115
344.957397	2639.044038
345.348697	2523.097500
345.739934	2608.797115
346.131106	2568.467885
346.522215	2598.714808
346.913260	2649.126346
347.304241	2540.741538
347.695159	2513.015192
348.086012	2578.550192
348.476802	2588.632500
348.867528	2578.550192
349.258191	2576.029615
349.648789	2515.535769
350.039324	2538.220962
350.429796	2462.603654
350.820203	2568.467885
351.210548	2649.126346
351.600828	2583.591346
351.991045	2507.974038
352.381198	2545.782692
352.771288	2578.550192
353.161314	2558.385577
353.551276	2626.441154
353.941175	2583.591346
354.331010	2568.467885
354.720782	2608.797115
355.110490	2452.521346
355.500135	2538.220962
355.889717	2460.083077
356.279235	2563.426731
356.668689	2538.220962
357.058080	2530.659231
357.447408	2553.344423
357.836672	2586.111923
358.225873	2444.959615
358.615010	2538.220962
359.004084	2550.823846
359.393095	2555.865000
359.782043	2548.303269
360.170927	2528.138654
360.559748	2528.138654
360.948505	2555.865000
361.337199	2634.002885
361.725830	2548.303269
362.114398	2548.303269
362.502903	2583.591346
362.891344	2538.220962
363.279722	2596.194231
363.668037	2568.467885
364.056289	2588.632500
364.444478	2540.741538
364.832603	2497.891731
365.220665	2548.303269
365.608665	2528.138654
365.996601	2528.138654
366.384474	2576.029615
366.772284	2492.850577
367.160031	2563.426731
367.547715	2603.755962
367.935336	2598.714808
368.322893	2568.467885
368.710388	2460.083077
369.097820	2576.029615
369.485189	2606.276538
369.872495	2533.179808
370.259738	2528.138654
370.646918	2596.194231
371.034035	2618.879423
371.421090	2628.961731
371.808081	2545.782692
372.195010	2513.015192
372.581875	2628.961731
372.968678	2583.591346
373.355418	2558.385577
373.742096	2639.044038
374.128710	2611.317692
374.515262	2588.632500
374.901751	2545.782692
375.288177	2513.015192
375.674540	2533.179808
376.060841	2530.659231
376.447079	2583.591346
376.833254	2634.002885
377.219367	2576.029615
377.605417	2515.535769
377.991404	2606.276538
378.377329	2495.371154
378.763191	2586.111923
379.148991	2578.550192
379.534727	2543.262115
379.920402	2618.879423
380.306013	2608.797115
380.691563	2513.015192
381.077049	2538.220962
381.462474	2631.482308
381.847835	2553.344423
382.233134	2578.550192
382.618371	2525.618077
383.003545	2518.056346
383.388657	2636.523462
383.773706	2565.947308
384.158693	2583.591346
384.543618	2553.344423
384.928480	2548.303269
385.313280	2507.974038
385.698017	2613.838269
386.082692	2611.317692
386.467305	2570.988462
386.851856	2588.632500
387.236344	2568.467885
387.620770	2545.782692
388.005133	2530.659231
388.389435	2525.618077
388.773674	2558.385577
389.157851	2608.797115
389.541965	2558.385577
389.926018	2581.070769
390.310008	2538.220962
390.693936	2578.550192
391.077802	2623.920577
391.461606	2502.932885
391.845348	2626.441154
392.229027	2568.467885
392.612645	2583.591346
392.996200	2540.741538
393.379694	2586.111923
393.763125	2513.015192
394.146494	2548.303269
394.529801	2611.317692
394.913047	2560.906154
395.296230	2472.685962
395.679351	2581.070769
396.062410	2513.015192
396.445408	2611.317692
396.828343	2626.441154
397.211217	2586.111923
397.594028	2530.659231
397.976778	2545.782692
398.359466	2601.235385
398.742092	2649.126346
399.124656	2598.714808
399.507158	2606.276538
399.889598	2583.591346
400.271977	2545.782692
400.654294	2573.509038
401.036549	2578.550192
401.418742	2603.755962
401.800874	2555.865000
402.182944	2588.632500
402.564952	2601.235385
402.946898	2553.344423
403.328783	2636.523462
403.710606	2634.002885
404.092367	2598.714808
404.474067	2596.194231
404.855705	2576.029615
405.237282	2563.426731
405.618797	2621.400000
406.000250	2608.797115
406.381642	2568.467885
406.762972	2603.755962
407.144240	2601.235385
407.525447	2535.700385
407.906593	2593.673654
408.287677	2664.249808
408.668700	2646.605769
409.049661	2540.741538
409.430560	2523.097500
409.811399	2611.317692
410.192176	2581.070769
410.572891	2598.714808
410.953545	2515.535769
411.334138	2570.988462
411.714669	2626.441154
412.095139	2616.358846
412.475547	2543.262115
412.855894	2628.961731
413.236180	2560.906154
413.616405	2654.167500
413.996568	2563.426731
414.376670	2525.618077
414.756711	2583.591346
415.136691	2586.111923
415.516609	2550.823846
415.896466	2535.700385
416.276262	2679.373269
416.655997	2545.782692
417.035670	2649.126346
417.415283	2666.770385
417.794834	2618.879423
418.174324	2603.755962
418.553753	2568.467885
418.933121	2553.344423
419.312428	2613.838269
419.691674	2578.550192
420.070859	2636.523462
420.449983	2639.044038
420.829045	2586.111923
421.208047	2656.688077
421.586988	2623.920577
421.965867	2659.208654
422.344686	2634.002885
422.723444	2654.167500
423.102141	2588.632500
423.480777	2560.906154
423.859352	2573.509038
424.237866	2601.235385
424.616319	2586.111923
424.994712	2634.002885
425.373044	2686.935000
425.751314	2646.605769
426.129524	2656.688077
426.507673	2573.509038
426.885762	2596.194231
427.263789	2553.344423
427.641756	2669.290962
428.019662	2518.056346
428.397508	2591.153077
428.775292	2523.097500
429.153016	2576.029615
429.530679	2558.385577
429.908282	2674.332115
430.285824	2576.029615
430.663305	2691.976154
431.040726	2649.126346
431.418086	2649.126346
431.795385	2676.852692
432.172624	2679.373269
432.549802	2581.070769
432.926920	2523.097500
433.303977	2689.455577
433.680974	2502.932885
434.057910	2669.290962
434.434786	2641.564615
434.811601	2581.070769
435.188355	2578.550192
435.565050	2702.058462
435.941683	2634.002885
436.318257	2656.688077
436.694770	2666.770385
437.071222	2644.085192
437.447614	2697.017308
437.823946	2661.729231
438.200218	2760.031731
438.576429	2649.126346
438.952580	2681.893846
439.328670	2704.579038
439.704700	2747.428846
440.080670	2754.990577
440.456580	2628.961731
440.832429	2641.564615
441.208218	2712.140769
441.583947	2689.455577
441.959616	2717.181923
442.335224	2694.496731
442.710773	2792.799231
443.086261	2747.428846
443.461689	2790.278654
443.837057	2709.620192
444.212365	2858.334231
444.587612	2797.840385
444.962800	2855.813654
445.337927	2921.348654
445.712995	2941.513269
446.088002	2896.142885
446.462949	3057.459808
446.837837	2969.239615
447.212664	3042.336346
447.587431	3208.694423
447.962139	3271.708846
448.336786	3473.355000
448.711374	3521.245962
449.085901	3480.916731
449.460369	3433.025769
449.834776	3496.040192
450.209124	3642.233654
450.583412	3765.741923
450.957640	3911.935385
451.331808	3818.674038
451.705917	3833.797500
452.079965	3811.112308
452.453954	4010.237885
452.827883	4068.211154
453.201752	4116.102115
453.575562	4249.692692
453.949311	4400.927308
454.323001	4433.694808
454.696632	4690.793654
455.070202	4804.219615
455.443713	4963.015962
455.817164	5179.785577
456.190556	5290.690962
456.563888	5671.298077
456.937160	5683.900962
457.310373	5656.174615
457.683526	5724.230192
458.056619	5769.600577
458.429653	5925.876346
458.802628	5845.217885
459.175542	6109.878462
459.548398	6707.255192
459.921194	6997.121538
460.293930	7276.905577
460.666607	7821.350192
461.039224	8287.656923
461.411782	8716.155000
461.784280	8816.978077
462.156719	8879.992500
462.529099	8834.622115
462.901419	8801.854615
463.273680	8809.416346
463.645882	8885.033654
464.018024	8905.198269
464.390106	9280.764231
464.762130	9820.167692
465.134094	10624.231731
465.505999	12320.580000
465.877845	14725.210385
466.249631	16406.435192
466.621358	15819.140769
466.993026	15211.681731
467.364634	14997.432692
467.736184	14450.467500
468.107674	14095.066154
468.479105	14619.346154
468.850477	14339.562115
469.221790	14495.837885
469.593043	14130.354231
469.964238	13797.638077
470.335373	13853.090769
470.706449	14498.358462
471.077467	14460.549808
471.448425	16824.850962
471.819324	20071.354038
472.190164	20794.759615
472.560945	17810.396538
472.931667	16429.120385
473.302330	16507.258269
473.672934	16356.023654
474.043479	16779.480577
474.413965	16567.752115
474.784393	16320.735577
475.154761	17739.820385
475.525070	17079.429231
475.895321	17356.692692
476.265513	18027.166154
476.635645	18654.789808
477.005719	18851.394808
477.375734	18904.326923
477.745691	19320.222115
478.115588	20063.792308
478.485427	21011.529231
478.855207	22193.679808
479.224928	24157.209231
479.594591	26203.917692
479.964194	25286.427692
480.333739	25477.991538
480.703226	25513.279615
481.072653	25906.489615
481.442022	26546.716154
481.811333	27312.971538
482.180584	26889.514615
482.549777	26080.409423
482.918912	26065.285962
483.287988	26234.164615
483.657005	25543.526538
484.025964	26017.395000
484.394864	25369.606731
484.763706	24857.929615
485.132489	24575.625000
485.501213	24255.511731
485.869879	24678.968654
486.238487	24288.279231
486.607036	24366.417115
486.975527	23932.877885
487.343959	24144.606346
487.712333	24195.017885
488.080648	23577.476538
488.448905	24023.618654
488.817104	23867.342885
489.185244	24401.705192
489.553326	24477.322500
489.921350	25319.195192
490.289315	27658.290577
490.657222	28553.095385
491.025070	28618.630385
491.392861	28258.187885
491.760593	27247.436538
492.128267	25921.613077
492.495883	25230.975000
492.863440	24023.618654
493.230939	22954.894038
493.598380	23030.511346
493.965763	22609.575000
494.333088	21608.905962
494.700354	21351.807115
495.067563	21059.420192
495.434713	20719.142308
495.801805	20333.494038
496.168839	20381.385000
496.535815	20020.942500
496.902733	19784.008269
497.269593	19519.347692
497.636395	19335.345577
498.003139	19113.534808
498.369825	18780.818654
498.736453	18763.174615
499.103023	18319.553077
499.469535	18241.415192
499.835989	17747.382115
500.202385	17848.205192
500.568723	17528.091923
500.935003	17235.705000
501.301226	16797.124615
501.667390	17250.828462
502.033497	16822.330385
502.399546	16477.011346
502.765537	15700.673654
503.131470	15783.852692
503.497345	15874.593462
503.863163	15030.200192
504.228923	15078.091154
504.594625	14972.226923
504.960269	14349.644423
505.325856	14561.372885
505.691385	14092.545577
506.056856	14006.845962
506.422270	14024.490000
506.787625	13157.411538
507.152924	13207.823077
507.518164	13220.425962
507.883347	12587.761154
508.248472	12386.115000
508.613540	12491.979231
508.978550	11917.287692
509.343503	11831.588077
509.708398	11657.668269
510.073236	11592.133269
510.438016	11448.460385
510.802738	11337.555000
511.167403	10926.700962
511.532010	10717.493077
511.896561	10760.342885
512.261053	10452.832500
512.625488	10256.227500
512.989866	10004.169808
513.354186	9608.439231
513.718449	9527.780769
514.082655	9525.260192
514.446803	9149.694231
514.810894	8932.924615
515.174927	8706.072692
515.538904	8554.838077
515.902822	8632.975962
516.266684	8300.259808
516.630488	8222.121923
516.994235	7856.638269
517.357925	7720.527115
517.721558	7687.759615
518.085133	7460.907692
518.448651	7256.740962
518.812112	7168.520769
519.175516	7176.082500
519.538863	6979.477500
519.902152	6815.640000
520.265385	6712.296346
520.628560	6639.199615
520.991678	6440.074038
521.354739	6311.524615
521.717743	6185.495769
522.080690	6001.493654
522.443580	6092.234423
522.806413	5845.217885
523.169189	5711.627308
523.531908	5552.830962
523.894569	5399.075769
524.257174	5262.964615
524.619722	5421.760962
524.982213	5099.127115
525.344647	4993.262885
525.707025	4998.304038
526.069345	4925.207308
526.431608	4836.987115
526.793815	4731.122885
527.155964	4506.791538
527.518057	4559.723654
527.880093	4332.871731
528.242072	4554.682500
528.603995	4305.145385
528.965860	4284.980769
529.327669	4123.663846
529.689421	4040.484808
530.051117	4065.690577
530.412755	3927.058846
530.774337	3967.388077
531.135862	3841.359231
531.497331	3803.550577
531.858743	3745.577308
532.220098	3672.480577
532.581396	3536.369423
532.942638	3644.754231
533.303824	3574.178077
533.664953	3506.122500
534.026025	3402.778846
534.387040	3480.916731
534.747999	3329.682115
535.108902	3460.752115
535.469748	3289.352885
535.830537	3339.764423
536.191270	3226.338462
536.551947	3170.885769
536.912567	3105.350769
537.273131	3175.926923
537.633638	3165.844615
537.994089	3100.309615
538.354483	3107.871346
538.714821	3080.145000
539.075103	3039.815769
539.435328	3054.939231
539.795497	2981.842500
540.155609	3019.651154
540.515665	2956.636731
540.875665	2951.595577
541.235609	2903.704615
541.595496	2951.595577
541.955328	2911.266346
542.315102	2812.963846
542.674821	2966.719038
543.034483	2863.375385
543.394090	2870.937115
543.753640	2870.937115
544.113134	2858.334231
544.472571	2812.963846
544.831953	2767.593462
545.191278	2780.196346
545.550548	2775.155192
545.909761	2775.155192
546.268918	2777.675769
546.628019	2795.319808
546.987064	2739.867115
547.346053	2777.675769
547.704986	2787.758077
548.063863	2790.278654
548.422684	2767.593462
548.781449	2830.607885
549.140158	2664.249808
549.498811	2664.249808
549.857408	2749.949423
550.215949	2810.443269
550.574434	2724.743654
550.932864	2742.387692
551.291237	2712.140769
551.649555	2815.484423
552.007817	2714.661346
552.366022	2702.058462
552.724173	2717.181923
553.082267	2707.099615
553.440305	2686.935000
553.798288	2742.387692
554.156215	2747.428846
554.514086	2709.620192
554.871902	2613.838269
555.229661	2760.031731
555.587365	2681.893846
555.945014	2739.867115
556.302606	2649.126346
556.660143	2727.264231
557.017625	2734.825962
557.375050	2691.976154
557.732421	2598.714808
558.089735	2674.332115
558.446994	2608.797115
558.804197	2722.223077
559.161345	2641.564615
559.518437	2578.550192
559.875474	2616.358846
560.232455	2588.632500
560.589381	2651.646923
560.946251	2651.646923
561.303065	2674.332115
561.659825	2664.249808
562.016528	2628.961731
562.373177	2676.852692
562.729770	2626.441154
563.086307	2676.852692
563.442789	2631.482308
563.799216	2684.414423
564.155587	2719.702500
564.511904	2613.838269
564.868164	2654.167500
565.224370	2661.729231
565.580520	2697.017308
565.936615	2598.714808
566.292654	2661.729231
566.648638	2661.729231
567.004567	2616.358846
567.360441	2729.784808
567.716260	2593.673654
568.072023	2651.646923
568.427732	2591.153077
568.783385	2593.673654
569.138982	2654.167500
569.494525	2646.605769
569.850013	2671.811538
570.205445	2671.811538
570.560823	2681.893846
570.916145	2697.017308
571.271412	2704.579038
571.626625	2631.482308
571.981782	2666.770385
572.336884	2757.511154
572.691931	2608.797115
573.046923	2651.646923
573.401860	2591.153077
573.756743	2634.002885
574.111570	2649.126346
574.466342	2694.496731
574.821059	2676.852692
575.175722	2611.317692
575.530330	2626.441154
575.884882	2694.496731
576.239380	2651.646923
576.593823	2719.702500
576.948211	2636.523462
577.302544	2704.579038
577.656823	2686.935000
578.011047	2737.346538
578.365216	2634.002885
578.719330	2593.673654
579.073389	2676.852692
579.427394	2608.797115
579.781344	2659.208654
580.135239	2681.893846
580.489080	2641.564615
580.842866	2543.262115
581.196597	2674.332115
581.550273	2603.755962
581.903895	2661.729231
582.257463	2606.276538
582.610975	2661.729231
582.964434	2671.811538
583.317837	2560.906154
583.671186	2581.070769
584.024481	2598.714808
584.377721	2646.605769
584.730906	2671.811538
585.084037	2666.770385
585.437113	2717.181923
585.790135	2628.961731
586.143103	2628.961731
586.496016	2641.564615
586.848874	2628.961731
587.201679	2654.167500
587.554428	2664.249808
587.907124	2553.344423
588.259765	2681.893846
588.612352	2634.002885
588.964884	2646.605769
589.317362	2606.276538
589.669786	2646.605769
590.022155	2621.400000
590.374470	2596.194231
590.726731	2598.714808
591.078937	2644.085192
591.431090	2578.550192
591.783188	2621.400000
592.135232	2603.755962
592.487222	2659.208654
592.839157	2586.111923
593.191038	2528.138654
593.542866	2591.153077
593.894639	2686.935000
594.246358	2634.002885
594.598022	2679.373269
594.949633	2644.085192
595.301190	2656.688077
595.652692	2634.002885
596.004141	2596.194231
596.355535	2588.632500
596.706876	2651.646923
597.058162	2654.167500
597.409395	2631.482308
597.760573	2634.002885
598.111698	2679.373269
598.462768	2606.276538
598.813785	2596.194231
599.164748	2616.358846
599.515657	2631.482308
599.866511	2548.303269
600.217312	2669.290962
600.568060	2664.249808
600.918753	2664.249808
601.269392	2581.070769
601.619978	2709.620192
601.970510	2613.838269
602.320988	2570.988462
602.671412	2641.564615
603.021783	2611.317692
603.372100	2543.262115
603.722363	2641.564615
604.072572	2636.523462
604.422728	2656.688077
604.772830	2611.317692
605.122878	2621.400000
605.472872	2626.441154
605.822813	2664.249808
606.172701	2644.085192
606.522534	2661.729231
606.872314	2596.194231
607.222041	2664.249808
607.571714	2555.865000
607.921333	2656.688077
608.270899	2666.770385
608.620411	2664.249808
608.969870	2631.482308
609.319276	2684.414423
609.668627	2659.208654
610.017926	2578.550192
610.367171	2732.305385
610.716362	2656.688077
611.065500	2646.605769
611.414585	2679.373269
611.763616	2603.755962
612.112594	2641.564615
612.461518	2649.126346
612.810389	2654.167500
613.159207	2628.961731
613.507971	2676.852692
613.856682	2707.099615
614.205340	2593.673654
614.553945	2601.235385
614.902496	2578.550192
615.250994	2644.085192
615.599439	2679.373269
615.947830	2651.646923
616.296169	2611.317692
616.644454	2623.920577
616.992686	2611.317692
617.340864	2634.002885
617.688990	2661.729231
618.037063	2596.194231
618.385082	2646.605769
618.733048	2616.358846
619.080961	2641.564615
619.428821	2611.317692
619.776628	2684.414423
620.124382	2699.537885
620.472083	2679.373269
620.819731	2601.235385
621.167326	2636.523462
621.514868	2601.235385
621.862357	2583.591346
622.209793	2654.167500
622.557176	2676.852692
622.904506	2628.961731
623.251783	2661.729231
623.599007	2601.235385
623.946179	2676.852692
624.293297	2603.755962
624.640363	2618.879423
624.987376	2697.017308
625.334336	2646.605769
625.681243	2654.167500
626.028097	2631.482308
626.374899	2573.509038
626.721647	2654.167500
627.068343	2593.673654
627.414987	2611.317692
627.761577	2540.741538
628.108115	2570.988462
628.454600	2565.947308
628.801032	2565.947308
629.147412	2621.400000
629.493739	2646.605769
629.840014	2621.400000
630.186236	2644.085192
630.532405	2634.002885
630.878521	2626.441154
631.224585	2593.673654
631.570597	2656.688077
631.916556	2525.618077
632.262462	2591.153077
632.608316	2628.961731
632.954117	2732.305385
633.299866	2563.426731
633.645562	2704.579038
633.991206	2581.070769
634.336797	2649.126346
634.682336	2636.523462
635.027823	2535.700385
635.373257	2606.276538
635.718639	2596.194231
636.063968	2553.344423
636.409245	2553.344423
636.754470	2628.961731
637.099642	2608.797115
637.444762	2644.085192
637.789829	2646.605769
638.134845	2581.070769
638.479808	2664.249808
638.824719	2649.126346
639.169577	2591.153077
639.514383	2608.797115
639.859137	2535.700385
640.203839	2737.346538
640.548489	2623.920577
640.893086	2636.523462
641.237632	2634.002885
641.582125	2608.797115
641.926566	2573.509038
642.270955	2601.235385
642.615292	2543.262115
642.959576	2666.770385
643.303809	2628.961731
643.647990	2671.811538
643.992118	2581.070769
644.336195	2676.852692
644.680219	2654.167500
645.024192	2578.550192
645.368112	2646.605769
645.711981	2631.482308
646.055797	2588.632500
646.399562	2636.523462
646.743274	2618.879423
647.086935	2634.002885
647.430544	2626.441154
647.774101	2654.167500
648.117606	2623.920577
648.461059	2598.714808
648.804460	2570.988462
649.147810	2634.002885
649.491108	2651.646923
649.834354	2686.935000
650.177548	2583.591346
650.520690	2611.317692
650.863781	2641.564615
651.206820	2586.111923
651.549807	2644.085192
651.892742	2646.605769
652.235626	2606.276538
652.578458	2681.893846
652.921238	2598.714808
653.263967	2717.181923
653.606644	2649.126346
653.949269	2598.714808
654.291843	2631.482308
654.634365	2613.838269
654.976836	2608.797115
655.319255	2603.755962
655.661622	2578.550192
656.003938	2626.441154
656.346203	2676.852692
656.688416	2709.620192
657.030577	2621.400000
657.372687	2603.755962
657.714746	2568.467885
658.056753	2628.961731
658.398708	2674.332115
658.740612	2540.741538
659.082465	2697.017308
659.424266	2583.591346
659.766016	2639.044038
660.107715	2686.935000
660.449362	2707.099615
660.790958	2679.373269
661.132503	2560.906154
661.473996	2639.044038
661.815438	2583.591346
662.156829	2644.085192
662.498168	2538.220962
662.839456	2626.441154
663.180693	2623.920577
663.521879	2666.770385
663.863013	2712.140769
664.204097	2608.797115
664.545129	2603.755962
664.886110	2681.893846
665.227040	2548.303269
665.567918	2681.893846
665.908746	2649.126346
666.249522	2631.482308
666.590248	2656.688077
666.930922	2709.620192
667.271545	2550.823846
667.612118	2628.961731
667.952639	2621.400000
668.293109	2689.455577
668.633528	2623.920577
668.973896	2656.688077
669.314213	2644.085192
669.654480	2586.111923
669.994695	2568.467885
670.334859	2641.564615
670.674973	2618.879423
671.015035	2626.441154
671.355047	2644.085192
671.695008	2634.002885
672.034918	2651.646923
672.374777	2618.879423
672.714585	2588.632500
673.054342	2565.947308
673.394049	2601.235385
673.733705	2712.140769
674.073310	2634.002885
674.412864	2618.879423
674.752368	2618.879423
675.091820	2666.770385
675.431223	2621.400000
675.770574	2621.400000
676.109875	2644.085192
676.449125	2644.085192
676.788324	2573.509038
677.127473	2631.482308
677.466571	2596.194231
677.805619	2676.852692
678.144616	2596.194231
678.483562	2697.017308
678.822458	2576.029615
679.161303	2654.167500
679.500098	2553.344423
679.838842	2654.167500
680.177535	2623.920577
680.516179	2654.167500
680.854771	2651.646923
681.193314	2681.893846
681.531805	2601.235385
681.870247	2591.153077
682.208638	2621.400000
682.546978	2631.482308
682.885268	2621.400000
683.223508	2631.482308
683.561697	2631.482308
683.899836	2656.688077
684.237925	2596.194231
684.575963	2666.770385
684.913951	2621.400000
685.251889	2621.400000
685.589776	2613.838269
685.927614	2558.385577
686.265401	2598.714808
686.603137	2671.811538
686.940824	2570.988462
687.278460	2530.659231
687.616046	2689.455577
687.953582	2628.961731
688.291068	2576.029615
688.628504	2535.700385
688.965889	2555.865000
689.303224	2659.208654
689.640510	2618.879423
689.977745	2709.620192
690.314930	2689.455577
690.652065	2649.126346
690.989150	2558.385577
691.326185	2664.249808
691.663170	2623.920577
692.000105	2664.249808
692.336990	2593.673654
692.673825	2613.838269
693.010610	2601.235385
693.347345	2641.564615
693.684030	2601.235385
694.020665	2565.947308
694.357251	2641.564615
694.693786	2661.729231
695.030272	2621.400000
695.366707	2581.070769
695.703093	2613.838269
696.039429	2646.605769
696.375716	2626.441154
696.711952	2676.852692
697.048139	2606.276538
697.384276	2555.865000
697.720363	2608.797115
698.056400	2618.879423
698.392388	2548.303269
698.728326	2603.755962
699.064214	2623.920577
699.400053	2694.496731
699.735842	2598.714808
700.071581	2649.126346
700.407270	2586.111923
700.742910	2616.358846
701.078501	2676.852692
701.414042	2593.673654
701.749533	2608.797115
702.084974	2669.290962
702.420366	2563.426731
702.755709	2618.879423
703.091002	2636.523462
703.426246	2694.496731
703.761440	2644.085192
704.096584	2591.153077
704.431679	2639.044038
704.766725	2618.879423
705.101721	2707.099615
705.436668	2616.358846
705.771565	2686.935000
706.106413	2634.002885
706.441212	2573.509038
706.775961	2573.509038
707.110661	2502.932885
707.445311	2644.085192
707.779913	2621.400000
708.114465	2636.523462
708.448967	2616.358846
708.783421	2671.811538
709.117825	2616.358846
709.452180	2626.441154
709.786485	2598.714808
710.120742	2618.879423
710.454949	2636.523462
710.789107	2639.044038
711.123216	2654.167500
711.457275	2664.249808
711.791286	2674.332115
712.125247	2583.591346
712.459159	2613.838269
712.793023	2626.441154
713.126837	2656.688077
713.460602	2581.070769
713.794318	2591.153077
714.127985	2641.564615
714.461602	2709.620192
714.795171	2608.797115
715.128691	2596.194231
715.462162	2671.811538
715.795584	2631.482308
716.128957	2598.714808
716.462281	2598.714808
716.795556	2588.632500
717.128782	2591.153077
717.461960	2646.605769
717.795088	2518.056346
718.128167	2649.126346
718.461198	2513.015192
718.794180	2631.482308
719.127113	2654.167500
719.459997	2639.044038
719.792833	2608.797115
720.125619	2570.988462
720.458357	2651.646923
720.791046	2656.688077
721.123686	2553.344423
721.456278	2623.920577
721.788821	2651.646923
722.121315	2651.646923
722.453761	2634.002885
722.786158	2671.811538
723.118506	2651.646923
723.450805	2475.206538
723.783056	2601.235385
724.115259	2722.223077
724.447412	2621.400000
724.779518	2636.523462
725.111574	2689.455577
725.443582	2631.482308
725.775542	2651.646923
726.107453	2581.070769
726.439315	2694.496731
726.771129	2603.755962
727.102895	2661.729231
727.434612	2626.441154
727.766281	2550.823846
728.097901	2606.276538
728.429473	2576.029615
728.760996	2576.029615
729.092471	2613.838269
729.423897	2686.935000
729.755276	2628.961731
730.086606	2598.714808
730.417887	2659.208654
730.749120	2661.729231
731.080305	2628.961731
731.411442	2568.467885
731.742530	2674.332115
732.073570	2583.591346
732.404562	2651.646923
732.735506	2628.961731
733.066401	2704.579038
733.397249	2591.153077
733.728048	2656.688077
734.058798	2717.181923
734.389501	2659.208654
734.720156	2581.070769
735.050762	2555.865000
735.381320	2613.838269
735.711831	2649.126346
736.042293	2553.344423
736.372707	2631.482308
736.703073	2689.455577
737.033391	2626.441154
737.363661	2623.920577
737.693883	2646.605769
738.024056	2641.564615
738.354182	2578.550192
738.684260	2659.208654
739.014290	2525.618077
739.344272	2583.591346
739.674207	2570.988462
740.004093	2533.179808
740.333931	2628.961731
740.663722	2497.891731
740.993464	2646.605769
741.323159	2550.823846
741.652806	2631.482308
741.982405	2724.743654
742.311956	2538.220962
742.641460	2623.920577
742.970915	2621.400000
743.300323	2661.729231
743.629683	2596.194231
743.958996	2709.620192
744.288260	2681.893846
744.617477	2646.605769
744.946647	2596.194231
745.275768	2603.755962
745.604842	2644.085192
745.933869	2586.111923
746.262847	2674.332115
746.591778	2603.755962
746.920662	2591.153077
747.249498	2651.646923
747.578286	2623.920577
747.907027	2581.070769
748.235720	2601.235385
748.564365	2460.083077
748.892963	2641.564615
749.221514	2661.729231
749.550017	2671.811538
749.878473	2616.358846
750.206881	2596.194231
750.535242	2611.317692
750.863555	2641.564615
751.191821	2601.235385
751.520039	2608.797115
751.848210	2628.961731
752.176334	2596.194231
752.504411	2606.276538
752.832440	2712.140769
753.160421	2497.891731
753.488356	2628.961731
753.816243	2669.290962
754.144082	2644.085192
754.471875	2636.523462
754.799620	2649.126346
755.127318	2608.797115
755.454969	2659.208654
755.782572	2576.029615
756.110129	2628.961731
756.437638	2568.467885
756.765100	2568.467885
757.092515	2543.262115
757.419882	2593.673654
757.747203	2618.879423
758.074477	2593.673654
758.401703	2563.426731
758.728882	2631.482308
759.056014	2560.906154
759.383099	2634.002885
759.710138	2576.029615
760.037129	2581.070769
760.364073	2636.523462
760.690970	2525.618077
761.017820	2661.729231
761.344623	2664.249808
761.671379	2636.523462
761.998088	2618.879423
762.324751	2654.167500
762.651366	2686.935000
762.977935	2656.688077
763.304456	2578.550192
763.630931	2628.961731
763.957359	2707.099615
764.283740	2724.743654
764.610074	2603.755962
764.936362	2669.290962
765.262602	2659.208654
765.588796	2659.208654
765.914943	2560.906154
766.241044	2666.770385
766.567097	2588.632500
766.893104	2664.249808
767.219064	2598.714808
767.544978	2712.140769
767.870845	2659.208654
768.196665	2639.044038
768.522438	2581.070769
768.848165	2659.208654
769.173846	2591.153077
769.499479	2628.961731
769.825066	2639.044038
770.150607	2586.111923
770.476101	2553.344423
770.801548	2606.276538
771.126949	2568.467885
771.452303	2553.344423
771.777611	2573.509038
772.102872	2626.441154
772.428087	2563.426731
772.753256	2644.085192
773.078378	2661.729231
773.403453	2666.770385
773.728482	2649.126346
774.053465	2596.194231
774.378401	2555.865000
774.703291	2520.576923
775.028135	2603.755962
775.352932	2588.632500
775.677683	2699.537885
776.002388	2608.797115
776.327046	2631.482308
776.651658	2661.729231
776.976224	2558.385577
777.300743	2644.085192
777.625216	2573.509038
777.949643	2666.770385
778.274024	2596.194231
778.598359	2649.126346
778.922647	2611.317692
779.246889	2626.441154
779.571086	2608.797115
779.895236	2618.879423
780.219339	2573.509038
780.543397	2702.058462
780.867409	2563.426731
781.191374	2533.179808
781.515294	2598.714808
781.839167	2591.153077
782.162995	2611.317692
782.486776	2586.111923
782.810511	2631.482308
783.134201	2583.591346
783.457844	2651.646923
783.781441	2581.070769
784.104993	2608.797115
784.428498	2555.865000
784.751958	2586.111923
785.075372	2586.111923
785.398739	2651.646923
785.722061	2593.673654
786.045337	2694.496731
786.368568	2618.879423
786.691752	2639.044038
787.014891	2611.317692
787.337983	2651.646923
787.661030	2530.659231
787.984031	2583.591346
788.306987	2598.714808
788.629897	2591.153077
788.952760	2596.194231
789.275579	2656.688077
789.598351	2596.194231
789.921078	2639.044038
790.243759	2626.441154
790.566395	2634.002885
790.888984	2568.467885
791.211529	2634.002885
791.534027	2593.673654
791.856480	2613.838269
792.178888	2586.111923
792.501249	2573.509038
792.823566	2550.823846
793.145836	2570.988462
793.468062	2550.823846
793.790241	2543.262115
794.112375	2656.688077
794.434464	2611.317692
794.756507	2621.400000
795.078505	2596.194231
795.400457	2661.729231
795.722364	2709.620192
796.044226	2631.482308
796.366042	2565.947308
796.687812	2603.755962
797.009538	2636.523462
797.331218	2507.974038
797.652852	2651.646923
797.974442	2628.961731
798.295986	2661.729231
798.617484	2618.879423
798.938938	2613.838269
799.260346	2641.564615
799.581709	2618.879423
799.903026	2525.618077
800.224299	2563.426731
800.545526	2576.029615
800.866708	2646.605769
801.187845	2644.085192
801.508936	2578.550192
801.829983	2555.865000
802.150984	2598.714808
802.471940	2598.714808
802.792851	2651.646923
803.113717	2623.920577
803.434538	2563.426731
803.755314	2533.179808
804.076045	2573.509038
804.396731	2515.535769
804.717372	2636.523462
805.037967	2616.358846
805.358518	2621.400000
805.679024	2570.988462
805.999485	2634.002885
806.319901	2598.714808
806.640272	2639.044038
806.960598	2681.893846
807.280879	2606.276538
807.601115	2616.358846
807.921306	2548.303269
808.241453	2679.373269
808.561554	2555.865000
808.881611	2578.550192
809.201623	2563.426731
809.521590	2649.126346
809.841513	2634.002885
810.161390	2644.085192
810.481223	2634.002885
810.801011	2586.111923
811.120755	2628.961731
811.440453	2591.153077
811.760107	2661.729231
812.079716	2641.564615
812.399281	2603.755962
812.718801	2583.591346
813.038276	2621.400000
813.357707	2581.070769
813.677093	2601.235385
813.996434	2606.276538
814.315731	2515.535769
814.634983	2606.276538
814.954191	2581.070769
815.273354	2676.852692
815.592473	2598.714808
815.911547	2608.797115
816.230577	2543.262115
816.549562	2565.947308
816.868502	2603.755962
817.187399	2568.467885
817.506250	2583.591346
817.825058	2510.494615
818.143821	2603.755962
818.462539	2646.605769
818.781213	2603.755962
819.099843	2601.235385
819.418429	2626.441154
819.736970	2555.865000
820.055466	2578.550192
820.373919	2636.523462
820.692327	2606.276538
821.010691	2593.673654
821.329011	2684.414423
821.647286	2644.085192
821.965517	2613.838269
822.283704	2729.784808
822.601847	2656.688077
822.919945	2691.976154
823.237999	2651.646923
823.556010	2616.358846
823.873976	2623.920577
824.191897	2623.920577
824.509775	2611.317692
824.827609	2505.453462
825.145398	2613.838269
825.463144	2661.729231
825.780845	2686.935000
826.098502	2676.852692
826.416116	2659.208654
826.733685	2601.235385
827.051210	2691.976154
827.368692	2739.867115
827.686129	2669.290962
828.003522	2603.755962
828.320872	2681.893846
828.638177	2621.400000
828.955439	2608.797115
829.272656	2623.920577
829.589830	2631.482308
829.906960	2586.111923
830.224046	2651.646923
830.541088	2588.632500
830.858086	2576.029615
831.175041	2626.441154
831.491952	2543.262115
831.808819	2591.153077
832.125642	2598.714808
832.442421	2639.044038
832.759157	2568.467885
833.075849	2651.646923
833.392497	2691.976154
833.709101	2664.249808
834.025662	2613.838269
834.342179	2608.797115
834.658653	2570.988462
834.975083	2676.852692
835.291469	2651.646923
835.607811	2540.741538
835.924110	2603.755962
836.240366	2626.441154
836.556578	2598.714808
836.872746	2565.947308
837.188871	2616.358846
837.504952	2611.317692
837.820990	2679.373269
838.136984	2613.838269
838.452935	2603.755962
838.768842	2654.167500
839.084706	2636.523462
839.400526	2573.509038
839.716303	2601.235385
840.032037	2621.400000
840.347727	2591.153077
840.663373	2583.591346
840.978977	2596.194231
841.294537	2641.564615
841.610054	2555.865000
841.925527	2560.906154
842.240957	2581.070769
842.556344	2588.632500
842.871687	2611.317692
843.186987	2603.755962
843.502244	2611.317692
843.817458	2591.153077
844.132629	2528.138654
844.447756	2530.659231
844.762840	2525.618077
845.077881	2581.070769
845.392879	2555.865000
845.707833	2573.509038
846.022745	2560.906154
846.337613	2649.126346
846.652438	2606.276538
846.967221	2644.085192
847.281960	2656.688077
847.596656	2525.618077
847.911309	2573.509038
848.225919	2578.550192
848.540485	2560.906154
848.855009	2634.002885
849.169490	2588.632500
849.483928	2586.111923
849.798323	2588.632500
850.112675	2616.358846
850.426984	2651.646923
850.741251	2578.550192
851.055474	2623.920577
851.369654	2669.290962
851.683792	2583.591346
851.997887	2651.646923
852.311938	2533.179808
852.625947	2621.400000
852.939914	2578.550192
853.253837	2636.523462
853.567718	2540.741538
853.881555	2555.865000
854.195350	2626.441154
854.509103	2578.550192
854.822812	2578.550192
855.136479	2576.029615
855.450103	2533.179808
855.763685	2618.879423
856.077224	2558.385577
856.390720	2502.932885
856.704173	2644.085192
857.017584	2586.111923
857.330953	2623.920577
857.644278	2649.126346
857.957561	2570.988462
858.270802	2550.823846
858.584000	2523.097500
858.897155	2586.111923
859.210268	2593.673654
859.523339	2515.535769
859.836367	2570.988462
860.149352	2500.412308
860.462295	2588.632500
860.775195	2626.441154
861.088054	2598.714808
861.400869	2581.070769
861.713642	2596.194231
862.026373	2608.797115
862.339062	2593.673654
862.651708	2649.126346
862.964312	2646.605769
863.276873	2578.550192
863.589392	2623.920577
863.901869	2616.358846
864.214303	2548.303269
864.526696	2654.167500
864.839045	2523.097500
865.151353	2606.276538
865.463619	2593.673654
865.775842	2583.591346
866.088023	2697.017308
866.400162	2601.235385
866.712258	2583.591346
867.024313	2666.770385
867.336325	2636.523462
867.648296	2613.838269
867.960224	2520.576923
868.272110	2550.823846
868.583954	2618.879423
868.895755	2649.126346
869.207515	2565.947308
869.519233	2535.700385
869.830909	2626.441154
870.142542	2513.015192
870.454134	2513.015192
870.765684	2538.220962
871.077191	2598.714808
871.388657	2618.879423
871.700081	2570.988462
872.011463	2636.523462
872.322803	2548.303269
872.634101	2568.467885
872.945357	2558.385577
873.256571	2596.194231
873.567744	2608.797115
873.878874	2538.220962
874.189963	2654.167500
874.501010	2568.467885
874.812015	2664.249808
875.122979	2634.002885
875.433900	2623.920577
875.744780	2581.070769
876.055618	2654.167500
876.366415	2606.276538
876.677169	2596.194231
876.987882	2560.906154
877.298554	2651.646923
877.609183	2636.523462
877.919771	2563.426731
878.230317	2634.002885
878.540822	2540.741538
878.851285	2646.605769
879.161707	2598.714808
879.472087	2631.482308
879.782425	2596.194231
880.092722	2535.700385
880.402977	2618.879423
880.713191	2649.126346
881.023363	2621.400000
881.333494	2649.126346
881.643583	2623.920577
881.953631	2760.031731
882.263637	2573.509038
882.573602	2586.111923
882.883526	2578.550192
883.193408	2560.906154
883.503248	2583.591346
883.813048	2626.441154
884.122806	2553.344423
884.432522	2588.632500
884.742197	2586.111923
885.051831	2626.441154
885.361424	2654.167500
885.670975	2621.400000
885.980485	2654.167500
886.289954	2568.467885
886.599382	2639.044038
886.908768	2626.441154
887.218113	2550.823846
887.527417	2626.441154
887.836680	2583.591346
888.145901	2628.961731
888.455082	2523.097500
888.764221	2540.741538
889.073319	2613.838269
889.382376	2540.741538
889.691392	2608.797115
890.000366	2697.017308
890.309300	2581.070769
890.618193	2626.441154
890.927044	2636.523462
891.235855	2553.344423
891.544625	2659.208654
891.853353	2560.906154
892.162041	2674.332115
892.470687	2603.755962
892.779293	2510.494615
893.087858	2603.755962
893.396381	2601.235385
893.704864	2641.564615
894.013306	2601.235385
894.321707	2666.770385
894.630068	2631.482308
894.938387	2621.400000
895.246665	2591.153077
895.554903	2666.770385
895.863100	2664.249808
896.171256	2616.358846
896.479371	2631.482308
896.787446	2530.659231
897.095480	2558.385577
897.403473	2545.782692
897.711425	2568.467885
898.019336	2636.523462
898.327207	2555.865000
898.635038	2664.249808
898.942827	2649.126346
899.250576	2623.920577
899.558284	2568.467885
899.865952	2618.879423
900.173579	2596.194231
900.481165	2659.208654
900.788711	2626.441154
901.096216	2603.755962
901.403681	2649.126346
901.711105	2588.632500
902.018489	2613.838269
902.325832	2553.344423
902.633135	2555.865000
902.940397	2613.838269
903.247619	2603.755962
903.554800	2616.358846
903.861941	2666.770385
904.169041	2623.920577
904.476101	2581.070769
904.783121	2576.029615
905.090100	2618.879423
905.397039	2623.920577
905.703938	2676.852692
906.010796	2581.070769
906.317614	2563.426731
906.624391	2598.714808
906.931129	2631.482308
907.237826	2578.550192
907.544483	2626.441154
907.851099	2591.153077
908.157675	2639.044038
908.464211	2636.523462
908.770707	2608.797115
909.077163	2634.002885
909.383578	2485.288846
909.689954	2649.126346
909.996289	2578.550192
910.302584	2588.632500
910.608839	2591.153077
910.915054	2588.632500
911.221229	2523.097500
911.527363	2618.879423
911.833458	2603.755962
912.139513	2646.605769
912.445527	2578.550192
912.751502	2439.918462
913.057436	2639.044038
913.363331	2707.099615
913.669186	2628.961731
913.975000	2634.002885
914.280775	2586.111923
914.586510	2628.961731
914.892205	2528.138654
915.197859	2628.961731
915.503475	2631.482308
915.809050	2593.673654
916.114585	2649.126346
916.420081	2659.208654
916.725536	2583.591346
917.030952	2636.523462
917.336328	2661.729231
917.641665	2618.879423
917.946961	2644.085192
918.252218	2570.988462
918.557435	2613.838269
918.862612	2591.153077
919.167750	2588.632500
919.472848	2555.865000
919.777906	2616.358846
920.082925	2636.523462
920.387904	2651.646923
920.692843	2623.920577
920.997743	2558.385577
921.302603	2639.044038
921.607423	2623.920577
921.912204	2656.688077
922.216946	2540.741538
922.521647	2644.085192
922.826310	2528.138654
923.130932	2560.906154
923.435516	2578.550192
923.740059	2616.358846
924.044564	2661.729231
924.349028	2603.755962
924.653454	2581.070769
924.957840	2558.385577
925.262186	2543.262115
925.566493	2616.358846
925.870761	2550.823846
926.174989	2550.823846
926.479178	2523.097500
926.783328	2616.358846
927.087438	2573.509038
927.391509	2550.823846
927.695541	2656.688077
927.999533	2530.659231
928.303486	2548.303269
928.607400	2565.947308
928.911275	2550.823846
929.215110	2639.044038
929.518906	2656.688077
929.822663	2669.290962
930.126381	2613.838269
930.430060	2576.029615
930.733699	2598.714808
931.037299	2654.167500
931.340861	2523.097500
931.644383	2510.494615
931.947866	2608.797115
932.251309	2613.838269
932.554714	2611.317692
932.858080	2606.276538
933.161407	2540.741538
933.464694	2654.167500
933.767943	2525.618077
934.071153	2586.111923
934.374323	2628.961731
934.677455	2596.194231
934.980548	2581.070769
935.283602	2628.961731
935.586617	2649.126346
935.889593	2639.044038
936.192530	2649.126346
936.495428	2611.317692
936.798287	2513.015192
937.101108	2507.974038
937.403890	2578.550192
937.706632	2608.797115
938.009336	2661.729231
938.312002	2651.646923
938.614628	2502.932885
938.917216	2578.550192
939.219765	2659.208654
939.522275	2606.276538
939.824747	2606.276538
940.127179	2626.441154
940.429573	2578.550192
940.731929	2613.838269
941.034246	2583.591346
941.336524	2659.208654
941.638763	2583.591346
941.940964	2608.797115
942.243126	2495.371154
942.545250	2560.906154
942.847335	2518.056346
943.149381	2591.153077
943.451389	2623.920577
943.753359	2598.714808
944.055290	2570.988462
944.357182	2543.262115
944.659036	2540.741538
944.960851	2641.564615
945.262628	2563.426731
945.564367	2591.153077
945.866067	2591.153077
946.167729	2601.235385
946.469352	2676.852692
946.770937	2656.688077
947.072484	2596.194231
947.373992	2591.153077
947.675462	2691.976154
947.976893	2608.797115
948.278286	2628.961731
948.579641	2613.838269
948.880958	2576.029615
949.182236	2656.688077
949.483476	2608.797115
949.784678	2513.015192
950.085841	2606.276538
950.386967	2588.632500
950.688054	2538.220962
950.989103	2639.044038
951.290114	2631.482308
951.591087	2568.467885
951.892021	2628.961731
952.192917	2568.467885
952.493776	2649.126346
952.794596	2596.194231
953.095378	2623.920577
953.396122	2644.085192
953.696828	2603.755962
953.997496	2644.085192
954.298126	2644.085192
954.598718	2586.111923
954.899272	2591.153077
955.199788	2576.029615
955.500266	2555.865000
955.800706	2565.947308
956.101108	2694.496731
956.401472	2581.070769
956.701798	2568.467885
957.002087	2578.550192
957.302337	2613.838269
957.602550	2576.029615
957.902724	2570.988462
958.202861	2639.044038
958.502960	2669.290962
958.803022	2621.400000
959.103045	2608.797115
959.403031	2596.194231
959.702979	2543.262115
960.002889	2593.673654
960.302762	2591.153077
960.602596	2548.303269
960.902393	2618.879423
961.202153	2611.317692
961.501875	2576.029615
961.801559	2611.317692
962.101205	2578.550192
962.400814	2583.591346
962.700385	2530.659231
962.999918	2573.509038
963.299414	2596.194231
963.598873	2603.755962
963.898293	2646.605769
964.197677	2656.688077
964.497022	2500.412308
964.796331	2603.755962
965.095601	2666.770385
965.394835	2618.879423
965.694030	2518.056346
965.993189	2505.453462
966.292309	2535.700385
966.591393	2523.097500
966.890439	2593.673654
967.189447	2593.673654
967.488419	2634.002885
967.787353	2558.385577
968.086249	2576.029615
968.385108	2631.482308
968.683930	2631.482308
968.982714	2631.482308
969.281462	2608.797115
969.580172	2583.591346
969.878844	2581.070769
970.177480	2626.441154
970.476078	2490.330000
970.774639	2628.961731
971.073162	2505.453462
971.371649	2611.317692
971.670098	2588.632500
971.968510	2500.412308
972.266885	2543.262115
972.565223	2639.044038
972.863524	2606.276538
973.161788	2523.097500
973.460014	2591.153077
973.758204	2510.494615
974.056356	2598.714808
974.354471	2492.850577
974.652550	2621.400000
974.950591	2727.264231
975.248595	2641.564615
975.546563	2644.085192
975.844493	2591.153077
976.142386	2576.029615
976.440243	2578.550192
976.738062	2525.618077
977.035845	2616.358846
977.333590	2520.576923
977.631299	2568.467885
977.928971	2538.220962
978.226606	2518.056346
978.524204	2613.838269
978.821765	2545.782692
979.119290	2558.385577
979.416777	2593.673654
979.714228	2578.550192
980.011642	2550.823846
980.309020	2533.179808
980.606360	2563.426731
980.903664	2576.029615
981.200931	2538.220962
981.498162	2606.276538
981.795356	2616.358846
982.092513	2555.865000
982.389633	2603.755962
982.686717	2543.262115
982.983764	2623.920577
983.280775	2704.579038
983.577749	2598.714808
983.874686	2601.235385
984.171587	2676.852692
984.468451	2596.194231
984.765279	2520.576923
985.062070	2613.838269
985.358824	2565.947308
985.655543	2649.126346
985.952224	2548.303269
986.248869	2646.605769
986.545478	2510.494615
986.842050	2608.797115
987.138586	2623.920577
987.435086	2583.591346
987.731549	2603.755962
988.027975	2510.494615
988.324366	2659.208654
988.620719	2616.358846
988.917037	2651.646923
989.213318	2621.400000
989.509563	2500.412308
989.805772	2507.974038
990.101944	2644.085192
990.398080	2606.276538
990.694180	2621.400000
990.990244	2495.371154
991.286271	2628.961731
991.582262	2591.153077
991.878217	2679.373269
992.174136	2591.153077
992.470019	2613.838269
992.765865	2568.467885
993.061676	2661.729231
993.357450	2608.797115
993.653188	2581.070769
993.948890	2626.441154
994.244556	2634.002885
994.540186	2555.865000
994.835780	2654.167500
995.131337	2591.153077
995.426859	2598.714808
995.722345	2540.741538
996.017795	2644.085192
996.313208	2611.317692
996.608586	2626.441154
996.903928	2563.426731
997.199234	2621.400000
997.494504	2621.400000
997.789738	2596.194231
998.084936	2578.550192
998.380099	2586.111923
998.675225	2560.906154
998.970316	2525.618077
999.265371	2598.714808
999.560390	2608.797115
999.855373	2573.509038
1000.150320	2510.494615
1000.445232	2623.920577
1000.740108	2714.661346
1001.034948	2563.426731
1001.329752	2631.482308
1001.624521	2586.111923
1001.919254	2636.523462
1002.213951	2616.358846
1002.508613	2545.782692
1002.803239	2671.811538
1003.097829	2573.509038
1003.392384	2598.714808
1003.686903	2669.290962
1003.981386	2563.426731
1004.275834	2550.823846
1004.570246	2621.400000
1004.864623	2613.838269
1005.158964	2593.673654
1005.453270	2545.782692
1005.747540	2586.111923
1006.041775	2621.400000
1006.335974	2560.906154
1006.630138	2611.317692
1006.924266	2593.673654
1007.218359	2598.714808
1007.512416	2616.358846
1007.806438	2596.194231
1008.100425	2550.823846
1008.394376	2520.576923
1008.688292	2684.414423
1008.982172	2608.797115
1009.276017	2634.002885
1009.569827	2560.906154
1009.863602	2596.194231
1010.157341	2601.235385
1010.451045	2608.797115
1010.744714	2581.070769
1011.038347	2611.317692
1011.331945	2568.467885
1011.625508	2576.029615
1011.919036	2573.509038
1012.212528	2560.906154
1012.505986	2545.782692
1012.799408	2613.838269
1013.092795	2533.179808
1013.386147	2535.700385
1013.679464	2601.235385
1013.972745	2674.332115
1014.265992	2591.153077
1014.559204	2570.988462
1014.852380	2613.838269
1015.145521	2530.659231
1015.438628	2641.564615
1015.731699	2525.618077
1016.024736	2586.111923
1016.317737	2565.947308
1016.610703	2626.441154
1016.903635	2611.317692
1017.196531	2523.097500
1017.489393	2669.290962
1017.782219	2639.044038
1018.075011	2623.920577
1018.367768	2576.029615
1018.660490	2581.070769
1018.953177	2581.070769
1019.245829	2581.070769
