Dividing Wavelength (nm)	Counts (n)	Blue Motor Position (mm): 0.000000	Red Motor Position (mm): 10.200000	
326.493990	2129.945473
326.888308	2129.945473
327.282561	2129.945473
327.676750	2091.526840
328.070874	2095.285020
328.464933	2099.564960
328.858929	2102.012440
329.252859	2110.600045
329.646726	2124.821140
330.040528	2138.603655
330.434265	2153.217960
330.827938	2174.587411
331.221547	2191.392098
331.615091	2208.101002
332.008571	2227.622870
332.401986	2248.528535
332.795338	2265.970928
333.188625	2285.041613
333.581847	2307.131949
333.975006	2322.701552
334.368100	2343.105623
334.761129	2358.556759
335.154095	2374.443955
335.546996	2393.242418
335.939833	2408.809501
336.332606	2421.992118
336.725315	2433.758172
337.117960	2444.180757
337.510540	2452.521346
337.903056	2465.088943
338.295508	2471.370220
338.687896	2479.922538
339.080220	2488.187510
339.472480	2494.675475
339.864676	2500.868532
340.256807	2505.140910
340.648875	2506.933040
341.040879	2506.612927
341.432818	2508.021929
341.824694	2510.156858
342.216506	2513.363032
342.608253	2512.558968
342.999937	2511.044101
343.391557	2512.899246
343.783113	2512.929493
344.174605	2508.873884
344.566033	2506.176867
344.957397	2504.157885
345.348697	2505.050169
345.739934	2504.634274
346.131106	2501.218892
346.522215	2499.560353
346.913260	2498.957935
347.304241	2499.154540
347.695159	2492.956441
348.086012	2497.372492
348.476802	2492.911071
348.867528	2489.987202
349.258191	2487.030565
349.648789	2489.989722
350.039324	2485.992087
350.429796	2485.765235
350.820203	2482.914463
351.210548	2482.460759
351.600828	2482.717858
351.991045	2481.518063
352.381198	2480.814822
352.771288	2480.305666
353.161314	2480.048567
353.551276	2480.429174
353.941175	2480.996304
354.331010	2476.698720
354.720782	2482.400265
355.110490	2476.930613
355.500135	2481.437405
355.889717	2481.258444
356.279235	2481.124853
356.668689	2482.059987
357.058080	2483.385811
357.447408	2479.909935
357.836672	2476.328195
358.225873	2479.912456
358.615010	2478.904225
359.004084	2482.117960
359.393095	2485.301449
359.782043	2484.787251
360.170927	2483.602580
360.559748	2487.204485
360.948505	2487.660709
361.337199	2486.470997
361.725830	2489.949393
362.114398	2485.745071
362.502903	2489.568786
362.891344	2484.696511
363.279722	2487.401090
363.668037	2486.677684
364.056289	2491.081132
364.444478	2487.151553
364.832603	2490.259424
365.220665	2492.510299
365.608665	2492.946359
365.996601	2496.278562
366.384474	2493.591627
366.772284	2495.502224
367.160031	2494.904847
367.547715	2498.635301
367.935336	2499.368789
368.322893	2500.351814
368.710388	2507.820283
369.097820	2514.489730
369.485189	2514.053670
369.872495	2522.593385
370.259738	2525.857532
370.646918	2534.757689
371.034035	2544.177085
371.421090	2553.495658
371.808081	2562.259704
372.195010	2570.567525
372.581875	2584.400451
372.968678	2595.173397
373.355418	2610.085130
373.742096	2627.305712
374.128710	2641.173926
374.515262	2652.745895
374.901751	2670.367248
375.288177	2685.639423
375.674540	2708.523741
376.060841	2723.380022
376.447079	2742.962384
376.833254	2763.568100
377.219367	2773.012702
377.605417	2811.922848
377.991404	2820.243272
378.377329	2838.837568
378.763191	2859.740713
379.148991	2895.507699
379.534727	2920.645413
379.920402	2946.199022
380.306013	2954.350568
380.691563	2997.686847
381.077049	3014.723426
381.462474	3029.935108
381.847835	3056.738923
382.233134	3072.472364
382.618371	3064.769481
383.003545	3123.743419
383.388657	3117.852831
383.773706	3135.706077
384.158693	3140.379227
384.543618	3147.237717
384.928480	3165.905109
385.313280	3192.310673
385.698017	3175.924402
386.082692	3202.486242
386.467305	3188.819674
386.851856	3198.186138
387.236344	3197.646734
387.620770	3199.166642
388.005133	3197.810572
388.389435	3192.797144
388.773674	3177.845082
389.157851	3180.098478
389.541965	3165.204389
389.926018	3123.612349
390.310008	3136.963845
390.693936	3122.977164
391.077802	3116.799230
391.461606	3084.341761
391.845348	3084.707244
392.229027	3060.376115
392.612645	3037.133875
392.996200	3040.899617
393.379694	3028.642052
393.763125	3026.292874
394.146494	2981.829897
394.529801	2972.927219
394.913047	2959.084211
395.296230	2921.661205
395.679351	2908.090419
396.062410	2883.285422
396.445408	2855.110413
396.828343	2833.864470
397.211217	2810.959987
397.594028	2774.371293
397.976778	2758.295053
398.359466	2746.314751
398.742092	2721.918087
399.124656	2700.639377
399.507158	2691.615711
399.889598	2679.658094
400.271977	2666.223419
400.654294	2648.629792
401.036549	2634.721249
401.418742	2621.586523
401.800874	2612.865327
402.182944	2603.259408
402.564952	2594.230701
402.946898	2588.501430
403.328783	2572.460478
403.710606	2565.017215
404.092367	2563.903120
404.474067	2557.221070
404.855705	2552.363919
405.237282	2545.853268
405.618797	2541.563247
406.000250	2537.701723
406.381642	2536.549819
406.762972	2530.903727
407.144240	2530.901206
407.525447	2529.046062
407.906593	2527.334590
408.287677	2525.371060
408.668700	2525.925587
409.049661	2526.288550
409.430560	2521.514578
409.811399	2526.225536
410.192176	2525.121523
410.572891	2523.793179
410.953545	2521.713703
411.334138	2520.072808
411.714669	2522.837881
412.095139	2518.948630
412.475547	2523.881399
412.855894	2521.479290
413.236180	2521.640607
413.616405	2522.666481
413.996568	2523.410052
414.376670	2519.752694
414.756711	2518.482324
415.136691	2518.991480
415.516609	2521.212108
415.896466	2521.602798
416.276262	2521.307890
416.655997	2518.631038
417.035670	2518.116840
417.415283	2521.305370
417.794834	2519.044412
418.174324	2521.663292
418.553753	2521.048271
418.933121	2521.015503
419.312428	2522.109434
419.691674	2522.560617
420.070859	2523.750329
420.449983	2522.666481
420.829045	2522.913498
421.208047	2521.552386
421.586988	2522.119516
421.965867	2521.232273
422.344686	2523.773015
422.723444	2522.747140
423.102141	2521.670853
423.480777	2524.254445
423.859352	2522.555576
424.237866	2523.823426
424.616319	2524.400638
424.994712	2525.456760
425.373044	2525.066071
425.751314	2524.909795
426.129524	2526.142357
426.507673	2524.370391
426.885762	2526.475073
427.263789	2528.758716
427.641756	2524.309898
428.019662	2522.774866
428.397508	2522.585823
428.775292	2524.299815
429.153016	2522.855525
429.530679	2528.325177
429.908282	2526.139836
430.285824	2525.529857
430.663305	2521.849814
431.040726	2525.771832
431.418086	2525.668488
431.795385	2525.907943
432.172624	2526.757378
432.549802	2527.725279
432.926920	2523.147912
433.303977	2526.704446
433.680974	2529.340969
434.057910	2528.975485
434.434786	2526.898530
434.811601	2527.115300
435.188355	2526.064219
435.565050	2527.165711
435.941683	2527.962213
436.318257	2524.806451
436.694770	2523.296626
437.071222	2526.328880
437.447614	2524.594723
437.823946	2524.869466
438.200218	2528.158818
438.576429	2525.948272
438.952580	2527.571524
439.328670	2531.163346
439.704700	2529.416586
440.080670	2531.233922
440.456580	2527.894158
440.832429	2527.987419
441.208218	2529.598068
441.583947	2529.023376
441.959616	2527.904240
442.335224	2530.049251
442.710773	2528.625125
443.086261	2530.157636
443.461689	2528.161339
443.837057	2532.106042
444.212365	2529.908099
444.587612	2528.247039
444.962800	2531.301978
445.337927	2529.686288
445.712995	2527.372398
446.088002	2531.637215
446.462949	2531.254087
446.837837	2526.482635
447.212664	2531.465815
447.587431	2530.573531
447.962139	2532.443799
448.336786	2535.138296
448.711374	2532.199303
449.085901	2532.763913
449.460369	2531.604447
449.834776	2529.993798
450.209124	2531.574200
450.583412	2532.279962
450.957640	2531.087729
451.331808	2532.469005
451.705917	2528.357944
452.079965	2532.012781
452.453954	2534.346835
452.827883	2534.636701
453.201752	2533.757020
453.575562	2531.173428
453.949311	2530.828109
454.323001	2532.073274
454.696632	2534.001516
455.070202	2535.254243
455.443713	2534.576207
455.817164	2532.307688
456.190556	2531.669982
456.563888	2531.816176
456.937160	2530.762574
457.310373	2533.605785
457.683526	2530.502955
458.056619	2534.508152
458.429653	2532.463964
458.802628	2534.258615
459.175542	2534.278779
459.548398	2534.084695
459.921194	2535.534027
460.293930	2533.837678
460.666607	2535.783564
461.039224	2537.643749
461.411782	2537.212731
461.784280	2538.939326
462.156719	2536.020498
462.529099	2536.275076
462.901419	2535.075282
463.273680	2535.735673
463.645882	2536.650642
464.018024	2537.384130
464.390106	2535.715508
464.762130	2537.850437
465.134094	2537.729449
465.505999	2539.904707
465.877845	2542.049718
466.249631	2543.196580
466.621358	2541.732125
466.993026	2544.285470
467.364634	2542.528627
467.736184	2541.192722
468.107674	2537.545447
468.479105	2541.626261
468.850477	2536.638039
469.221790	2536.489325
469.593043	2538.273894
469.964238	2537.389171
470.335373	2537.812628
470.706449	2542.233720
471.077467	2539.725746
471.448425	2542.755479
471.819324	2541.782537
472.190164	2544.325799
472.560945	2543.998124
472.931667	2541.149872
473.302330	2541.429656
473.672934	2541.845551
474.043479	2538.190715
474.413965	2538.001671
474.784393	2532.900024
475.154761	2536.978317
475.525070	2534.866074
475.895321	2534.873635
476.265513	2537.202648
476.635645	2538.699871
477.005719	2540.693647
477.375734	2540.043339
477.745691	2539.970242
478.115588	2538.664583
478.485427	2541.056611
478.855207	2541.429656
479.224928	2545.830583
479.594591	2544.923176
479.964194	2541.938813
480.333739	2544.595501
480.703226	2542.518545
481.072653	2540.345808
481.442022	2545.039122
481.811333	2539.435880
482.180584	2547.375697
482.549777	2543.544420
482.918912	2542.906714
483.287988	2542.589121
483.657005	2542.722712
484.025964	2542.180788
484.394864	2542.160623
484.763706	2544.197249
485.132489	2543.098278
485.501213	2541.943854
485.869879	2541.729605
486.238487	2540.623071
486.607036	2542.652136
486.975527	2541.631302
487.343959	2540.355890
487.712333	2543.312527
488.080648	2541.709440
488.448905	2542.833617
488.817104	2540.136600
489.185244	2542.672300
489.553326	2542.526107
489.921350	2544.116591
490.289315	2545.013916
490.657222	2545.069369
491.025070	2546.309493
491.392861	2543.062990
491.760593	2543.050387
492.128267	2547.360573
492.495883	2544.582898
492.863440	2543.123484
493.230939	2545.797816
493.598380	2543.907383
493.965763	2541.212886
494.333088	2540.938143
494.700354	2538.989738
495.067563	2540.900335
495.434713	2540.277752
495.801805	2544.940820
496.168839	2543.199101
496.535815	2542.952084
496.902733	2541.875798
497.269593	2544.214893
497.636395	2544.537527
498.003139	2541.384286
498.369825	2543.793957
498.736453	2543.798998
499.103023	2543.488967
499.469535	2543.282280
499.835989	2543.884698
500.202385	2543.945192
500.568723	2543.572146
500.935003	2542.286652
501.301226	2540.615510
501.667390	2544.734132
502.033497	2544.411498
502.399546	2543.892260
502.765537	2541.964018
503.131470	2544.351005
503.497345	2543.453679
503.863163	2545.225645
504.228923	2545.092054
504.594625	2544.469472
504.960269	2543.151210
505.325856	2545.633978
505.691385	2543.557023
506.056856	2543.360418
506.422270	2543.874616
506.787625	2544.610624
507.152924	2544.106509
507.518164	2546.259081
507.883347	2542.929399
508.248472	2544.963505
508.613540	2545.139945
508.978550	2544.598021
509.343503	2545.336550
509.708398	2544.671118
510.073236	2542.815973
510.438016	2545.823022
510.802738	2544.903011
511.167403	2547.068187
511.532010	2546.780841
511.896561	2547.597508
512.261053	2546.599359
512.625488	2541.908566
512.989866	2540.618030
513.354186	2542.150541
513.718449	2541.497712
514.082655	2541.762372
514.446803	2544.860161
514.810894	2545.742363
515.174927	2546.120450
515.538904	2548.434339
515.902822	2546.158258
516.266684	2545.722198
516.630488	2544.265305
516.994235	2546.493495
517.357925	2544.557692
517.721558	2545.132383
518.085133	2547.796633
518.448651	2546.858979
518.812112	2544.224976
519.175516	2544.862682
519.538863	2545.969215
519.902152	2544.650953
520.265385	2545.071890
520.628560	2545.880995
520.991678	2544.146838
521.354739	2546.985007
521.717743	2545.578526
522.080690	2546.674977
522.443580	2546.057435
522.806413	2547.269833
523.169189	2546.133053
523.531908	2545.344112
523.894569	2547.479041
524.257174	2546.180943
524.619722	2547.264792
524.982213	2550.387786
525.344647	2546.160779
525.707025	2546.881664
526.069345	2545.306303
526.431608	2544.958464
526.793815	2547.703372
527.155964	2545.863351
527.518057	2548.527601
527.880093	2549.440049
528.242072	2546.148176
528.603995	2546.163299
528.965860	2547.884853
529.327669	2547.206818
529.689421	2546.347302
530.051117	2548.618341
530.412755	2547.678166
530.774337	2544.575336
531.135862	2546.596839
531.497331	2545.477702
531.858743	2545.291180
532.220098	2544.792106
532.581396	2543.534338
532.942638	2541.966539
533.303824	2548.368804
533.664953	2544.285470
534.026025	2546.599359
534.387040	2545.553320
534.747999	2546.654812
535.108902	2546.924514
535.469748	2544.028371
535.830537	2545.412167
536.191270	2547.594987
536.551947	2548.232693
536.912567	2548.769576
537.273131	2544.613145
537.633638	2547.489123
537.994089	2546.511139
538.354483	2546.248999
538.714821	2547.055584
539.075103	2547.310162
539.435328	2545.709596
539.795497	2547.879812
540.155609	2546.634647
540.515665	2545.946530
540.875665	2546.601880
541.235609	2544.555171
541.595496	2549.089689
541.955328	2549.084648
542.315102	2545.986859
542.674821	2546.377548
543.034483	2547.005172
543.394090	2548.109185
543.753640	2548.361242
544.113134	2546.377548
544.472571	2545.485264
544.831953	2547.068187
545.191278	2549.495502
545.550548	2546.133053
545.909761	2546.145655
546.268918	2550.544062
546.628019	2547.627755
546.987064	2548.497354
547.346053	2549.745039
547.704986	2546.349822
548.063863	2549.256047
548.422684	2547.496685
548.781449	2548.467107
549.140158	2547.332847
549.498811	2548.250337
549.857408	2548.129349
550.215949	2547.098433
550.574434	2544.023330
550.932864	2545.996941
551.291237	2543.020140
551.649555	2546.969884
552.007817	2548.194884
552.366022	2549.203115
552.724173	2548.855276
553.082267	2545.311344
553.440305	2547.509287
553.798288	2548.762014
554.156215	2547.602549
554.514086	2547.962991
554.871902	2548.366284
555.229661	2547.534493
555.587365	2546.889226
555.945014	2548.310831
556.302606	2545.737322
556.660143	2548.706562
557.017625	2547.383259
557.375050	2547.973074
557.732421	2547.930224
558.089735	2548.245296
558.446994	2547.151366
558.804197	2547.557178
559.161345	2542.178267
559.518437	2546.692621
559.875474	2548.812426
560.232455	2547.226983
560.589381	2548.005841
560.946251	2548.877961
561.303065	2549.503064
561.659825	2546.813608
562.016528	2546.768238
562.373177	2550.082797
562.729770	2545.628937
563.086307	2547.680687
563.442789	2546.513660
563.799216	2548.988866
564.155587	2546.259081
564.511904	2545.533155
564.868164	2546.806047
565.224370	2549.757642
565.580520	2548.157076
565.936615	2550.213867
566.292654	2548.817467
566.648638	2547.859648
567.004567	2548.663712
567.360441	2548.378887
567.716260	2545.182795
568.072023	2547.453835
568.427732	2544.877805
568.783385	2544.976108
569.138982	2544.116591
569.494525	2542.342105
569.850013	2544.650953
570.205445	2549.578681
570.560823	2549.165307
570.916145	2545.475182
571.271412	2550.123126
571.626625	2549.001469
571.981782	2546.811088
572.336884	2549.147663
572.691931	2546.987528
573.046923	2549.785368
573.401860	2548.739329
573.756743	2547.259750
574.111570	2547.045501
574.466342	2550.808723
574.821059	2547.660522
575.175722	2548.434339
575.530330	2547.355532
575.884882	2548.530121
576.239380	2548.325954
576.593823	2550.405430
576.948211	2545.616334
577.302544	2546.085162
577.656823	2543.632640
578.011047	2548.920811
578.365216	2547.826880
578.719330	2545.578526
579.073389	2549.871068
579.427394	2547.756304
579.781344	2546.599359
580.135239	2544.882846
580.489080	2546.153217
580.842866	2549.992056
581.196597	2546.790923
581.550273	2548.777138
581.903895	2543.688093
582.257463	2548.850234
582.610975	2549.596325
582.964434	2547.640358
583.317837	2545.475182
583.671186	2547.448794
584.024481	2547.398382
584.377721	2546.100285
584.730906	2546.392672
585.084037	2546.778320
585.437113	2546.546427
585.790135	2548.956099
586.143103	2545.679349
586.496016	2551.191850
586.848874	2544.565254
587.201679	2546.503577
587.554428	2541.868236
587.907124	2543.461241
588.259765	2541.331353
588.612352	2546.276725
588.964884	2547.005172
589.317362	2545.210521
589.669786	2547.297559
590.022155	2549.263609
590.374470	2550.418033
590.726731	2546.206149
591.078937	2547.736139
591.431090	2547.486602
591.783188	2545.641540
592.135232	2547.945347
592.487222	2546.425439
592.839157	2544.991231
593.191038	2546.284287
593.542866	2547.468958
593.894639	2544.991231
594.246358	2546.596839
594.598022	2548.358722
594.949633	2548.038609
595.301190	2547.196736
595.652692	2547.128680
596.004141	2546.881664
596.355535	2545.331509
596.706876	2545.913762
597.058162	2547.695810
597.409395	2546.979966
597.760573	2544.351005
598.111698	2546.054915
598.462768	2546.173382
598.813785	2547.239586
599.164748	2546.128011
599.515657	2545.117260
599.866511	2545.845707
600.217312	2545.361756
600.568060	2546.327137
600.918753	2547.025337
601.269392	2545.969215
601.619978	2545.177754
601.970510	2546.382590
602.320988	2542.790768
602.671412	2544.671118
603.021783	2543.705737
603.372100	2548.469627
603.722363	2544.610624
604.072572	2546.564071
604.422728	2546.498536
604.772830	2542.332023
605.122878	2540.015612
605.472872	2541.986703
605.822813	2540.421425
606.172701	2542.077444
606.522534	2544.809750
606.872314	2543.647764
607.222041	2545.568443
607.571714	2544.938299
607.921333	2547.738660
608.270899	2544.618186
608.620411	2544.088865
608.969870	2548.472148
609.319276	2548.545245
609.668627	2549.752601
610.017926	2552.303425
610.367171	2554.445915
610.716362	2555.547407
611.065500	2553.639331
611.414585	2546.654812
611.763616	2548.056253
612.112594	2548.086500
612.461518	2548.036088
612.810389	2550.259237
613.159207	2547.884853
613.507971	2543.796478
613.856682	2549.800492
614.205340	2547.577343
614.553945	2546.347302
614.902496	2545.487785
615.250994	2548.986346
615.599439	2544.182126
615.947830	2544.645912
616.296169	2544.973587
616.644454	2545.442414
616.992686	2544.325799
617.340864	2548.285625
617.688990	2545.444935
618.037063	2544.913093
618.385082	2545.679349
618.733048	2546.659853
619.080961	2547.060625
619.428821	2545.162630
619.776628	2546.556509
620.124382	2545.177754
620.472083	2546.312013
620.819731	2544.693803
621.167326	2548.232693
621.514868	2547.965512
621.862357	2544.618186
622.209793	2545.858310
622.557176	2546.022147
622.904506	2542.664739
623.251783	2539.776158
623.599007	2545.328988
623.946179	2539.854295
624.293297	2543.216745
624.640363	2544.827394
624.987376	2545.500388
625.334336	2545.190357
625.681243	2545.356715
626.028097	2543.927548
626.374899	2546.236396
626.721647	2541.200283
627.068343	2545.432332
627.414987	2546.465769
627.761577	2541.328833
628.108115	2545.112219
628.454600	2543.798998
628.801032	2546.947199
629.147412	2546.054915
629.493739	2544.401416
629.840014	2546.019627
630.186236	2544.388813
630.532405	2542.453010
630.878521	2544.741694
631.224585	2543.521735
631.570597	2545.260933
631.916556	2544.469472
632.262462	2541.999306
632.608316	2542.858823
632.954117	2543.294883
633.299866	2544.265305
633.645562	2544.124153
633.991206	2542.145500
634.336797	2540.839841
634.682336	2543.284801
635.027823	2542.609286
635.373257	2543.320089
635.718639	2541.187681
636.063968	2543.221786
636.409245	2542.599204
636.754470	2543.892260
637.099642	2540.174409
637.444762	2540.867567
637.789829	2543.506611
638.134845	2542.195911
638.479808	2541.837989
638.824719	2542.682383
639.169577	2541.391847
639.514383	2541.074255
639.859137	2541.926210
640.203839	2543.425953
640.548489	2543.282280
640.893086	2538.052083
641.237632	2539.330015
641.582125	2539.662732
641.926566	2538.364634
642.270955	2542.442928
642.615292	2542.016950
642.959576	2542.389996
643.303809	2541.911086
643.647990	2543.461241
643.992118	2539.511497
644.336195	2541.086857
644.680219	2539.982845
645.024192	2541.354039
645.368112	2541.999306
645.711981	2544.078782
646.055797	2542.301776
646.399562	2542.437887
646.743274	2543.622558
647.086935	2543.567105
647.430544	2540.328164
647.774101	2544.529966
648.117606	2541.200283
648.461059	2541.490150
648.804460	2543.809081
649.147810	2544.043494
649.491108	2540.776827
649.834354	2542.997455
650.177548	2542.410160
650.520690	2543.315047
650.863781	2542.175747
651.206820	2544.121632
651.549807	2542.788247
651.892742	2543.874616
652.235626	2540.993596
652.578458	2539.967721
652.921238	2543.655325
653.263967	2541.041487
653.606644	2543.327650
653.949269	2543.473844
654.291843	2538.989738
654.634365	2540.030736
654.976836	2540.542413
655.319255	2540.635674
655.661622	2539.907227
656.003938	2541.701878
656.346203	2541.795140
656.688416	2540.681045
657.030577	2539.458565
657.372687	2541.144831
657.714746	2542.087527
658.056753	2540.965870
658.398708	2535.105528
658.740612	2537.295910
659.082465	2536.932947
659.424266	2535.201310
659.766016	2535.355066
660.107715	2540.713812
660.449362	2539.569470
660.790958	2541.727084
661.132503	2538.510828
661.473996	2541.442259
661.815438	2540.489481
662.156829	2540.444110
662.498168	2538.697351
662.839456	2541.858154
663.180693	2540.517207
663.521879	2540.701209
663.863013	2538.992258
664.204097	2539.710622
664.545129	2538.054603
664.886110	2541.200283
665.227040	2542.238761
665.567918	2537.237937
665.908746	2542.611807
666.249522	2541.283463
666.590248	2540.726415
666.930922	2539.466127
667.271545	2539.854295
667.612118	2540.439069
667.952639	2539.887063
668.293109	2544.366128
668.633528	2540.791950
668.973896	2537.472350
669.314213	2542.402599
669.654480	2539.398071
669.994695	2538.904038
670.334859	2540.350849
670.674973	2540.451672
671.015035	2541.606096
671.355047	2542.362269
671.695008	2541.558205
672.034918	2539.385468
672.374777	2537.812628
672.714585	2540.058462
673.054342	2540.282793
673.394049	2541.659028
673.733705	2541.006199
674.073310	2540.902855
674.412864	2540.318082
674.752368	2540.386137
675.091820	2540.963349
675.431223	2539.362783
675.770574	2539.894625
676.109875	2534.147709
676.449125	2536.275076
676.788324	2537.830272
677.127473	2539.801363
677.466571	2537.101825
677.805619	2541.502753
678.144616	2540.670962
678.483562	2540.943185
678.822458	2538.538554
679.161303	2540.199614
679.500098	2537.043852
679.838842	2540.008051
680.177535	2540.123997
680.516179	2540.449152
680.854771	2538.271373
681.193314	2538.720036
681.531805	2540.277752
681.870247	2540.156765
682.208638	2539.082999
682.546978	2541.840510
682.885268	2540.754141
683.223508	2540.209697
683.561697	2542.455531
683.899836	2538.752803
684.237925	2539.710623
684.575963	2539.670293
684.913951	2539.642567
685.251889	2540.512166
685.589776	2536.620395
685.927614	2539.995448
686.265401	2539.929913
686.603137	2539.927392
686.940824	2537.573173
687.278460	2539.962680
687.616046	2539.103163
687.953582	2539.917310
688.291068	2538.868750
688.628504	2542.851261
688.965889	2538.740200
689.303224	2542.435366
689.640510	2538.941847
689.977745	2541.326312
690.314930	2539.287166
690.652065	2542.342105
690.989150	2539.022505
691.326185	2539.330015
691.663170	2540.570139
692.000105	2540.960829
692.336990	2539.690458
692.673825	2540.444110
693.010610	2538.316743
693.347345	2536.083512
693.684030	2533.968748
694.020665	2533.552853
694.357251	2535.949922
694.693786	2536.292720
695.030272	2537.976466
695.366707	2539.072917
695.703093	2538.720036
696.039429	2536.070909
696.375716	2536.544778
696.711952	2537.739531
697.048139	2538.314223
697.384276	2540.212217
697.720363	2535.410518
698.056400	2536.948070
698.392388	2535.816331
698.728326	2535.718029
699.064214	2540.073586
699.400053	2538.006712
699.735842	2539.604758
700.071581	2538.815818
700.407270	2537.951260
700.742910	2537.845396
701.078501	2537.885725
701.414042	2539.425797
701.749533	2536.953111
702.084974	2535.927237
702.420366	2539.710622
702.755709	2536.186856
703.091002	2536.227185
703.426246	2538.357073
703.761440	2539.806404
704.096584	2538.616692
704.431679	2536.350693
704.766725	2538.354552
705.101721	2536.043183
705.436668	2535.927237
705.771565	2538.820859
706.106413	2537.792463
706.441212	2537.066537
706.775961	2539.216589
707.110661	2537.313554
707.445311	2536.857329
707.779913	2535.105528
708.114465	2540.071065
708.448967	2537.371527
708.783421	2538.369676
709.117825	2539.884542
709.452180	2537.109387
709.786485	2537.754655
710.120742	2541.038967
710.454949	2538.803215
710.789107	2538.510828
711.123216	2533.668800
711.457275	2534.394726
711.791286	2533.658717
712.125247	2535.604603
712.459159	2537.618544
712.793023	2537.419418
713.126837	2537.351362
713.460602	2537.908410
713.794318	2534.293903
714.127985	2536.489325
714.461602	2538.936805
714.795171	2536.101156
715.128691	2539.589635
715.462162	2537.777340
715.795584	2537.515200
716.128957	2537.336239
716.462281	2535.544109
716.795556	2536.128883
717.128782	2538.704912
717.461960	2537.888245
717.795088	2538.931764
718.128167	2536.360776
718.461198	2537.278266
718.794180	2537.003523
719.127113	2536.559901
719.459997	2539.219110
719.792833	2537.583256
720.125619	2535.806249
720.458357	2537.805066
720.791046	2536.927906
721.123686	2537.777340
721.456278	2538.130221
721.788821	2534.031763
722.121315	2537.986548
722.453761	2537.172402
722.786158	2535.992772
723.118506	2540.653318
723.450805	2537.883204
723.783056	2537.167360
724.115259	2537.248019
724.447412	2537.472350
724.779518	2539.652649
725.111574	2536.668286
725.443582	2537.873122
725.775542	2536.738862
726.107453	2534.074612
726.439315	2536.932947
726.771129	2542.516025
727.102895	2536.718698
727.434612	2536.716177
727.766281	2538.883873
728.097901	2535.307175
728.429473	2533.164684
728.760996	2534.583769
729.092471	2531.977492
729.423897	2536.393543
729.755276	2535.649973
730.086606	2538.478060
730.417887	2539.007382
730.749120	2538.200797
731.080305	2535.619726
731.411442	2538.379758
731.742530	2536.857329
732.073570	2535.922195
732.404562	2538.074768
732.735506	2539.569470
733.066401	2536.970755
733.397249	2538.566281
733.728048	2536.660724
734.058798	2536.270035
734.389501	2535.798687
734.720156	2537.999151
735.050762	2536.075951
735.381320	2535.347504
735.711831	2537.401774
736.042293	2535.685261
736.372707	2535.007226
736.703073	2536.413708
737.033391	2533.182328
737.363661	2535.385312
737.693883	2536.721218
738.024056	2539.980324
738.354182	2536.723739
738.684260	2537.149716
739.014290	2535.249201
739.344272	2538.397402
739.674207	2537.064017
740.004093	2536.068389
740.333931	2534.440096
740.663722	2537.603420
740.993464	2538.906558
741.323159	2539.657690
741.652806	2537.182484
741.982405	2536.716177
742.311956	2534.361958
742.641460	2535.047555
742.970915	2533.767102
743.300323	2533.469674
743.629683	2533.212575
743.958996	2536.098636
744.288260	2538.132741
744.617477	2536.012936
744.946647	2531.889272
745.275768	2533.646114
745.604842	2530.001360
745.933869	2534.142668
746.262847	2530.933974
746.591778	2535.302133
746.920662	2533.517565
747.249498	2537.452186
747.578286	2537.888245
747.907027	2536.023018
748.235720	2533.562935
748.564365	2539.032587
748.892963	2533.822555
749.221514	2537.734490
749.550017	2534.412370
749.878473	2536.590148
750.206881	2536.138965
750.535242	2534.772812
750.863555	2536.738862
751.191821	2534.094777
751.520039	2535.463450
751.848210	2538.193235
752.176334	2537.737011
752.504411	2535.629808
752.832440	2535.687782
753.160421	2533.749458
753.488356	2537.268183
753.816243	2536.302802
754.144082	2535.322298
754.471875	2534.077133
754.799620	2534.293903
755.127318	2533.114273
755.454969	2535.355066
755.782572	2534.994623
756.110129	2536.575025
756.437638	2534.210724
756.765100	2534.145189
757.092515	2533.240302
757.419882	2537.553009
757.747203	2533.888090
758.074477	2532.940353
758.401703	2533.862884
758.728882	2534.238450
759.056014	2534.951773
759.383099	2533.459592
759.710138	2536.259953
760.037129	2539.113246
760.364073	2532.262318
760.690970	2537.681558
761.017820	2539.284645
761.344623	2536.365817
761.671379	2536.693492
761.998088	2532.819365
762.324751	2533.426824
762.651366	2531.231402
762.977935	2537.046373
763.304456	2534.508152
763.630931	2537.973945
763.957359	2536.943029
764.283740	2539.539223
764.610074	2537.610982
764.936362	2535.483615
765.262602	2534.024201
765.588796	2534.898841
765.914943	2535.496218
766.241044	2537.021167
766.567097	2535.423121
766.893104	2536.174253
767.219064	2534.735004
767.544978	2533.257946
767.870845	2534.243491
768.196665	2535.816331
768.522438	2535.922195
768.848165	2533.436907
769.173846	2537.547968
769.499479	2536.859850
769.825066	2535.637370
770.150607	2534.548481
770.476101	2535.768440
770.801548	2535.002185
771.126949	2536.832124
771.452303	2534.828265
771.777611	2532.660569
772.102872	2534.876156
772.428087	2530.669313
772.753256	2533.164684
773.078378	2536.685930
773.403453	2533.242822
773.728482	2532.025383
774.053465	2536.171732
774.378401	2534.230888
774.703291	2534.861032
775.028135	2533.341125
775.352932	2532.184180
775.677683	2534.251053
776.002388	2534.087215
776.327046	2534.311547
776.651658	2534.576207
776.976224	2532.728624
777.300743	2533.910775
777.625216	2537.462268
777.949643	2535.579397
778.274024	2535.806249
778.598359	2531.226361
778.922647	2531.291896
779.246889	2530.628984
779.571086	2526.243180
779.895236	2531.480939
780.219339	2533.618388
780.543397	2535.077802
780.867409	2534.117462
781.191374	2531.299457
781.515294	2532.842050
781.839167	2533.641073
782.162995	2532.859694
782.486776	2535.100487
782.810511	2530.079498
783.134201	2532.423635
783.457844	2534.787936
783.781441	2534.760209
784.104993	2530.818027
784.428498	2533.419263
784.751958	2533.036135
785.075372	2533.041176
785.398739	2533.749458
785.722061	2534.808100
786.045337	2533.515044
786.368568	2533.779705
786.691752	2531.508665
787.014891	2537.129552
787.337983	2534.974458
787.661030	2534.382123
787.984031	2535.317257
788.306987	2536.582587
788.629897	2534.518234
788.952760	2534.256094
789.275579	2534.407329
789.598351	2534.591331
789.921078	2533.005888
790.243759	2533.096629
790.566395	2531.672503
790.888984	2534.845909
791.211529	2533.671320
791.534027	2533.958666
791.856480	2530.724766
792.178888	2533.104190
792.501249	2532.446320
792.823566	2535.637370
793.145836	2533.820034
793.468062	2533.941022
793.790241	2531.952287
794.112375	2534.722401
794.434464	2531.092770
794.756507	2534.460261
795.078505	2531.629653
795.400457	2531.264169
795.722364	2528.481452
796.044226	2532.421114
796.366042	2529.003212
796.687812	2531.705270
797.009538	2536.264994
797.331218	2532.327853
797.652852	2532.272400
797.974442	2532.867256
798.295986	2531.244005
798.617484	2532.486649
798.938938	2532.174097
799.260346	2532.456402
799.581709	2537.232895
799.903026	2534.200641
800.224299	2532.166536
800.545526	2532.259797
800.866708	2530.845753
801.187845	2531.717873
801.508936	2533.139478
801.829983	2533.731814
802.150984	2533.872966
802.471940	2532.998326
802.792851	2533.850281
803.113717	2533.411701
803.434538	2535.350024
803.755314	2532.400949
804.076045	2534.266176
804.396731	2534.447658
804.717372	2531.548994
805.037967	2532.847092
805.358518	2533.618388
805.679024	2533.918337
805.999485	2533.862884
806.319901	2529.930784
806.640272	2534.341794
806.960598	2534.591331
807.280879	2534.407329
807.601115	2533.389016
807.921306	2534.019160
808.241453	2529.651000
808.561554	2533.333563
808.881611	2529.865249
809.201623	2534.099818
809.521590	2532.862215
809.841513	2533.822555
810.161390	2531.574200
810.481223	2533.772143
810.801011	2532.632842
811.120755	2530.984385
811.440453	2533.189890
811.760107	2533.235260
812.079716	2530.404653
812.399281	2527.218643
812.718801	2528.597399
813.038276	2525.166894
813.357707	2531.105373
813.677093	2531.884231
813.996434	2531.992616
814.315731	2533.205013
814.634983	2533.920857
814.954191	2532.476567
815.273354	2532.794159
815.592473	2530.427338
815.911547	2532.388347
816.230577	2530.989426
816.549562	2535.511341
816.868502	2531.430527
817.187399	2533.396577
817.506250	2529.961031
817.825058	2533.406660
818.143821	2534.616537
818.462539	2534.387164
818.781213	2532.915147
819.099843	2533.346166
819.418429	2531.790970
819.736970	2534.182997
820.055466	2535.256763
820.373919	2533.714170
820.692327	2532.847092
821.010691	2536.471681
821.329011	2534.608975
821.647286	2541.704399
821.965517	2546.488454
822.283704	2546.702703
822.601847	2549.402241
822.919945	2547.443752
823.237999	2541.931251
823.556010	2541.651467
823.873976	2540.580222
824.191897	2540.073586
824.509775	2536.683410
824.827609	2538.639377
825.145398	2534.742565
825.463144	2536.184335
825.780845	2532.456402
826.098502	2534.803059
826.416116	2535.801208
826.733685	2537.542926
827.051210	2539.627443
827.368692	2536.937988
827.686129	2535.937319
828.003522	2536.648122
828.320872	2529.824920
828.638177	2531.410363
828.955439	2527.362316
829.272656	2531.485980
829.589830	2528.229395
829.906960	2531.004550
830.224046	2531.690147
830.541088	2531.518748
830.858086	2529.829961
831.175041	2532.063192
831.491952	2534.321629
831.808819	2532.887421
832.125642	2532.647966
832.442421	2535.473533
832.759157	2533.777184
833.075849	2533.512524
833.392497	2535.907072
833.709101	2536.194418
834.025662	2533.512524
834.342179	2532.920188
834.658653	2532.345497
834.975083	2534.883718
835.291469	2538.462937
835.607811	2530.049251
835.924110	2532.524458
836.240366	2530.117307
836.556578	2533.446989
836.872746	2532.285003
837.188871	2534.200641
837.504952	2533.152081
837.820990	2528.239477
838.136984	2529.731658
838.452935	2532.947915
838.768842	2530.782739
839.084706	2533.018491
839.400526	2533.257946
839.716303	2532.647966
840.032037	2535.657535
840.347727	2534.505631
840.663373	2531.911958
840.978977	2534.994623
841.294537	2531.886752
841.610054	2530.656710
841.925527	2530.613860
842.240957	2534.881197
842.556344	2532.935312
842.871687	2533.603265
843.186987	2529.618232
843.502244	2531.722914
843.817458	2530.182842
844.132629	2528.647810
844.447756	2531.493542
844.762840	2526.613705
845.077881	2526.870804
845.392879	2527.702594
845.707833	2529.109076
846.022745	2526.303674
846.337613	2531.438089
846.652438	2529.600588
846.967221	2530.071936
847.281960	2530.157636
847.596656	2531.259128
847.911309	2530.041689
848.225919	2528.877183
848.540485	2530.235774
848.855009	2529.272913
849.169490	2532.458923
849.483928	2532.509334
849.798323	2531.586803
850.112675	2530.951618
850.426984	2530.339117
850.741251	2529.134282
851.055474	2530.243336
851.369654	2530.177801
851.683792	2532.055630
851.997887	2532.632842
852.311938	2530.664272
852.625947	2530.830630
852.939914	2532.164015
853.253837	2531.642256
853.567718	2532.703419
853.881555	2531.503624
854.195350	2531.798532
854.509103	2530.150074
854.822812	2530.654190
855.136479	2532.852133
855.450103	2529.368695
855.763685	2531.503624
856.077224	2531.891793
856.390720	2531.072605
856.704173	2531.007070
857.017584	2529.489683
857.330953	2530.107224
857.644278	2530.979344
857.957561	2532.910106
858.270802	2529.237625
858.584000	2531.574200
858.897155	2530.936494
859.210268	2531.246525
859.523339	2530.608819
859.836367	2527.876514
860.149352	2528.516740
860.462295	2531.135620
860.775195	2526.132275
861.088054	2525.769312
861.400869	2528.020187
861.713642	2525.171935
862.026373	2530.361803
862.339062	2529.519930
862.651708	2529.356092
862.964312	2530.076977
863.276873	2530.341638
863.589392	2531.473377
863.901869	2530.515558
864.214303	2528.665454
864.526696	2532.053110
864.839045	2532.164015
865.151353	2533.091588
865.463619	2528.703263
865.775842	2531.901875
866.088023	2530.485311
866.400162	2530.732327
866.712258	2530.694519
867.024313	2530.223171
867.336325	2528.191586
867.648296	2532.403470
867.960224	2531.123017
868.272110	2532.020342
868.583954	2532.224509
868.895755	2529.867770
869.207515	2527.067409
869.519233	2530.225692
869.830909	2531.256608
870.142542	2530.724766
870.454134	2530.881042
870.765684	2531.642256
871.077191	2528.972965
871.388657	2529.892975
871.700081	2527.881555
872.011463	2530.820548
872.322803	2530.061854
872.634101	2530.064375
872.945357	2530.427338
873.256571	2531.599406
873.567744	2530.318953
873.878874	2531.183511
874.189963	2530.639066
874.501010	2533.497400
874.812015	2532.073274
875.122979	2529.154446
875.433900	2527.662265
875.744780	2531.813655
876.055618	2530.278624
876.366415	2531.836340
876.677169	2531.967410
876.987882	2529.225022
877.298554	2527.508510
877.609183	2528.766278
877.919771	2529.174611
878.230317	2528.400794
878.540822	2532.479087
878.851285	2533.076464
879.161707	2532.395908
879.472087	2530.664272
879.782425	2529.182173
880.092722	2532.685775
880.402977	2535.965045
880.713191	2532.524458
881.023363	2538.072248
881.333494	2541.414533
881.643583	2539.554347
881.953631	2538.168029
882.263637	2537.442103
882.573602	2538.107536
882.883526	2535.619726
883.193408	2535.236598
883.503248	2533.494880
883.813048	2532.680733
884.122806	2535.072761
884.432522	2533.396577
884.742197	2533.331042
885.051831	2533.719211
885.361424	2530.964221
885.670975	2531.279293
885.980485	2527.712676
886.289954	2531.546474
886.599382	2530.444982
886.908768	2529.431710
887.218113	2529.885414
887.527417	2531.233922
887.836680	2529.789632
888.145901	2529.257790
888.455082	2529.688809
888.764221	2530.528161
889.073319	2528.683098
889.382376	2532.327853
889.691392	2529.204858
890.000366	2529.189734
890.309300	2531.985054
890.618193	2531.914478
890.927044	2528.201668
891.235855	2528.594878
891.544625	2527.584127
891.853353	2528.161339
892.162041	2531.680064
892.470687	2530.165198
892.779293	2532.073274
893.087858	2530.354241
893.396381	2528.257121
893.704864	2528.678057
894.013306	2524.980371
894.321707	2530.833151
894.630068	2531.591844
894.938387	2531.629653
895.246665	2534.014119
895.554903	2531.846422
895.863100	2532.221988
896.171256	2531.937163
896.479371	2531.090249
896.787446	2531.337266
897.095480	2530.291227
897.403473	2530.838192
897.711425	2530.114786
898.019336	2531.009591
898.327207	2533.149561
898.635038	2529.378778
898.942827	2531.475898
899.250576	2528.153777
899.558284	2530.255938
899.865952	2533.431865
900.173579	2530.500434
900.481165	2532.254756
900.788711	2531.203675
901.096216	2527.689991
901.403681	2527.080012
901.711105	2530.719725
902.018489	2531.435568
902.325832	2530.676875
902.633135	2530.339117
902.940397	2529.610671
903.247619	2529.570342
903.554800	2531.851464
903.861941	2531.836340
904.169041	2531.264169
904.476101	2531.115455
904.783121	2535.410518
905.090100	2532.032945
905.397039	2531.047400
905.703938	2530.666793
906.010796	2530.079498
906.317614	2531.727955
906.624391	2532.237112
906.931129	2530.510517
907.237826	2529.885414
907.544483	2529.953469
907.851099	2531.019673
908.157675	2527.445495
908.464211	2527.795855
908.770707	2526.096987
909.077163	2528.181504
909.383578	2525.645803
909.689954	2526.727131
909.996289	2524.118334
910.302584	2526.318797
910.608839	2529.683767
910.915054	2528.904909
911.221229	2529.303160
911.527363	2529.096473
911.833458	2529.426669
912.139513	2528.499096
912.445527	2528.436082
912.751502	2528.599919
913.057436	2528.153777
913.363331	2531.735517
913.669186	2527.410207
913.975000	2529.275434
914.280775	2530.598737
914.586510	2527.790814
914.892205	2531.531350
915.197859	2529.741741
915.503475	2530.525640
915.809050	2529.676206
916.114585	2532.048069
916.420081	2531.516227
916.725536	2532.423635
917.030952	2534.941691
917.336328	2531.085208
917.641665	2530.999509
917.946961	2529.656041
918.252218	2528.332738
918.557435	2527.490866
918.862612	2529.527492
919.167750	2529.711494
919.472848	2528.264683
919.777906	2527.596730
920.082925	2527.989940
920.387904	2526.459950
920.692843	2528.257121
920.997743	2528.176463
921.302603	2526.694363
921.607423	2529.759385
921.912204	2525.613036
922.216946	2529.935825
922.521647	2527.831143
922.826310	2526.840557
923.130932	2530.036648
923.435516	2530.361803
923.740059	2526.470032
924.044564	2528.796524
924.349028	2530.031607
924.653454	2525.121523
924.957840	2522.669002
925.262186	2526.903571
925.566493	2525.529857
925.870761	2524.924918
926.174989	2527.722759
926.479178	2525.416431
926.783328	2526.855680
927.087438	2527.770650
927.391509	2528.415917
927.695541	2525.487007
927.999533	2529.845084
928.303486	2530.694519
928.607400	2528.862059
928.911275	2528.093283
929.215110	2526.659075
929.518906	2530.011443
929.822663	2527.942049
930.126381	2527.982378
930.430060	2526.089425
930.733699	2528.511699
931.037299	2527.677388
931.340861	2526.885927
931.644383	2531.675023
931.947866	2528.448685
932.251309	2529.121679
932.554714	2527.516071
932.858080	2531.387678
933.161407	2528.554549
933.464694	2529.101514
933.767943	2530.127389
934.071153	2529.116638
934.374323	2528.615043
934.677455	2528.675537
934.980548	2525.975999
935.283602	2526.502799
935.586617	2527.511030
935.889593	2526.638911
936.192530	2527.316946
936.495428	2528.607481
936.798287	2529.542615
937.101108	2528.794004
937.403890	2526.878365
937.706632	2528.927594
938.009336	2530.729807
938.312002	2530.117307
938.614628	2525.925587
938.917216	2529.154446
939.219765	2528.940197
939.522275	2531.430527
939.824747	2530.424817
940.127179	2523.674712
940.429573	2523.909126
940.731929	2527.541277
941.034246	2522.268230
941.336524	2526.606143
941.638763	2527.513551
941.940964	2526.616225
942.243126	2529.666123
942.545250	2527.319466
942.847335	2527.349713
943.149381	2526.220495
943.451389	2526.570855
943.753359	2528.995650
944.055290	2529.141843
944.357182	2526.591020
944.659036	2527.669827
944.960851	2528.483973
945.262628	2529.219981
945.564367	2531.125538
945.866067	2528.902389
946.167729	2530.311391
946.469352	2529.328366
946.770937	2530.233253
947.072484	2527.190917
947.373992	2526.434744
947.675462	2528.410876
947.976893	2529.081350
948.278286	2528.705784
948.579641	2527.173273
948.880958	2525.038344
949.182236	2528.594878
949.483476	2526.921215
949.784678	2529.426669
950.085841	2526.946421
950.386967	2530.414735
950.688054	2528.272244
950.989103	2526.989271
951.290114	2527.458098
951.591087	2527.642100
951.892021	2528.509179
952.192917	2529.466998
952.493776	2526.338962
952.794596	2527.163191
953.095378	2528.685619
953.396122	2527.710156
953.696828	2526.464991
953.997496	2528.229395
954.298126	2527.505989
954.598718	2527.810979
954.899272	2526.245701
955.199788	2527.228726
955.500266	2527.730320
955.800706	2526.424662
956.101108	2520.082890
956.401472	2524.728313
956.701798	2524.645134
957.002087	2525.189579
957.302337	2526.212933
957.602550	2527.667306
957.902724	2525.318128
958.202861	2526.137316
958.502960	2529.638397
958.803022	2526.628828
959.103045	2528.191586
959.403031	2527.069929
959.702979	2526.369209
960.002889	2527.463139
960.302762	2525.091276
960.602596	2526.396935
960.902393	2525.928108
961.202153	2527.725279
961.501875	2529.088911
961.801559	2527.987419
962.101205	2525.774353
962.400814	2527.264014
962.700385	2527.465660
962.999918	2530.712163
963.299414	2528.723428
963.598873	2526.585978
963.898293	2526.759898
964.197677	2529.608150
964.497022	2526.613705
964.796331	2526.999353
965.095601	2527.503468
965.394835	2526.233098
965.694030	2526.154960
965.993189	2528.826771
966.292309	2527.279137
966.591393	2526.850639
966.890439	2527.243849
967.189447	2527.531195
967.488419	2526.049096
967.787353	2524.224198
968.086249	2530.654190
968.385108	2527.828623
968.683930	2528.708304
968.982714	2524.125895
969.281462	2525.459281
969.580172	2525.958355
969.878844	2527.626977
970.177480	2529.209899
970.476078	2523.677233
970.774639	2528.801566
971.073162	2525.625639
971.371649	2523.019362
971.670098	2524.012469
971.968510	2523.820906
972.266885	2520.055164
972.565223	2526.008766
972.863524	2528.186545
973.161788	2528.673016
973.460014	2525.239990
973.758204	2526.656555
974.056356	2525.250073
974.354471	2525.799558
974.652550	2529.275434
974.950591	2525.083715
975.248595	2527.173273
975.546563	2527.765608
975.844493	2526.147398
976.142386	2525.277799
976.440243	2526.432223
976.738062	2528.904909
977.035845	2525.449198
977.333590	2526.349044
977.631299	2528.461288
977.928971	2527.319466
978.226606	2525.396266
978.524204	2526.565814
978.821765	2528.703263
979.119290	2527.372398
979.416777	2525.678571
979.714228	2529.784591
980.011642	2523.962058
980.309020	2528.917512
980.606360	2524.761081
980.903664	2526.046575
981.200931	2526.265865
981.498162	2526.802748
981.795356	2526.341482
982.092513	2528.806607
982.389633	2525.779394
982.686717	2527.795855
982.983764	2526.936339
983.280775	2526.016328
983.577749	2527.695032
983.874686	2526.699404
984.171587	2528.471370
984.468451	2526.283509
984.765279	2530.029087
985.062070	2526.172604
985.358824	2526.694363
985.655543	2527.095135
985.952224	2527.816020
986.248869	2526.583458
986.545478	2522.898374
986.842050	2522.510206
987.138586	2521.214629
987.435086	2525.524816
987.731549	2520.713034
988.027975	2526.192768
988.324366	2525.328211
988.620719	2528.426000
988.917037	2525.638242
989.213318	2527.289219
989.509563	2523.500792
989.805772	2525.728982
990.101944	2526.656555
990.398080	2526.459950
990.694180	2526.873324
990.990244	2525.320649
991.286271	2527.405166
991.582262	2526.888448
991.878217	2525.146729
992.174136	2526.636390
992.470019	2526.520443
992.765865	2527.090094
993.061676	2525.272758
993.357450	2525.489527
993.653188	2525.386184
993.948890	2527.195958
994.244556	2525.676050
994.540186	2527.763088
994.835780	2527.059847
995.131337	2528.456247
995.426859	2526.923736
995.722345	2525.587830
996.017795	2525.537418
996.313208	2526.142357
996.608586	2526.790145
996.903928	2527.195958
997.199234	2526.832995
997.494504	2525.870135
997.789738	2525.398787
998.084936	2525.718900
998.380099	2526.860721
998.675225	2523.710000
998.970316	2527.826102
999.265371	2528.257121
999.560390	2528.877183
999.855373	2523.236132
1000.150320	2527.125382
1000.445232	2526.487676
1000.740108	2527.629497
1001.034948	2527.934487
1001.329752	2525.683612
1001.624521	2524.355268
1001.919254	2522.323683
1002.213951	2523.107582
1002.508613	2522.578261
1002.803239	2522.079187
1003.097829	2522.152284
1003.392384	2523.894002
1003.686903	2523.803262
1003.981386	2527.591689
1004.275834	2524.995494
1004.570246	2525.355937
1004.864623	2525.736544
1005.158964	2523.702438
1005.453270	2525.739065
1005.747540	2529.343490
1006.041775	2525.008097
1006.335974	2525.252593
1006.630138	2524.899713
1006.924266	2525.502130
1007.218359	2523.780576
1007.512416	2526.618746
1007.806438	2526.598581
1008.100425	2526.744775
1008.394376	2526.051616
1008.688292	2528.920033
1008.982172	2525.297964
1009.276017	2524.319980
1009.569827	2526.160001
1009.863602	2524.882068
1010.157341	2522.684125
1010.451045	2526.046575
1010.744714	2522.641276
1011.038347	2527.599250
1011.331945	2523.142870
1011.625508	2525.842408
1011.919036	2523.989784
1012.212528	2524.022552
1012.505986	2524.554393
1012.799408	2527.415248
1013.092795	2524.990453
1013.386147	2524.428365
1013.679464	2526.283509
1013.972745	2526.349044
1014.265992	2525.267717
1014.559204	2526.132275
1014.852380	2524.844260
1015.145521	2526.825433
1015.438628	2525.300484
1015.731699	2528.282327
1016.024736	2525.736544
1016.317737	2523.997346
1016.610703	2522.585823
1016.903635	2524.335103
1017.196531	2521.365864
1017.489393	2520.697911
1017.782219	2521.539783
1018.075011	2523.490710
1018.367768	2526.323838
1018.660490	2524.582120
1018.953177	2524.582120
1019.245829	2524.582120
