Dividing Wavelength (nm)	Counts (n)	Blue Motor Position (mm): 0.000000	Red Motor Position (mm): 37.500000	
326.493990	2077.603173
326.888308	2077.603173
327.282561	2077.603173
327.676750	2054.673485
328.070874	2054.388659
328.464933	2063.503066
328.858929	2073.298028
329.252859	2083.566858
329.646726	2100.822728
330.040528	2116.047012
330.434265	2135.566360
330.827938	2156.111582
331.221547	2174.756290
331.615091	2194.129444
332.008571	2215.766076
332.401986	2235.035887
332.795338	2254.451891
333.188625	2276.585077
333.581847	2294.897068
333.975006	2313.014975
334.368100	2330.001143
334.761129	2348.764318
335.154095	2364.265866
335.546996	2392.483724
335.939833	2435.068872
336.332606	2449.867179
336.725315	2458.880762
337.117960	2469.305868
337.510540	2475.244347
337.903056	2489.155411
338.295508	2491.817140
338.687896	2499.378871
339.080220	2506.718791
339.472480	2514.908146
339.864676	2515.923938
340.256807	2517.169103
340.648875	2519.218332
341.040879	2522.555576
341.432818	2522.931142
341.824694	2523.926770
342.216506	2520.841584
342.608253	2522.870648
342.999937	2522.784948
343.391557	2520.992818
343.783113	2520.065246
344.174605	2518.557941
344.566033	2518.787313
344.957397	2517.484175
345.348697	2516.670029
345.739934	2513.657939
346.131106	2512.536283
346.522215	2508.087464
346.913260	2508.546209
347.304241	2508.536127
347.695159	2505.125787
348.086012	2505.264418
348.476802	2501.672596
348.867528	2499.494818
349.258191	2498.688233
349.648789	2499.799807
350.039324	2499.167143
350.429796	2497.795949
350.820203	2498.163953
351.210548	2497.191010
351.600828	2493.452995
351.991045	2495.008191
352.381198	2496.518016
352.771288	2495.151864
353.161314	2494.113386
353.551276	2493.974754
353.941175	2497.743017
354.331010	2496.855774
354.720782	2496.906185
355.110490	2496.391987
355.500135	2498.254694
355.889717	2498.272338
356.279235	2496.719662
356.668689	2499.494818
357.058080	2499.109169
357.447408	2499.646052
357.836672	2498.584889
358.225873	2501.065137
358.615010	2500.498007
359.004084	2503.144613
359.393095	2501.397853
359.782043	2503.189983
360.170927	2505.657628
360.559748	2505.433297
360.948505	2504.528410
361.337199	2509.294821
361.725830	2508.989831
362.114398	2510.139214
362.502903	2510.474451
362.891344	2513.448732
363.279722	2512.740449
363.668037	2513.151303
364.056289	2513.224400
364.444478	2514.305728
364.832603	2512.979904
365.220665	2517.189268
365.608665	2513.252127
365.996601	2517.872344
366.384474	2516.279339
366.772284	2521.282685
367.160031	2520.329907
367.547715	2522.348889
367.935336	2522.769825
368.322893	2523.299146
368.710388	2525.948272
369.097820	2528.463808
369.485189	2522.928621
369.872495	2527.329549
370.259738	2527.450536
370.646918	2531.112935
371.034035	2532.358100
371.421090	2534.699716
371.808081	2539.783719
372.195010	2543.549461
372.581875	2548.890564
372.968678	2552.379042
373.355418	2561.027142
373.742096	2569.060220
374.128710	2577.814184
374.515262	2587.183168
374.901751	2601.822679
375.288177	2618.254320
375.674540	2633.239150
376.060841	2651.863693
376.447079	2672.895387
376.833254	2696.104859
377.219367	2717.625545
377.605417	2748.999166
377.991404	2773.156375
378.377329	2810.886891
378.763191	2837.756241
379.148991	2885.352295
379.534727	2932.471960
379.920402	2978.056593
380.306013	3020.573685
380.691563	3081.879157
381.077049	3136.152219
381.462474	3188.708769
381.847835	3255.279726
382.233134	3322.241372
382.618371	3380.701113
383.003545	3461.122640
383.388657	3535.991337
383.773706	3622.895788
384.158693	3692.438505
384.543618	3780.807411
384.928480	3854.204091
385.313280	3952.458700
385.698017	4053.420408
386.082692	4168.875434
386.467305	4227.589753
386.851856	4346.477805
387.236344	4491.171523
387.620770	4555.534455
388.005133	4668.216846
388.389435	4808.217250
388.773674	4888.737080
389.157851	5013.273745
389.541965	5142.788549
389.926018	5164.311755
390.310008	5332.749308
390.693936	5453.510148
391.077802	5560.952260
391.461606	5691.903793
391.845348	5801.506040
392.229027	5922.511376
392.612645	6135.076669
392.996200	6248.729482
393.379694	6419.874135
393.763125	6630.183512
394.146494	6718.635597
394.529801	6850.839857
394.913047	7086.849036
395.296230	7084.630928
395.679351	7138.586398
396.062410	7390.460088
396.445408	7288.623739
396.828343	7441.753828
397.211217	7570.575474
397.594028	7465.182591
397.976778	7664.998806
398.359466	7828.826223
398.742092	7805.679766
399.124656	7947.560520
399.507158	8133.642111
399.889598	8158.500041
400.271977	8367.201290
400.654294	8398.368223
401.036549	8595.615970
401.418742	8619.054815
401.800874	8915.449456
402.182944	8998.878031
402.564952	9357.853555
402.946898	9194.033699
403.328783	9245.347604
403.710606	9438.368344
404.092367	9693.334782
404.474067	10047.289317
404.855705	9852.932672
405.237282	9807.794180
405.618797	10230.825126
406.000250	10466.103338
406.381642	10823.067441
406.762972	10774.274113
407.144240	10589.909035
407.525447	10843.627787
407.906593	10785.394899
408.287677	11056.369521
408.668700	11189.788698
409.049661	11185.070178
409.430560	11343.889210
409.811399	11317.478605
410.192176	11476.862245
410.572891	11559.859802
410.953545	12027.867923
411.334138	11520.654749
411.714669	12097.955084
412.095139	11450.313009
412.475547	11928.136255
412.855894	11797.162037
413.236180	12104.627052
413.616405	11807.682925
413.996568	12082.670306
414.376670	12062.568705
414.756711	11946.748195
415.136691	12223.721791
415.516609	12393.066751
415.896466	12482.605205
416.276262	12777.111933
416.655997	13222.757495
417.035670	13265.569494
417.415283	13881.621179
417.794834	13963.867604
418.174324	13723.041603
418.553753	13637.183191
418.933121	14118.212612
419.312428	13947.803968
419.691674	13853.695708
420.070859	14325.182224
420.449983	13981.418382
420.829045	14532.356003
421.208047	14280.936017
421.586988	14742.317540
421.965867	14990.531353
422.344686	14981.021216
422.723444	15552.499019
423.102141	14260.824333
423.480777	15451.302897
423.859352	14944.369507
424.237866	16044.336673
424.616319	15766.407779
424.994712	16407.748413
425.373044	16192.934765
425.751314	16897.057929
426.129524	16022.238775
426.507673	17106.437212
426.885762	16831.296077
427.263789	17004.532808
427.641756	17192.404009
428.019662	17256.076303
428.397508	17307.586813
428.775292	17589.513342
429.153016	17569.454590
429.530679	17639.945045
429.908282	17672.513419
430.285824	17411.968944
430.663305	18132.062483
431.040726	17736.263851
431.418086	17576.653358
431.795385	18210.359164
432.172624	18655.717380
432.549802	18211.100214
432.926920	18422.253984
433.303977	18304.467424
433.680974	18562.824038
434.057910	18860.710860
434.434786	18905.594773
434.811601	18835.873095
435.188355	19889.731348
435.565050	19551.243073
435.941683	19509.018368
436.318257	20399.782691
436.694770	20198.174346
437.071222	20804.259670
437.447614	19877.995542
437.823946	19909.840510
438.200218	20086.590926
438.576429	19860.603561
438.952580	20166.233595
439.328670	20142.283073
439.704700	20552.562420
440.080670	20126.315218
440.456580	20744.269939
440.832429	20905.233981
441.208218	19921.667057
441.583947	20367.307578
441.959616	20483.233952
442.335224	20735.982282
442.710773	20873.729290
443.086261	21423.124319
443.461689	20769.150554
443.837057	20924.052609
444.212365	21579.465623
444.587612	21580.420922
444.962800	21171.701812
445.337927	21617.463320
445.712995	20335.346662
446.088002	22228.594839
446.462949	22425.492226
446.837837	22611.203293
447.212664	22627.975212
447.587431	25581.529277
447.962139	28558.585201
448.336786	30866.548940
448.711374	29207.258193
449.085901	25476.925334
449.460369	25491.721121
449.834776	25493.120041
450.209124	28036.351910
450.583412	27520.160441
450.957640	28017.676955
451.331808	26678.887646
451.705917	25284.292764
452.079965	25334.840413
452.453954	25725.391205
452.827883	25636.669418
453.201752	25428.898262
453.575562	25589.156543
453.949311	26716.890384
454.323001	26797.246377
454.696632	26582.031957
455.070202	28181.020422
455.443713	28369.773825
455.817164	28955.744945
456.190556	29511.892599
456.563888	28904.466328
456.937160	29365.053870
457.310373	27651.371593
457.683526	28097.123019
458.056619	28095.129243
458.429653	28072.519668
458.802628	28692.200984
459.175542	28822.965994
459.548398	30201.439266
459.921194	31829.568121
460.293930	32573.778540
460.666607	34668.042726
461.039224	36467.278425
461.411782	36831.058169
461.784280	35520.169126
462.156719	34983.997044
462.529099	34402.953651
462.901419	33053.958526
463.273680	32023.337472
463.645882	32165.107321
464.018024	32157.510302
464.390106	33090.015379
464.762130	36003.146952
465.134094	40348.122493
465.505999	45850.133583
465.877845	50375.718543
466.249631	51383.999724
466.621358	49520.464108
466.993026	47301.131415
467.364634	45154.300597
467.736184	43183.305225
468.107674	41906.995977
468.479105	41119.534978
468.850477	40405.574003
469.221790	38941.688461
469.593043	37186.550256
469.964238	36260.419718
470.335373	36210.247634
470.706449	38065.674554
471.077467	40849.278721
471.448425	45533.249173
471.819324	48286.432496
472.190164	46289.457538
472.560945	42668.250537
472.931667	39490.934776
473.302330	38403.361286
473.672934	37541.951602
474.043479	38075.230062
474.413965	37287.338045
474.784393	36908.447442
475.154761	37852.867286
475.525070	37903.334277
475.895321	37418.372757
476.265513	38055.272133
476.635645	39046.320130
477.005719	38900.850074
477.375734	39410.540975
477.745691	40136.933435
478.115588	41498.667556
478.485427	43627.574552
478.855207	47106.515150
479.224928	49773.920720
479.594591	51329.993843
479.964194	50217.191898
480.333739	50359.269258
480.703226	50425.925915
481.072653	51082.606779
481.442022	51554.496588
481.811333	51760.425202
482.180584	50469.917544
482.549777	49952.049891
482.918912	49417.274209
483.287988	49109.012692
483.657005	48287.329821
484.025964	47591.443903
484.394864	47583.171370
484.763706	47135.408523
485.132489	46250.459172
485.501213	46087.045128
485.869879	46243.678820
486.238487	45823.599470
486.607036	46011.400094
486.975527	45464.296270
487.343959	45672.891655
487.712333	45743.011584
488.080648	45641.197921
488.448905	46084.141424
488.817104	45882.981741
489.185244	46915.468022
489.553326	48669.955919
489.921350	51427.119233
490.289315	54264.646101
490.657222	54792.704446
491.025070	55007.954154
491.392861	54089.090439
491.760593	52817.156912
492.128267	51117.819239
492.495883	49567.775337
492.863440	48138.822470
493.230939	46749.399812
493.598380	45650.423232
493.965763	45327.071022
494.333088	44487.880223
494.700354	43983.656454
495.067563	43692.602916
495.434713	43543.629258
495.801805	43614.477634
496.168839	43207.273391
496.535815	42861.762789
496.902733	42882.890264
497.269593	42458.883856
497.636395	42392.196952
498.003139	42788.902992
498.369825	42220.649007
498.736453	42528.040925
499.103023	42045.836915
499.469535	41915.734817
499.835989	42005.963909
500.202385	41651.185145
500.568723	41680.728827
500.935003	41861.638195
501.301226	41648.835967
501.667390	42269.432253
502.033497	42505.121319
502.399546	41929.290479
502.765537	41225.260577
503.131470	41599.636827
503.497345	41957.495735
503.863163	40583.178894
504.228923	41230.536145
504.594625	41643.227684
504.960269	40888.501418
505.325856	41585.929929
505.691385	40952.829062
506.056856	41079.178021
506.422270	41521.176308
506.787625	41071.999418
507.152924	41279.190841
507.518164	41367.058153
507.883347	40574.800497
508.248472	40803.573099
508.613540	41300.225056
508.978550	41582.312901
509.343503	41349.661131
509.708398	41548.718652
510.073236	42070.107550
510.438016	42063.972466
510.802738	41511.787159
511.167403	42136.673466
511.532010	42363.714433
511.896561	42637.454128
512.261053	43501.328936
512.625488	43030.409549
512.989866	42902.543203
513.354186	42742.484047
513.718449	42731.131369
514.082655	43407.510542
514.446803	43069.904469
514.810894	43608.705513
515.174927	43503.559647
515.538904	43390.592430
515.902822	44070.296244
516.266684	43510.965102
516.630488	43925.496662
516.994235	43784.692194
517.357925	44363.514958
517.721558	44510.918296
518.085133	44809.951981
518.448651	44931.612667
518.812112	44697.032655
519.175516	44796.960927
519.538863	45120.429084
519.902152	45076.785295
520.265385	45532.130037
520.628560	45550.159723
520.991678	45341.957549
521.354739	45577.782726
521.717743	45885.111629
522.080690	45755.448111
522.443580	46303.550083
522.806413	46343.307143
523.169189	46282.495704
523.531908	46442.764067
523.894569	46290.816129
524.257174	46464.007490
524.619722	46734.835918
524.982213	46712.357413
525.344647	46619.975748
525.707025	46671.987853
526.069345	47068.416630
526.431608	46947.151674
526.793815	47266.155890
527.155964	46787.483208
527.518057	46936.338399
527.880093	46731.992707
528.242072	47239.077332
528.603995	46919.937005
528.965860	46904.390087
529.327669	46979.082343
529.689421	46887.814773
530.051117	46812.749472
530.412755	46950.466233
530.774337	47017.843775
531.135862	46809.215623
531.497331	46976.357599
531.858743	46870.488327
532.220098	47185.048765
532.581396	46880.545429
532.942638	46535.672533
533.303824	46821.178281
533.664953	46775.455015
534.026025	46480.726476
534.387040	46934.674818
534.747999	46864.383490
535.108902	47011.502003
535.469748	46489.566140
535.830537	46586.973835
536.191270	46764.104858
536.551947	46397.562561
536.912567	46682.239040
537.273131	46778.426776
537.633638	46262.966274
537.994089	46570.186792
538.354483	46128.264123
538.714821	46687.912858
539.075103	46987.455699
539.435328	46738.538646
539.795497	46577.708194
540.155609	46555.181798
540.515665	46984.748600
540.875665	46393.413692
541.235609	46687.471757
541.595496	46652.276942
541.955328	47277.470759
542.315102	46599.498582
542.674821	46340.048037
543.034483	46338.883531
543.394090	46283.624923
543.753640	46203.994857
544.113134	47166.247782
544.472571	46125.158772
544.831953	47302.510171
545.191278	46492.232910
545.550548	46165.361974
545.909761	46571.956238
546.268918	46715.127527
546.628019	46980.017477
546.987064	46498.168869
547.346053	45709.515638
547.704986	46522.484874
548.063863	46041.654579
548.422684	46157.404513
548.781449	45958.783051
549.140158	46284.572660
549.498811	46067.397231
549.857408	45446.561491
550.215949	46220.726446
550.574434	46075.989878
550.932864	45792.677032
551.291237	46422.594411
551.649555	45976.772409
552.007817	46139.115207
552.366022	45720.429736
552.724173	45814.774930
553.082267	46118.161651
553.440305	46320.017012
553.798288	45565.709162
554.156215	45800.284133
554.514086	45923.832732
554.871902	45598.159070
555.229661	45530.297577
555.587365	45255.247182
555.945014	45273.702846
556.302606	45121.429753
556.660143	45248.081182
557.017625	45235.649697
557.375050	44925.606132
557.732421	45180.736408
558.089735	45064.744499
558.446994	44872.053955
558.804197	45218.711420
559.161345	45048.209514
559.518437	44245.524231
559.875474	44431.328559
560.232455	44500.601575
560.589381	44548.858020
560.946251	44181.632648
561.303065	44705.937853
561.659825	44367.832706
562.016528	43963.234739
562.373177	43575.612858
562.729770	43937.537458
563.086307	43359.511196
563.442789	43659.631249
563.799216	43576.915997
564.155587	43266.020477
564.511904	43143.104544
564.868164	43100.602576
565.224370	43186.960062
565.580520	42823.749968
565.936615	42871.348543
566.292654	42485.216323
566.648638	42586.982095
567.004567	42412.033892
567.360441	42304.995073
567.716260	42035.268136
568.072023	42135.403096
568.427732	41969.705410
568.783385	41425.578387
569.138982	41636.538073
569.494525	41424.761720
569.850013	41077.151477
570.205445	40892.899825
570.560823	40686.061283
570.916145	40417.582032
571.271412	40304.566924
571.626625	39920.143655
571.981782	39762.073235
572.336884	39343.554122
572.691931	39454.363725
573.046923	38945.086199
573.401860	38638.571442
573.756743	38449.886095
574.111570	38369.225113
574.466342	38085.009900
574.821059	37996.764502
575.175722	37425.253932
575.530330	37271.957484
575.884882	36864.841461
576.239380	36657.130799
576.593823	36462.572508
576.948211	36227.347228
577.302544	35666.909552
577.656823	35485.647304
578.011047	35487.391543
578.365216	35103.404334
578.719330	34727.399792
579.073389	34431.226963
579.427394	34305.056964
579.781344	34096.103658
580.135239	33636.839419
580.489080	33494.144518
580.842866	32923.909360
581.196597	33059.420616
581.550273	32823.161900
581.903895	32535.107849
582.257463	32644.387461
582.610975	31991.230363
582.964434	32000.564060
583.317837	31529.039735
583.671186	31217.866952
584.024481	31185.291016
584.377721	30661.772230
584.730906	30659.763330
585.084037	30492.525572
585.437113	30098.813977
585.790135	29912.286243
586.143103	29437.833008
586.496016	29322.650204
586.848874	29147.707042
587.201679	28949.345200
587.554428	28415.872656
587.907124	28325.288163
588.259765	27965.566548
588.612352	27925.779241
588.964884	27332.677409
589.317362	27310.657649
589.669786	27070.272748
590.022155	26745.685455
590.374470	26783.090817
590.726731	26315.901884
591.078937	25821.941904
591.431090	25700.311464
591.783188	25291.380626
592.135232	24910.702934
592.487222	24875.515681
592.839157	24726.244595
593.191038	24338.204298
593.542866	24015.189845
593.894639	23496.346729
594.246358	23468.010403
594.598022	23260.329988
594.949633	22853.546682
595.301190	22643.859887
595.652692	22371.778732
596.004141	22364.612732
596.355535	21657.268271
596.706876	21453.111623
597.058162	21189.958351
597.409395	21252.932444
597.760573	21118.689038
598.111698	20739.599310
598.462768	20553.305990
598.813785	20406.305944
599.164748	19958.548139
599.515657	19969.464758
599.866511	19559.611388
600.217312	19677.697896
600.568060	19020.729686
600.918753	19201.336584
601.269392	19007.264764
601.619978	18694.728349
601.970510	18606.056973
602.320988	18516.069857
602.671412	18476.890009
603.021783	18204.158545
603.372100	17875.107310
603.722363	17743.381960
604.072572	17613.904964
604.422728	17461.243703
604.772830	17210.302626
605.122878	17084.576249
605.472872	16904.322231
605.822813	16846.762337
606.172701	16624.455014
606.522534	16567.905871
606.872314	16503.280799
607.222041	16260.544200
607.571714	16250.867705
607.921333	15897.956689
608.270899	15839.875035
608.620411	15811.231199
608.969870	15594.416213
609.319276	15441.104642
609.668627	15307.085567
610.017926	15329.760677
610.367171	15228.584720
610.716362	15121.508091
611.065500	14952.253872
611.414585	14866.549215
611.763616	14819.404344
612.112594	14648.917562
612.461518	14579.815946
612.810389	14524.706052
613.159207	14351.645761
613.507971	14236.715015
613.856682	14236.657042
614.205340	14062.318818
614.553945	14133.895641
614.902496	13832.306092
615.250994	13844.041898
615.599439	13720.062281
615.947830	13646.589984
616.296169	13538.873129
616.644454	13435.751286
616.992686	13353.507382
617.340864	13369.477757
617.688990	13165.416891
618.037063	13207.414743
618.385082	13063.900655
618.733048	13004.926717
619.080961	12879.124723
619.428821	12756.329777
619.776628	12653.437306
620.124382	12484.959424
620.472083	12388.844785
620.819731	12292.778037
621.167326	12092.437542
621.514868	11959.938374
621.862357	11741.104407
622.209793	11624.305913
622.557176	11436.946389
622.904506	11257.370407
623.251783	11061.113247
623.599007	10902.478217
623.946179	10750.772254
624.293297	10627.473193
624.640363	10403.096476
624.987376	10292.410382
625.334336	10149.902004
625.681243	9976.962700
626.028097	9878.642556
626.374899	9758.075800
626.721647	9659.062498
627.068343	9548.988903
627.414987	9417.928986
627.761577	9291.469121
628.108115	9265.010625
628.454600	9081.779806
628.801032	9034.647538
629.147412	8954.662071
629.493739	8868.901962
629.840014	8722.738747
630.186236	8709.412457
630.532405	8568.444151
630.878521	8529.516361
631.224585	8436.476826
631.570597	8320.517684
631.916556	8277.403216
632.262462	8204.377062
632.608316	8138.655539
632.954117	8046.838483
633.299866	7968.652708
633.645562	7892.178404
633.991206	7749.556600
634.336797	7613.064839
634.682336	7537.949126
635.027823	7431.517765
635.373257	7333.242992
635.718639	7238.567602
636.063968	7152.363871
636.409245	7020.094077
636.754470	6956.136958
637.099642	6864.448452
637.444762	6749.926039
637.789829	6712.243414
638.134845	6619.720597
638.479808	6553.555453
638.824719	6488.552294
639.169577	6395.774899
639.514383	6345.103741
639.859137	6266.688593
640.203839	6237.764973
640.548489	6149.484287
640.893086	6107.015086
641.237632	6033.303335
641.582125	5997.042315
641.926566	5942.219767
642.270955	5897.915586
642.615292	5850.679975
642.959576	5810.149098
643.303809	5766.089413
643.647990	5737.720320
643.992118	5693.597621
644.336195	5651.325025
644.680219	5620.100118
645.024192	5612.142657
645.368112	5616.740189
645.711981	5586.203400
646.055797	5631.677128
646.399562	5593.397127
646.743274	5645.676412
647.086935	5650.664634
647.430544	5614.002843
647.774101	5583.445889
648.117606	5563.939144
648.461059	5549.796187
648.804460	5476.747347
649.147810	5385.366351
649.491108	5319.612061
649.834354	5254.820631
650.177548	5154.012678
650.520690	5087.731587
650.863781	5048.287079
651.206820	5008.378784
651.549807	4943.189103
651.892742	4875.972879
652.235626	4832.596270
652.578458	4795.185868
652.921238	4723.397316
653.263967	4718.494794
653.606644	4672.277496
653.949269	4643.424452
654.291843	4594.923511
654.634365	4592.211370
654.976836	4540.342938
655.319255	4515.348897
655.661622	4488.479547
656.003938	4450.837251
656.346203	4417.827776
656.688416	4409.068771
657.030577	4367.494375
657.372687	4333.501875
657.714746	4327.618848
658.056753	4311.832475
658.398708	4253.279473
658.740612	4238.355137
659.082465	4226.682346
659.424266	4201.496741
659.766016	4187.512580
660.107715	4165.071884
660.449362	4149.373731
660.790958	4130.232470
661.132503	4111.454172
661.473996	4095.393055
661.815438	4079.964604
662.156829	4069.660486
662.498168	4039.310219
662.839456	4019.115357
663.180693	4008.861650
663.521879	4000.821009
663.863013	3977.742607
664.204097	3961.361377
664.545129	3958.815595
664.886110	3942.391516
665.227040	3936.143005
665.567918	3919.539965
665.908746	3908.978748
666.249522	3901.535484
666.590248	3886.981673
666.930922	3873.173953
667.271545	3856.071838
667.612118	3846.483564
667.952639	3820.803926
668.293109	3806.592913
668.633528	3783.683390
668.973896	3764.597581
669.314213	3748.937237
669.654480	3723.721385
669.994695	3712.678738
670.334859	3690.117054
670.674973	3673.778674
671.015035	3663.643434
671.355047	3648.343532
671.695008	3635.319711
672.034918	3619.767752
672.374777	3610.950774
672.714585	3594.768670
673.054342	3586.594439
673.394049	3570.956780
673.733705	3569.751944
674.073310	3551.656722
674.412864	3537.249104
674.752368	3513.646422
675.091820	3509.033766
675.431223	3483.802791
675.770574	3460.868062
676.109875	3443.034980
676.449125	3419.084458
676.788324	3410.663211
677.127473	3385.863254
677.466571	3370.701984
677.805619	3355.386959
678.144616	3347.401771
678.483562	3333.528516
678.822458	3317.737101
679.161303	3307.818631
679.500098	3293.917649
679.838842	3283.452214
680.177535	3279.804939
680.516179	3277.251595
680.854771	3276.606327
681.193314	3292.339768
681.531805	3312.741318
681.870247	3325.203050
682.208638	3336.792663
682.546978	3336.351562
682.885268	3328.154646
683.223508	3308.844506
683.561697	3295.089718
683.899836	3281.927265
684.237925	3267.499483
684.575963	3256.575302
684.913951	3240.330184
685.251889	3237.872622
685.589776	3232.713001
685.927614	3229.489183
686.265401	3221.148594
686.603137	3222.809654
686.940824	3231.699729
687.278460	3234.545460
687.616046	3236.345152
687.953582	3244.451327
688.291068	3237.807087
688.628504	3240.093250
688.965889	3230.941035
689.303224	3217.103068
689.640510	3201.339380
689.977745	3180.975639
690.314930	3157.690549
690.652065	3139.912920
690.989150	3119.849128
691.326185	3099.467743
691.663170	3075.318095
692.000105	3057.409396
692.336990	3040.503887
692.673825	3027.878317
693.010610	3013.533714
693.347345	2996.545025
693.684030	2984.153869
694.020665	2973.441417
694.357251	2954.527008
694.693786	2957.385342
695.030272	2951.469548
695.366707	2940.366407
695.703093	2929.878286
696.039429	2926.079777
696.375716	2920.385793
696.711952	2917.522418
697.048139	2914.878333
697.384276	2907.372055
697.720363	2907.795512
698.056400	2901.783936
698.392388	2897.839233
698.728326	2894.688512
699.064214	2888.871020
699.400053	2882.788868
699.735842	2877.513301
700.071581	2870.939636
700.407270	2862.904037
700.742910	2858.934128
701.078501	2853.431709
701.414042	2845.509535
701.749533	2840.417970
702.084974	2833.335149
702.420366	2832.258862
702.755709	2827.462205
703.091002	2819.716472
703.426246	2821.531287
703.761440	2816.454845
704.096584	2811.789257
704.431679	2810.438228
704.766725	2808.318423
705.101721	2802.339614
705.436668	2807.219451
705.771565	2797.764767
706.106413	2804.565284
706.441212	2803.000006
706.775961	2802.601754
707.110661	2801.651497
707.445311	2806.732980
707.779913	2804.890438
708.114465	2805.631488
708.448967	2807.665593
708.783421	2815.996100
709.117825	2818.977943
709.452180	2822.126143
709.786485	2824.233346
710.120742	2837.247084
710.454949	2837.042917
710.789107	2837.640294
711.123216	2850.865761
711.457275	2850.734691
711.791286	2856.647965
712.125247	2857.144518
712.459159	2858.493027
712.793023	2863.589634
713.126837	2852.221832
713.460602	2853.401462
713.794318	2845.272601
714.127985	2839.351766
714.461602	2827.573110
714.795171	2826.627894
715.128691	2811.264977
715.462162	2802.016981
715.795584	2794.755198
716.128957	2790.913839
716.462281	2785.794547
716.795556	2782.169958
717.128782	2775.518155
717.461960	2769.917433
717.795088	2764.699839
718.128167	2760.190527
718.461198	2753.979826
718.794180	2752.323807
719.127113	2746.171078
719.459997	2742.163361
719.792833	2738.526168
720.125619	2737.704460
720.458357	2733.225395
720.791046	2730.641804
721.123686	2730.185579
721.456278	2726.497975
721.788821	2724.438664
722.121315	2723.032182
722.453761	2720.909856
722.786158	2722.613766
723.118506	2722.190309
723.450805	2715.639330
723.783056	2720.509085
724.115259	2718.379197
724.447412	2716.047663
724.779518	2720.667881
725.111574	2722.281050
725.443582	2722.704507
725.775542	2720.824157
726.107453	2730.011660
726.439315	2726.845815
726.771129	2735.415777
727.102895	2735.425859
727.434612	2736.744121
727.766281	2739.690675
728.097901	2741.218145
728.429473	2740.121694
728.760996	2743.337950
729.092471	2738.997516
729.423897	2742.246540
729.755276	2736.723956
730.086606	2741.918865
730.417887	2748.129567
730.749120	2752.769949
731.080305	2754.836822
731.411442	2761.453336
731.742530	2760.571134
732.073570	2760.009046
732.404562	2764.800662
732.735506	2761.198758
733.066401	2757.773294
733.397249	2753.475710
733.728048	2744.275604
734.058798	2735.156157
734.389501	2724.738613
734.720156	2720.642675
735.050762	2712.846531
735.381320	2705.798998
735.711831	2704.957125
736.042293	2699.303471
736.372707	2701.007381
736.703073	2696.893799
737.033391	2699.845395
737.363661	2699.646269
737.693883	2699.235415
738.024056	2703.535520
738.354182	2703.124666
738.684260	2707.376879
739.014290	2711.619010
739.344272	2714.736963
739.674207	2714.762169
740.004093	2720.592264
740.333931	2718.666543
740.663722	2717.844835
740.993464	2717.166800
741.323159	2718.081769
741.652806	2714.316027
741.982405	2709.766386
742.311956	2707.197918
742.641460	2702.693647
742.970915	2698.209541
743.300323	2694.312729
743.629683	2692.215609
743.958996	2690.456246
744.288260	2683.343178
744.617477	2680.905780
744.946647	2678.639781
745.275768	2675.204235
745.604842	2672.214831
745.933869	2669.865653
746.262847	2668.360869
746.591778	2672.938236
746.920662	2667.148471
747.249498	2674.493432
747.578286	2670.941939
747.907027	2675.201714
748.235720	2676.668690
748.564365	2680.709175
748.892963	2676.000737
749.221514	2677.109791
749.550017	2674.846313
749.878473	2673.986796
750.206881	2672.550067
750.535242	2668.459171
750.863555	2669.031342
751.191821	2667.395488
751.520039	2666.684685
751.848210	2666.460354
752.176334	2667.183759
752.504411	2665.386588
752.832440	2662.162770
753.160421	2663.874242
753.488356	2663.133192
753.816243	2665.038748
754.144082	2662.616474
754.471875	2657.865186
754.799620	2658.901143
755.127318	2659.175886
755.454969	2657.492141
755.782572	2659.145639
756.110129	2657.224960
756.437638	2658.117244
756.765100	2657.262768
757.092515	2658.112203
757.419882	2658.641524
757.747203	2657.343427
758.074477	2656.884682
758.401703	2657.698828
758.728882	2659.586740
759.056014	2662.636638
759.383099	2660.670588
759.710138	2664.811896
760.037129	2663.944818
760.364073	2664.680826
760.690970	2666.785508
761.017820	2666.097391
761.344623	2669.112001
761.671379	2672.915551
761.998088	2678.145748
762.324751	2698.940508
762.651366	2736.660942
762.977935	2787.674898
763.304456	2812.545430
763.630931	2822.743685
763.957359	2809.815646
764.283740	2786.109620
764.610074	2762.194386
764.936362	2737.109604
765.262602	2712.551623
765.588796	2695.207533
765.914943	2681.480472
766.241044	2671.141065
766.567097	2659.997594
766.893104	2650.258085
767.219064	2644.768269
767.544978	2639.616209
767.870845	2636.394912
768.196665	2634.895169
768.522438	2630.660600
768.848165	2628.800414
769.173846	2626.047944
769.499479	2625.327059
769.825066	2622.337655
770.150607	2616.449587
770.476101	2617.798096
770.801548	2617.331789
771.126949	2614.488578
771.452303	2613.918928
771.777611	2609.563371
772.102872	2612.308279
772.428087	2608.986159
772.753256	2605.903493
773.078378	2606.452979
773.403453	2605.074223
773.728482	2601.394181
774.053465	2603.289655
774.378401	2600.219592
774.703291	2598.976948
775.028135	2597.293202
775.352932	2595.309508
775.677683	2595.218767
776.002388	2593.731627
776.327046	2593.734148
776.651658	2593.295567
776.976224	2590.961513
777.300743	2591.294229
777.625216	2589.083683
777.949643	2591.016966
778.274024	2592.362954
778.598359	2585.761563
778.922647	2585.522108
779.246889	2589.265165
779.571086	2585.549834
779.895236	2589.257603
780.219339	2587.238621
780.543397	2589.812130
780.867409	2589.214753
781.191374	2589.749116
781.515294	2591.586616
781.839167	2590.132243
782.162995	2591.977306
782.486776	2591.193406
782.810511	2592.219281
783.134201	2586.442119
783.457844	2591.311873
783.781441	2587.233580
784.104993	2584.072776
784.428498	2585.451532
784.751958	2585.776686
785.075372	2587.624269
785.398739	2586.293405
785.722061	2588.355237
786.045337	2588.103179
786.368568	2589.285329
786.691752	2590.321287
787.014891	2593.194744
787.337983	2599.173553
787.661030	2603.803852
787.984031	2612.590584
788.306987	2616.348764
788.629897	2619.948148
788.952760	2617.876233
789.275579	2614.937241
789.598351	2610.884153
789.921078	2607.526745
790.243759	2601.734459
790.566395	2595.722883
790.888984	2597.394025
791.211529	2592.211719
791.534027	2591.513519
791.856480	2586.495051
792.178888	2589.255082
792.501249	2587.417582
792.823566	2585.428847
793.145836	2583.455235
793.468062	2581.511870
793.790241	2584.110585
794.112375	2584.730647
794.434464	2585.015472
794.756507	2585.544793
795.078505	2587.425144
795.400457	2591.047213
795.722364	2593.953438
796.044226	2598.238419
796.366042	2598.573655
796.687812	2598.946701
797.009538	2603.196393
797.331218	2602.949377
797.652852	2599.508789
797.974442	2596.763881
798.295986	2597.066350
798.617484	2594.470156
798.938938	2594.046699
799.260346	2594.049220
799.581709	2590.485124
799.903026	2587.707448
800.224299	2587.954465
800.545526	2587.319279
800.866708	2582.671336
801.187845	2579.739905
801.508936	2580.279308
801.829983	2584.934814
802.150984	2580.740574
802.471940	2580.145717
802.792851	2577.471385
803.113717	2579.765110
803.434538	2578.711509
803.755314	2579.979359
804.076045	2579.288721
804.396731	2577.541962
804.717372	2578.537589
805.037967	2577.693196
805.358518	2579.346695
805.679024	2579.666808
805.999485	2579.150090
806.319901	2580.150759
806.640272	2581.678228
806.960598	2582.706624
807.280879	2580.848958
807.601115	2584.090420
807.921306	2584.292067
808.241453	2580.947261
808.561554	2579.883577
808.881611	2584.871799
809.201623	2581.375759
809.521590	2578.174626
809.841513	2580.569174
810.161390	2580.876685
810.481223	2576.511046
810.801011	2577.060531
811.120755	2575.149934
811.440453	2579.029102
811.760107	2577.360480
812.079716	2576.954667
812.399281	2571.623647
812.718801	2573.630026
813.038276	2572.878894
813.357707	2574.746642
813.677093	2572.621795
813.996434	2574.358473
814.315731	2574.262691
814.634983	2576.672363
814.954191	2575.674214
815.273354	2576.979873
815.592473	2578.340984
815.911547	2580.460790
816.230577	2581.781572
816.549562	2583.288877
816.868502	2585.317941
817.187399	2587.629310
817.506250	2589.328179
817.825058	2588.698035
818.143821	2594.707090
818.462539	2597.517534
818.781213	2604.454161
819.099843	2613.177878
819.418429	2625.155660
819.736970	2640.556385
820.055466	2657.043478
820.373919	2676.709019
820.692327	2710.865357
821.010691	2767.631270
821.329011	2898.028276
821.647286	3093.612442
821.965517	3308.342911
822.283704	3430.847991
822.601847	3461.225984
822.919945	3370.729711
823.237999	3269.684823
823.556010	3163.508041
823.873976	3066.244018
824.191897	2982.659167
824.509775	2917.436718
824.827609	2855.972450
825.145398	2821.730413
825.463144	2803.267187
825.780845	2808.237764
826.098502	2833.405725
826.416116	2881.868858
826.733685	2931.025149
827.051210	2940.043773
827.368692	2914.419588
827.686129	2863.299767
828.003522	2809.762713
828.320872	2760.084663
828.638177	2725.245249
828.955439	2697.443285
829.272656	2674.770696
829.589830	2652.219094
829.906960	2637.871970
830.224046	2626.776391
830.541088	2617.576285
830.858086	2612.497322
831.175041	2605.069182
831.491952	2605.830396
831.808819	2603.392998
832.125642	2610.783330
832.442421	2623.580299
832.759157	2651.697335
833.075849	2691.320804
833.392497	2731.695405
833.709101	2754.269692
834.025662	2751.066039
834.342179	2731.332442
834.658653	2701.808924
834.975083	2677.273629
835.291469	2660.388284
835.607811	2638.749131
835.924110	2625.178345
836.240366	2610.609410
836.556578	2599.944849
836.872746	2594.071905
837.188871	2586.306007
837.504952	2579.230748
837.820990	2576.445511
838.136984	2569.592062
838.452935	2571.356466
838.768842	2570.600293
839.084706	2578.945923
839.400526	2600.146495
839.716303	2619.297839
840.032037	2633.024901
840.347727	2632.614047
840.663373	2615.930348
840.978977	2604.192021
841.294537	2592.791452
841.610054	2582.691500
841.925527	2574.623133
842.240957	2568.185580
842.556344	2566.426217
842.871687	2559.913047
843.186987	2556.558159
843.502244	2552.898281
843.817458	2552.489948
844.132629	2546.397713
844.447756	2546.427960
844.762840	2543.632640
845.077881	2540.441590
845.392879	2538.951929
845.707833	2541.772454
846.022745	2537.966383
846.337613	2541.094419
846.652438	2540.197094
846.967221	2541.459903
847.281960	2541.202804
847.596656	2539.239275
847.911309	2539.312371
848.225919	2536.827082
848.540485	2537.850437
848.855009	2540.703730
849.169490	2537.978986
849.483928	2539.745911
849.798323	2537.016126
850.112675	2537.895807
850.426984	2537.235416
850.741251	2536.479243
851.055474	2538.707433
851.369654	2538.868750
851.683792	2538.694830
851.997887	2539.589635
852.311938	2538.846065
852.625947	2540.237423
852.939914	2537.091743
853.253837	2538.543595
853.567718	2537.573173
853.881555	2536.779192
854.195350	2534.800539
854.509103	2541.220448
854.822812	2536.103677
855.136479	2541.013761
855.450103	2539.982845
855.763685	2539.244316
856.077224	2536.428831
856.390720	2539.335057
856.704173	2538.636857
857.017584	2542.372352
857.330953	2538.089892
857.644278	2538.964532
857.957561	2540.691127
858.270802	2539.703061
858.584000	2540.250026
858.897155	2540.444110
859.210268	2537.613503
859.523339	2537.842875
859.836367	2538.319264
860.149352	2539.687937
860.462295	2538.324305
860.775195	2534.979500
861.088054	2535.178625
861.400869	2535.707946
861.713642	2532.816845
862.026373	2539.251877
862.339062	2538.208359
862.651708	2537.610982
862.964312	2539.559388
863.276873	2542.634492
863.589392	2541.555685
863.901869	2543.504091
864.214303	2543.312527
864.526696	2542.526107
864.839045	2543.804039
865.151353	2544.265305
865.463619	2546.306972
865.775842	2544.446787
866.088023	2545.427291
866.400162	2544.318237
866.712258	2544.897970
867.024313	2545.568443
867.336325	2544.000644
867.648296	2546.990049
867.960224	2546.037271
868.272110	2545.172713
868.583954	2547.279915
868.895755	2544.598021
869.207515	2546.911911
869.519233	2548.036088
869.830909	2549.911397
870.142542	2548.998948
870.454134	2550.735626
870.765684	2549.072045
871.077191	2549.636654
871.388657	2548.033567
871.700081	2550.024823
872.011463	2550.879299
872.322803	2550.092879
872.634101	2552.812581
872.945357	2554.778631
873.256571	2555.680998
873.567744	2555.706204
873.878874	2554.241748
874.189963	2555.229815
874.501010	2559.323232
874.812015	2560.765002
875.122979	2557.647048
875.433900	2558.398180
875.744780	2558.529250
876.055618	2561.334652
876.366415	2558.299877
876.677169	2558.758622
876.987882	2558.274672
877.298554	2557.581513
877.609183	2563.066288
877.919771	2560.853222
878.230317	2568.276321
878.540822	2575.701940
878.851285	2579.147569
879.161707	2594.649117
879.472087	2607.531786
879.782425	2632.225878
880.092722	2674.798422
880.402977	2742.352404
880.713191	2818.375525
881.023363	2896.594068
881.333494	2937.881118
881.643583	2957.786114
881.953631	2945.952005
882.263637	2926.720003
882.573602	2897.425858
882.883526	2862.712473
883.193408	2834.915551
883.503248	2801.931281
883.813048	2770.678648
884.122806	2745.833321
884.432522	2716.942468
884.742197	2691.020855
885.051831	2674.127949
885.361424	2653.655823
885.670975	2637.350211
885.980485	2624.240690
886.289954	2613.712240
886.599382	2605.505242
886.908768	2602.031887
887.218113	2590.028900
887.527417	2586.817685
887.836680	2576.861406
888.145901	2576.934503
888.455082	2571.893349
888.764221	2569.949984
889.073319	2565.286917
889.382376	2564.503017
889.691392	2563.583007
890.000366	2566.038048
890.309300	2560.981771
890.618193	2565.284396
890.927044	2560.719631
891.235855	2562.816751
891.544625	2565.980075
891.853353	2562.932698
892.162041	2569.899572
892.470687	2575.291086
892.779293	2577.420974
893.087858	2583.306521
893.396381	2594.006370
893.704864	2610.286776
894.013306	2631.421814
894.321707	2659.097748
894.630068	2674.231292
894.938387	2679.436284
895.246665	2671.314985
895.554903	2662.787873
895.863100	2650.011069
896.171256	2640.546302
896.479371	2627.908130
896.787446	2619.897736
897.095480	2613.689555
897.403473	2604.202104
897.711425	2596.431165
898.019336	2592.630135
898.327207	2586.106882
898.635038	2583.258630
898.942827	2575.686817
899.250576	2572.899059
899.558284	2569.808832
899.865952	2566.000240
900.173579	2564.533264
900.481165	2562.123593
900.788711	2559.779456
901.096216	2558.294836
901.403681	2556.452294
901.711105	2556.054043
902.018489	2557.440361
902.325832	2561.264076
902.633135	2559.837429
902.940397	2570.416291
903.247619	2590.412027
903.554800	2622.067953
903.861941	2665.275682
904.169041	2692.417255
904.476101	2703.792618
904.783121	2693.612008
905.090100	2678.473423
905.397039	2658.049188
905.703938	2644.054945
906.010796	2631.900723
906.317614	2618.571913
906.624391	2608.819801
906.931129	2599.856629
907.237826	2593.656010
907.544483	2580.339802
907.851099	2570.461661
908.157675	2566.093501
908.464211	2557.705021
908.770707	2549.792930
909.077163	2547.559699
909.383578	2541.691796
909.689954	2541.583411
909.996289	2536.229706
910.302584	2542.427804
910.608839	2540.247505
910.915054	2539.035108
911.221229	2540.497043
911.527363	2539.970242
911.833458	2540.807073
912.139513	2540.494522
912.445527	2542.846220
912.751502	2542.876467
913.057436	2547.854607
913.363331	2549.026675
913.669186	2555.257541
913.975000	2562.219374
914.280775	2569.876887
914.586510	2586.076635
914.892205	2604.388626
915.197859	2628.129940
915.503475	2652.947541
915.809050	2678.957374
916.114585	2691.802234
916.420081	2697.397915
916.725536	2694.872297
917.030952	2684.812674
917.336328	2674.483350
917.641665	2667.498831
917.946961	2656.315032
918.252218	2644.392703
918.557435	2632.724952
918.862612	2623.166924
919.167750	2616.855400
919.472848	2607.907352
919.777906	2596.053078
920.082925	2591.092583
920.387904	2580.924576
920.692843	2574.418967
920.997743	2570.640622
921.302603	2563.706515
921.607423	2563.623336
921.912204	2559.310629
922.216946	2556.449774
922.521647	2553.288970
922.826310	2547.968032
923.130932	2546.415357
923.435516	2543.120963
923.740059	2542.004347
924.044564	2542.619368
924.349028	2538.306661
924.653454	2536.743903
924.957840	2536.138965
925.262186	2532.282482
925.566493	2531.775846
925.870761	2528.000022
926.174989	2530.966741
926.479178	2530.253418
926.783328	2530.011442
927.087438	2529.729138
927.391509	2527.642100
927.695541	2529.000691
927.999533	2525.000536
928.303486	2526.190248
928.607400	2525.338293
928.911275	2527.319466
929.215110	2524.408200
929.518906	2524.579599
929.822663	2526.447347
930.126381	2523.586492
930.430060	2528.904909
930.733699	2525.003056
931.037299	2527.740403
931.340861	2526.341482
931.644383	2526.850639
931.947866	2529.398942
932.251309	2526.291071
932.554714	2522.933663
932.858080	2530.427338
933.161407	2524.352747
933.464694	2524.146060
933.767943	2524.219157
934.071153	2525.890299
934.374323	2524.667819
934.677455	2523.813344
934.980548	2522.779907
935.283602	2526.245701
935.586617	2523.843591
935.889593	2523.094979
936.192530	2523.271420
936.495428	2522.336286
936.798287	2525.602953
937.101108	2524.211595
937.403890	2527.707635
937.706632	2530.064375
938.009336	2531.639735
938.312002	2532.405991
938.614628	2532.660569
938.917216	2535.160981
939.219765	2533.366330
939.522275	2538.115097
939.824747	2536.282638
940.127179	2532.133768
940.429573	2533.031094
940.731929	2532.126207
941.034246	2531.291896
941.336524	2536.867412
941.638763	2533.376413
941.940964	2536.925385
942.243126	2531.803573
942.545250	2533.973789
942.847335	2531.339787
943.149381	2531.178470
943.451389	2528.231915
943.753359	2528.332738
944.055290	2531.861546
944.357182	2526.762419
944.659036	2529.729138
944.960851	2526.591020
945.262628	2527.397604
945.564367	2529.346010
945.866067	2526.603623
946.167729	2528.577234
946.469352	2527.198479
946.770937	2528.640249
947.072484	2526.069260
947.373992	2525.615556
947.675462	2525.149250
947.976893	2524.897192
948.278286	2526.802748
948.579641	2525.050947
948.880958	2525.519774
949.182236	2529.552698
949.483476	2523.883920
949.784678	2529.716535
950.085841	2525.638242
950.386967	2527.329549
950.688054	2525.197141
950.989103	2525.953314
951.290114	2525.663447
951.591087	2527.566483
951.892021	2528.173942
952.192917	2530.084539
952.493776	2530.883562
952.794596	2530.618902
953.095378	2530.845753
953.396122	2528.874662
953.696828	2529.683767
953.997496	2528.925074
954.298126	2529.245187
954.598718	2527.722759
954.899272	2527.405166
955.199788	2526.401976
955.500266	2525.610515
955.800706	2523.624301
956.101108	2519.984587
956.401472	2519.404855
956.701798	2517.272447
957.002087	2519.404855
957.302337	2521.164218
957.602550	2520.912160
957.902724	2514.812364
958.202861	2518.016017
958.502960	2517.786644
958.803022	2516.382683
959.103045	2515.182888
959.403031	2517.400996
959.702979	2514.774555
960.002889	2513.536952
960.302762	2513.864627
960.602596	2513.902435
960.902393	2514.227590
961.202153	2514.376304
961.501875	2514.005779
961.801559	2513.675583
962.101205	2512.001920
962.400814	2512.460665
962.700385	2510.781961
962.999918	2512.228772
963.299414	2511.018895
963.598873	2513.443690
963.898293	2509.390603
964.197677	2511.064266
964.497022	2511.946468
964.796331	2509.075531
965.095601	2513.045439
965.394835	2512.150634
965.694030	2511.659122
965.993189	2510.471930
966.292309	2508.987310
966.591393	2512.589215
966.890439	2509.877074
967.189447	2510.343381
967.488419	2510.116529
967.787353	2510.482013
968.086249	2509.791374
968.385108	2510.088803
968.683930	2508.578977
968.982714	2513.259688
969.281462	2510.071158
969.580172	2512.722805
969.878844	2511.144924
970.177480	2511.845645
970.476078	2509.340191
970.774639	2510.398833
971.073162	2512.314472
971.371649	2509.453617
971.670098	2507.535458
971.968510	2510.577794
972.266885	2511.187774
972.565223	2511.817918
972.863524	2511.954029
973.161788	2512.846314
973.460014	2512.621982
973.758204	2514.986283
974.056356	2512.458145
974.354471	2513.005110
974.652550	2511.202898
974.950591	2511.530572
975.248595	2514.620800
975.546563	2513.020233
975.844493	2511.717095
976.142386	2514.890502
976.440243	2513.305059
976.738062	2515.132477
977.035845	2513.322703
977.333590	2510.454286
977.631299	2510.807167
977.928971	2510.608041
978.226606	2513.090810
978.524204	2511.369256
978.821765	2511.734739
979.119290	2509.186436
979.416777	2508.780623
979.714228	2512.490912
980.011642	2509.856909
980.309020	2515.427384
980.606360	2513.529390
980.903664	2515.112312
981.200931	2515.487878
981.498162	2515.646675
981.795356	2515.608866
982.092513	2523.200844
982.389633	2522.789990
982.686717	2526.407018
982.983764	2530.339118
983.280775	2530.011443
983.577749	2530.462626
983.874686	2528.867101
984.171587	2528.582275
984.468451	2528.851977
984.765279	2525.255114
985.062070	2523.221008
985.358824	2521.834691
985.655543	2522.051461
985.952224	2519.924094
986.248869	2517.930317
986.545478	2509.214162
986.842050	2511.344050
987.138586	2506.920437
987.435086	2509.080572
987.731549	2505.241733
988.027975	2511.578463
988.324366	2507.734584
988.620719	2508.654594
988.917037	2507.812722
989.213318	2506.940602
989.509563	2503.946157
989.805772	2506.297855
990.101944	2507.885818
990.398080	2507.721981
990.694180	2504.861126
990.990244	2504.518327
991.286271	2508.344563
991.582262	2507.270797
991.878217	2502.524551
992.174136	2506.630571
992.470019	2509.415808
992.765865	2508.677279
993.061676	2506.191991
993.357450	2507.732063
993.653188	2507.147289
993.948890	2506.872546
994.244556	2509.625016
994.540186	2508.523524
994.835780	2512.879081
995.131337	2508.715088
995.426859	2510.585356
995.722345	2514.358660
996.017795	2513.776407
996.313208	2514.686335
996.608586	2518.517612
996.903928	2518.590708
997.199234	2515.203053
997.494504	2517.859741
997.789738	2516.677591
998.084936	2516.796058
998.380099	2513.552075
998.675225	2512.253978
998.970316	2513.486540
999.265371	2512.841272
999.560390	2511.235665
999.855373	2511.311282
1000.150320	2511.207939
1000.445232	2507.706857
1000.740108	2505.617299
1001.034948	2509.486385
1001.329752	2503.157216
1001.624521	2505.839110
1001.919254	2502.131341
1002.213951	2503.686537
1002.508613	2501.879283
1002.803239	2502.592607
1003.097829	2500.976917
1003.392384	2504.828358
1003.686903	2504.432628
1003.981386	2503.379027
1004.275834	2504.543533
1004.570246	2506.597803
1004.864623	2505.334994
1005.158964	2503.308451
1005.453270	2499.320898
1005.747540	2504.621671
1006.041775	2503.351300
1006.335974	2504.755262
1006.630138	2502.978255
1006.924266	2503.981445
1007.218359	2502.390961
1007.512416	2504.926661
1007.806438	2502.864829
1008.100425	2501.864160
1008.394376	2503.159737
1008.688292	2504.293996
1008.982172	2501.231495
1009.276017	2504.498163
1009.569827	2501.594458
1009.863602	2503.724346
1010.157341	2502.201917
1010.451045	2500.818121
1010.744714	2501.186125
1011.038347	2500.041783
1011.331945	2501.874242
1011.625508	2503.527741
1011.919036	2501.599499
1012.212528	2501.665034
1012.505986	2500.122441
1012.799408	2501.319715
1013.092795	2498.209323
1013.386147	2500.175373
1013.679464	2504.178050
1013.972745	2502.698471
1014.265992	2500.077071
1014.559204	2501.755775
1014.852380	2500.999602
1015.145521	2502.491784
1015.438628	2501.715446
1015.731699	2499.804849
1016.024736	2500.460199
1016.317737	2497.526247
1016.610703	2503.494973
1016.903635	2498.955414
1017.196531	2498.615136
1017.489393	2497.425424
1017.782219	2496.981803
1018.075011	2501.554129
1018.367768	2502.005312
1018.660490	2502.486743
1018.953177	2502.486743
1019.245829	2502.486743
