Dividing Wavelength (nm)	Counts (n)	Blue Motor Position (mm): 0.000000	Red Motor Position (mm): 19.500000	
326.493990	2127.230812
326.888308	2127.230812
327.282561	2127.230812
327.676750	2094.987592
328.070874	2093.674371
328.464933	2096.005905
328.858929	2101.659559
329.252859	2112.984511
329.646726	2124.581686
330.040528	2138.134828
330.434265	2154.755512
330.827938	2172.354180
331.221547	2190.877900
331.615091	2209.633513
332.008571	2227.879969
332.401986	2250.358474
332.795338	2265.955804
333.188625	2284.923145
333.581847	2304.409726
333.975006	2323.677016
334.368100	2341.636126
334.761129	2354.985102
335.154095	2375.903369
335.546996	2393.653272
335.939833	2407.110632
336.332606	2424.734506
336.725315	2437.702874
337.117960	2445.932558
337.510540	2454.999073
337.903056	2466.976855
338.295508	2473.111939
338.687896	2479.388176
339.080220	2490.592140
339.472480	2498.761330
339.864676	2499.840137
340.256807	2503.457165
340.648875	2506.277690
341.040879	2512.667353
341.432818	2512.569050
341.824694	2514.570388
342.216506	2512.677435
342.608253	2515.439987
342.999937	2516.251613
343.391557	2514.857734
343.783113	2511.608710
344.174605	2512.125429
344.566033	2510.010665
344.957397	2510.043432
345.348697	2507.399347
345.739934	2507.298524
346.131106	2500.903820
346.522215	2503.467247
346.913260	2499.643532
347.304241	2498.058089
347.695159	2495.005670
348.086012	2493.626915
348.476802	2496.328973
348.867528	2490.269506
349.258191	2492.432161
349.648789	2487.580051
350.039324	2486.657519
350.429796	2488.837818
350.820203	2484.194916
351.210548	2486.571820
351.600828	2484.232724
351.991045	2485.719865
352.381198	2484.295739
352.771288	2485.437560
353.161314	2481.288691
353.551276	2484.202477
353.941175	2482.443115
354.331010	2485.127529
354.720782	2482.662405
355.110490	2480.928248
355.500135	2483.239617
355.889717	2483.239617
356.279235	2486.526449
356.668689	2483.254741
357.058080	2483.479072
357.447408	2482.362456
357.836672	2482.107878
358.225873	2480.749287
358.615010	2482.347333
359.004084	2487.451501
359.393095	2484.610811
359.782043	2487.819505
360.170927	2490.811430
360.559748	2488.195071
360.948505	2488.981491
361.337199	2487.103662
361.725830	2490.813951
362.114398	2491.900319
362.502903	2490.672798
362.891344	2491.461739
363.279722	2493.604229
363.668037	2493.286637
364.056289	2494.466267
364.444478	2494.889724
364.832603	2496.180259
365.220665	2494.090701
365.608665	2493.896616
365.996601	2497.246463
366.384474	2498.544560
366.772284	2498.327791
367.160031	2499.615805
367.547715	2503.134531
367.935336	2506.320540
368.322893	2508.808349
368.710388	2511.540655
369.097820	2518.535256
369.485189	2520.685308
369.872495	2524.093128
370.259738	2534.321629
370.646918	2542.420243
371.034035	2547.819318
371.421090	2555.307952
371.808081	2569.501321
372.195010	2577.564647
372.581875	2589.388673
372.968678	2602.999788
373.355418	2614.271808
373.742096	2632.488018
374.128710	2645.290028
374.515262	2662.094714
374.901751	2678.513752
375.288177	2689.067408
375.674540	2711.228320
376.060841	2731.692884
376.447079	2751.313055
376.833254	2772.122938
377.219367	2783.808333
377.605417	2820.933910
377.991404	2832.019408
378.377329	2851.765607
378.763191	2867.819162
379.148991	2907.190573
379.534727	2932.724018
379.920402	2960.442802
380.306013	2971.074595
380.691563	3020.596370
381.077049	3044.143600
381.462474	3062.435427
381.847835	3099.908844
382.233134	3123.083028
382.618371	3120.922893
383.003545	3188.103830
383.388657	3198.934749
383.773706	3229.968092
384.158693	3248.653129
384.543618	3275.847633
384.928480	3308.158909
385.313280	3351.346474
385.698017	3352.579036
386.082692	3406.194228
386.467305	3409.884353
386.851856	3442.183025
387.236344	3468.684371
387.620770	3495.815861
388.005133	3524.570603
388.389435	3545.950136
388.773674	3561.214750
389.157851	3603.487345
389.541965	3619.253554
389.926018	3583.055549
390.310008	3654.579440
390.693936	3674.184487
391.077802	3713.848285
391.461606	3702.556101
391.845348	3767.085391
392.229027	3769.260648
392.612645	3778.012092
392.996200	3856.487733
393.379694	3897.152201
393.763125	3958.061942
394.146494	3929.433230
394.529801	3986.368021
394.913047	4036.517420
395.296230	4001.292357
395.679351	4057.488620
396.062410	4081.736570
396.445408	4061.324938
396.828343	4095.025051
397.211217	4115.300572
397.594028	4038.954817
397.976778	4102.475877
398.359466	4129.967809
398.742092	4160.393693
399.124656	4080.478802
399.507158	4161.588447
399.889598	4190.544834
400.271977	4246.852002
400.654294	4220.872416
401.036549	4230.339703
401.418742	4197.569682
401.800874	4299.607677
402.182944	4320.682221
402.564952	4383.253022
402.946898	4369.548646
403.328783	4364.736864
403.710606	4279.281745
404.092367	4472.567145
404.474067	4436.941311
404.855705	4443.043627
405.237282	4369.213409
405.618797	4480.063341
406.000250	4510.801776
406.381642	4596.660188
406.762972	4553.333991
407.144240	4564.580806
407.525447	4562.221546
407.906593	4614.548722
408.287677	4652.037263
408.668700	4583.230554
409.049661	4629.906598
409.430560	4672.590047
409.811399	4586.885391
410.192176	4744.464298
410.572891	4679.733362
410.953545	4772.306591
411.334138	4645.917302
411.714669	4702.594995
412.095139	4590.638530
412.475547	4718.265422
412.855894	4692.880692
413.236180	4688.807439
413.616405	4627.275115
413.996568	4695.834808
414.376670	4626.292090
414.756711	4567.996187
415.136691	4585.355401
415.516609	4634.166373
415.896466	4649.786388
416.276262	4664.493954
416.655997	4623.108602
417.035670	4764.734778
417.415283	4815.378209
417.794834	4739.022373
418.174324	4675.150953
418.553753	4570.655396
418.933121	4697.634500
419.312428	4723.523345
419.691674	4643.000995
420.070859	4711.371644
420.449983	4604.045478
420.829045	4660.821474
421.208047	4556.542686
421.586988	4568.462494
421.965867	4533.890261
422.344686	4584.258950
422.723444	4449.468578
423.102141	4281.255357
423.480777	4444.929019
423.859352	4245.886621
424.237866	4362.480948
424.616319	4317.387827
424.994712	4333.640507
425.373044	4214.223134
425.751314	4242.239346
426.129524	4086.578598
426.507673	4143.478101
426.885762	4141.736383
427.263789	4049.760531
427.641756	3949.479378
428.019662	3955.450625
428.397508	3906.783325
428.775292	3831.879341
429.153016	3827.304494
429.530679	3750.941095
429.908282	3736.596492
430.285824	3640.131493
430.663305	3690.129657
431.040726	3548.425342
431.418086	3507.612161
431.795385	3495.402486
432.172624	3454.919500
432.549802	3410.151534
432.926920	3370.298692
433.303977	3330.481138
433.680974	3303.057261
434.057910	3264.938577
434.434786	3226.393914
434.811601	3185.502595
435.188355	3192.580375
435.565050	3135.176756
435.941683	3093.499017
436.318257	3095.812906
436.694770	3054.435115
437.071222	3029.335210
437.447614	2987.927173
437.823946	2945.803291
438.200218	2938.004626
438.576429	2897.327556
438.952580	2879.880122
439.328670	2859.478573
439.704700	2828.170487
440.080670	2808.404122
440.456580	2803.418421
440.832429	2773.834410
441.208218	2745.067066
441.583947	2737.424676
441.959616	2721.996225
442.335224	2706.716488
442.710773	2695.336083
443.086261	2681.309072
443.461689	2661.202430
443.837057	2657.729075
444.212365	2653.660864
444.587612	2637.413225
444.962800	2631.515075
445.337927	2624.525515
445.712995	2602.984665
446.088002	2613.308948
446.462949	2600.766557
446.837837	2597.484766
447.212664	2591.107707
447.587431	2589.161821
447.962139	2594.507965
448.336786	2601.026177
448.711374	2595.138109
449.085901	2581.295101
449.460369	2575.974163
449.834776	2568.987123
450.209124	2570.665828
450.583412	2573.370407
450.957640	2571.815211
451.331808	2565.271793
451.705917	2558.897254
452.079965	2563.477142
452.453954	2559.668551
452.827883	2560.049158
453.201752	2558.713252
453.575562	2555.197047
453.949311	2559.139229
454.323001	2555.086142
454.696632	2554.594629
455.070202	2556.081770
455.443713	2555.789383
455.817164	2553.450287
456.190556	2550.982642
456.563888	2553.467931
456.937160	2553.972047
457.310373	2553.586398
457.683526	2548.643547
458.056619	2553.135215
458.429653	2550.670091
458.802628	2551.632951
459.175542	2551.821995
459.548398	2556.580844
459.921194	2556.288457
460.293930	2555.199568
460.666607	2553.866182
461.039224	2558.241904
461.411782	2558.985474
461.784280	2560.472615
462.156719	2555.156718
462.529099	2560.076884
462.901419	2554.526574
463.273680	2553.417520
463.645882	2555.575134
464.018024	2555.557490
464.390106	2556.543035
464.762130	2557.838612
465.134094	2561.619477
465.505999	2566.433779
465.877845	2569.213975
466.249631	2573.952660
466.621358	2573.738411
466.993026	2570.701116
467.364634	2572.044583
467.736184	2567.941084
468.107674	2568.253636
468.479105	2565.518810
468.850477	2565.738100
469.221790	2563.383881
469.593043	2563.673747
469.964238	2561.831206
470.335373	2562.005125
470.706449	2561.664847
471.077467	2565.007133
471.448425	2569.546692
471.819324	2575.288566
472.190164	2575.694379
472.560945	2569.380333
472.931667	2567.389078
473.302330	2563.605692
473.672934	2560.931360
474.043479	2566.085939
474.413965	2564.467729
474.784393	2560.588561
475.154761	2565.453275
475.525070	2562.405897
475.895321	2560.875907
476.265513	2561.846329
476.635645	2569.826476
477.005719	2567.021073
477.375734	2568.089798
477.745691	2568.513255
478.115588	2569.783626
478.485427	2571.792526
478.855207	2573.667835
479.224928	2579.397106
479.594591	2582.079000
479.964194	2579.717219
480.333739	2581.337950
480.703226	2578.953485
481.072653	2580.289390
481.442022	2580.133115
481.811333	2584.584453
482.180584	2581.521952
482.549777	2580.833835
482.918912	2579.160172
483.287988	2579.384503
483.657005	2579.578588
484.025964	2577.168916
484.394864	2579.359297
484.763706	2580.617065
485.132489	2577.547003
485.501213	2576.460634
485.869879	2574.242526
486.238487	2577.899883
486.607036	2577.680593
486.975527	2576.506004
487.343959	2574.552557
487.712333	2578.789647
488.080648	2576.483319
488.448905	2575.873340
488.817104	2577.012640
489.185244	2576.566498
489.553326	2577.849472
489.921350	2582.830132
490.289315	2583.472879
490.657222	2583.510688
491.025070	2585.607808
491.392861	2588.521595
491.760593	2584.534042
492.128267	2577.839390
492.495883	2577.168916
492.863440	2579.518094
493.230939	2575.525500
493.598380	2574.497105
493.965763	2570.638101
494.333088	2570.333112
494.700354	2570.191959
495.067563	2570.161712
495.434713	2567.777247
495.801805	2575.843093
496.168839	2573.012485
496.535815	2572.127762
496.902733	2572.276476
497.269593	2571.500139
497.636395	2573.791343
498.003139	2569.874367
498.369825	2570.993503
498.736453	2573.146075
499.103023	2572.520972
499.469535	2573.249419
499.835989	2570.963256
500.202385	2572.440314
500.568723	2569.561815
500.935003	2574.285376
501.301226	2572.309244
501.667390	2572.026939
502.033497	2572.483164
502.399546	2572.430232
502.765537	2568.235992
503.131470	2572.226065
503.497345	2570.358317
503.863163	2573.519121
504.228923	2572.246229
504.594625	2572.818400
504.960269	2573.279666
505.325856	2573.665314
505.691385	2572.601631
506.056856	2575.401992
506.422270	2572.851168
506.787625	2573.176322
507.152924	2572.767989
507.518164	2572.735221
507.883347	2571.235478
508.248472	2574.633216
508.613540	2574.756724
508.978550	2572.581466
509.343503	2573.695561
509.708398	2574.547516
510.073236	2577.156313
510.438016	2578.046077
510.802738	2577.718402
511.167403	2575.344018
511.532010	2575.822928
511.896561	2578.187229
512.261053	2578.782085
512.625488	2572.762948
512.989866	2568.268759
513.354186	2573.294789
513.718449	2571.542988
514.082655	2573.640108
514.446803	2574.625654
514.810894	2577.854513
515.174927	2576.395099
515.538904	2576.044739
515.902822	2576.604307
516.266684	2578.887950
516.630488	2574.814697
516.994235	2578.429205
517.357925	2576.563978
517.721558	2576.939544
518.085133	2576.833679
518.448651	2579.956674
518.812112	2578.424163
519.175516	2580.468351
519.538863	2576.745459
519.902152	2578.524987
520.265385	2576.458113
520.628560	2578.746797
520.991678	2577.700758
521.354739	2578.734194
521.717743	2579.311407
522.080690	2581.032961
522.443580	2579.472723
522.806413	2579.704617
523.169189	2578.507343
523.531908	2578.875347
523.894569	2579.881057
524.257174	2577.448700
524.619722	2579.941551
524.982213	2582.951120
525.344647	2579.311407
525.707025	2578.300655
526.069345	2577.549523
526.431608	2579.392065
526.793815	2578.794688
527.155964	2577.375603
527.518057	2578.358628
527.880093	2580.662436
528.242072	2579.273598
528.603995	2579.034143
528.965860	2576.788309
529.327669	2576.707651
529.689421	2578.792168
530.051117	2578.610686
530.412755	2577.857034
530.774337	2579.180337
531.135862	2577.657908
531.497331	2577.917527
531.858743	2577.078175
532.220098	2575.333936
532.581396	2577.524317
532.942638	2574.930644
533.303824	2578.714030
533.664953	2578.824935
534.026025	2576.944585
534.387040	2576.105233
534.747999	2579.553382
535.108902	2578.300655
535.469748	2578.908114
535.830537	2576.899214
536.191270	2578.411561
536.551947	2577.037846
536.912567	2578.724112
537.273131	2578.071283
537.633638	2577.350398
537.994089	2576.526169
538.354483	2577.582291
538.714821	2579.760069
539.075103	2576.054821
539.435328	2576.684965
539.795497	2575.349060
540.155609	2578.509863
540.515665	2576.962229
540.875665	2575.732187
541.235609	2577.408371
541.595496	2580.017168
541.955328	2578.099009
542.315102	2577.821746
542.674821	2578.154462
543.034483	2579.815522
543.394090	2577.501632
543.753640	2579.762590
544.113134	2578.777044
544.472571	2577.642785
544.831953	2578.398958
545.191278	2577.413412
545.550548	2575.555747
545.909761	2576.997517
546.268918	2575.732187
546.628019	2581.806778
546.987064	2576.455593
547.346053	2575.152455
547.704986	2580.223855
548.063863	2578.651015
548.422684	2575.439800
548.781449	2575.651529
549.140158	2576.233782
549.498811	2574.779409
549.857408	2578.915676
550.215949	2576.090109
550.574434	2573.940057
550.932864	2575.129769
551.291237	2571.646332
551.649555	2576.387537
552.007817	2578.938361
552.366022	2576.513566
552.724173	2572.901579
553.082267	2576.168247
553.440305	2577.299986
553.798288	2578.414081
554.156215	2578.814853
554.514086	2577.491550
554.871902	2576.455593
555.229661	2577.224369
555.587365	2577.476427
555.945014	2577.504153
556.302606	2576.322002
556.660143	2575.389389
557.017625	2577.211766
557.375050	2577.446180
557.732421	2577.388206
558.089735	2577.100861
558.446994	2577.468865
558.804197	2577.582291
559.161345	2576.440469
559.518437	2576.526169
559.875474	2575.568350
560.232455	2575.830490
560.589381	2579.162692
560.946251	2578.880388
561.303065	2577.325192
561.659825	2576.712692
562.016528	2576.442990
562.373177	2578.419122
562.729770	2577.695717
563.086307	2576.616910
563.442789	2575.243195
563.799216	2577.935172
564.155587	2576.710171
564.511904	2575.918710
564.868164	2576.029615
565.224370	2576.115315
565.580520	2573.375448
565.936615	2576.942064
566.292654	2574.141703
566.648638	2576.642116
567.004567	2578.535069
567.360441	2573.619944
567.716260	2576.601786
568.072023	2575.580953
568.427732	2569.955025
568.783385	2572.954512
569.138982	2570.421332
569.494525	2572.828483
569.850013	2570.915365
570.205445	2575.359142
570.560823	2573.967783
570.916145	2572.609192
571.271412	2575.076837
571.626625	2577.327712
571.981782	2570.829665
572.336884	2572.722618
572.691931	2576.836200
573.046923	2573.125911
573.401860	2571.681620
573.756743	2570.756568
574.111570	2572.160530
574.466342	2573.519121
574.821059	2573.015005
575.175722	2570.990982
575.530330	2570.771692
575.884882	2572.929306
576.239380	2571.411918
576.593823	2575.528021
576.948211	2570.880077
577.302544	2573.630026
577.656823	2569.639953
578.011047	2573.435942
578.365216	2570.096177
578.719330	2571.114490
579.073389	2570.040725
579.427394	2570.819583
579.781344	2572.163050
580.135239	2570.766651
580.489080	2572.694892
580.842866	2573.153637
581.196597	2570.466702
581.550273	2570.302865
581.903895	2571.414439
582.257463	2570.204562
582.610975	2568.367062
582.964434	2570.176836
583.317837	2568.735066
583.671186	2569.113152
584.024481	2568.656928
584.377721	2566.832030
584.730906	2570.179356
585.084037	2569.143399
585.437113	2570.333112
585.790135	2568.876218
586.143103	2568.992165
586.496016	2568.772874
586.848874	2565.067626
587.201679	2567.976372
587.554428	2564.455126
587.907124	2566.073337
588.259765	2564.127451
588.612352	2566.685837
588.964884	2569.710529
589.317362	2567.416804
589.669786	2566.884962
590.022155	2569.274469
590.374470	2567.938563
590.726731	2567.179870
591.078937	2566.993347
591.431090	2569.455951
591.783188	2567.053841
592.135232	2566.590055
592.487222	2569.100549
592.839157	2569.246743
593.191038	2569.589541
593.542866	2567.870508
593.894639	2569.607185
594.246358	2567.512586
594.598022	2568.122566
594.949633	2569.171126
595.301190	2566.196845
595.652692	2564.921433
596.004141	2565.269272
596.355535	2566.484191
596.706876	2566.292627
597.058162	2565.002091
597.409395	2567.265569
597.760573	2567.018553
598.111698	2564.825651
598.462768	2565.783470
598.813785	2564.538305
599.164748	2564.545867
599.515657	2564.681978
599.866511	2563.381360
600.217312	2565.264231
600.568060	2567.268090
600.918753	2569.239181
601.269392	2565.982596
601.619978	2564.306412
601.970510	2566.753892
602.320988	2565.977555
602.671412	2565.607030
603.021783	2564.702143
603.372100	2563.174673
603.722363	2562.494117
604.072572	2564.772719
604.422728	2568.528378
604.772830	2559.575289
605.122878	2562.443706
605.472872	2560.371792
605.822813	2561.833726
606.172701	2565.009653
606.522534	2563.149467
606.872314	2566.252298
607.222041	2566.247256
607.571714	2562.471432
607.921333	2565.697771
608.270899	2562.746175
608.620411	2565.312122
608.969870	2565.516289
609.319276	2565.067626
609.668627	2565.569221
610.017926	2569.027453
610.367171	2571.996692
610.716362	2573.297310
611.065500	2570.040725
611.414585	2568.964438
611.763616	2568.321691
612.112594	2564.883624
612.461518	2568.145251
612.810389	2568.155333
613.159207	2564.797925
613.507971	2565.796073
613.856682	2567.988975
614.205340	2563.865311
614.553945	2563.363716
614.902496	2563.419169
615.250994	2567.502504
615.599439	2563.588048
615.947830	2564.684499
616.296169	2564.719787
616.644454	2564.802966
616.992686	2565.042421
617.340864	2566.274983
617.688990	2563.988819
618.037063	2567.421845
618.385082	2566.355641
618.733048	2565.291958
619.080961	2565.128120
619.428821	2565.352452
619.776628	2564.137533
620.124382	2567.305899
620.472083	2566.653069
620.819731	2566.159036
621.167326	2562.035372
621.514868	2565.458316
621.862357	2562.398335
622.209793	2563.640980
622.557176	2562.204251
622.904506	2561.256514
623.251783	2560.465053
623.599007	2560.497820
623.946179	2556.883313
624.293297	2560.049158
624.640363	2561.475804
624.987376	2562.325239
625.334336	2561.674930
625.681243	2562.121072
626.028097	2561.062430
626.374899	2561.301884
626.721647	2559.534960
627.068343	2561.984961
627.414987	2559.857594
627.761577	2559.711400
628.108115	2561.148129
628.454600	2561.082594
628.801032	2560.959086
629.147412	2561.153170
629.493739	2559.358520
629.840014	2558.468756
630.186236	2559.799621
630.532405	2557.556307
630.878521	2560.260886
631.224585	2559.870197
631.570597	2558.982954
631.916556	2558.922460
632.262462	2560.185269
632.608316	2556.790052
632.954117	2559.008159
633.299866	2560.739796
633.645562	2556.905998
633.991206	2558.778787
634.336797	2555.280226
634.682336	2556.464897
635.027823	2558.211657
635.373257	2557.689898
635.718639	2556.676626
636.063968	2558.541853
636.409245	2557.626883
636.754470	2557.397511
637.099642	2558.864487
637.444762	2559.484548
637.789829	2553.135215
638.134845	2558.100752
638.479808	2556.275854
638.824719	2555.789383
639.169577	2555.481872
639.514383	2554.849208
639.859137	2554.340051
640.203839	2555.098745
640.548489	2554.977757
640.893086	2552.704197
641.237632	2548.121788
641.582125	2552.474824
641.926566	2549.311500
642.270955	2554.244269
642.615292	2553.140256
642.959576	2554.201419
643.303809	2555.234856
643.647990	2554.309804
643.992118	2553.614125
644.336195	2552.144628
644.680219	2551.968188
645.024192	2553.553631
645.368112	2555.766697
645.711981	2554.400545
646.055797	2555.892726
646.399562	2556.674105
646.743274	2556.321224
647.086935	2558.042778
647.430544	2556.210319
647.774101	2554.902140
648.117606	2555.675957
648.461059	2556.452294
648.804460	2558.748540
649.147810	2553.961964
649.491108	2558.067984
649.834354	2554.360216
650.177548	2555.885165
650.520690	2554.871893
650.863781	2553.442726
651.206820	2556.500185
651.549807	2554.466080
651.892742	2552.295863
652.235626	2551.925338
652.578458	2552.744526
652.921238	2553.130174
653.263967	2553.790565
653.606644	2552.295863
653.949269	2554.307283
654.291843	2554.650082
654.634365	2554.934907
654.976836	2551.544731
655.319255	2551.809392
655.661622	2552.333672
656.003938	2553.339382
656.346203	2550.501212
656.688416	2555.663354
657.030577	2550.044988
657.372687	2553.488096
657.714746	2548.210008
658.056753	2551.862324
658.398708	2547.153886
658.740612	2550.254196
659.082465	2548.325954
659.424266	2550.977601
659.766016	2548.149514
660.107715	2552.837787
660.449362	2550.468445
660.790958	2551.635472
661.132503	2551.569937
661.473996	2552.363919
661.815438	2551.658157
662.156829	2551.985832
662.498168	2550.717982
662.839456	2552.721841
663.180693	2547.864689
663.521879	2552.215205
663.863013	2549.934082
664.204097	2551.239741
664.545129	2552.807540
664.886110	2550.871737
665.227040	2553.341903
665.567918	2551.602704
665.908746	2551.859803
666.249522	2554.395504
666.590248	2555.554969
666.930922	2551.350647
667.271545	2554.818961
667.612118	2555.174362
667.952639	2552.926007
668.293109	2549.187992
668.633528	2552.631100
668.973896	2553.712427
669.314213	2553.447767
669.654480	2552.071532
669.994695	2550.755791
670.334859	2550.884340
670.674973	2552.868034
671.015035	2553.062118
671.355047	2553.384752
671.695008	2551.446429
672.034918	2551.396017
672.374777	2552.326110
672.714585	2550.440718
673.054342	2549.669422
673.394049	2551.322920
673.733705	2550.647406
674.073310	2552.663867
674.412864	2553.853580
674.752368	2550.249155
675.091820	2552.222766
675.431223	2553.296532
675.770574	2551.252344
676.109875	2544.807229
676.449125	2548.837632
676.788324	2548.605738
677.127473	2545.495347
677.466571	2548.411654
677.805619	2548.946016
678.144616	2549.679504
678.483562	2552.812581
678.822458	2547.743701
679.161303	2552.472303
679.500098	2552.469783
679.838842	2549.407282
680.177535	2550.947354
680.516179	2550.760832
680.854771	2549.790410
681.193314	2549.266130
681.531805	2553.863662
681.870247	2549.281253
682.208638	2552.487427
682.546978	2555.882644
682.885268	2552.494989
683.223508	2550.712941
683.561697	2549.644216
683.899836	2551.506923
684.237925	2549.805533
684.575963	2550.599515
684.913951	2553.508261
685.251889	2552.943651
685.589776	2551.075904
685.927614	2555.985988
686.265401	2550.770914
686.603137	2551.196892
686.940824	2551.438867
687.278460	2550.496171
687.616046	2552.817622
687.953582	2551.126315
688.291068	2554.292160
688.628504	2551.723692
688.965889	2552.999104
689.303224	2551.897612
689.640510	2551.459032
689.977745	2548.497354
690.314930	2550.932231
690.652065	2551.292673
690.989150	2551.179248
691.326185	2549.568599
691.663170	2548.172199
692.000105	2552.555483
692.336990	2550.566747
692.673825	2549.797971
693.010610	2547.075748
693.347345	2544.333361
693.684030	2543.332692
694.020665	2546.281767
694.357251	2543.660367
694.693786	2549.077086
695.030272	2547.196736
695.366707	2546.901828
695.703093	2547.426108
696.039429	2548.767055
696.375716	2546.949719
696.711952	2547.325285
697.048139	2547.726057
697.384276	2545.303783
697.720363	2548.835111
698.056400	2548.504915
698.392388	2547.416026
698.728326	2548.578012
699.064214	2544.895449
699.400053	2545.031560
699.735842	2545.747404
700.071581	2545.765048
700.407270	2545.807898
700.742910	2547.146324
701.078501	2546.652291
701.414042	2546.410316
701.749533	2542.654656
702.084974	2545.291180
702.420366	2544.217414
702.755709	2545.893598
703.091002	2545.371838
703.426246	2542.957126
703.761440	2546.057435
704.096584	2544.880326
704.431679	2543.713299
704.766725	2548.220090
705.101721	2541.565767
705.436668	2544.746735
705.771565	2544.734132
706.106413	2544.885367
706.441212	2542.687424
706.775961	2545.878474
707.110661	2545.538196
707.445311	2545.855789
707.779913	2542.732794
708.114465	2547.877292
708.448967	2546.523742
708.783421	2545.886036
709.117825	2547.708413
709.452180	2547.436191
709.786485	2544.144317
710.120742	2547.645399
710.454949	2547.678166
710.789107	2544.562733
711.123216	2542.453010
711.457275	2544.600542
711.791286	2542.117773
712.125247	2546.609442
712.459159	2543.919986
712.793023	2548.242775
713.126837	2548.315872
713.460602	2545.649102
713.794318	2544.938299
714.127985	2545.313865
714.461602	2546.858979
714.795171	2545.714637
715.128691	2545.661705
715.462162	2546.846376
715.795584	2543.945192
716.128957	2544.308155
716.462281	2544.207332
716.795556	2546.382590
717.128782	2545.437373
717.461960	2544.141797
717.795088	2540.963349
718.128167	2542.092568
718.461198	2544.673638
718.794180	2547.252189
719.127113	2543.463762
719.459997	2545.109698
719.792833	2545.031560
720.125619	2541.981662
720.458357	2541.500232
720.791046	2544.204811
721.123686	2544.338402
721.456278	2544.197249
721.788821	2543.715819
722.121315	2543.337733
722.453761	2543.307486
722.786158	2541.651467
723.118506	2542.692465
723.450805	2542.145500
723.783056	2544.857641
724.115259	2542.019471
724.447412	2540.640715
724.779518	2542.203473
725.111574	2545.480223
725.443582	2544.363607
725.775542	2541.832948
726.107453	2542.453010
726.439315	2543.796478
726.771129	2546.158258
727.102895	2541.343956
727.434612	2544.466951
727.766281	2543.746066
728.097901	2539.798843
728.429473	2539.947557
728.760996	2541.835469
729.092471	2539.214069
729.423897	2544.040974
729.755276	2543.229348
730.086606	2545.023999
730.417887	2544.376210
730.749120	2545.311344
731.080305	2545.954092
731.411442	2544.908052
731.742530	2544.449307
732.073570	2545.780172
732.404562	2543.360418
732.735506	2547.368135
733.066401	2545.976777
733.397249	2546.314534
733.728048	2543.980480
734.058798	2542.440407
734.389501	2544.487116
734.720156	2547.627755
735.050762	2541.601055
735.381320	2543.834286
735.711831	2542.175747
736.042293	2544.663556
736.372707	2541.684234
736.703073	2544.482075
737.033391	2542.770603
737.363661	2541.933771
737.693883	2542.211035
738.024056	2545.157589
738.354182	2544.333361
738.684260	2542.972249
739.014290	2541.951415
739.344272	2544.212373
739.674207	2545.066848
740.004093	2542.374872
740.333931	2545.364277
740.663722	2543.050387
740.993464	2542.455531
741.323159	2544.338402
741.652806	2542.639533
741.982405	2543.844369
742.311956	2542.200953
742.641460	2543.183978
742.970915	2541.787578
743.300323	2541.606096
743.629683	2538.687268
743.958996	2541.066693
744.288260	2543.541899
744.617477	2539.292207
744.946647	2540.789429
745.275768	2536.328008
745.604842	2536.436393
745.933869	2539.768596
746.262847	2537.696682
746.591778	2541.406971
746.920662	2539.937474
747.249498	2541.215407
747.578286	2539.887063
747.907027	2538.594007
748.235720	2543.781354
748.564365	2541.565767
748.892963	2541.853113
749.221514	2542.337064
749.550017	2538.674665
749.878473	2539.884542
750.206881	2543.710778
750.535242	2538.079809
750.863555	2540.716333
751.191821	2541.875798
751.520039	2539.183822
751.848210	2545.717157
752.176334	2539.718184
752.504411	2543.166333
752.832440	2540.350849
753.160421	2541.822866
753.488356	2541.162475
753.816243	2541.568288
754.144082	2541.933771
754.471875	2540.872608
754.799620	2539.735828
755.127318	2539.821528
755.454969	2538.417567
755.782572	2538.624254
756.110129	2542.095088
756.437638	2541.631302
756.765100	2540.824717
757.092515	2539.806404
757.419882	2539.065355
757.747203	2542.626930
758.074477	2540.267670
758.401703	2541.059131
758.728882	2541.598535
759.056014	2541.785057
759.383099	2542.500901
759.710138	2541.603576
760.037129	2541.742208
760.364073	2539.498894
760.690970	2540.003009
761.017820	2542.256405
761.344623	2543.146169
761.671379	2540.345808
761.998088	2536.932947
762.324751	2541.059131
762.651366	2541.492670
762.977935	2544.237579
763.304456	2543.458720
763.630931	2551.552293
763.957359	2549.268650
764.283740	2550.415513
764.610074	2546.100285
764.936362	2545.719678
765.262602	2544.449307
765.588796	2540.945705
765.914943	2543.302445
766.241044	2540.791950
766.567097	2539.239275
766.893104	2540.257588
767.219064	2539.009902
767.544978	2541.888401
767.870845	2537.890766
768.196665	2542.238761
768.522438	2538.571322
768.848165	2539.380427
769.173846	2537.626105
769.499479	2536.597710
769.825066	2541.389327
770.150607	2539.526620
770.476101	2536.123842
770.801548	2542.543751
771.126949	2538.674665
771.452303	2539.955118
771.777611	2535.546629
772.102872	2538.588966
772.428087	2537.442103
772.753256	2539.221631
773.078378	2538.031918
773.403453	2539.665252
773.728482	2534.543440
774.053465	2539.178781
774.378401	2536.690971
774.703291	2534.558563
775.028135	2536.443955
775.352932	2538.314223
775.677683	2536.925385
776.002388	2539.962680
776.327046	2536.572504
776.651658	2537.694161
776.976224	2538.268853
777.300743	2536.567463
777.625216	2537.600900
777.949643	2539.698020
778.274024	2539.057793
778.598359	2533.628470
778.922647	2534.888759
779.246889	2534.379602
779.571086	2533.520086
779.895236	2537.898328
780.219339	2535.889428
780.543397	2538.155427
780.867409	2535.241640
781.191374	2539.327495
781.515294	2537.293389
781.839167	2533.401618
782.162995	2538.707433
782.486776	2537.671476
782.810511	2535.934798
783.134201	2539.975283
783.457844	2537.673996
783.781441	2538.082330
784.104993	2533.567977
784.428498	2537.152237
784.751958	2533.141999
785.075372	2536.181815
785.398739	2535.438245
785.722061	2538.518390
786.045337	2536.159130
786.368568	2538.019315
786.691752	2536.267514
787.014891	2538.165509
787.337983	2538.319264
787.661030	2536.025539
787.984031	2539.854295
788.306987	2539.980324
788.629897	2538.024357
788.952760	2541.659028
789.275579	2534.540919
789.598351	2536.557381
789.921078	2536.731301
790.243759	2535.743234
790.566395	2533.182328
790.888984	2537.333718
791.211529	2535.105528
791.534027	2536.065868
791.856480	2536.320447
792.178888	2537.245498
792.501249	2536.517052
792.823566	2536.070909
793.145836	2536.333049
793.468062	2539.098122
793.790241	2537.789943
794.112375	2539.566950
794.434464	2535.854140
794.756507	2535.508821
795.078505	2537.863040
795.400457	2536.474202
795.722364	2532.622760
796.044226	2535.776002
796.366042	2533.366330
796.687812	2532.524458
797.009538	2536.701054
797.331218	2540.365972
797.652852	2536.832124
797.974442	2535.682741
798.295986	2534.598893
798.617484	2536.774150
798.938938	2537.691640
799.260346	2534.664428
799.581709	2536.882535
799.903026	2536.963194
800.224299	2536.764068
800.545526	2537.953780
800.866708	2534.238450
801.187845	2537.351362
801.508936	2532.703419
801.829983	2536.791794
802.150984	2533.976310
802.471940	2536.149047
802.792851	2536.116280
803.113717	2536.632998
803.434538	2533.535209
803.755314	2536.050745
804.076045	2532.819365
804.396731	2535.012267
804.717372	2536.166691
805.037967	2536.960673
805.358518	2533.638553
805.679024	2536.242309
805.999485	2536.287679
806.319901	2538.835982
806.640272	2536.761547
806.960598	2536.569984
807.280879	2535.657535
807.601115	2535.934798
807.921306	2534.805580
808.241453	2533.550333
808.561554	2535.581918
808.881611	2534.256094
809.201623	2537.154758
809.521590	2535.712987
809.841513	2534.556043
810.161390	2537.389171
810.481223	2533.247863
810.801011	2535.781043
811.120755	2534.447658
811.440453	2534.742565
811.760107	2534.490508
812.079716	2534.997144
812.399281	2532.224509
812.718801	2532.973120
813.038276	2531.841381
813.357707	2534.747607
813.677093	2533.628470
813.996434	2535.367668
814.315731	2535.052596
814.634983	2536.118800
814.954191	2535.367668
815.273354	2538.256250
815.592473	2536.612833
815.911547	2535.362627
816.230577	2536.854809
816.549562	2537.787422
816.868502	2534.694674
817.187399	2535.365148
817.506250	2535.337422
817.825058	2534.319108
818.143821	2541.086857
818.462539	2537.371527
818.781213	2536.048224
819.099843	2535.992772
819.418429	2538.505787
819.736970	2542.102650
820.055466	2540.791950
820.373919	2541.651467
820.692327	2542.188350
821.010691	2548.472148
821.329011	2553.341902
821.647286	2567.484860
821.965517	2585.491861
822.283704	2593.913109
822.601847	2600.378388
822.919945	2589.872624
823.237999	2581.479103
823.556010	2571.900910
823.873976	2564.336659
824.191897	2556.981616
824.509775	2555.653272
824.827609	2547.438711
825.145398	2547.456355
825.463144	2545.422250
825.780845	2549.407282
826.098502	2549.440049
826.416116	2553.112530
826.733685	2560.603685
827.051210	2557.689898
827.368692	2556.772408
827.686129	2555.028168
828.003522	2552.847869
828.320872	2541.074255
828.638177	2541.996786
828.955439	2539.680376
829.272656	2536.280117
829.589830	2534.142668
829.906960	2538.800694
830.224046	2537.855478
830.541088	2538.558719
830.858086	2534.271218
831.175041	2538.646939
831.491952	2537.701723
831.808819	2539.047711
832.125642	2535.123173
832.442421	2537.300951
832.759157	2539.357742
833.075849	2544.504760
833.392497	2544.721529
833.709101	2548.998948
834.025662	2548.552806
834.342179	2547.269833
834.658653	2544.300593
834.975083	2542.720191
835.291469	2541.895963
835.607811	2537.086702
835.924110	2539.037628
836.240366	2536.285158
836.556578	2536.895138
836.872746	2536.101156
837.188871	2537.658873
837.504952	2534.752648
837.820990	2536.065868
838.136984	2533.245343
838.452935	2534.460261
838.768842	2534.225847
839.084706	2536.491846
839.400526	2535.284489
839.716303	2535.798687
840.032037	2540.912938
840.347727	2538.583925
840.663373	2541.989224
840.978977	2538.725077
841.294537	2536.872453
841.610054	2533.935981
841.925527	2536.864891
842.240957	2533.371372
842.556344	2534.828265
842.871687	2535.844058
843.186987	2532.080836
843.502244	2531.491021
843.817458	2532.249715
844.132629	2532.552184
844.447756	2532.232071
844.762840	2529.106555
845.077881	2532.814324
845.392879	2529.630835
845.707833	2531.233922
846.022745	2528.436082
846.337613	2534.049407
846.652438	2531.112935
846.967221	2534.465302
847.281960	2533.610826
847.596656	2534.288862
847.911309	2531.889272
848.225919	2532.562266
848.540485	2531.659900
848.855009	2532.589993
849.169490	2531.906916
849.483928	2534.692154
849.798323	2533.227699
850.112675	2533.562935
850.426984	2533.033614
850.741251	2533.396577
851.055474	2530.626463
851.369654	2531.319622
851.683792	2532.063192
851.997887	2529.756864
852.311938	2531.304498
852.625947	2533.265507
852.939914	2533.515044
853.253837	2533.731814
853.567718	2532.826927
853.881555	2531.410363
854.195350	2531.617050
854.509103	2532.670651
854.822812	2532.716022
855.136479	2532.297606
855.450103	2533.872966
855.763685	2532.332894
856.077224	2532.630322
856.390720	2532.476567
856.704173	2533.212575
857.017584	2532.829447
857.330953	2531.551515
857.644278	2533.197452
857.957561	2534.079654
858.270802	2535.695343
858.584000	2530.828109
858.897155	2535.193749
859.210268	2535.438245
859.523339	2531.770805
859.836367	2531.347348
860.149352	2531.160826
860.462295	2534.646783
860.775195	2530.722245
861.088054	2527.652183
861.400869	2529.252749
861.713642	2529.111597
862.026373	2528.163860
862.339062	2531.841381
862.651708	2531.536392
862.964312	2528.723428
863.276873	2532.806762
863.589392	2530.888603
863.901869	2530.691998
864.214303	2530.717204
864.526696	2531.037317
864.839045	2532.640404
865.151353	2533.562935
865.463619	2532.655528
865.775842	2531.657379
866.088023	2531.395239
866.400162	2530.679395
866.712258	2536.305323
867.024313	2534.140147
867.336325	2534.750127
867.648296	2532.952956
867.960224	2532.317770
868.272110	2533.840199
868.583954	2530.989426
868.895755	2535.773481
869.207515	2532.350538
869.519233	2534.823224
869.830909	2533.583100
870.142542	2532.542102
870.454134	2532.562266
870.765684	2529.769467
871.077191	2531.397760
871.388657	2534.145189
871.700081	2533.726773
872.011463	2531.130579
872.322803	2531.496062
872.634101	2533.910775
872.945357	2534.097298
873.256571	2535.292051
873.567744	2529.640918
873.878874	2533.751979
874.189963	2533.046217
874.501010	2533.225178
874.812015	2533.313398
875.122979	2532.219468
875.433900	2534.054448
875.744780	2536.776671
876.055618	2532.567308
876.366415	2532.592513
876.677169	2534.800539
876.987882	2532.494211
877.298554	2531.916999
877.609183	2532.552184
877.919771	2531.506145
878.230317	2532.534540
878.540822	2537.933616
878.851285	2536.512010
879.161707	2537.628626
879.472087	2536.448996
879.782425	2537.174922
880.092722	2540.136600
880.402977	2545.570964
880.713191	2551.890050
881.023363	2560.797769
881.333494	2570.191959
881.643583	2568.321691
881.953631	2569.924778
882.263637	2565.914540
882.573602	2563.366237
882.883526	2559.333314
883.193408	2554.821481
883.503248	2551.302756
883.813048	2546.233876
884.122806	2546.700182
884.432522	2544.638350
884.742197	2539.193904
885.051831	2539.801363
885.361424	2538.586445
885.670975	2538.967052
885.980485	2536.907741
886.289954	2535.839016
886.599382	2535.975127
886.908768	2536.897659
887.218113	2534.246012
887.527417	2535.947401
887.836680	2535.244160
888.145901	2531.853984
888.455082	2534.346835
888.764221	2529.567821
889.073319	2536.418749
889.382376	2532.368182
889.691392	2531.450692
890.000366	2534.402288
890.309300	2534.959335
890.618193	2534.931609
890.927044	2532.947915
891.235855	2534.354397
891.544625	2534.109901
891.853353	2532.950435
892.162041	2534.871115
892.470687	2534.561084
892.779293	2534.868594
893.087858	2530.825589
893.396381	2532.214427
893.704864	2535.488656
894.013306	2532.171577
894.321707	2542.286652
894.630068	2545.344112
894.938387	2544.545089
895.246665	2544.771941
895.554903	2540.166847
895.863100	2537.169881
896.171256	2538.692309
896.479371	2536.701054
896.787446	2535.039993
897.095480	2539.098122
897.403473	2534.684592
897.711425	2534.866074
898.019336	2535.246681
898.327207	2532.988244
898.635038	2535.975128
898.942827	2534.528316
899.250576	2534.387164
899.558284	2533.590662
899.865952	2536.373379
900.173579	2532.859694
900.481165	2531.637215
900.788711	2532.615198
901.096216	2534.102339
901.403681	2530.850795
901.711105	2533.822555
902.018489	2533.643594
902.325832	2535.009747
902.633135	2530.976823
902.940397	2534.127545
903.247619	2534.059489
903.554800	2537.890766
903.861941	2540.224820
904.169041	2547.456355
904.476101	2548.492312
904.783121	2549.003990
905.090100	2546.496016
905.397039	2543.211704
905.703938	2541.066693
906.010796	2540.713812
906.317614	2538.997299
906.624391	2536.234747
906.931129	2534.661907
907.237826	2536.469161
907.544483	2533.585621
907.851099	2533.560415
908.157675	2533.930940
908.464211	2532.022863
908.770707	2526.767460
909.077163	2533.109232
909.383578	2527.102697
909.689954	2527.942049
909.996289	2526.225536
910.302584	2532.153933
910.608839	2528.922553
910.915054	2534.704757
911.221229	2531.521268
911.527363	2531.906916
911.833458	2532.839530
912.139513	2530.656710
912.445527	2530.021525
912.751502	2534.606454
913.057436	2531.460774
913.363331	2532.814324
913.669186	2532.804242
913.975000	2535.133255
914.280775	2534.457740
914.586510	2537.129552
914.892205	2537.915972
915.197859	2537.822710
915.503475	2539.816487
915.809050	2546.801005
916.114585	2543.983000
916.420081	2549.629093
916.725536	2547.957950
917.030952	2544.971067
917.336328	2543.335212
917.641665	2543.710778
917.946961	2540.295396
918.252218	2541.064172
918.557435	2538.170550
918.862612	2537.018646
919.167750	2532.327853
919.472848	2536.459078
919.777906	2537.265663
920.082925	2534.813142
920.387904	2529.663603
920.692843	2534.256094
920.997743	2532.030425
921.302603	2528.794004
921.607423	2532.221988
921.912204	2532.138809
922.216946	2532.978162
922.521647	2532.214427
922.826310	2531.682585
923.130932	2531.317101
923.435516	2530.066895
923.740059	2532.811803
924.044564	2530.868439
924.349028	2534.029242
924.653454	2529.088911
924.957840	2528.504138
925.262186	2527.246370
925.566493	2529.338448
925.870761	2525.779394
926.174989	2531.942204
926.479178	2530.855836
926.783328	2532.781557
927.087438	2527.896678
927.391509	2527.140505
927.695541	2530.850795
927.999533	2528.685619
928.303486	2529.885414
928.607400	2530.702081
928.911275	2529.252749
929.215110	2532.889941
929.518906	2527.803417
929.822663	2529.739220
930.126381	2529.837523
930.430060	2529.252749
930.733699	2531.853984
931.037299	2531.284334
931.340861	2529.109076
931.644383	2529.403983
931.947866	2530.707122
932.251309	2529.058664
932.554714	2527.505989
932.858080	2530.596216
933.161407	2527.165711
933.464694	2531.203675
933.767943	2528.877183
934.071153	2529.892975
934.374323	2527.770650
934.677455	2530.525640
934.980548	2529.119158
935.283602	2528.610002
935.586617	2528.045393
935.889593	2531.511186
936.192530	2529.872811
936.495428	2527.687471
936.798287	2529.487163
937.101108	2528.494055
937.403890	2530.137471
937.706632	2528.940197
938.009336	2532.763912
938.312002	2530.734848
938.614628	2527.279137
938.917216	2533.114273
939.219765	2528.993129
939.522275	2531.889272
939.824747	2529.542615
940.127179	2527.425331
940.429573	2527.352234
940.731929	2528.375588
941.034246	2526.056657
941.336524	2527.049765
941.638763	2528.362985
941.940964	2530.747451
942.243126	2529.721576
942.545250	2530.702081
942.847335	2528.589837
943.149381	2530.482790
943.451389	2530.102183
943.753359	2529.043541
944.055290	2531.153264
944.357182	2531.735517
944.659036	2529.424148
944.960851	2530.228212
945.262628	2528.121010
945.564367	2530.601257
945.866067	2527.969775
946.167729	2531.468336
946.469352	2528.020187
946.770937	2529.898017
947.072484	2529.978675
947.373992	2531.407842
947.675462	2529.829961
947.976893	2531.062523
948.278286	2528.241998
948.579641	2532.022863
948.880958	2526.676719
949.182236	2530.013963
949.483476	2529.393901
949.784678	2530.815507
950.085841	2528.834333
950.386967	2531.370033
950.688054	2528.420958
950.989103	2529.822399
951.290114	2529.935825
951.591087	2527.183355
951.892021	2529.499765
952.192917	2531.332225
952.493776	2528.783922
952.794596	2527.337110
953.095378	2531.304498
953.396122	2527.823582
953.696828	2529.214940
953.997496	2528.108407
954.298126	2530.369364
954.598718	2529.383819
954.899272	2527.080012
955.199788	2529.913140
955.500266	2531.904396
955.800706	2527.022038
956.101108	2523.105062
956.401472	2525.174455
956.701798	2523.052130
957.002087	2524.705628
957.302337	2528.778880
957.602550	2528.894827
957.902724	2530.697039
958.202861	2530.213089
958.502960	2529.116638
958.803022	2528.889786
959.103045	2526.795186
959.403031	2527.014477
959.702979	2529.376257
960.002889	2528.226874
960.302762	2527.032121
960.602596	2528.879703
960.902393	2526.601102
961.202153	2529.497245
961.501875	2529.076308
961.801559	2525.978519
962.101205	2526.323838
962.400814	2527.102697
962.700385	2525.928108
962.999918	2529.726617
963.299414	2528.085722
963.598873	2528.161339
963.898293	2527.639580
964.197677	2527.982378
964.497022	2527.289219
964.796331	2526.255783
965.095601	2526.863242
965.394835	2526.961544
965.694030	2527.372398
965.993189	2526.525485
966.292309	2526.926256
966.591393	2530.250897
966.890439	2526.991791
967.189447	2526.064219
967.488419	2525.413910
967.787353	2529.963552
968.086249	2527.190917
968.385108	2529.230064
968.683930	2526.351565
968.982714	2528.892306
969.281462	2526.964065
969.580172	2527.170752
969.878844	2528.002543
970.177480	2527.286699
970.476078	2525.421472
970.774639	2529.340969
971.073162	2526.933818
971.371649	2523.962058
971.670098	2522.346368
971.968510	2523.233611
972.266885	2524.037675
972.565223	2525.723941
972.863524	2528.365506
973.161788	2528.673016
973.460014	2526.437264
973.758204	2528.325177
974.056356	2528.015146
974.354471	2525.308046
974.652550	2526.694363
974.950591	2527.826102
975.248595	2529.708973
975.546563	2527.979858
975.844493	2528.645290
976.142386	2527.269055
976.440243	2523.750329
976.738062	2529.162008
977.035845	2524.025072
977.333590	2528.509179
977.631299	2525.517254
977.928971	2525.282840
978.226606	2527.969775
978.524204	2529.439272
978.821765	2528.098325
979.119290	2525.789476
979.416777	2527.911802
979.714228	2527.763088
980.011642	2525.978519
980.309020	2528.859539
980.606360	2525.907943
980.903664	2528.476411
981.200931	2524.526667
981.498162	2527.944569
981.795356	2527.533715
982.092513	2526.041534
982.389633	2526.628828
982.686717	2529.056144
982.983764	2527.896678
983.280775	2525.827285
983.577749	2528.841895
983.874686	2528.471370
984.171587	2528.788963
984.468451	2531.574200
984.765279	2528.158818
985.062070	2528.930115
985.358824	2529.845084
985.655543	2528.040351
985.952224	2528.627646
986.248869	2527.359796
986.545478	2523.886441
986.842050	2526.268386
987.138586	2524.831657
987.435086	2525.776873
987.731549	2523.987264
988.027975	2528.516740
988.324366	2526.147398
988.620719	2524.793848
988.917037	2525.350896
989.213318	2528.708304
989.509563	2525.345855
989.805772	2528.562111
990.101944	2524.798889
990.398080	2527.130423
990.694180	2525.580268
990.990244	2528.415917
991.286271	2526.389373
991.582262	2529.373737
991.878217	2525.366019
992.174136	2526.795186
992.470019	2529.282996
992.765865	2527.195958
993.061676	2526.091945
993.357450	2528.315094
993.653188	2527.455577
993.948890	2527.654703
994.244556	2526.099507
994.540186	2527.049765
994.835780	2526.301153
995.131337	2528.138654
995.426859	2526.787625
995.722345	2526.409538
996.017795	2524.985412
996.313208	2527.473222
996.608586	2527.415248
996.903928	2525.844929
997.199234	2527.737882
997.494504	2525.671009
997.789738	2526.994312
998.084936	2527.652183
998.380099	2527.836185
998.675225	2529.194776
998.970316	2526.545649
999.265371	2524.781245
999.560390	2525.812161
999.855373	2526.883407
1000.150320	2530.505476
1000.445232	2524.907274
1000.740108	2524.607326
1001.034948	2524.466173
1001.329752	2524.884589
1001.624521	2525.731503
1001.919254	2523.359640
1002.213951	2525.207223
1002.508613	2525.802079
1002.803239	2525.013138
1003.097829	2522.011131
1003.392384	2528.090763
1003.686903	2526.205371
1003.981386	2526.782583
1004.275834	2524.871986
1004.570246	2527.291740
1004.864623	2526.684281
1005.158964	2527.047244
1005.453270	2527.858870
1005.747540	2527.059847
1006.041775	2525.688653
1006.335974	2526.076822
1006.630138	2526.785104
1006.924266	2527.969775
1007.218359	2527.611853
1007.512416	2527.362316
1007.806438	2526.674199
1008.100425	2527.407687
1008.394376	2525.071112
1008.688292	2525.910464
1008.982172	2527.397604
1009.276017	2525.910464
1009.569827	2523.717562
1009.863602	2526.344003
1010.157341	2524.642614
1010.451045	2527.480783
1010.744714	2525.484486
1011.038347	2525.640762
1011.331945	2527.556401
1011.625508	2528.514220
1011.919036	2523.992305
1012.212528	2526.507841
1012.505986	2522.172448
1012.799408	2524.803931
1013.092795	2527.137985
1013.386147	2526.563293
1013.679464	2523.765453
1013.972745	2527.027079
1014.265992	2526.953983
1014.559204	2526.533046
1014.852380	2529.991278
1015.145521	2527.904240
1015.438628	2526.187727
1015.731699	2529.104035
1016.024736	2525.865093
1016.317737	2523.934332
1016.610703	2526.769981
1016.903635	2523.473066
1017.196531	2520.337468
1017.489393	2522.724455
1017.782219	2523.289064
1018.075011	2523.253776
1018.367768	2524.851822
1018.660490	2524.861904
1018.953177	2524.861904
1019.245829	2524.861904
