Dividing Wavelength (nm)	Counts (n)	Blue Motor Position (mm): 0.000000	Red Motor Position (mm): 10.300000	
326.493990	2124.531274
326.888308	2124.531274
327.282561	2124.531274
327.676750	2093.419793
328.070874	2095.355596
328.464933	2096.358786
328.858929	2102.476226
329.252859	2113.917125
329.646726	2122.908023
330.040528	2136.408233
330.434265	2151.080511
330.827938	2169.841165
331.221547	2192.664989
331.615091	2209.963708
332.008571	2225.926522
332.401986	2247.948803
332.795338	2266.689292
333.188625	2288.116716
333.581847	2305.347380
333.975006	2321.658033
334.368100	2340.673266
334.761129	2359.852336
335.154095	2375.139635
335.546996	2392.030021
335.939833	2408.257495
336.332606	2421.561100
336.725315	2436.649273
337.117960	2442.945674
337.510540	2451.162755
337.903056	2465.411577
338.295508	2470.440128
338.687896	2481.296252
339.080220	2487.118785
339.472480	2494.690598
339.864676	2498.347955
340.256807	2504.069665
340.648875	2506.867505
341.040879	2507.411950
341.432818	2510.915552
341.824694	2512.684997
342.216506	2508.291631
342.608253	2510.595438
342.999937	2512.150634
343.391557	2511.956550
343.783113	2512.405213
344.174605	2511.182733
344.566033	2511.568381
344.957397	2507.563184
345.348697	2507.530417
345.739934	2503.295848
346.131106	2504.026815
346.522215	2500.757627
346.913260	2498.400887
347.304241	2498.126144
347.695159	2495.295537
348.086012	2493.599188
348.476802	2490.957624
348.867528	2491.239928
349.258191	2488.094248
349.648789	2487.461583
350.039324	2486.110554
350.429796	2489.941831
350.820203	2483.199288
351.210548	2481.288691
351.600828	2481.437405
351.991045	2479.703248
352.381198	2480.726602
352.771288	2482.818681
353.161314	2481.084524
353.551276	2481.601242
353.941175	2482.090234
354.331010	2480.792137
354.720782	2478.122846
355.110490	2481.591160
355.500135	2478.468165
355.889717	2480.260295
356.279235	2479.715851
356.668689	2481.389514
357.058080	2481.775162
357.447408	2480.396406
357.836672	2478.891622
358.225873	2481.394555
358.615010	2478.405151
359.004084	2482.246510
359.393095	2483.088383
359.782043	2483.088383
360.170927	2485.031747
360.559748	2485.165338
360.948505	2486.445791
361.337199	2486.347488
361.725830	2487.305308
362.114398	2487.131388
362.502903	2487.186841
362.891344	2489.140288
363.279722	2490.350165
363.668037	2489.523415
364.056289	2488.731954
364.444478	2491.615494
364.832603	2491.126502
365.220665	2492.696822
365.608665	2490.292191
365.996601	2490.793786
366.384474	2493.730258
366.772284	2496.301247
367.160031	2492.573313
367.547715	2497.087667
367.935336	2499.207472
368.322893	2504.238543
368.710388	2505.743328
369.097820	2512.722805
369.485189	2513.846983
369.872495	2523.626821
370.259738	2528.453726
370.646918	2536.159130
371.034035	2542.155582
371.421090	2550.455842
371.808081	2562.239539
372.195010	2571.490056
372.581875	2583.248548
372.968678	2597.434355
373.355418	2611.090840
373.742096	2626.383181
374.128710	2641.057979
374.515262	2655.095072
374.901751	2669.059068
375.288177	2681.006603
375.674540	2706.348483
376.060841	2722.485217
376.447079	2744.240316
376.833254	2759.850249
377.219367	2775.780295
377.605417	2814.818991
377.991404	2822.773932
378.377329	2846.061542
378.763191	2861.028727
379.148991	2897.957700
379.534727	2916.405803
379.920402	2945.291614
380.306013	2957.334931
380.691563	3001.513082
381.077049	3019.600742
381.462474	3029.705735
381.847835	3063.063050
382.233134	3077.027046
382.618371	3071.683423
383.003545	3126.296763
383.388657	3121.656381
383.773706	3143.051038
384.158693	3147.686379
384.543618	3161.302536
384.928480	3178.203004
385.313280	3204.364072
385.698017	3185.530321
386.082692	3218.542317
386.467305	3201.233515
386.851856	3212.881101
387.236344	3212.739949
387.620770	3215.515104
388.005133	3213.417984
388.389435	3211.134342
388.773674	3194.117927
389.157851	3201.145295
389.541965	3187.861855
389.926018	3141.309320
390.310008	3157.342709
390.693936	3144.996924
391.077802	3142.932571
391.461606	3106.568208
391.845348	3109.333281
392.229027	3079.797160
392.612645	3060.030796
392.996200	3066.153277
393.379694	3054.833367
393.763125	3047.387582
394.146494	3006.332425
394.529801	3000.157012
394.913047	2983.369970
395.296230	2945.241203
395.679351	2929.933739
396.062410	2908.034967
396.445408	2875.375851
396.828343	2855.170907
397.211217	2830.922957
397.594028	2792.690846
397.976778	2781.580143
398.359466	2762.519540
398.742092	2743.496746
399.124656	2716.753425
399.507158	2707.785212
399.889598	2694.229550
400.271977	2684.714372
400.654294	2665.827689
401.036549	2646.547796
401.418742	2631.041207
401.800874	2625.372429
402.182944	2615.345574
402.564952	2604.812083
402.946898	2592.579723
403.328783	2583.646799
403.710606	2571.933678
404.092367	2570.418811
404.474067	2564.928995
404.855705	2555.774259
405.237282	2549.308979
405.618797	2548.386448
406.000250	2543.504091
406.381642	2541.341436
406.762972	2538.588966
407.144240	2533.757020
407.525447	2535.677699
407.906593	2528.146216
408.287677	2529.913140
408.668700	2528.236956
409.049661	2524.776204
409.430560	2523.795700
409.811399	2526.046575
410.192176	2525.023221
410.572891	2525.857532
410.953545	2520.360153
411.334138	2525.446678
411.714669	2522.321162
412.095139	2522.119516
412.475547	2517.511902
412.855894	2521.973323
413.236180	2520.503826
413.616405	2523.069774
413.996568	2520.498785
414.376670	2522.185051
414.756711	2521.925432
415.136691	2521.643127
415.516609	2524.723272
415.896466	2519.404855
416.276262	2520.912160
416.655997	2518.593229
417.035670	2516.024761
417.415283	2524.582120
417.794834	2518.673888
418.174324	2522.132119
418.553753	2520.259330
418.933121	2521.086080
419.312428	2522.951307
419.691674	2522.548014
420.070859	2522.243024
420.449983	2521.534742
420.829045	2522.099352
421.208047	2524.781245
421.586988	2522.646317
421.965867	2524.093128
422.344686	2521.980884
422.723444	2523.185720
423.102141	2522.094310
423.480777	2521.590195
423.859352	2520.786131
424.237866	2523.979702
424.616319	2523.515916
424.994712	2522.548014
425.373044	2524.032634
425.751314	2525.487007
426.129524	2523.878879
426.507673	2521.945596
426.885762	2523.659589
427.263789	2526.442306
427.641756	2524.758560
428.019662	2525.562624
428.397508	2523.341996
428.775292	2524.977850
429.153016	2524.756040
429.530679	2523.775535
429.908282	2524.566996
430.285824	2525.192099
430.663305	2524.466173
431.040726	2525.910464
431.418086	2526.845598
431.795385	2528.176463
432.172624	2524.156142
432.549802	2525.466842
432.926920	2525.547501
433.303977	2526.749816
433.680974	2528.362985
434.057910	2526.258303
434.434786	2525.688653
434.811601	2526.318797
435.188355	2526.205371
435.565050	2526.517923
435.941683	2523.500792
436.318257	2526.497758
436.694770	2521.827129
437.071222	2525.005577
437.447614	2522.306039
437.823946	2525.093797
438.200218	2526.633869
438.576429	2527.642100
438.952580	2529.958510
439.328670	2526.931297
439.704700	2527.684950
440.080670	2527.074970
440.456580	2528.904909
440.832429	2528.539426
441.208218	2526.805269
441.583947	2529.920702
441.959616	2530.203006
442.335224	2528.158818
442.710773	2526.391894
443.086261	2527.944569
443.461689	2529.840043
443.837057	2529.991278
444.212365	2528.466329
444.587612	2530.850795
444.962800	2529.587986
445.337927	2527.732841
445.712995	2527.964734
446.088002	2528.783922
446.462949	2526.686802
446.837837	2530.192924
447.212664	2530.215609
447.587431	2529.802235
447.962139	2531.528830
448.336786	2536.451517
448.711374	2531.649817
449.085901	2532.078316
449.460369	2530.737369
449.834776	2533.021011
450.209124	2528.809127
450.583412	2534.286341
450.957640	2531.475898
451.331808	2531.954807
451.705917	2533.212575
452.079965	2531.188552
452.453954	2531.962369
452.827883	2531.100332
453.201752	2529.615712
453.575562	2533.489839
453.949311	2532.708460
454.323001	2533.162164
454.696632	2533.510003
455.070202	2536.501928
455.443713	2533.048738
455.817164	2530.427338
456.190556	2530.497914
456.563888	2530.603778
456.937160	2532.920188
457.310373	2531.995137
457.683526	2534.019160
458.056619	2535.443286
458.429653	2532.466484
458.802628	2531.596885
459.175542	2531.826258
459.548398	2536.527134
459.921194	2536.693492
460.293930	2535.130734
460.666607	2537.144675
461.039224	2537.681558
461.411782	2535.725590
461.784280	2537.227854
462.156719	2537.772299
462.529099	2539.050231
462.901419	2537.500077
463.273680	2540.204656
463.645882	2535.526465
464.018024	2535.884387
464.390106	2534.919006
464.762130	2538.266332
465.134094	2537.850437
465.505999	2540.096271
465.877845	2542.014430
466.249631	2543.874616
466.621358	2543.536858
466.993026	2545.553320
467.364634	2545.346632
467.736184	2541.217927
468.107674	2539.113246
468.479105	2538.525951
468.850477	2541.449821
469.221790	2539.148534
469.593043	2539.425797
469.964238	2540.189532
470.335373	2540.202135
470.706449	2539.231713
471.077467	2540.983514
471.448425	2541.560726
471.819324	2544.890408
472.190164	2542.135418
472.560945	2542.851261
472.931667	2541.797660
473.302330	2538.926723
473.672934	2539.571991
474.043479	2540.340767
474.413965	2540.272711
474.784393	2533.257946
475.154761	2538.084850
475.525070	2535.377751
475.895321	2535.140817
476.265513	2535.617206
476.635645	2538.609130
477.005719	2539.239275
477.375734	2540.670962
477.745691	2539.357742
478.115588	2540.383617
478.485427	2540.313040
478.855207	2540.123997
479.224928	2539.755993
479.594591	2546.339740
479.964194	2540.965870
480.333739	2543.889739
480.703226	2544.507280
481.072653	2542.548792
481.442022	2541.530479
481.811333	2546.511139
482.180584	2541.391847
482.549777	2544.471992
482.918912	2541.913607
483.287988	2542.916796
483.657005	2540.781868
484.025964	2543.098278
484.394864	2542.150541
484.763706	2542.778165
485.132489	2542.445448
485.501213	2543.269677
485.869879	2541.394368
486.238487	2541.674152
486.607036	2542.823535
486.975527	2544.159441
487.343959	2540.895294
487.712333	2542.261446
488.080648	2543.574667
488.448905	2544.028371
488.817104	2540.224820
489.185244	2544.058618
489.553326	2543.181457
489.921350	2542.710109
490.289315	2549.676984
490.657222	2550.034906
491.025070	2545.177754
491.392861	2545.397044
491.760593	2543.453679
492.128267	2545.016437
492.495883	2546.927034
492.863440	2543.252033
493.230939	2544.398896
493.598380	2544.562733
493.965763	2538.283976
494.333088	2540.091230
494.700354	2539.524100
495.067563	2542.916796
495.434713	2536.595189
495.801805	2542.543751
496.168839	2542.047197
496.535815	2545.442414
496.902733	2545.323947
497.269593	2541.603576
497.636395	2543.504091
498.003139	2543.126004
498.369825	2542.453010
498.736453	2544.091385
499.103023	2544.252702
499.469535	2546.473330
499.835989	2543.854451
500.202385	2543.120963
500.568723	2543.788916
500.935003	2545.041643
501.301226	2543.511653
501.667390	2545.117260
502.033497	2542.548792
502.399546	2542.568957
502.765537	2545.684390
503.131470	2545.283618
503.497345	2546.087682
503.863163	2546.795964
504.228923	2543.400747
504.594625	2542.445448
504.960269	2545.034081
505.325856	2544.441745
505.691385	2544.368649
506.056856	2544.386293
506.422270	2545.805378
506.787625	2541.469985
507.152924	2543.345294
507.518164	2542.906714
507.883347	2541.346477
508.248472	2546.687579
508.613540	2546.128011
508.978550	2544.005686
509.343503	2545.684390
509.708398	2547.897456
510.073236	2545.714637
510.438016	2544.613145
510.802738	2545.291180
511.167403	2546.727909
511.532010	2543.337733
511.896561	2546.072559
512.261053	2545.805377
512.625488	2544.066179
512.989866	2541.686755
513.354186	2545.719678
513.718449	2542.241282
514.082655	2545.971736
514.446803	2548.492313
514.810894	2547.103475
515.174927	2547.761345
515.538904	2546.533824
515.902822	2543.168854
516.266684	2544.855120
516.630488	2546.508618
516.994235	2546.107847
517.357925	2546.327137
517.721558	2546.175902
518.085133	2545.132383
518.448651	2548.199926
518.812112	2543.791437
519.175516	2544.653474
519.538863	2549.311500
519.902152	2548.489792
520.265385	2546.700182
520.628560	2547.821839
520.991678	2544.981149
521.354739	2544.809750
521.717743	2546.241437
522.080690	2547.279915
522.443580	2546.211190
522.806413	2547.710934
523.169189	2547.562220
523.531908	2547.388300
523.894569	2548.099102
524.257174	2544.746735
524.619722	2549.588763
524.982213	2548.197405
525.344647	2547.905018
525.707025	2544.285470
526.069345	2546.264122
526.431608	2547.831921
526.793815	2548.721685
527.155964	2546.095244
527.518057	2548.366284
527.880093	2548.273022
528.242072	2545.419729
528.603995	2545.321427
528.965860	2546.387631
529.327669	2549.079607
529.689421	2548.235214
530.051117	2549.124977
530.412755	2546.624565
530.774337	2547.988197
531.135862	2546.770758
531.497331	2546.254040
531.858743	2540.948226
532.220098	2543.904863
532.581396	2542.316899
532.942638	2544.837476
533.303824	2545.674308
533.664953	2546.054915
534.026025	2547.539534
534.387040	2547.887374
534.747999	2545.782692
535.108902	2548.325954
535.469748	2545.349153
535.830537	2545.046684
536.191270	2544.900490
536.551947	2547.491643
536.912567	2549.195553
537.273131	2547.899977
537.633638	2544.971067
537.994089	2547.607590
538.354483	2545.465100
538.714821	2547.940306
539.075103	2548.610780
539.435328	2546.102806
539.795497	2546.894267
540.155609	2549.833259
540.515665	2545.707075
540.875665	2545.780172
541.235609	2547.915100
541.595496	2550.322251
541.955328	2547.174051
542.315102	2546.513660
542.674821	2547.683207
543.034483	2547.552137
543.394090	2547.685728
543.753640	2548.167158
544.113134	2545.785213
544.472571	2547.844524
544.831953	2548.933413
545.191278	2549.019113
545.550548	2549.770245
545.909761	2547.758825
546.268918	2548.782179
546.628019	2547.345450
546.987064	2546.952240
547.346053	2551.022972
547.704986	2547.826880
548.063863	2548.749411
548.422684	2547.161448
548.781449	2548.918290
549.140158	2548.507436
549.498811	2550.029864
549.857408	2545.986859
550.215949	2544.144317
550.574434	2541.979142
550.932864	2545.500388
551.291237	2541.545603
551.649555	2547.693290
552.007817	2549.056922
552.366022	2549.218239
552.724173	2548.000800
553.082267	2547.322765
553.440305	2546.649771
553.798288	2549.130018
554.156215	2549.487940
554.514086	2549.044319
554.871902	2547.552137
555.229661	2548.043650
555.587365	2546.576674
555.945014	2548.199926
556.302606	2549.210677
556.660143	2549.324103
557.017625	2547.153886
557.375050	2549.019113
557.732421	2547.937786
558.089735	2549.379556
558.446994	2547.400903
558.804197	2547.252189
559.161345	2548.083979
559.518437	2549.379556
559.875474	2547.579864
560.232455	2547.395862
560.589381	2547.350491
560.946251	2549.054401
561.303065	2549.888712
561.659825	2550.425595
562.016528	2550.246634
562.373177	2548.288146
562.729770	2547.930224
563.086307	2548.325954
563.442789	2546.435522
563.799216	2548.860317
564.155587	2549.505584
564.511904	2548.963660
564.868164	2546.415357
565.224370	2550.748229
565.580520	2547.970553
565.936615	2547.479041
566.292654	2545.087013
566.648638	2549.135060
567.004567	2547.053063
567.360441	2547.307641
567.716260	2545.520552
568.072023	2549.182951
568.427732	2546.072559
568.783385	2545.659184
569.138982	2542.992414
569.494525	2545.717157
569.850013	2544.277908
570.205445	2546.027188
570.560823	2545.540717
570.916145	2547.058104
571.271412	2549.697148
571.626625	2547.882333
571.981782	2547.743701
572.336884	2549.742519
572.691931	2550.324772
573.046923	2549.273691
573.401860	2550.944834
573.756743	2547.511808
574.111570	2546.866540
574.466342	2546.927034
574.821059	2547.741181
575.175722	2547.105995
575.530330	2547.466438
575.884882	2547.393341
576.239380	2546.463248
576.593823	2548.230172
576.948211	2547.975594
577.302544	2550.080276
577.656823	2547.809236
578.011047	2546.740512
578.365216	2547.511808
578.719330	2548.023485
579.073389	2544.845038
579.427394	2546.329658
579.781344	2546.654812
580.135239	2546.533824
580.489080	2548.351160
580.842866	2548.401572
581.196597	2550.453321
581.550273	2548.489792
581.903895	2546.324616
582.257463	2545.893598
582.610975	2546.390151
582.964434	2547.353012
583.317837	2548.141952
583.671186	2548.101623
584.024481	2547.206818
584.377721	2547.741181
584.730906	2546.228834
585.084037	2547.479041
585.437113	2548.376366
585.790135	2546.135573
586.143103	2546.894267
586.496016	2549.298897
586.848874	2544.713968
587.201679	2545.810419
587.554428	2544.217414
587.907124	2546.130532
588.259765	2540.313040
588.612352	2545.946530
588.964884	2546.677497
589.317362	2546.450645
589.669786	2550.365101
590.022155	2548.189843
590.374470	2544.605583
590.726731	2547.184133
591.078937	2546.826211
591.431090	2546.420398
591.783188	2545.863351
592.135232	2548.139432
592.487222	2546.904349
592.839157	2548.439380
593.191038	2546.382590
593.542866	2548.330996
593.894639	2548.767055
594.246358	2547.209339
594.598022	2548.262940
594.949633	2546.337219
595.301190	2547.511808
595.652692	2543.993083
596.004141	2543.264636
596.355535	2548.756973
596.706876	2545.810419
597.058162	2544.913093
597.409395	2544.096426
597.760573	2546.180943
598.111698	2547.032898
598.462768	2543.700696
598.813785	2545.281097
599.164748	2545.651622
599.515657	2546.362425
599.866511	2547.080789
600.217312	2545.384441
600.568060	2547.562220
600.918753	2546.369987
601.269392	2547.325285
601.619978	2548.444422
601.970510	2547.002652
602.320988	2545.901159
602.671412	2547.032898
603.021783	2546.372507
603.372100	2545.671787
603.722363	2544.565254
604.072572	2546.589277
604.422728	2547.413506
604.772830	2542.359749
605.122878	2542.684903
605.472872	2541.535520
605.822813	2544.207332
606.172701	2547.226983
606.522534	2543.995603
606.872314	2547.582384
607.222041	2544.955943
607.571714	2546.881664
607.921333	2545.228165
608.270899	2546.538865
608.620411	2546.735470
608.969870	2547.607590
609.319276	2549.039278
609.668627	2549.530790
610.017926	2552.797458
610.367171	2551.801830
610.716362	2552.663867
611.065500	2551.229659
611.414585	2548.315872
611.763616	2553.304094
612.112594	2548.678835
612.461518	2549.918959
612.810389	2547.373176
613.159207	2548.802343
613.507971	2547.156407
613.856682	2546.715306
614.205340	2547.410985
614.553945	2546.848896
614.902496	2546.773279
615.250994	2547.791592
615.599439	2545.273536
615.947830	2546.619524
616.296169	2545.026519
616.644454	2546.412837
616.992686	2546.987528
617.340864	2546.531304
617.688990	2546.768238
618.037063	2548.676315
618.385082	2543.955274
618.733048	2546.100285
619.080961	2546.375028
619.428821	2547.723537
619.776628	2545.056766
620.124382	2546.327137
620.472083	2546.672456
620.819731	2547.458876
621.167326	2544.043494
621.514868	2546.375028
621.862357	2544.562733
622.209793	2549.966850
622.557176	2547.680687
622.904506	2543.032743
623.251783	2539.196425
623.599007	2542.750438
623.946179	2542.936961
624.293297	2544.063659
624.640363	2543.015099
624.987376	2545.951571
625.334336	2544.318237
625.681243	2544.330840
626.028097	2543.725902
626.374899	2544.373690
626.721647	2545.311344
627.068343	2547.211859
627.414987	2544.189688
627.761577	2542.911755
628.108115	2542.518545
628.454600	2544.963505
628.801032	2546.251520
629.147412	2543.176416
629.493739	2544.439225
629.840014	2544.688762
630.186236	2543.988042
630.532405	2545.074410
630.878521	2543.733463
631.224585	2546.584236
631.570597	2542.324461
631.916556	2543.395706
632.262462	2542.190870
632.608316	2543.322609
632.954117	2543.919986
633.299866	2542.188350
633.645562	2541.585932
633.991206	2544.093906
634.336797	2540.340767
634.682336	2543.325130
635.027823	2542.705068
635.373257	2543.297403
635.718639	2541.442259
636.063968	2543.350336
636.409245	2544.585418
636.754470	2542.478216
637.099642	2543.574667
637.444762	2545.550799
637.789829	2542.279090
638.134845	2541.371683
638.479808	2544.202291
638.824719	2542.758000
639.169577	2543.451159
639.514383	2543.262115
639.859137	2542.447969
640.203839	2542.642053
640.548489	2539.874460
640.893086	2539.670293
641.237632	2537.321116
641.582125	2539.443441
641.926566	2536.791794
642.270955	2541.981662
642.615292	2542.195911
642.959576	2543.919986
643.303809	2543.335212
643.647990	2541.114584
643.992118	2542.624409
644.336195	2541.480068
644.680219	2538.641898
645.024192	2542.422763
645.368112	2542.962167
645.711981	2539.476209
646.055797	2543.930068
646.399562	2544.310675
646.743274	2540.451672
647.086935	2544.469472
647.430544	2539.171219
647.774101	2542.352187
648.117606	2538.634336
648.461059	2544.013247
648.804460	2541.515356
649.147810	2543.733463
649.491108	2539.239275
649.834354	2543.849410
650.177548	2541.109543
650.520690	2541.013761
650.863781	2541.888401
651.206820	2544.121632
651.549807	2539.491332
651.892742	2542.117773
652.235626	2541.369162
652.578458	2541.230530
652.921238	2540.696168
653.263967	2539.987886
653.606644	2539.738349
653.949269	2540.028215
654.291843	2539.478729
654.634365	2541.285983
654.976836	2540.068544
655.319255	2541.149872
655.661622	2539.992927
656.003938	2539.443441
656.346203	2539.501415
656.688416	2542.014430
657.030577	2540.136600
657.372687	2540.106353
657.714746	2541.233051
658.056753	2541.679193
658.398708	2535.473533
658.740612	2539.357742
659.082465	2536.562422
659.424266	2534.281300
659.766016	2534.611495
660.107715	2539.934954
660.449362	2537.111908
660.790958	2540.580222
661.132503	2538.634336
661.473996	2540.718853
661.815438	2540.040818
662.156829	2539.254398
662.498168	2538.851106
662.839456	2540.854964
663.180693	2538.304141
663.521879	2543.660367
663.863013	2539.501415
664.204097	2542.586601
664.545129	2535.103008
664.886110	2540.963349
665.227040	2540.973432
665.567918	2541.659028
665.908746	2542.485778
666.249522	2545.404606
666.590248	2539.955118
666.930922	2538.450334
667.271545	2541.717002
667.612118	2541.467465
667.952639	2538.803215
668.293109	2541.795140
668.633528	2540.373534
668.973896	2540.522248
669.314213	2539.128369
669.654480	2539.239275
669.994695	2538.944367
670.334859	2539.231713
670.674973	2542.573998
671.015035	2539.108205
671.355047	2541.021322
671.695008	2541.364121
672.034918	2541.268339
672.374777	2537.757175
672.714585	2541.371683
673.054342	2539.876981
673.394049	2540.761703
673.733705	2542.621889
674.073310	2538.296579
674.412864	2539.967721
674.752368	2541.989224
675.091820	2541.084337
675.431223	2539.950077
675.770574	2541.222969
676.109875	2535.176105
676.449125	2539.466127
676.788324	2537.610982
677.127473	2540.817156
677.466571	2536.285158
677.805619	2540.502084
678.144616	2540.602907
678.483562	2539.272042
678.822458	2539.950077
679.161303	2540.933102
679.500098	2539.927392
679.838842	2541.651467
680.177535	2538.566281
680.516179	2537.298430
680.854771	2541.553164
681.193314	2540.151723
681.531805	2541.969059
681.870247	2537.694161
682.208638	2539.120808
682.546978	2541.134748
682.885268	2540.970911
683.223508	2539.859337
683.561697	2539.708102
683.899836	2540.307999
684.237925	2539.120808
684.575963	2540.892773
684.913951	2541.462423
685.251889	2543.809081
685.589776	2541.666590
685.927614	2542.720191
686.265401	2537.699202
686.603137	2540.567619
686.940824	2539.335057
687.278460	2540.340767
687.616046	2539.519059
687.953582	2540.476878
688.291068	2541.424615
688.628504	2540.350849
688.965889	2536.610313
689.303224	2542.332023
689.640510	2541.107022
689.977745	2541.459903
690.314930	2536.441434
690.652065	2538.490663
690.989150	2538.669624
691.326185	2542.397557
691.663170	2540.123997
692.000105	2539.098122
692.336990	2540.802032
692.673825	2540.504604
693.010610	2540.532331
693.347345	2535.370189
693.684030	2533.653676
694.020665	2536.401105
694.357251	2532.617719
694.693786	2540.731456
695.030272	2538.115097
695.366707	2538.929244
695.703093	2539.350180
696.039429	2538.750283
696.375716	2537.182484
696.711952	2538.231044
697.048139	2537.343801
697.384276	2538.432690
697.720363	2535.476053
698.056400	2537.434542
698.392388	2539.090561
698.728326	2537.618544
699.064214	2538.614172
699.400053	2539.672814
699.735842	2537.311033
700.071581	2538.490663
700.407270	2538.132741
700.742910	2538.122659
701.078501	2537.051414
701.414042	2540.048380
701.749533	2535.534027
702.084974	2539.209028
702.420366	2539.143493
702.755709	2534.621578
703.091002	2535.665097
703.426246	2536.869932
703.761440	2538.793133
704.096584	2538.659542
704.431679	2536.537216
704.766725	2537.903369
705.101721	2537.462268
705.436668	2537.575694
705.771565	2537.159799
706.106413	2538.533513
706.441212	2539.995448
706.775961	2538.858667
707.110661	2536.264994
707.445311	2539.932433
707.779913	2539.675334
708.114465	2539.062834
708.448967	2538.445293
708.783421	2536.391023
709.117825	2536.040663
709.452180	2537.898328
709.786485	2538.203318
710.120742	2538.740200
710.454949	2537.550488
710.789107	2536.330529
711.123216	2532.098480
711.457275	2536.290200
711.791286	2535.503780
712.125247	2535.324819
712.459159	2537.759696
712.793023	2537.873122
713.126837	2536.796836
713.460602	2540.476878
713.794318	2536.774150
714.127985	2537.908410
714.461602	2537.444624
714.795171	2540.169367
715.128691	2537.676517
715.462162	2537.777340
715.795584	2535.629808
716.128957	2539.055273
716.462281	2536.998482
716.795556	2538.047042
717.128782	2535.990251
717.461960	2536.564942
717.795088	2536.839685
718.128167	2537.321116
718.461198	2537.668955
718.794180	2538.498225
719.127113	2534.868594
719.459997	2537.953780
719.792833	2536.065868
720.125619	2536.224665
720.458357	2535.433203
720.791046	2537.041332
721.123686	2534.288862
721.456278	2536.428831
721.788821	2536.186856
722.121315	2538.208359
722.453761	2535.624767
722.786158	2537.666435
723.118506	2535.460930
723.450805	2537.825231
723.783056	2536.474202
724.115259	2535.329860
724.447412	2537.237937
724.779518	2536.355735
725.111574	2535.496218
725.443582	2536.648122
725.775542	2536.461599
726.107453	2537.031249
726.439315	2535.682741
726.771129	2537.290869
727.102895	2536.448996
727.434612	2538.901517
727.766281	2538.417567
728.097901	2535.934798
728.429473	2532.655528
728.760996	2534.573687
729.092471	2532.753830
729.423897	2535.758358
729.755276	2537.442103
730.086606	2540.305479
730.417887	2538.780530
730.749120	2538.561239
731.080305	2537.593338
731.411442	2536.970755
731.742530	2538.193235
732.073570	2535.118131
732.404562	2538.614172
732.735506	2538.735159
733.066401	2535.670138
733.397249	2537.326157
733.728048	2535.904551
734.058798	2537.714326
734.389501	2537.633667
734.720156	2537.074099
735.050762	2537.326157
735.381320	2535.826413
735.711831	2536.149047
736.042293	2535.667617
736.372707	2536.345652
736.703073	2537.936136
737.033391	2534.051927
737.363661	2536.486805
737.693883	2536.257432
738.024056	2538.896476
738.354182	2538.130221
738.684260	2535.907072
739.014290	2533.714170
739.344272	2536.073430
739.674207	2535.045035
740.004093	2539.161137
740.333931	2536.030580
740.663722	2534.089736
740.993464	2536.101156
741.323159	2536.176774
741.652806	2535.236598
741.982405	2536.275076
742.311956	2536.068389
742.641460	2536.892618
742.970915	2537.704243
743.300323	2535.826413
743.629683	2534.369520
743.958996	2534.850950
744.288260	2534.533357
744.617477	2536.396064
744.946647	2530.019004
745.275768	2532.413552
745.604842	2531.460774
745.933869	2531.906916
746.262847	2532.625281
746.591778	2536.204500
746.920662	2534.122503
747.249498	2537.976466
747.578286	2535.410518
747.907027	2537.578214
748.235720	2532.564787
748.564365	2536.128883
748.892963	2536.958152
749.221514	2539.120807
749.550017	2533.832637
749.878473	2536.539737
750.206881	2536.827083
750.535242	2538.412525
750.863555	2532.577390
751.191821	2537.963863
751.520039	2536.045704
751.848210	2535.181146
752.176334	2533.555374
752.504411	2534.361958
752.832440	2534.041845
753.160421	2537.275745
753.488356	2535.796167
753.816243	2536.769109
754.144082	2533.152081
754.471875	2535.521424
754.799620	2534.775333
755.127318	2534.477905
755.454969	2536.166691
755.782572	2536.418749
756.110129	2533.305837
756.437638	2536.963194
756.765100	2533.777184
757.092515	2535.750796
757.419882	2536.098636
757.747203	2533.751979
758.074477	2535.619726
758.401703	2533.237781
758.728882	2535.944881
759.056014	2538.152906
759.383099	2530.681916
759.710138	2537.802546
760.037129	2534.742565
760.364073	2537.343801
760.690970	2532.804242
761.017820	2535.060158
761.344623	2533.618388
761.671379	2536.827083
761.998088	2530.571011
762.324751	2535.735673
762.651366	2532.610157
762.977935	2535.065199
763.304456	2535.042514
763.630931	2538.856147
763.957359	2536.930426
764.283740	2536.789274
764.610074	2536.015457
764.936362	2535.423121
765.262602	2535.231557
765.588796	2535.496218
765.914943	2533.497400
766.241044	2535.113090
766.567097	2535.896990
766.893104	2535.859181
767.219064	2532.647966
767.544978	2534.392205
767.870845	2536.393543
768.196665	2533.850281
768.522438	2534.666948
768.848165	2534.495549
769.173846	2533.096629
769.499479	2534.303985
769.825066	2532.637884
770.150607	2532.597554
770.476101	2532.400949
770.801548	2536.829603
771.126949	2536.990920
771.452303	2536.338091
771.777611	2535.244160
772.102872	2534.188038
772.428087	2534.692154
772.753256	2534.334232
773.078378	2534.142668
773.403453	2532.552184
773.728482	2534.760209
774.053465	2537.724408
774.378401	2534.792977
774.703291	2535.012267
775.028135	2534.218285
775.352932	2531.836340
775.677683	2530.056813
776.002388	2535.566794
776.327046	2531.901875
776.651658	2533.910775
776.976224	2532.400949
777.300743	2534.944212
777.625216	2533.857843
777.949643	2534.286341
778.274024	2533.489839
778.598359	2531.546474
778.922647	2533.484797
779.246889	2530.109745
779.571086	2530.238294
779.895236	2532.365661
780.219339	2531.884231
780.543397	2533.368851
780.867409	2531.186031
781.191374	2534.205683
781.515294	2533.293234
781.839167	2533.925898
782.162995	2534.286341
782.486776	2532.773995
782.810511	2534.389685
783.134201	2535.864222
783.457844	2533.421783
783.781441	2533.787267
784.104993	2534.697195
784.428498	2532.658048
784.751958	2534.331711
785.075372	2532.227030
785.398739	2534.745086
785.722061	2535.183666
786.045337	2532.700898
786.368568	2534.296423
786.691752	2533.615867
787.014891	2532.988244
787.337983	2532.287523
787.661030	2532.262318
787.984031	2532.388347
788.306987	2534.775333
788.629897	2534.399767
788.952760	2532.920188
789.275579	2535.886907
789.598351	2533.603265
789.921078	2534.682072
790.243759	2532.559746
790.566395	2533.222657
790.888984	2533.268028
791.211529	2532.658048
791.534027	2531.876669
791.856480	2532.635363
792.178888	2530.729807
792.501249	2533.633512
792.823566	2533.492359
793.145836	2533.154602
793.468062	2532.751310
793.790241	2532.272400
794.112375	2534.757689
794.434464	2534.281300
794.756507	2531.261649
795.078505	2532.650487
795.400457	2535.128214
795.722364	2529.277955
796.044226	2531.054961
796.366042	2528.882224
796.687812	2529.096473
797.009538	2533.973789
797.331218	2530.412214
797.652852	2534.276259
797.974442	2532.426155
798.295986	2530.394570
798.617484	2532.978162
798.938938	2534.528316
799.260346	2532.108563
799.581709	2534.810621
799.903026	2531.758202
800.224299	2529.368695
800.545526	2532.292565
800.866708	2532.221988
801.187845	2533.739376
801.508936	2531.276772
801.829983	2533.817514
802.150984	2531.566638
802.471940	2532.973120
802.792851	2530.197965
803.113717	2533.716691
803.434538	2533.411701
803.755314	2534.440096
804.076045	2533.421783
804.396731	2531.669982
804.717372	2534.210724
805.037967	2532.035466
805.358518	2534.583769
805.679024	2533.232740
805.999485	2533.714170
806.319901	2532.191742
806.640272	2531.997657
806.960598	2531.579241
807.280879	2533.993954
807.601115	2534.084695
807.921306	2531.692667
808.241453	2531.606968
808.561554	2533.510003
808.881611	2533.116793
809.201623	2530.346679
809.521590	2531.160826
809.841513	2532.186700
810.161390	2532.552184
810.481223	2531.264169
810.801011	2530.767616
811.120755	2531.165867
811.440453	2535.092926
811.760107	2530.268541
812.079716	2530.376926
812.399281	2529.550177
812.718801	2531.359951
813.038276	2529.368695
813.357707	2532.350538
813.677093	2534.188038
813.996434	2532.355579
814.315731	2532.607637
814.634983	2532.428676
814.954191	2532.199303
815.273354	2528.821730
815.592473	2531.753161
815.911547	2532.295085
816.230577	2533.814993
816.549562	2530.860877
816.868502	2532.577390
817.187399	2533.615868
817.506250	2533.469674
817.825058	2534.316588
818.143821	2531.526309
818.462539	2532.582431
818.781213	2530.538243
819.099843	2533.661238
819.418429	2532.814324
819.736970	2534.704757
820.055466	2532.665610
820.373919	2533.701567
820.692327	2531.304498
821.010691	2534.669469
821.329011	2537.489994
821.647286	2543.504091
821.965517	2545.903680
822.283704	2550.622200
822.601847	2548.767055
822.919945	2546.322096
823.237999	2543.244471
823.556010	2541.588452
823.873976	2537.459747
824.191897	2537.033770
824.509775	2534.679551
824.827609	2534.687113
825.145398	2534.946732
825.463144	2534.586290
825.780845	2534.976979
826.098502	2535.269366
826.416116	2536.895138
826.733685	2537.452186
827.051210	2541.096940
827.368692	2539.884542
827.686129	2539.019984
828.003522	2535.032432
828.320872	2529.784591
828.638177	2534.031763
828.955439	2529.703932
829.272656	2527.508510
829.589830	2530.397091
829.906960	2532.010260
830.224046	2534.049407
830.541088	2530.346679
830.858086	2532.801721
831.175041	2532.650487
831.491952	2533.928419
831.808819	2531.884231
832.125642	2532.010260
832.442421	2530.253418
832.759157	2531.579241
833.075849	2531.702750
833.392497	2532.418593
833.709101	2534.868594
834.025662	2536.224665
834.342179	2533.421783
834.658653	2532.640404
834.975083	2533.668800
835.291469	2537.764737
835.607811	2532.547143
835.924110	2531.869108
836.240366	2529.497245
836.556578	2530.911288
836.872746	2529.658562
837.188871	2530.596216
837.504952	2531.339787
837.820990	2531.491021
838.136984	2529.819879
838.452935	2530.515558
838.768842	2531.370033
839.084706	2530.709642
839.400526	2533.613347
839.716303	2531.246525
840.032037	2532.101001
840.347727	2531.785929
840.663373	2530.802904
840.978977	2534.964376
841.294537	2530.069416
841.610054	2529.928263
841.925527	2530.427338
842.240957	2528.559590
842.556344	2530.112266
842.871687	2532.297606
843.186987	2530.699560
843.502244	2530.082019
843.817458	2530.218130
844.132629	2531.284334
844.447756	2533.144520
844.762840	2526.492717
845.077881	2527.231246
845.392879	2526.704446
845.707833	2529.141843
846.022745	2525.635721
846.337613	2531.987575
846.652438	2531.105373
846.967221	2532.156453
847.281960	2528.483973
847.596656	2531.249046
847.911309	2532.237112
848.225919	2529.542615
848.540485	2529.416586
848.855009	2530.583613
849.169490	2529.598068
849.483928	2529.910619
849.798323	2529.363654
850.112675	2530.399611
850.426984	2532.262318
850.741251	2532.552184
851.055474	2531.853984
851.369654	2532.073274
851.683792	2533.053779
851.997887	2530.573531
852.311938	2531.095291
852.625947	2532.768954
852.939914	2527.818541
853.253837	2532.443799
853.567718	2527.460619
853.881555	2531.251566
854.195350	2531.163346
854.509103	2530.994467
854.822812	2528.768798
855.136479	2530.830630
855.450103	2529.431710
855.763685	2528.925074
856.077224	2530.538243
856.390720	2532.801721
856.704173	2529.494724
857.017584	2529.651000
857.330953	2531.896834
857.644278	2529.446833
857.957561	2531.518748
858.270802	2532.713501
858.584000	2532.416073
858.897155	2531.717873
859.210268	2530.896165
859.523339	2530.944056
859.836367	2531.720394
860.149352	2528.690660
860.462295	2530.210568
860.775195	2526.117151
861.088054	2525.335772
861.400869	2528.889786
861.713642	2526.119672
862.026373	2527.584127
862.339062	2529.222502
862.651708	2534.248532
862.964312	2530.497914
863.276873	2530.702081
863.589392	2530.704601
863.901869	2530.089580
864.214303	2529.214940
864.526696	2530.923891
864.839045	2529.144364
865.151353	2530.487832
865.463619	2532.227030
865.775842	2527.193438
866.088023	2529.310722
866.400162	2530.810465
866.712258	2531.488501
867.024313	2529.764426
867.336325	2531.231402
867.648296	2529.759385
867.960224	2530.631504
868.272110	2530.301309
868.583954	2530.727286
868.895755	2529.484642
869.207515	2529.540095
869.519233	2528.524302
869.830909	2527.432892
870.142542	2530.959179
870.454134	2529.696370
870.765684	2530.840712
871.077191	2529.151926
871.388657	2530.571011
871.700081	2531.715352
872.011463	2528.050434
872.322803	2531.695188
872.634101	2530.472708
872.945357	2529.149405
873.256571	2531.450692
873.567744	2530.755013
873.878874	2531.687626
874.189963	2528.458767
874.501010	2528.068078
874.812015	2529.020856
875.122979	2532.229550
875.433900	2529.353572
875.744780	2530.303829
876.055618	2530.286185
876.366415	2531.924560
876.677169	2530.311391
876.987882	2530.046731
877.298554	2524.687984
877.609183	2528.284847
877.919771	2526.008766
878.230317	2528.468849
878.540822	2529.487162
878.851285	2534.361958
879.161707	2529.892975
879.472087	2533.590662
879.782425	2531.990095
880.092722	2533.565456
880.402977	2532.680733
880.713191	2534.135106
881.023363	2535.975127
881.333494	2538.699871
881.643583	2538.911600
881.953631	2542.405119
882.263637	2538.231044
882.573602	2537.936136
882.883526	2535.324819
883.193408	2532.564787
883.503248	2534.316588
883.813048	2532.320291
884.122806	2532.290044
884.432522	2532.494211
884.742197	2533.023532
885.051831	2534.651825
885.361424	2531.312060
885.670975	2531.727955
885.980485	2530.354241
886.289954	2531.969931
886.599382	2531.085208
886.908768	2531.296937
887.218113	2529.633356
887.527417	2527.561442
887.836680	2530.407173
888.145901	2529.953469
888.455082	2529.799714
888.764221	2531.105373
889.073319	2530.165198
889.382376	2529.386339
889.691392	2529.361134
890.000366	2530.008922
890.309300	2531.334745
890.618193	2530.134951
890.927044	2530.041689
891.235855	2530.984385
891.544625	2530.142512
891.853353	2528.277286
892.162041	2531.372554
892.470687	2527.594209
892.779293	2527.107738
893.087858	2526.825433
893.396381	2526.709487
893.704864	2530.044210
894.013306	2524.476256
894.321707	2532.469005
894.630068	2527.642100
894.938387	2533.883049
895.246665	2531.198634
895.554903	2531.186031
895.863100	2530.674354
896.171256	2533.724252
896.479371	2528.365506
896.787446	2530.301309
897.095480	2530.162677
897.403473	2530.807945
897.711425	2530.626463
898.019336	2532.305167
898.327207	2530.082019
898.635038	2531.017153
898.942827	2528.637728
899.250576	2530.087060
899.558284	2531.097811
899.865952	2529.666123
900.173579	2531.372554
900.481165	2527.899199
900.788711	2529.464477
901.096216	2530.560928
901.403681	2527.828623
901.711105	2530.538243
902.018489	2529.414066
902.325832	2533.356248
902.633135	2527.183355
902.940397	2530.437420
903.247619	2527.753006
903.554800	2527.327028
903.861941	2532.859694
904.169041	2534.296423
904.476101	2529.981196
904.783121	2533.567977
905.090100	2531.067564
905.397039	2532.153933
905.703938	2530.535722
906.010796	2533.411701
906.317614	2528.088242
906.624391	2530.331556
906.931129	2531.294416
907.237826	2527.687471
907.544483	2527.180835
907.851099	2526.444826
908.157675	2528.123530
908.464211	2528.622605
908.770707	2521.466687
909.077163	2526.618746
909.383578	2523.311749
909.689954	2524.544311
909.996289	2524.355268
910.302584	2528.569672
910.608839	2527.601771
910.915054	2527.916843
911.221229	2528.524302
911.527363	2530.424817
911.833458	2530.303829
912.139513	2530.054292
912.445527	2529.648479
912.751502	2528.673016
913.057436	2527.813499
913.363331	2530.742410
913.669186	2527.831143
913.975000	2528.746113
914.280775	2529.474560
914.586510	2529.242667
914.892205	2528.796524
915.197859	2529.933305
915.503475	2529.270393
915.809050	2533.913296
916.114585	2530.545805
916.420081	2533.187369
916.725536	2530.583613
917.030952	2534.621578
917.336328	2531.916999
917.641665	2531.533871
917.946961	2530.331556
918.252218	2530.175280
918.557435	2529.164529
918.862612	2528.388191
919.167750	2527.392563
919.472848	2525.842408
919.777906	2529.088911
920.082925	2528.063037
920.387904	2529.086391
920.692843	2530.472708
920.997743	2528.453726
921.302603	2527.700073
921.607423	2529.726617
921.912204	2528.042872
922.216946	2528.549508
922.521647	2526.883407
922.826310	2528.650331
923.130932	2530.084539
923.435516	2526.946421
923.740059	2529.663603
924.044564	2527.790814
924.349028	2531.186031
924.653454	2525.008097
924.957840	2525.121523
925.262186	2526.127233
925.566493	2525.797038
925.870761	2523.793179
926.174989	2529.524971
926.479178	2527.463139
926.783328	2528.078160
927.087438	2528.937677
927.391509	2530.863397
927.695541	2529.361134
927.999533	2528.743592
928.303486	2526.933818
928.607400	2527.626977
928.911275	2527.889117
929.215110	2527.992460
929.518906	2527.279137
929.822663	2530.666793
930.126381	2525.313087
930.430060	2530.079498
930.733699	2525.991122
931.037299	2528.748633
931.340861	2528.433561
931.644383	2528.841895
931.947866	2525.373581
932.251309	2532.632842
932.554714	2526.079342
932.858080	2530.331556
933.161407	2528.347862
933.464694	2529.318284
933.767943	2526.089425
934.071153	2526.296112
934.374323	2527.677388
934.677455	2531.039838
934.980548	2525.797038
935.283602	2528.073119
935.586617	2527.667306
935.889593	2527.296781
936.192530	2525.794517
936.495428	2527.795855
936.798287	2527.122861
937.101108	2529.593027
937.403890	2529.169570
937.706632	2526.865763
938.009336	2529.063706
938.312002	2527.415248
938.614628	2527.395084
938.917216	2528.945238
939.219765	2527.705115
939.522275	2529.880372
939.824747	2526.263345
940.127179	2527.667306
940.429573	2524.380474
940.731929	2523.788138
941.034246	2522.923580
941.336524	2527.997502
941.638763	2528.234436
941.940964	2529.683768
942.243126	2526.217974
942.545250	2528.549508
942.847335	2530.059333
943.149381	2528.378109
943.451389	2528.236956
943.753359	2529.623274
944.055290	2528.176463
944.357182	2527.130423
944.659036	2529.167049
944.960851	2528.809127
945.262628	2526.772501
945.564367	2527.238808
945.866067	2527.344672
946.167729	2527.634538
946.469352	2525.673530
946.770937	2526.442306
947.072484	2525.925587
947.373992	2525.567665
947.675462	2525.320649
947.976893	2525.454239
948.278286	2527.362316
948.579641	2529.610671
948.880958	2525.562624
949.182236	2526.991791
949.483476	2528.620084
949.784678	2528.831813
950.085841	2527.453057
950.386967	2525.892820
950.688054	2526.157480
950.989103	2528.902389
951.290114	2525.812161
951.591087	2528.725948
951.892021	2528.889786
952.192917	2528.186545
952.493776	2528.156298
952.794596	2528.582275
953.095378	2524.874507
953.396122	2527.710156
953.696828	2527.095135
953.997496	2527.599250
954.298126	2526.679240
954.598718	2527.838705
954.899272	2527.357275
955.199788	2529.035979
955.500266	2527.253931
955.800706	2523.205885
956.101108	2524.814013
956.401472	2522.580782
956.701798	2522.923580
957.002087	2524.982892
957.302337	2524.627490
957.602550	2526.875845
957.902724	2526.969106
958.202861	2528.191586
958.502960	2524.521626
958.803022	2525.708818
959.103045	2528.037831
959.403031	2525.174455
959.702979	2525.154291
960.002889	2529.527492
960.302762	2523.823426
960.602596	2527.385001
960.902393	2525.449198
961.202153	2527.626977
961.501875	2525.643283
961.801559	2525.096318
962.101205	2526.812830
962.400814	2528.610002
962.700385	2526.341482
962.999918	2526.611184
963.299414	2526.807789
963.598873	2527.813499
963.898293	2528.733510
964.197677	2529.464477
964.497022	2526.550690
964.796331	2526.364168
965.095601	2526.384332
965.394835	2530.507996
965.694030	2526.528005
965.993189	2526.931297
966.292309	2525.250073
966.591393	2526.906092
966.890439	2525.376102
967.189447	2526.215454
967.488419	2527.533715
967.787353	2527.737882
968.086249	2525.746626
968.385108	2529.232584
968.683930	2526.033972
968.982714	2528.685619
969.281462	2524.670340
969.580172	2526.258303
969.878844	2529.537574
970.177480	2527.916843
970.476078	2528.783922
970.774639	2527.901720
971.073162	2525.731503
971.371649	2522.245545
971.670098	2522.210257
971.968510	2524.125895
972.266885	2523.372243
972.565223	2527.894158
972.863524	2527.851308
973.161788	2526.666637
973.460014	2525.388704
973.758204	2527.319466
974.056356	2526.759898
974.354471	2527.833664
974.652550	2525.633200
974.950591	2526.817872
975.248595	2526.943900
975.546563	2526.273427
975.844493	2526.338962
976.142386	2527.828623
976.440243	2527.392563
976.738062	2526.475073
977.035845	2526.197810
977.333590	2525.897861
977.631299	2525.938190
977.928971	2529.358613
978.226606	2524.564476
978.524204	2524.587161
978.821765	2525.928108
979.119290	2525.484486
979.416777	2527.085053
979.714228	2528.554549
980.011642	2525.451719
980.309020	2528.458767
980.606360	2523.830988
980.903664	2528.652852
981.200931	2525.676050
981.498162	2524.269568
981.795356	2529.955990
982.092513	2525.855011
982.389633	2526.485155
982.686717	2527.516071
982.983764	2526.233098
983.280775	2525.325690
983.577749	2527.344672
983.874686	2526.956503
984.171587	2527.405166
984.468451	2525.502130
984.765279	2527.470701
985.062070	2526.807789
985.358824	2528.473891
985.655543	2525.756709
985.952224	2529.058664
986.248869	2526.152439
986.545478	2523.765453
986.842050	2524.899712
987.138586	2522.674043
987.435086	2522.714372
987.731549	2524.569517
988.027975	2525.945752
988.324366	2525.978519
988.620719	2528.408356
988.917037	2526.648993
989.213318	2525.517254
989.509563	2527.800897
989.805772	2526.641431
990.101944	2525.991122
990.398080	2523.982222
990.694180	2520.917201
990.990244	2528.252080
991.286271	2526.288550
991.582262	2527.027079
991.878217	2525.303005
992.174136	2527.614374
992.470019	2527.218643
992.765865	2525.494569
993.061676	2525.839888
993.357450	2525.310567
993.653188	2526.928777
993.948890	2528.458767
994.244556	2525.202182
994.540186	2526.283509
994.835780	2524.541791
995.131337	2524.622449
995.426859	2525.313087
995.722345	2524.854342
996.017795	2528.746113
996.313208	2528.494055
996.608586	2525.829805
996.903928	2525.071112
997.199234	2525.126564
997.494504	2527.601771
997.789738	2525.822244
998.084936	2525.592871
998.380099	2525.844929
998.675225	2527.266534
998.970316	2525.975999
999.265371	2524.851822
999.560390	2525.214785
999.855373	2528.473891
1000.150320	2525.423993
1000.445232	2526.563293
1000.740108	2528.257121
1001.034948	2527.432892
1001.329752	2523.793179
1001.624521	2528.073119
1001.919254	2517.085924
1002.213951	2522.043899
1002.508613	2522.245545
1002.803239	2524.745957
1003.097829	2521.512057
1003.392384	2527.140505
1003.686903	2525.381143
1003.981386	2526.391894
1004.275834	2525.144208
1004.570246	2526.835516
1004.864623	2526.457429
1005.158964	2526.885927
1005.453270	2527.705115
1005.747540	2525.199661
1006.041775	2524.377953
1006.335974	2525.237470
1006.630138	2522.691687
1006.924266	2527.793335
1007.218359	2524.413241
1007.512416	2528.050434
1007.806438	2524.582120
1008.100425	2525.711338
1008.394376	2527.445495
1008.688292	2526.172604
1008.982172	2526.182686
1009.276017	2525.676050
1009.569827	2526.467511
1009.863602	2525.723941
1010.157341	2523.888961
1010.451045	2526.137316
1010.744714	2526.344003
1011.038347	2527.788294
1011.331945	2525.476925
1011.625508	2525.403828
1011.919036	2523.765453
1012.212528	2526.543129
1012.505986	2523.962058
1012.799408	2524.637572
1013.092795	2524.440968
1013.386147	2523.180679
1013.679464	2524.637573
1013.972745	2526.656555
1014.265992	2523.682274
1014.559204	2526.316277
1014.852380	2526.369209
1015.145521	2523.800741
1015.438628	2527.213602
1015.731699	2524.463653
1016.024736	2525.484486
1016.317737	2526.233098
1016.610703	2526.906092
1016.903635	2522.631193
1017.196531	2521.237314
1017.489393	2524.602284
1017.782219	2523.042047
1018.075011	2523.830988
1018.367768	2523.233611
1018.660490	2526.669158
1018.953177	2526.669158
1019.245829	2526.669158
