Dividing Wavelength (nm)	Counts (n)	Blue Motor Position (mm): 0.000000	Red Motor Position (mm): 16.500000	
326.493990	2081.353791
326.888308	2081.353791
327.282561	2081.353791
327.676750	2059.903682
328.070874	2061.146326
328.464933	2063.182952
328.858929	2077.857751
329.252859	2090.024576
329.646726	2104.606113
330.040528	2118.675974
330.434265	2137.272790
330.827938	2160.643580
331.221547	2178.660663
331.615091	2200.745958
332.008571	2218.052240
332.401986	2242.592577
332.795338	2260.203848
333.188625	2280.819646
333.581847	2299.300516
333.975006	2319.069401
334.368100	2334.142451
334.761129	2353.185410
335.154095	2369.790970
335.546996	2387.888713
335.939833	2401.686351
336.332606	2414.198495
336.725315	2424.474887
337.117960	2435.275559
337.510540	2440.929213
337.903056	2452.851542
338.295508	2456.362705
338.687896	2466.434931
339.080220	2472.219655
339.472480	2475.120839
339.864676	2481.190388
340.256807	2483.519401
340.648875	2486.266830
341.040879	2486.357571
341.432818	2487.852273
341.824694	2487.028044
342.216506	2488.489979
342.608253	2488.263127
342.999937	2486.970071
343.391557	2485.394710
343.783113	2483.955461
344.174605	2484.530153
344.566033	2480.575367
344.957397	2480.575367
345.348697	2477.154944
345.739934	2476.366004
346.131106	2477.800212
346.522215	2473.215283
346.913260	2473.916003
347.304241	2470.288893
347.695159	2470.316619
348.086012	2466.213120
348.476802	2466.636577
348.867528	2465.000722
349.258191	2462.926288
349.648789	2464.589868
350.039324	2459.430247
350.429796	2464.393263
350.820203	2463.193469
351.210548	2459.868828
351.600828	2460.171297
351.991045	2458.706842
352.381198	2457.716255
352.771288	2459.054682
353.161314	2459.679785
353.551276	2460.221709
353.941175	2460.193982
354.331010	2462.326390
354.720782	2460.347737
355.110490	2457.847325
355.500135	2458.590895
355.889717	2462.084415
356.279235	2461.555094
356.668689	2464.161370
357.058080	2459.722634
357.447408	2459.556276
357.836672	2457.875052
358.225873	2461.797069
358.615010	2460.481328
359.004084	2464.559622
359.393095	2465.335959
359.782043	2467.155816
360.170927	2469.739407
360.559748	2470.447689
360.948505	2469.676393
361.337199	2466.815538
361.725830	2470.760241
362.114398	2471.405508
362.502903	2472.207052
362.891344	2474.157978
363.279722	2474.662094
363.668037	2476.479430
364.056289	2473.764768
364.444478	2475.239306
364.832603	2471.952474
365.220665	2477.570840
365.608665	2475.350211
365.996601	2479.887250
366.384474	2478.997486
366.772284	2479.836838
367.160031	2478.521097
367.547715	2480.852631
367.935336	2481.165182
368.322893	2482.637199
368.710388	2483.547127
369.097820	2487.774135
369.485189	2487.174238
369.872495	2486.942345
370.259738	2487.769094
370.646918	2490.027531
371.034035	2490.181286
371.421090	2492.366626
371.808081	2496.177738
372.195010	2499.295692
372.581875	2504.178050
372.968678	2510.608041
373.355418	2517.264885
373.742096	2524.720752
374.128710	2534.913965
374.515262	2543.171375
374.901751	2559.630742
375.288177	2569.758420
375.674540	2588.072932
376.060841	2605.807711
376.447079	2628.787811
376.833254	2655.087511
377.219367	2675.993176
377.605417	2707.719677
377.991404	2730.460322
378.377329	2769.012546
378.763191	2797.416928
379.148991	2844.183712
379.534727	2890.857235
379.920402	2933.049172
380.306013	2975.788074
380.691563	3035.591282
381.077049	3088.624221
381.462474	3143.156902
381.847835	3211.504866
382.233134	3277.712860
382.618371	3334.009946
383.003545	3417.841814
383.388657	3488.196157
383.773706	3578.947008
384.158693	3648.192298
384.543618	3734.078436
384.928480	3809.481494
385.313280	3908.348604
385.698017	4009.937936
386.082692	4120.460193
386.467305	4180.475129
386.851856	4304.459788
387.236344	4446.645532
387.620770	4503.731558
388.005133	4619.068117
388.389435	4760.467441
388.773674	4839.835367
389.157851	4965.927228
389.541965	5092.235858
389.926018	5118.028922
390.310008	5284.412204
390.693936	5404.878137
391.077802	5516.912740
391.461606	5645.469725
391.845348	5751.654069
392.229027	5870.552203
392.612645	6082.570531
392.996200	6192.084557
393.379694	6361.479929
393.763125	6572.684111
394.146494	6664.735580
394.529801	6798.621065
394.913047	7026.834099
395.296230	7029.160592
395.679351	7074.823363
396.062410	7326.145047
396.445408	7229.372537
396.828343	7374.577933
397.211217	7510.472317
397.594028	7398.843527
397.976778	7595.723270
398.359466	7764.740555
398.742092	7743.413954
399.124656	7889.173876
399.507158	8065.304230
399.889598	8093.819517
400.271977	8298.913820
400.654294	8331.088984
401.036549	8521.594188
401.418742	8545.038074
401.800874	8838.801232
402.182944	8927.759953
402.564952	9273.925906
402.946898	9112.104867
403.328783	9163.716200
403.710606	9354.153348
404.092367	9606.596689
404.474067	9954.224576
404.855705	9748.706816
405.237282	9705.438592
405.618797	10118.535944
406.000250	10349.244350
406.381642	10694.828049
406.762972	10633.726744
407.144240	10446.800759
407.525447	10685.002840
407.906593	10617.138827
408.287677	10857.828718
408.668700	10985.153140
409.049661	10953.066196
409.430560	11091.786147
409.811399	11038.191120
410.192176	11166.400265
410.572891	11206.953827
410.953545	11641.080352
411.334138	11110.529157
411.714669	11615.710746
412.095139	10954.187853
412.475547	11364.933507
412.855894	11183.330980
413.236180	11427.269894
413.616405	11090.306568
413.996568	11266.782241
414.376670	11180.472646
414.756711	11004.680050
415.136691	11171.998467
415.516609	11242.257028
415.896466	11233.162786
416.276262	11386.860005
416.655997	11662.616162
417.035670	11594.744587
417.415283	12004.282884
417.794834	11965.145886
418.174324	11631.797068
418.553753	11445.957452
418.933121	11698.700741
419.312428	11434.372880
419.691674	11232.462066
420.070859	11455.815428
420.449983	11051.041021
420.829045	11313.238994
421.208047	10990.320323
421.586988	11155.090437
421.965867	11165.480255
422.344686	11011.049548
422.723444	11213.272914
423.102141	10202.158604
423.480777	10796.906373
423.859352	10318.042128
424.237866	10813.963117
424.616319	10467.252721
424.994712	10656.396813
425.373044	10360.629796
425.751314	10536.014059
426.129524	9887.845183
426.507673	10249.356407
426.885762	9921.038660
427.263789	9814.052773
427.641756	9708.453203
428.019662	9535.118169
428.397508	9363.008135
428.775292	9281.638871
429.153016	9087.100744
429.530679	8918.169158
429.908282	8734.489677
430.285824	8441.812887
430.663305	8507.930140
431.040726	8186.150770
431.418086	7939.078779
431.795385	7963.445196
432.172624	7917.971467
432.549802	7593.600944
432.926920	7470.518652
433.303977	7259.319512
433.680974	7156.122051
434.057910	7063.987403
434.434786	6903.822384
434.811601	6715.305915
435.188355	6797.643081
435.565050	6553.868004
435.941683	6378.982816
436.318257	6411.994812
436.694770	6206.086362
437.071222	6160.940309
437.447614	5835.115412
437.823946	5686.545047
438.200218	5577.741823
438.576429	5400.457045
438.952580	5311.339528
439.328670	5171.228218
439.704700	5102.958392
440.080670	4923.417698
440.456580	4880.613261
440.832429	4782.252787
441.208218	4555.859609
441.583947	4492.782172
441.959616	4401.181886
442.335224	4325.403261
442.710773	4243.189604
443.086261	4190.189433
443.461689	4049.579049
443.837057	3972.663644
444.212365	3935.011266
444.587612	3859.703990
444.962800	3756.105757
445.337927	3703.949980
445.712995	3565.043506
446.088002	3598.395780
446.462949	3544.342008
446.837837	3489.471569
447.212664	3429.307918
447.587431	3494.371570
447.962139	3554.779717
448.336786	3587.118719
448.711374	3472.389619
449.085901	3294.860345
449.460369	3238.797673
449.834776	3195.960468
450.209124	3220.783110
450.583412	3174.752334
450.957640	3145.009527
451.331808	3083.104157
451.705917	3019.492358
452.079965	2990.394818
452.453954	2973.353197
452.827883	2945.510904
453.201752	2920.088365
453.575562	2900.574059
453.949311	2903.639080
454.323001	2887.278016
454.696632	2870.422918
455.070202	2876.729401
455.443713	2864.008049
455.817164	2855.911956
456.190556	2849.018178
456.563888	2833.650221
456.937160	2824.666885
457.310373	2798.518420
457.683526	2797.933646
458.056619	2792.216977
458.429653	2784.695576
458.802628	2780.924793
459.175542	2778.658794
459.548398	2781.214659
459.921194	2793.562966
460.293930	2794.606484
460.666607	2807.902528
461.039224	2817.135401
461.411782	2810.849082
461.784280	2798.510858
462.156719	2789.356123
462.529099	2784.151131
462.901419	2769.483894
463.273680	2761.377719
463.645882	2755.535022
464.018024	2752.593508
464.390106	2753.170720
464.762130	2777.650563
465.134094	2805.079482
465.505999	2838.555264
465.877845	2872.600696
466.249631	2880.827859
466.621358	2866.974768
466.993026	2849.668487
467.364634	2831.144767
467.736184	2813.909062
468.107674	2806.284317
468.479105	2797.172432
468.850477	2792.653037
469.221790	2780.755914
469.593043	2767.517844
469.964238	2760.026690
470.335373	2761.259252
470.706449	2772.286776
471.077467	2791.251597
471.448425	2826.731237
471.819324	2844.009792
472.190164	2835.545695
472.560945	2808.109215
472.931667	2784.708179
473.302330	2776.251643
473.672934	2771.679317
474.043479	2777.121242
474.413965	2773.763834
474.784393	2767.132196
475.154761	2777.489247
475.525070	2775.762651
475.895321	2772.001951
476.265513	2776.173505
476.635645	2788.625155
477.005719	2788.904939
477.375734	2792.325362
477.745691	2799.289716
478.115588	2812.253043
478.485427	2826.038079
478.855207	2852.874661
479.224928	2873.417363
479.594591	2889.178531
479.964194	2881.883981
480.333739	2883.965978
480.703226	2887.330948
481.072653	2890.670712
481.442022	2896.097514
481.811333	2898.262690
482.180584	2887.759446
482.549777	2886.234497
482.918912	2881.921790
483.287988	2880.742160
483.657005	2872.693957
484.025964	2867.993082
484.394864	2866.929398
484.763706	2865.243132
485.132489	2854.417254
485.501213	2855.712831
485.869879	2852.594877
486.238487	2848.748477
486.607036	2850.124712
486.975527	2842.391582
487.343959	2845.081037
487.712333	2845.645647
488.080648	2842.855368
488.448905	2844.952488
488.817104	2842.568022
489.185244	2846.089268
489.553326	2855.569158
489.921350	2874.488608
490.289315	2894.416289
490.657222	2896.215981
491.025070	2898.953328
491.392861	2888.051833
491.760593	2870.816128
492.128267	2860.451515
492.495883	2849.219825
492.863440	2837.448730
493.230939	2825.622183
493.598380	2815.071048
493.965763	2808.895635
494.333088	2801.144861
494.700354	2793.855352
495.067563	2793.399128
495.434713	2785.310597
495.801805	2791.642286
496.168839	2786.104578
496.535815	2783.455452
496.902733	2780.183743
497.269593	2778.444545
497.636395	2777.721140
498.003139	2777.897580
498.369825	2774.078906
498.736453	2774.741818
499.103023	2772.317023
499.469535	2768.901641
499.835989	2769.783843
500.202385	2764.843512
500.568723	2767.966507
500.935003	2767.966507
501.301226	2762.809407
501.667390	2768.087495
502.033497	2771.112187
502.399546	2762.801845
502.765537	2759.026021
503.131470	2762.501896
503.497345	2764.704880
503.863163	2757.112903
504.228923	2760.298912
504.594625	2760.777822
504.960269	2754.138622
505.325856	2763.386619
505.691385	2755.996287
506.056856	2758.456370
506.422270	2756.018972
506.787625	2756.523088
507.152924	2753.079980
507.518164	2756.986874
507.883347	2747.839700
508.248472	2753.082500
508.613540	2750.849269
508.978550	2754.267171
509.343503	2751.842376
509.708398	2750.221645
510.073236	2756.603746
510.438016	2755.643406
510.802738	2752.971595
511.167403	2755.388828
511.532010	2750.778693
511.896561	2754.126019
512.261053	2758.337903
512.625488	2753.765577
512.989866	2751.668457
513.354186	2750.224166
513.718449	2748.525297
514.082655	2752.396903
514.446803	2750.728281
514.810894	2752.659043
515.174927	2754.912439
515.538904	2748.623600
515.902822	2751.827253
516.266684	2747.980852
516.630488	2751.418919
516.994235	2745.866088
517.357925	2750.569485
517.721558	2751.696183
518.085133	2752.326327
518.448651	2750.256933
518.812112	2747.028074
519.175516	2745.608990
519.538863	2746.828949
519.902152	2744.631006
520.265385	2746.229052
520.628560	2746.539082
520.991678	2741.346694
521.354739	2741.936509
521.717743	2741.971797
522.080690	2741.775192
522.443580	2742.014647
522.806413	2741.021540
523.169189	2739.363000
523.531908	2738.695047
523.894569	2736.237485
524.257174	2735.698081
524.619722	2739.093298
524.982213	2734.747824
525.344647	2732.191959
525.707025	2731.675240
526.069345	2733.180025
526.431608	2729.830178
526.793815	2730.399828
527.155964	2725.462018
527.518057	2726.155177
527.880093	2724.272306
528.242072	2723.417830
528.603995	2724.020248
528.965860	2721.454301
529.327669	2722.160062
529.689421	2718.870710
530.051117	2719.989846
530.412755	2715.586398
530.774337	2715.984649
531.135862	2714.658826
531.497331	2711.729915
531.858743	2707.991900
532.220098	2711.278732
532.581396	2703.923688
532.942638	2702.081147
533.303824	2704.727752
533.664953	2703.719522
534.026025	2700.621733
534.387040	2705.509131
534.747999	2703.782536
535.108902	2703.248174
535.469748	2698.312884
535.830537	2698.597709
536.191270	2697.080322
536.551947	2697.458409
536.912567	2694.451360
537.273131	2694.191741
537.633638	2690.572192
537.994089	2694.408511
538.354483	2692.964220
538.714821	2689.392562
539.075103	2691.222501
539.435328	2690.216791
539.795497	2686.347706
540.155609	2687.340813
540.515665	2687.446677
540.875665	2686.050277
541.235609	2684.840401
541.595496	2686.413241
541.955328	2687.033302
542.315102	2685.442818
542.674821	2680.409226
543.034483	2680.477282
543.394090	2679.290090
543.753640	2678.942251
544.113134	2679.436284
544.472571	2678.110460
544.831953	2681.649350
545.191278	2677.160203
545.550548	2676.706499
545.909761	2674.435459
546.268918	2676.225069
546.628019	2678.153310
546.987064	2675.360511
547.346053	2671.846827
547.704986	2672.920592
548.063863	2669.648883
548.422684	2669.984120
548.781449	2667.763492
549.140158	2669.437155
549.498811	2670.823472
549.857408	2664.622853
550.215949	2667.372802
550.574434	2664.189314
550.932864	2665.608399
551.291237	2661.620846
551.649555	2668.151661
552.007817	2666.566218
552.366022	2663.221412
552.724173	2663.448264
553.082267	2663.823830
553.440305	2664.469098
553.798288	2661.265445
554.156215	2659.916936
554.514086	2662.545898
554.871902	2660.471463
555.229661	2663.128151
555.587365	2658.785197
555.945014	2660.181597
556.302606	2657.749240
556.660143	2659.879127
557.017625	2660.831905
557.375050	2658.011380
557.732421	2656.183962
558.089735	2655.954589
558.446994	2655.211019
558.804197	2656.554486
559.161345	2652.357726
559.518437	2652.100627
559.875474	2656.279743
560.232455	2655.395021
560.589381	2654.621204
560.946251	2654.757315
561.303065	2652.768580
561.659825	2654.606080
562.016528	2653.270175
562.373177	2650.449649
562.729770	2650.721871
563.086307	2652.634989
563.442789	2649.459062
563.799216	2652.859321
564.155587	2648.460914
564.511904	2648.985194
564.868164	2650.008548
565.224370	2652.045174
565.580520	2645.693320
565.936615	2648.871768
566.292654	2645.620224
566.648638	2647.848414
567.004567	2646.401603
567.360441	2647.780358
567.716260	2645.499236
568.072023	2647.056952
568.427732	2642.179636
568.783385	2641.473875
569.138982	2642.663587
569.494525	2640.127887
569.850013	2639.134779
570.205445	2640.793319
570.560823	2645.463948
570.916145	2643.117291
571.271412	2642.802219
571.626625	2641.650315
571.981782	2641.806591
572.336884	2641.857002
572.691931	2641.052938
573.046923	2638.363483
573.401860	2638.091260
573.756743	2637.014974
574.111570	2638.265180
574.466342	2637.403143
574.821059	2637.566980
575.175722	2635.633698
575.530330	2634.764099
575.884882	2635.268214
576.239380	2632.641773
576.593823	2634.438944
576.948211	2632.624129
577.302544	2631.114303
577.656823	2630.569859
578.011047	2632.137658
578.365216	2630.784108
578.719330	2629.632204
579.073389	2627.971144
579.427394	2629.075157
579.781344	2627.903088
580.135239	2629.065074
580.489080	2627.633387
580.842866	2625.679940
581.196597	2627.590537
581.550273	2626.315125
581.903895	2626.998201
582.257463	2628.172790
582.610975	2625.037193
582.964434	2625.720269
583.317837	2625.309415
583.671186	2622.993005
584.024481	2623.020731
584.377721	2622.340175
584.730906	2623.928139
585.084037	2622.130967
585.437113	2622.380504
585.790135	2620.822788
586.143103	2621.407562
586.496016	2624.500310
586.848874	2615.176696
587.201679	2617.977057
587.554428	2616.716768
587.907124	2617.845987
588.259765	2615.763990
588.612352	2618.445884
588.964884	2616.210132
589.317362	2617.561161
589.669786	2615.191819
590.022155	2616.925976
590.374470	2616.174844
590.726731	2615.857251
591.078937	2612.668722
591.431090	2614.692745
591.783188	2611.889863
592.135232	2614.029833
592.487222	2611.058073
592.839157	2610.927003
593.191038	2612.436828
593.542866	2610.450614
593.894639	2608.466920
594.246358	2609.177722
594.598022	2608.363576
594.949633	2609.354163
595.301190	2607.158740
595.652692	2608.179574
596.004141	2607.904831
596.355535	2605.671600
596.706876	2606.732763
597.058162	2605.351487
597.409395	2604.403750
597.760573	2605.590942
598.111698	2605.686723
598.462768	2602.868718
598.813785	2605.573298
599.164748	2605.112032
599.515657	2605.671600
599.866511	2600.348142
600.217312	2602.087340
600.568060	2598.669437
600.918753	2603.735797
601.269392	2603.077926
601.619978	2602.878801
601.970510	2601.237905
602.320988	2602.576332
602.671412	2602.258739
603.021783	2601.318564
603.372100	2601.137082
603.722363	2600.249839
604.072572	2600.494335
604.422728	2601.255549
604.772830	2597.502410
605.122878	2594.044179
605.472872	2596.368151
605.822813	2595.899323
606.172701	2598.102307
606.522534	2598.344283
606.872314	2600.544747
607.222041	2603.272011
607.571714	2600.401074
607.921333	2595.604416
608.270899	2596.385795
608.620411	2599.032400
608.969870	2597.003336
609.319276	2598.155240
609.668627	2598.127513
610.017926	2597.280599
610.367171	2599.642380
610.716362	2599.995261
611.065500	2596.226998
611.414585	2599.690271
611.763616	2597.583069
612.112594	2598.394694
612.461518	2601.275714
612.810389	2598.863522
613.159207	2598.147678
613.507971	2596.481577
613.856682	2598.563573
614.205340	2597.394025
614.553945	2600.017946
614.902496	2594.896134
615.250994	2600.711105
615.599439	2599.768409
615.947830	2599.465940
616.296169	2598.908892
616.644454	2598.929057
616.992686	2595.856473
617.340864	2597.830085
617.688990	2595.438058
618.037063	2598.765219
618.385082	2598.077102
618.733048	2597.782194
619.080961	2596.463932
619.428821	2597.895620
619.776628	2599.203800
620.124382	2598.233377
620.472083	2597.565425
620.819731	2598.059458
621.167326	2596.385795
621.514868	2595.954776
621.862357	2595.899323
622.209793	2595.193562
622.557176	2597.250352
622.904506	2591.989908
623.251783	2586.956316
623.599007	2591.579054
623.946179	2586.880699
624.293297	2586.840370
624.640363	2592.473859
624.987376	2587.588981
625.334336	2585.670822
625.681243	2587.478076
626.028097	2586.948755
626.374899	2586.883220
626.721647	2586.709300
627.068343	2587.785586
627.414987	2587.417582
627.761577	2587.004207
628.108115	2584.385328
628.454600	2584.977663
628.801032	2586.542942
629.147412	2583.931624
629.493739	2583.856007
629.840014	2585.544793
630.186236	2582.547827
630.532405	2582.978846
630.878521	2583.329206
631.224585	2583.495564
631.570597	2582.237796
631.916556	2583.218301
632.262462	2581.622776
632.608316	2581.441294
632.954117	2579.225707
633.299866	2581.877354
633.645562	2578.187229
633.991206	2581.259812
634.336797	2576.500963
634.682336	2579.412230
635.027823	2576.634554
635.373257	2578.023392
635.718639	2572.775551
636.063968	2576.584142
636.409245	2571.222875
636.754470	2572.803277
637.099642	2576.223700
637.444762	2573.377968
637.789829	2571.449727
638.134845	2573.503997
638.479808	2571.817731
638.824719	2572.778071
639.169577	2572.894018
639.514383	2573.070458
639.859137	2572.589028
640.203839	2572.657083
640.548489	2569.395457
640.893086	2566.953018
641.237632	2566.292627
641.582125	2566.978224
641.926566	2564.835733
642.270955	2570.055848
642.615292	2570.234809
642.959576	2567.600806
643.303809	2566.700960
643.647990	2570.091136
643.992118	2567.520148
644.336195	2569.897052
644.680219	2568.954356
645.024192	2566.897565
645.368112	2569.070302
645.711981	2571.308575
646.055797	2572.437793
646.399562	2570.834706
646.743274	2570.202042
647.086935	2572.135324
647.430544	2569.821434
647.774101	2574.981055
648.117606	2569.708008
648.461059	2573.836713
648.804460	2572.906621
649.147810	2570.890159
649.491108	2568.845971
649.834354	2569.922258
650.177548	2568.387226
650.520690	2569.120714
650.863781	2563.817420
651.206820	2568.253636
651.549807	2567.479818
651.892742	2567.026115
652.235626	2568.793039
652.578458	2566.574931
652.921238	2563.391443
653.263967	2561.879097
653.606644	2560.326421
653.949269	2562.857080
654.291843	2561.972358
654.634365	2564.203068
654.976836	2563.709035
655.319255	2562.015208
655.661622	2561.352296
656.003938	2562.526885
656.346203	2560.792728
656.688416	2560.041596
657.030577	2563.144426
657.372687	2562.841957
657.714746	2560.797769
658.056753	2560.349106
658.398708	2556.348951
658.740612	2558.841801
659.082465	2554.834084
659.424266	2557.032027
659.766016	2556.853066
660.107715	2560.364230
660.449362	2562.131154
660.790958	2562.088304
661.132503	2561.216185
661.473996	2558.012532
661.815438	2560.051678
662.156829	2557.649568
662.498168	2558.874569
662.839456	2559.325752
663.180693	2558.584703
663.521879	2557.082439
663.863013	2561.800959
664.204097	2560.034034
664.545129	2561.987481
664.886110	2563.696432
665.227040	2561.490928
665.567918	2562.365568
665.908746	2560.175187
666.249522	2559.948335
666.590248	2560.366750
666.930922	2561.100238
667.271545	2558.151163
667.612118	2561.566545
667.952639	2560.253324
668.293109	2562.421021
668.633528	2560.885989
668.973896	2558.899775
669.314213	2559.862635
669.654480	2560.792728
669.994695	2558.733417
670.334859	2559.298026
670.674973	2559.214847
671.015035	2559.003118
671.355047	2557.765515
671.695008	2559.436657
672.034918	2558.209137
672.374777	2559.161915
672.714585	2558.935063
673.054342	2559.061092
673.394049	2559.149312
673.733705	2557.715103
674.073310	2559.834909
674.412864	2557.889023
674.752368	2558.594785
675.091820	2559.131668
675.431223	2556.212840
675.770574	2552.784855
676.109875	2551.660678
676.449125	2552.434495
676.788324	2549.561037
677.127473	2550.231511
677.466571	2551.862324
677.805619	2554.992880
678.144616	2552.870555
678.483562	2556.169990
678.822458	2555.426420
679.161303	2552.578168
679.500098	2552.626059
679.838842	2554.105637
680.177535	2551.522046
680.516179	2552.169834
680.854771	2553.901471
681.193314	2554.851728
681.531805	2555.207129
681.870247	2556.827860
682.208638	2556.245607
682.546978	2558.448591
682.885268	2558.065464
683.223508	2556.129661
683.561697	2558.531770
683.899836	2559.149312
684.237925	2554.955072
684.575963	2555.872562
684.913951	2553.437684
685.251889	2556.719476
685.589776	2554.335010
685.927614	2555.262582
686.265401	2558.688046
686.603137	2558.955227
686.940824	2557.599157
687.278460	2558.103272
687.616046	2555.756615
687.953582	2558.907336
688.291068	2555.630586
688.628504	2557.415155
688.965889	2559.406411
689.303224	2558.241904
689.640510	2559.083777
689.977745	2556.414486
690.314930	2554.430792
690.652065	2554.095555
690.989150	2552.540359
691.326185	2553.636810
691.663170	2550.133208
692.000105	2551.239741
692.336990	2549.906356
692.673825	2548.278063
693.010610	2551.514484
693.347345	2544.789585
693.684030	2544.787064
694.020665	2544.323278
694.357251	2541.293545
694.693786	2542.279090
695.030272	2543.526776
695.366707	2547.968033
695.703093	2542.236241
696.039429	2541.795140
696.375716	2542.556354
696.711952	2541.512835
697.048139	2542.420243
697.384276	2541.505273
697.720363	2541.648946
698.056400	2542.135417
698.392388	2541.359080
698.728326	2542.694986
699.064214	2540.560057
699.400053	2541.860675
699.735842	2541.835469
700.071581	2538.624254
700.407270	2539.292207
700.742910	2541.830428
701.078501	2537.311033
701.414042	2541.101981
701.749533	2535.869263
702.084974	2539.105684
702.420366	2537.061496
702.755709	2536.038142
703.091002	2537.527803
703.426246	2540.915458
703.761440	2537.099305
704.096584	2538.934285
704.431679	2535.297092
704.766725	2539.574511
705.101721	2535.135775
705.436668	2535.970086
705.771565	2535.942360
706.106413	2534.256094
706.441212	2537.069058
706.775961	2537.971424
707.110661	2537.885725
707.445311	2538.760365
707.779913	2534.311547
708.114465	2536.975797
708.448967	2536.030580
708.783421	2538.896476
709.117825	2538.480581
709.452180	2539.723225
709.786485	2538.283976
710.120742	2543.375541
710.454949	2540.630633
710.789107	2540.552495
711.123216	2538.193235
711.457275	2542.299255
711.791286	2542.372352
712.125247	2543.680531
712.459159	2542.997455
712.793023	2543.637681
713.126837	2544.802188
713.460602	2543.602393
713.794318	2542.440407
714.127985	2543.743546
714.461602	2542.878988
714.795171	2540.280273
715.128691	2539.027546
715.462162	2539.332536
715.795584	2541.863195
716.128957	2539.226672
716.462281	2538.026877
716.795556	2534.407329
717.128782	2538.641898
717.461960	2536.632998
717.795088	2534.924047
718.128167	2536.149047
718.461198	2534.087215
718.794180	2533.941022
719.127113	2532.287523
719.459997	2534.780374
719.792833	2535.662576
720.125619	2534.062010
720.458357	2532.889941
720.791046	2533.633512
721.123686	2533.565456
721.456278	2533.295754
721.788821	2531.266690
722.121315	2532.844571
722.453761	2531.080167
722.786158	2529.819879
723.118506	2529.560259
723.450805	2531.594365
723.783056	2532.121165
724.115259	2529.625794
724.447412	2531.617050
724.779518	2533.449509
725.111574	2532.421114
725.443582	2533.268028
725.775542	2533.930940
726.107453	2531.536392
726.439315	2531.612009
726.771129	2536.857329
727.102895	2533.661238
727.434612	2536.330529
727.766281	2535.221475
728.097901	2533.318439
728.429473	2532.199303
728.760996	2532.380785
729.092471	2531.836340
729.423897	2534.702236
729.755276	2531.286854
730.086606	2532.549663
730.417887	2535.400436
730.749120	2537.454706
731.080305	2539.251877
731.411442	2537.721887
731.742530	2537.487474
732.073570	2537.588297
732.404562	2540.638195
732.735506	2538.495704
733.066401	2539.534182
733.397249	2538.646939
733.728048	2534.230888
734.058798	2534.881197
734.389501	2531.034797
734.720156	2533.956145
735.050762	2531.090249
735.381320	2531.339787
735.711831	2529.784591
736.042293	2532.037986
736.372707	2533.880528
736.703073	2530.974303
737.033391	2527.810979
737.363661	2532.506814
737.693883	2532.043028
738.024056	2533.177287
738.354182	2531.695188
738.684260	2532.390867
739.014290	2532.058151
739.344272	2533.033614
739.674207	2532.164015
740.004093	2535.473533
740.333931	2535.115611
740.663722	2534.349355
740.993464	2534.767771
741.323159	2533.124355
741.652806	2533.683923
741.982405	2533.005888
742.311956	2534.046886
742.641460	2531.740558
742.970915	2529.673685
743.300323	2531.879190
743.629683	2528.229395
743.958996	2530.255938
744.288260	2530.702081
744.617477	2528.927594
744.946647	2525.275278
745.275768	2527.879034
745.604842	2525.108920
745.933869	2523.566327
746.262847	2523.606657
746.591778	2530.707122
746.920662	2528.370547
747.249498	2527.863911
747.578286	2526.807789
747.907027	2529.502286
748.235720	2527.710156
748.564365	2530.674354
748.892963	2527.281658
749.221514	2528.015146
749.550017	2529.262831
749.878473	2530.187883
750.206881	2529.252749
750.535242	2529.131761
750.863555	2527.621936
751.191821	2527.722759
751.520039	2526.981709
751.848210	2531.690147
752.176334	2526.772501
752.504411	2528.209230
752.832440	2529.381298
753.160421	2528.274765
753.488356	2525.282840
753.816243	2527.193437
754.144082	2525.718900
754.471875	2528.887265
754.799620	2527.571524
755.127318	2523.750329
755.454969	2527.511030
755.782572	2526.822913
756.110129	2525.706297
756.437638	2525.988602
756.765100	2524.231760
757.092515	2526.059178
757.419882	2526.719569
757.747203	2526.056657
758.074477	2530.437420
758.401703	2527.359796
758.728882	2529.154446
759.056014	2529.272913
759.383099	2529.693850
759.710138	2529.517409
760.037129	2526.802748
760.364073	2530.558408
760.690970	2527.011956
761.017820	2531.299457
761.344623	2526.591020
761.671379	2527.700073
761.998088	2526.807789
762.324751	2531.145702
762.651366	2537.520241
762.977935	2545.578526
763.304456	2547.037940
763.630931	2552.215205
763.957359	2548.555327
764.283740	2548.217570
764.610074	2541.764893
764.936362	2537.958822
765.262602	2537.139634
765.588796	2531.254087
765.914943	2530.888603
766.241044	2528.027748
766.567097	2525.366019
766.893104	2527.599250
767.219064	2524.685463
767.544978	2526.008766
767.870845	2524.035155
768.196665	2523.752850
768.522438	2522.149763
768.848165	2520.125740
769.173846	2523.016842
769.499479	2523.321831
769.825066	2521.292767
770.150607	2521.007942
770.476101	2519.914011
770.801548	2521.882582
771.126949	2521.648168
771.452303	2523.667150
771.777611	2517.960564
772.102872	2518.520132
772.428087	2516.496109
772.753256	2522.820237
773.078378	2520.987777
773.403453	2517.403517
773.728482	2518.489885
774.053465	2518.593229
774.378401	2516.322189
774.703291	2515.931500
775.028135	2519.498116
775.352932	2517.290091
775.677683	2518.401665
776.002388	2517.388393
776.327046	2519.054495
776.651658	2519.540966
776.976224	2516.052488
777.300743	2515.528208
777.625216	2514.769514
777.949643	2517.577437
778.274024	2518.131963
778.598359	2514.298166
778.922647	2512.072497
779.246889	2515.744977
779.571086	2510.895387
779.895236	2517.637930
780.219339	2517.645492
780.543397	2518.333610
780.867409	2515.717251
781.191374	2516.579288
781.515294	2516.410409
781.839167	2516.480986
782.162995	2515.099709
782.486776	2518.535256
782.810511	2517.884947
783.134201	2517.635410
783.457844	2514.890502
783.781441	2513.978053
784.104993	2514.426715
784.428498	2515.523166
784.751958	2517.469052
785.075372	2514.898063
785.398739	2517.403517
785.722061	2517.453928
786.045337	2517.632889
786.368568	2517.332941
786.691752	2516.523835
787.014891	2518.600791
787.337983	2515.742457
787.661030	2520.266892
787.984031	2520.587005
788.306987	2518.144566
788.629897	2519.515760
788.952760	2523.427696
789.275579	2520.544156
789.598351	2522.076666
789.921078	2519.611542
790.243759	2518.479803
790.566395	2516.554082
790.888984	2517.632889
791.211529	2516.566685
791.534027	2517.892509
791.856480	2519.072139
792.178888	2514.731705
792.501249	2517.274967
792.823566	2516.488547
793.145836	2516.728002
793.468062	2515.530728
793.790241	2513.325223
794.112375	2514.139370
794.434464	2515.805471
794.756507	2515.513084
795.078505	2514.361180
795.400457	2514.928310
795.722364	2513.539472
796.044226	2516.919566
796.366042	2513.070645
796.687812	2517.007786
797.009538	2519.054495
797.331218	2520.166069
797.652852	2515.971829
797.974442	2517.847138
798.295986	2517.272447
798.617484	2516.284381
798.938938	2518.552900
799.260346	2518.540297
799.581709	2518.860410
799.903026	2517.176665
800.224299	2515.928979
800.545526	2516.453259
800.866708	2515.623989
801.187845	2518.099196
801.508936	2515.543331
801.829983	2517.900070
802.150984	2516.579288
802.471940	2515.132477
802.792851	2513.421005
803.113717	2517.216994
803.434538	2514.731705
803.755314	2513.494102
804.076045	2516.118022
804.396731	2514.424195
804.717372	2516.304545
805.037967	2514.484689
805.358518	2514.643485
805.679024	2517.244720
805.999485	2515.344205
806.319901	2516.491068
806.640272	2515.752539
806.960598	2514.784637
807.280879	2514.366222
807.601115	2517.847138
807.921306	2514.492250
808.241453	2514.701458
808.561554	2513.194153
808.881611	2514.903104
809.201623	2515.145080
809.521590	2515.321520
809.841513	2513.007631
810.161390	2515.392096
810.481223	2515.472755
810.801011	2514.393948
811.120755	2513.085768
811.440453	2515.863444
811.760107	2512.478309
812.079716	2513.347908
812.399281	2511.767507
812.718801	2513.476458
813.038276	2511.142404
813.357707	2514.197343
813.677093	2516.236490
813.996434	2514.905625
814.315731	2516.133146
814.634983	2514.046108
814.954191	2513.786489
815.273354	2514.182219
815.592473	2511.966632
815.911547	2513.743639
816.230577	2515.414782
816.549562	2515.792868
816.868502	2516.544000
817.187399	2516.090296
817.506250	2515.868485
817.825058	2518.182375
818.143821	2516.869154
818.462539	2516.904442
818.781213	2515.525687
819.099843	2522.452232
819.418429	2524.667819
819.736970	2522.371574
820.055466	2526.291071
820.373919	2534.384643
820.692327	2538.203318
821.010691	2549.561037
821.329011	2571.845458
821.647286	2606.949532
821.965517	2643.142497
822.283704	2663.392812
822.601847	2669.333811
822.919945	2654.613642
823.237999	2634.302833
823.556010	2617.795575
823.873976	2603.032556
824.191897	2585.799372
824.509775	2572.838565
824.827609	2562.075702
825.145398	2558.065464
825.463144	2556.154866
825.780845	2553.677139
826.098502	2557.677295
826.416116	2566.814386
826.733685	2576.034657
827.051210	2577.625141
827.368692	2574.539954
827.686129	2564.785322
828.003522	2557.276523
828.320872	2541.830428
828.638177	2536.048224
828.955439	2532.955476
829.272656	2529.857687
829.589830	2523.011800
829.906960	2523.185720
830.224046	2524.163704
830.541088	2521.375946
830.858086	2520.592047
831.175041	2520.271933
831.491952	2518.142046
831.808819	2520.518950
832.125642	2518.265554
832.442421	2524.914836
832.759157	2525.360978
833.075849	2536.128883
833.392497	2543.163813
833.709101	2548.862837
834.025662	2544.330840
834.342179	2540.567619
834.658653	2535.133255
834.975083	2530.248377
835.291469	2534.044366
835.607811	2525.252593
835.924110	2520.004752
836.240366	2519.387211
836.556578	2519.689680
836.872746	2518.878054
837.188871	2515.830677
837.504952	2515.916376
837.820990	2511.177692
838.136984	2512.117867
838.452935	2512.120388
838.768842	2515.876047
839.084706	2512.395130
839.400526	2520.750843
839.716303	2523.926770
840.032037	2522.248066
840.347727	2523.919208
840.663373	2521.827129
840.978977	2520.153466
841.294537	2516.352436
841.610054	2515.931500
841.925527	2513.269771
842.240957	2512.924452
842.556344	2512.868999
842.871687	2513.383197
843.186987	2513.834380
843.502244	2508.944461
843.817458	2509.166271
844.132629	2509.685510
844.447756	2511.359173
844.762840	2506.212155
845.077881	2505.657628
845.392879	2504.878770
845.707833	2508.911693
846.022745	2508.069820
846.337613	2507.011178
846.652438	2507.041425
846.967221	2507.855571
847.281960	2509.690551
847.596656	2511.142404
847.911309	2507.336332
848.225919	2506.940602
848.540485	2509.025119
848.855009	2510.098885
849.169490	2508.296672
849.483928	2507.850530
849.798323	2509.539317
850.112675	2509.796416
850.426984	2509.700634
850.741251	2508.566374
851.055474	2506.532268
851.369654	2506.552433
851.683792	2506.139058
851.997887	2507.989162
852.311938	2510.134173
852.625947	2508.586539
852.939914	2506.282731
853.253837	2507.328771
853.567718	2507.273318
853.881555	2507.225427
854.195350	2508.077382
854.509103	2506.670900
854.822812	2508.523524
855.136479	2510.270284
855.450103	2507.359018
855.763685	2506.829697
856.077224	2506.381034
856.390720	2508.130314
856.704173	2508.185767
857.017584	2508.954543
857.330953	2507.792557
857.644278	2507.666528
857.957561	2512.473268
858.270802	2506.766682
858.584000	2510.582836
858.897155	2508.286590
859.210268	2507.880777
859.523339	2508.541168
859.836367	2508.223576
860.149352	2508.097547
860.462295	2509.120901
860.775195	2506.123935
861.088054	2504.024294
861.400869	2506.071003
861.713642	2502.133862
862.026373	2506.880108
862.339062	2507.754748
862.651708	2507.303565
862.964312	2508.919255
863.276873	2507.132166
863.589392	2508.488236
863.901869	2505.118225
864.214303	2506.083606
864.526696	2511.240706
864.839045	2508.039573
865.151353	2509.050325
865.463619	2511.162568
865.775842	2507.185098
866.088023	2506.144100
866.400162	2506.668380
866.712258	2506.580159
867.024313	2509.819101
867.336325	2509.007475
867.648296	2508.037053
867.960224	2509.209121
868.272110	2507.217865
868.583954	2512.135511
868.895755	2509.282218
869.207515	2506.098729
869.519233	2506.091167
869.830909	2506.761641
870.142542	2508.939419
870.454134	2508.568895
870.765684	2507.096878
871.077191	2508.286590
871.388657	2509.814060
871.700081	2508.082423
872.011463	2510.416478
872.322803	2509.206601
872.634101	2510.461848
872.945357	2509.897239
873.256571	2508.924296
873.567744	2510.000582
873.878874	2512.586694
874.189963	2511.437311
874.501010	2514.058711
874.812015	2510.928155
875.122979	2513.897394
875.433900	2508.271467
875.744780	2511.202898
876.055618	2509.814060
876.366415	2511.054183
876.677169	2510.338340
876.987882	2507.694254
877.298554	2505.395488
877.609183	2510.028309
877.919771	2511.898577
878.230317	2511.875892
878.540822	2514.096520
878.851285	2515.629031
879.161707	2516.884278
879.472087	2518.560462
879.782425	2523.339475
880.092722	2533.240302
880.402977	2544.136756
880.713191	2559.623180
881.023363	2574.469378
881.333494	2583.087231
881.643583	2588.209043
881.953631	2584.846593
882.263637	2580.410378
882.573602	2575.472568
882.883526	2568.639284
883.193408	2563.648542
883.503248	2555.484393
883.813048	2548.688918
884.122806	2543.446117
884.432522	2541.545602
884.742197	2536.416228
885.051831	2529.840043
885.361424	2525.653365
885.670975	2524.796369
885.980485	2517.605163
886.289954	2521.819567
886.599382	2519.178003
886.908768	2518.048784
887.218113	2516.027282
887.527417	2515.523166
887.836680	2514.131808
888.145901	2514.303207
888.455082	2512.175840
888.764221	2513.526869
889.073319	2509.556961
889.382376	2510.295490
889.691392	2510.439163
890.000366	2513.615090
890.309300	2509.521673
890.618193	2510.925634
890.927044	2509.065448
891.235855	2510.338340
891.544625	2510.900428
891.853353	2510.010665
892.162041	2511.838083
892.470687	2513.378155
892.779293	2511.749863
893.087858	2512.276663
893.396381	2513.824297
893.704864	2516.982580
894.013306	2519.004083
894.321707	2528.748633
894.630068	2532.710980
894.938387	2531.082688
895.246665	2530.785260
895.554903	2527.090094
895.863100	2527.289219
896.171256	2525.154291
896.479371	2524.486338
896.787446	2522.346368
897.095480	2522.726975
897.403473	2517.418640
897.711425	2516.289422
898.019336	2514.794720
898.327207	2514.698938
898.635038	2514.731705
898.942827	2512.569050
899.250576	2513.446211
899.558284	2513.403361
899.865952	2511.013854
900.173579	2510.628206
900.481165	2510.726508
900.788711	2510.739111
901.096216	2509.861951
901.403681	2508.387413
901.711105	2507.535458
902.018489	2508.871364
902.325832	2511.326406
902.633135	2510.814729
902.940397	2513.277332
903.247619	2513.426046
903.554800	2522.868128
903.861941	2526.447347
904.169041	2539.440921
904.476101	2535.531506
904.783121	2537.658873
905.090100	2533.439427
905.397039	2528.899868
905.703938	2524.138498
906.010796	2523.195803
906.317614	2520.594567
906.624391	2519.485513
906.931129	2517.632889
907.237826	2513.534431
907.544483	2515.795389
907.851099	2513.105933
908.157675	2512.032167
908.464211	2510.668535
908.770707	2505.113184
909.077163	2507.112001
909.383578	2505.435817
909.689954	2505.377844
909.996289	2502.219561
910.302584	2505.040087
910.608839	2505.647546
910.915054	2507.371621
911.221229	2505.367762
911.527363	2509.486385
911.833458	2507.784995
912.139513	2507.618637
912.445527	2505.387927
912.751502	2510.040912
913.057436	2507.643843
913.363331	2507.928668
913.669186	2505.057731
913.975000	2510.088803
914.280775	2514.507374
914.586510	2515.540810
914.892205	2517.335461
915.197859	2524.014990
915.503475	2528.680578
915.809050	2531.929602
916.114585	2534.833306
916.420081	2538.067206
916.725536	2536.191897
917.030952	2534.578728
917.336328	2528.751154
917.641665	2529.575383
917.946961	2529.378778
918.252218	2524.188910
918.557435	2524.604805
918.862612	2522.132119
919.167750	2520.692870
919.472848	2517.322858
919.777906	2516.261695
920.082925	2515.187930
920.387904	2511.873371
920.692843	2510.892867
920.997743	2509.602331
921.302603	2510.875223
921.607423	2511.248268
921.912204	2511.381858
922.216946	2509.035201
922.521647	2506.355828
922.826310	2509.314985
923.130932	2510.444204
923.435516	2506.307937
923.740059	2509.660304
924.044564	2506.446569
924.349028	2506.554954
924.653454	2501.100425
924.957840	2505.251815
925.262186	2499.651093
925.566493	2503.913389
925.870761	2500.046824
926.174989	2505.602176
926.479178	2505.592093
926.783328	2505.977742
927.087438	2505.524038
927.391509	2503.053872
927.695541	2502.423728
927.999533	2505.766013
928.303486	2505.929851
928.607400	2505.135869
928.911275	2504.702330
929.215110	2500.571104
929.518906	2502.690909
929.822663	2503.676455
930.126381	2503.656290
930.430060	2504.286434
930.733699	2504.571260
931.037299	2504.041938
931.340861	2504.939264
931.644383	2502.927843
931.947866	2504.709891
932.251309	2502.171670
932.554714	2504.533451
932.858080	2506.186949
933.161407	2500.891217
933.464694	2505.823986
933.767943	2503.933554
934.071153	2503.484891
934.374323	2503.689058
934.677455	2503.830210
934.980548	2502.804335
935.283602	2503.139572
935.586617	2504.672083
935.889593	2500.266114
936.192530	2503.275683
936.495428	2506.761641
936.798287	2501.561691
937.101108	2506.726353
937.403890	2502.794253
937.706632	2506.136538
938.009336	2503.989006
938.312002	2507.989162
938.614628	2504.034377
938.917216	2508.160561
939.219765	2504.704850
939.522275	2505.866836
939.824747	2507.842968
940.127179	2503.038749
940.429573	2505.171157
940.731929	2503.802484
941.034246	2500.399705
941.336524	2504.851044
941.638763	2504.576301
941.940964	2503.063955
942.243126	2504.480519
942.545250	2506.494460
942.847335	2506.441528
943.149381	2504.014212
943.451389	2503.719305
943.753359	2502.017915
944.055290	2501.632267
944.357182	2505.334994
944.659036	2505.115704
944.960851	2504.135200
945.262628	2501.697802
945.564367	2500.066989
945.866067	2502.496825
946.167729	2505.355159
946.469352	2504.480519
946.770937	2504.714932
947.072484	2504.813235
947.373992	2504.659480
947.675462	2503.565549
947.976893	2504.029336
948.278286	2504.382216
948.579641	2504.835920
948.880958	2503.021105
949.182236	2503.338697
949.483476	2503.920951
949.784678	2502.330467
950.085841	2501.710405
950.386967	2502.259891
950.688054	2501.705364
950.989103	2504.694768
951.290114	2500.813079
951.591087	2502.320384
951.892021	2503.646208
952.192917	2503.731908
952.493776	2503.875580
952.794596	2504.543533
953.095378	2506.927999
953.396122	2503.184942
953.696828	2504.140241
953.997496	2504.140241
954.298126	2503.068996
954.598718	2506.590242
954.899272	2501.879283
955.199788	2503.936074
955.500266	2506.270128
955.800706	2504.263749
956.101108	2500.213182
956.401472	2502.353152
956.701798	2497.468274
957.002087	2501.806187
957.302337	2501.985148
957.602550	2503.784840
957.902724	2501.516320
958.202861	2502.126300
958.502960	2499.716628
958.803022	2504.293996
959.103045	2501.488594
959.403031	2501.284427
959.702979	2501.566732
960.002889	2498.718480
960.302762	2500.150168
960.602596	2502.292658
960.902393	2499.071361
961.202153	2498.920126
961.501875	2501.065137
961.801559	2500.190497
962.101205	2501.110507
962.400814	2500.326608
962.700385	2501.377689
962.999918	2503.442041
963.299414	2503.230313
963.598873	2500.745024
963.898293	2501.778460
964.197677	2501.198728
964.497022	2504.170488
964.796331	2499.540188
965.095601	2500.538337
965.394835	2501.964983
965.694030	2500.520692
965.993189	2498.920126
966.292309	2498.733603
966.591393	2502.980776
966.890439	2499.908192
967.189447	2501.133193
967.488419	2501.012205
967.787353	2501.294510
968.086249	2500.530775
968.385108	2501.571773
968.683930	2500.944149
968.982714	2499.870384
969.281462	2502.093533
969.580172	2500.732421
969.878844	2500.185456
970.177480	2501.080261
970.476078	2496.964158
970.774639	2499.676299
971.073162	2499.653614
971.371649	2496.444920
971.670098	2498.229488
971.968510	2497.616988
972.266885	2495.812255
972.565223	2500.266114
972.863524	2500.583707
973.161788	2500.019098
973.460014	2500.997082
973.758204	2501.128152
974.056356	2502.910199
974.354471	2498.521875
974.652550	2500.651762
974.950591	2502.766527
975.248595	2498.499190
975.546563	2502.186794
975.844493	2497.163284
976.142386	2503.063955
976.440243	2501.206289
976.738062	2499.036073
977.035845	2501.140754
977.333590	2500.276197
977.631299	2502.252329
977.928971	2498.481546
978.226606	2502.398522
978.524204	2501.491115
978.821765	2500.374499
979.119290	2499.651093
979.416777	2501.004643
979.714228	2501.312154
980.011642	2496.903665
980.309020	2504.314161
980.606360	2502.285096
980.903664	2500.356855
981.200931	2501.831393
981.498162	2502.481701
981.795356	2504.684686
982.092513	2504.034377
982.389633	2503.832731
982.686717	2504.543533
982.983764	2503.812566
983.280775	2505.597134
983.577749	2503.923471
983.874686	2504.341887
984.171587	2503.058913
984.468451	2503.873060
984.765279	2500.951711
985.062070	2502.378358
985.358824	2503.943636
985.655543	2503.225272
985.952224	2503.721825
986.248869	2503.406753
986.545478	2497.634632
986.842050	2498.085815
987.138586	2497.806031
987.435086	2496.812924
987.731549	2495.529950
988.027975	2499.494818
988.324366	2502.723677
988.620719	2501.168481
988.917037	2498.254694
989.213318	2499.494818
989.509563	2500.311485
989.805772	2502.620333
990.101944	2499.792246
990.398080	2501.723008
990.694180	2496.679333
990.990244	2501.430621
991.286271	2500.218223
991.582262	2502.867350
991.878217	2499.414159
992.174136	2502.055724
992.470019	2501.060096
992.765865	2498.620178
993.061676	2500.936588
993.357450	2499.822493
993.653188	2501.349962
993.948890	2501.329798
994.244556	2500.992040
994.540186	2501.894407
994.835780	2501.357524
995.131337	2499.104128
995.426859	2500.568583
995.722345	2498.695795
996.017795	2500.800477
996.313208	2502.499345
996.608586	2501.410456
996.903928	2504.430107
997.199234	2500.157729
997.494504	2503.285765
997.789738	2503.983965
998.084936	2500.939108
998.380099	2500.981958
998.675225	2503.757113
998.970316	2502.058244
999.265371	2501.337359
999.560390	2500.099756
999.855373	2499.441886
1000.150320	2499.789725
1000.445232	2499.409118
1000.740108	2497.327122
1001.034948	2501.753255
1001.329752	2500.061948
1001.624521	2501.518841
1001.919254	2498.501710
1002.213951	2494.821668
1002.508613	2495.197234
1002.803239	2498.108500
1003.097829	2496.870897
1003.392384	2501.939777
1003.686903	2496.724704
1003.981386	2501.344921
1004.275834	2498.877276
1004.570246	2501.344921
1004.864623	2499.096567
1005.158964	2500.245950
1005.453270	2496.298726
1005.747540	2500.591269
1006.041775	2499.487256
1006.335974	2501.481032
1006.630138	2498.899962
1006.924266	2497.831237
1007.218359	2500.979438
1007.512416	2497.092708
1007.806438	2500.308964
1008.100425	2498.141268
1008.394376	2497.488438
1008.688292	2499.235198
1008.982172	2496.626401
1009.276017	2501.092863
1009.569827	2498.811741
1009.863602	2497.984992
1010.157341	2498.262256
1010.451045	2499.290651
1010.744714	2496.669251
1011.038347	2497.480877
1011.331945	2498.002636
1011.625508	2498.665548
1011.919036	2497.271669
1012.212528	2499.678820
1012.505986	2499.154540
1012.799408	2499.353665
1013.092795	2497.616988
1013.386147	2497.944663
1013.679464	2496.326452
1013.972745	2499.078923
1014.265992	2497.979951
1014.559204	2497.448109
1014.852380	2495.635814
1015.145521	2499.303254
1015.438628	2497.828716
1015.731699	2499.963645
1016.024736	2495.915598
1016.317737	2499.391474
1016.610703	2499.598161
1016.903635	2496.253356
1017.196531	2495.013232
1017.489393	2496.681854
1017.782219	2491.416369
1018.075011	2496.666730
1018.367768	2500.888697
1018.660490	2498.826865
1018.953177	2498.826865
1019.245829	2498.826865
