Dividing Wavelength (nm)	Counts (n)	Blue Motor Position (mm): 0.000000	Red Motor Position (mm): 11.300000	
326.493990	2130.169805
326.888308	2130.169805
327.282561	2130.169805
327.676750	2097.208220
328.070874	2095.176635
328.464933	2097.273755
328.858929	2102.009919
329.252859	2111.504933
329.646726	2127.790380
330.040528	2137.822276
330.434265	2151.153608
330.827938	2171.663542
331.221547	2190.300688
331.615091	2207.932123
332.008571	2230.329970
332.401986	2250.000552
332.795338	2266.288520
333.188625	2285.812909
333.581847	2305.392751
333.975006	2321.988229
334.368100	2342.331805
334.761129	2359.953159
335.154095	2375.008565
335.546996	2393.305433
335.939833	2407.332443
336.332606	2420.951120
336.725315	2433.647266
337.117960	2444.049687
337.510540	2450.088989
337.903056	2464.741103
338.295508	2469.497432
338.687896	2480.388845
339.080220	2487.920328
339.472480	2496.797800
339.864676	2498.587410
340.256807	2502.706033
340.648875	2505.738287
341.040879	2509.025119
341.432818	2509.128463
341.824694	2510.842455
342.216506	2511.573422
342.608253	2513.594925
342.999937	2513.602487
343.391557	2514.093999
343.783113	2511.928824
344.174605	2509.418329
344.566033	2508.233658
344.957397	2509.231806
345.348697	2505.208966
345.739934	2505.072854
346.131106	2505.322392
346.522215	2501.440703
346.913260	2500.316526
347.304241	2497.445589
347.695159	2497.861484
348.086012	2494.103304
348.476802	2491.731441
348.867528	2490.889568
349.258191	2490.483755
349.648789	2485.326655
350.039324	2487.330513
350.429796	2485.493013
350.820203	2484.913280
351.210548	2485.999649
351.600828	2480.829946
351.991045	2482.354895
352.381198	2482.160810
352.771288	2480.832466
353.161314	2478.541262
353.551276	2479.042857
353.941175	2480.121663
354.331010	2481.145018
354.720782	2478.581591
355.110490	2481.082003
355.500135	2479.957826
355.889717	2480.053608
356.279235	2480.575367
356.668689	2482.226345
357.058080	2483.637868
357.447408	2480.146869
357.836672	2478.810963
358.225873	2481.641571
358.615010	2479.859523
359.004084	2485.969402
359.393095	2485.087200
359.782043	2481.825573
360.170927	2481.966726
360.559748	2487.726244
360.948505	2487.343116
361.337199	2487.040647
361.725830	2485.190544
362.114398	2489.278919
362.502903	2488.263127
362.891344	2490.428302
363.279722	2490.483755
363.668037	2490.277068
364.056289	2491.688591
364.444478	2491.948210
364.832603	2491.970896
365.220665	2492.159939
365.608665	2494.090701
365.996601	2492.553149
366.384474	2496.311329
366.772284	2496.157574
367.160031	2499.913233
367.547715	2500.326608
367.935336	2501.670076
368.322893	2504.757782
368.710388	2509.778772
369.097820	2515.608866
369.485189	2515.976870
369.872495	2522.605988
370.259738	2530.780218
370.646918	2537.384130
371.034035	2542.765562
371.421090	2552.628579
371.808081	2561.879097
372.195010	2570.194480
372.581875	2586.590833
372.968678	2598.424941
373.355418	2607.083123
373.742096	2625.420320
374.128710	2642.335912
374.515262	2659.150681
374.901751	2673.891014
375.288177	2685.321831
375.674540	2709.317723
376.060841	2725.315825
376.447079	2742.344842
376.833254	2766.313008
377.219367	2777.761469
377.605417	2814.934937
377.991404	2822.751246
378.377329	2844.554237
378.763191	2862.530991
379.148991	2899.407032
379.534727	2923.476021
379.920402	2951.232614
380.306013	2962.000518
380.691563	3013.168230
381.077049	3033.847043
381.462474	3051.322203
381.847835	3089.705548
382.233134	3108.856892
382.618371	3104.566870
383.003545	3170.777384
383.388657	3174.102025
383.773706	3201.813248
384.158693	3212.931513
384.543618	3231.913978
384.928480	3257.878441
385.313280	3293.229532
385.698017	3286.028244
386.082692	3323.695745
386.467305	3315.750887
386.851856	3334.841736
387.236344	3343.260463
387.620770	3353.229345
388.005133	3360.899461
388.389435	3368.138558
388.773674	3356.322093
389.157851	3377.502501
389.541965	3369.280379
389.926018	3321.901094
390.310008	3352.601721
390.693936	3348.140300
391.077802	3355.850745
391.461606	3319.493943
391.845348	3337.952128
392.229027	3310.830721
392.612645	3291.631486
392.996200	3311.659990
393.379694	3306.339053
393.763125	3313.991524
394.146494	3263.857249
394.529801	3263.239708
394.913047	3254.359715
395.296230	3205.972200
395.679351	3195.400900
396.062410	3171.120183
396.445408	3132.764564
396.828343	3112.347891
397.211217	3083.394024
397.594028	3024.382277
397.976778	3014.602438
398.359466	2992.630569
398.742092	2969.468988
399.124656	2920.963006
399.507158	2912.902201
399.889598	2891.326062
400.271977	2878.261912
400.654294	2846.903414
401.036549	2818.620021
401.418742	2791.748150
401.800874	2783.064763
402.182944	2763.840322
402.564952	2748.666449
402.946898	2728.879921
403.328783	2707.659183
403.710606	2685.052129
404.092367	2682.660102
404.474067	2661.603202
404.855705	2649.816984
405.237282	2632.203193
405.618797	2623.890330
406.000250	2614.289452
406.381642	2605.880808
406.762972	2594.870928
407.144240	2588.002356
407.525447	2582.139494
407.906593	2568.500652
408.287677	2565.846485
408.668700	2560.122254
409.049661	2553.757798
409.430560	2549.490461
409.811399	2546.460727
410.192176	2544.736653
410.572891	2540.502084
410.953545	2537.454706
411.334138	2536.252391
411.714669	2530.147554
412.095139	2528.587317
412.475547	2529.819879
412.855894	2525.628159
413.236180	2527.435413
413.616405	2526.459950
413.996568	2528.592358
414.376670	2527.541277
414.756711	2523.407531
415.136691	2527.213602
415.516609	2524.516585
415.896466	2525.731503
416.276262	2525.466842
416.655997	2520.687828
417.035670	2519.440143
417.415283	2524.158663
417.794834	2519.863600
418.174324	2523.435257
418.553753	2522.560617
418.933121	2523.349558
419.312428	2524.083046
419.691674	2523.586492
420.070859	2525.734023
420.449983	2524.463653
420.829045	2523.722603
421.208047	2524.400638
421.586988	2525.761750
421.965867	2526.417100
422.344686	2523.173117
422.723444	2524.579599
423.102141	2523.820906
423.480777	2525.061029
423.859352	2522.643796
424.237866	2525.572707
424.616319	2525.847449
424.994712	2525.998684
425.373044	2525.401307
425.751314	2526.533046
426.129524	2526.028931
426.507673	2527.143026
426.885762	2525.043385
427.263789	2526.714528
427.641756	2526.800228
428.019662	2528.630166
428.397508	2526.132275
428.775292	2526.512882
429.153016	2522.174969
429.530679	2528.589837
429.908282	2526.301153
430.285824	2525.494569
430.663305	2526.543129
431.040726	2526.296112
431.418086	2527.241328
431.795385	2527.344672
432.172624	2526.696884
432.549802	2525.353416
432.926920	2529.993798
433.303977	2528.665454
433.680974	2529.514889
434.057910	2528.022707
434.434786	2529.247708
434.811601	2527.717717
435.188355	2530.772657
435.565050	2527.674868
435.941683	2528.325177
436.318257	2528.620084
436.694770	2524.854342
437.071222	2527.947090
437.447614	2525.555063
437.823946	2527.722759
438.200218	2528.708304
438.576429	2527.385001
438.952580	2530.059333
439.328670	2530.639066
439.704700	2528.393232
440.080670	2528.773839
440.456580	2528.413397
440.832429	2529.708973
441.208218	2530.747451
441.583947	2529.754344
441.959616	2529.351051
442.335224	2529.162008
442.710773	2531.790970
443.086261	2531.160826
443.461689	2529.996319
443.837057	2532.287523
444.212365	2531.498583
444.587612	2530.860877
444.962800	2529.043541
445.337927	2532.680733
445.712995	2528.042872
446.088002	2532.463964
446.462949	2533.462112
446.837837	2530.094622
447.212664	2529.451874
447.587431	2534.359438
447.962139	2532.085877
448.336786	2534.319108
448.711374	2534.558563
449.085901	2535.952442
449.460369	2533.010929
449.834776	2531.884231
450.209124	2533.371372
450.583412	2536.438914
450.957640	2535.614685
451.331808	2536.078471
451.705917	2531.891793
452.079965	2534.669469
452.453954	2536.481763
452.827883	2533.111752
453.201752	2533.842719
453.575562	2535.430683
453.949311	2535.009747
454.323001	2534.780374
454.696632	2531.657379
455.070202	2536.496887
455.443713	2535.642411
455.817164	2532.242153
456.190556	2533.694005
456.563888	2533.394057
456.937160	2530.132430
457.310373	2534.419932
457.683526	2533.021011
458.056619	2536.640560
458.429653	2536.859850
458.802628	2538.881353
459.175542	2535.740714
459.548398	2535.619726
459.921194	2534.732483
460.293930	2538.107536
460.666607	2537.747093
461.039224	2538.336908
461.411782	2540.857485
461.784280	2541.565767
462.156719	2539.776158
462.529099	2538.130221
462.901419	2538.596528
463.273680	2536.179294
463.645882	2540.902855
464.018024	2536.955632
464.390106	2541.270860
464.762130	2541.386806
465.134094	2540.270191
465.505999	2543.609955
465.877845	2546.680018
466.249631	2548.479710
466.621358	2544.174564
466.993026	2544.126673
467.364634	2546.596839
467.736184	2544.719009
468.107674	2544.240099
468.479105	2541.379244
468.850477	2542.480737
469.221790	2544.169523
469.593043	2540.759183
469.964238	2544.640871
470.335373	2540.628113
470.706449	2542.611807
471.077467	2542.168185
471.448425	2541.958977
471.819324	2546.816129
472.190164	2545.633978
472.560945	2543.277239
472.931667	2543.856972
473.302330	2541.938812
473.672934	2541.659028
474.043479	2542.737835
474.413965	2540.930582
474.784393	2539.269522
475.154761	2539.927392
475.525070	2538.092412
475.895321	2540.670962
476.265513	2538.021836
476.635645	2545.596170
477.005719	2543.836807
477.375734	2543.342774
477.745691	2544.719009
478.115588	2542.195911
478.485427	2544.645912
478.855207	2546.702703
479.224928	2546.072559
479.594591	2546.982487
479.964194	2545.132383
480.333739	2547.206818
480.703226	2547.075748
481.072653	2545.928886
481.442022	2545.737322
481.811333	2547.728578
482.180584	2545.505429
482.549777	2544.275387
482.918912	2548.923331
483.287988	2547.181612
483.657005	2547.244627
484.025964	2545.384441
484.394864	2546.382590
484.763706	2545.684390
485.132489	2548.388969
485.501213	2546.329658
485.869879	2544.608103
486.238487	2543.763710
486.607036	2545.674307
486.975527	2544.812270
487.343959	2546.070038
487.712333	2544.363608
488.080648	2545.916283
488.448905	2546.246478
488.817104	2545.860830
489.185244	2545.938968
489.553326	2547.166489
489.921350	2547.131201
490.289315	2548.555327
490.657222	2550.551624
491.025070	2551.096068
491.392861	2550.256716
491.760593	2548.993907
492.128267	2551.091027
492.495883	2548.386448
492.863440	2547.635316
493.230939	2546.523742
493.598380	2545.639019
493.965763	2541.596014
494.333088	2546.259081
494.700354	2544.754297
495.067563	2544.973587
495.434713	2541.500232
495.801805	2548.671273
496.168839	2547.965512
496.535815	2545.969215
496.902733	2545.974256
497.269593	2547.302600
497.636395	2548.436860
498.003139	2550.586912
498.369825	2546.528783
498.736453	2550.549103
499.103023	2545.074410
499.469535	2547.383259
499.835989	2547.612631
500.202385	2549.371994
500.568723	2546.695141
500.935003	2547.242106
501.301226	2544.149358
501.667390	2545.944009
502.033497	2545.621375
502.399546	2546.117929
502.765537	2548.346119
503.131470	2549.906356
503.497345	2547.315203
503.863163	2547.179092
504.228923	2546.143135
504.594625	2549.626572
504.960269	2544.819832
505.325856	2549.616490
505.691385	2545.276056
506.056856	2547.607590
506.422270	2545.981818
506.787625	2547.254709
507.152924	2547.887374
507.518164	2548.325954
507.883347	2547.100954
508.248472	2548.457024
508.613540	2550.004659
508.978550	2544.968546
509.343503	2547.244627
509.708398	2548.126829
510.073236	2548.225131
510.438016	2548.089020
510.802738	2545.336550
511.167403	2547.269833
511.532010	2547.121119
511.896561	2549.762683
512.261053	2550.801161
512.625488	2544.600542
512.989866	2540.272711
513.354186	2546.881664
513.718449	2544.603062
514.082655	2547.995759
514.446803	2548.666232
514.810894	2546.586756
515.174927	2550.680173
515.538904	2546.639688
515.902822	2546.697662
516.266684	2547.017775
516.630488	2548.005841
516.994235	2548.721685
517.357925	2547.226983
517.721558	2548.305790
518.085133	2548.913249
518.448651	2547.892415
518.812112	2550.130687
519.175516	2550.488609
519.538863	2548.449463
519.902152	2549.417364
520.265385	2550.145811
520.628560	2550.324772
520.991678	2549.808054
521.354739	2546.027188
521.717743	2553.160421
522.080690	2549.240924
522.443580	2549.966850
522.806413	2552.852911
523.169189	2549.581202
523.531908	2548.041129
523.894569	2552.406768
524.257174	2549.051881
524.619722	2550.007179
524.982213	2549.727395
525.344647	2548.255378
525.707025	2549.127498
526.069345	2549.281253
526.431608	2547.481561
526.793815	2550.239072
527.155964	2551.733774
527.518057	2549.782848
527.880093	2551.885009
528.242072	2550.279402
528.603995	2547.960471
528.965860	2549.258568
529.327669	2549.513146
529.689421	2549.671942
530.051117	2550.594474
530.412755	2548.699000
530.774337	2551.781665
531.135862	2548.683876
531.497331	2548.641027
531.858743	2547.731098
532.220098	2549.739998
532.581396	2544.300593
532.942638	2547.973074
533.303824	2548.232693
533.664953	2549.112374
534.026025	2548.174720
534.387040	2551.038095
534.747999	2551.708569
535.108902	2550.256716
535.469748	2549.767724
535.830537	2549.555996
536.191270	2550.150852
536.551947	2549.072045
536.912567	2550.602035
537.273131	2548.751932
537.633638	2547.131201
537.994089	2554.675288
538.354483	2549.293856
538.714821	2551.733774
539.075103	2548.792261
539.435328	2551.627910
539.795497	2550.765873
540.155609	2550.463404
540.515665	2550.037426
540.875665	2552.038764
541.235609	2548.283105
541.595496	2550.811243
541.955328	2548.308310
542.315102	2549.903836
542.674821	2553.656975
543.034483	2550.516336
543.394090	2550.591953
543.753640	2551.564896
544.113134	2550.833928
544.472571	2548.454504
544.831953	2550.539021
545.191278	2551.849721
545.550548	2550.758311
545.909761	2551.075904
546.268918	2550.196223
546.628019	2548.298228
546.987064	2548.872920
547.346053	2549.039278
547.704986	2549.482899
548.063863	2551.078424
548.422684	2549.253527
548.781449	2549.616490
549.140158	2550.992725
549.498811	2550.533980
549.857408	2549.941644
550.215949	2547.746222
550.574434	2548.537683
550.932864	2547.784030
551.291237	2550.297046
551.649555	2549.608928
552.007817	2553.460370
552.366022	2552.285781
552.724173	2551.138918
553.082267	2550.987684
553.440305	2550.264278
553.798288	2550.493651
554.156215	2548.696479
554.514086	2550.440718
554.871902	2548.197405
555.229661	2548.729247
555.587365	2547.148845
555.945014	2550.171017
556.302606	2549.893753
556.660143	2550.014741
557.017625	2552.144628
557.375050	2551.075904
557.732421	2551.249824
558.089735	2550.365101
558.446994	2550.193702
558.804197	2551.549772
559.161345	2551.201933
559.518437	2552.595812
559.875474	2552.285781
560.232455	2550.544062
560.589381	2550.150852
560.946251	2555.171841
561.303065	2551.771583
561.659825	2551.252344
562.016528	2552.515153
562.373177	2551.373332
562.729770	2550.171017
563.086307	2554.007335
563.442789	2551.161603
563.799216	2550.443239
564.155587	2549.508105
564.511904	2553.079762
564.868164	2549.566078
565.224370	2552.303425
565.580520	2551.186809
565.936615	2551.418702
566.292654	2548.782179
566.648638	2549.676984
567.004567	2544.890408
567.360441	2550.922149
567.716260	2551.469114
568.072023	2551.033054
568.427732	2547.481561
568.783385	2547.988197
569.138982	2546.122970
569.494525	2550.201264
569.850013	2546.619524
570.205445	2548.343598
570.560823	2551.869886
570.916145	2551.383414
571.271412	2553.152859
571.626625	2549.543393
571.981782	2552.177396
572.336884	2551.718651
572.691931	2549.271171
573.046923	2550.513815
573.401860	2552.888199
573.756743	2549.419885
574.111570	2552.253013
574.466342	2552.953734
574.821059	2550.168496
575.175722	2550.846531
575.530330	2549.641696
575.884882	2551.930379
576.239380	2546.193546
576.593823	2553.745195
576.948211	2548.111705
577.302544	2548.809905
577.656823	2552.152190
578.011047	2550.881819
578.365216	2552.900802
578.719330	2549.220759
579.073389	2549.760163
579.427394	2550.387786
579.781344	2550.055070
580.135239	2551.915256
580.489080	2550.833928
580.842866	2549.563558
581.196597	2552.285781
581.550273	2549.182951
581.903895	2550.047508
582.257463	2550.385266
582.610975	2549.530790
582.964434	2547.279915
583.317837	2552.305945
583.671186	2549.908877
584.024481	2549.119936
584.377721	2553.495658
584.730906	2546.778320
585.084037	2548.600697
585.437113	2548.247817
585.790135	2548.910728
586.143103	2548.693959
586.496016	2550.171017
586.848874	2546.062476
587.201679	2547.428629
587.554428	2546.672456
587.907124	2549.082128
588.259765	2545.200439
588.612352	2549.581202
588.964884	2549.808054
589.317362	2547.922662
589.669786	2547.839483
590.022155	2549.029195
590.374470	2550.239072
590.726731	2551.791748
591.078937	2549.800492
591.431090	2548.832590
591.783188	2548.520039
592.135232	2549.200595
592.487222	2546.831252
592.839157	2549.871068
593.191038	2548.883002
593.542866	2548.963660
593.894639	2544.091385
594.246358	2548.789741
594.598022	2549.805533
594.949633	2549.003990
595.301190	2549.251006
595.652692	2549.251006
596.004141	2550.854093
596.355535	2548.252858
596.706876	2547.617672
597.058162	2548.741850
597.409395	2550.443239
597.760573	2548.699000
598.111698	2546.737991
598.462768	2547.254709
598.813785	2548.762014
599.164748	2547.683207
599.515657	2545.812939
599.866511	2549.145142
600.217312	2545.449976
600.568060	2545.828063
600.918753	2550.380225
601.269392	2548.182282
601.619978	2546.985007
601.970510	2548.900646
602.320988	2547.103475
602.671412	2547.589946
603.021783	2547.035419
603.372100	2550.662529
603.722363	2548.288146
604.072572	2547.884853
604.422728	2550.793599
604.772830	2545.303783
605.122878	2544.237579
605.472872	2547.095913
605.822813	2543.526776
606.172701	2545.361756
606.522534	2544.131714
606.872314	2551.577499
607.222041	2545.339071
607.571714	2549.664381
607.921333	2549.997097
608.270899	2544.114070
608.620411	2549.054401
608.969870	2550.430636
609.319276	2548.094061
609.668627	2551.280071
610.017926	2553.072201
610.367171	2557.397511
610.716362	2553.294012
611.065500	2554.695452
611.414585	2551.179248
611.763616	2552.046326
612.112594	2548.303269
612.461518	2549.558517
612.810389	2548.819988
613.159207	2553.553631
613.507971	2548.008362
613.856682	2551.711089
614.205340	2550.274360
614.553945	2550.662529
614.902496	2548.215049
615.250994	2547.176571
615.599439	2549.944165
615.947830	2550.491130
616.296169	2547.905018
616.644454	2547.355532
616.992686	2546.622044
617.340864	2547.353012
617.688990	2550.047508
618.037063	2546.299411
618.385082	2548.512477
618.733048	2548.318393
619.080961	2546.390151
619.428821	2551.118754
619.776628	2545.918803
620.124382	2550.251675
620.472083	2546.059956
620.819731	2546.551468
621.167326	2547.247147
621.514868	2548.542724
621.862357	2549.288815
622.209793	2546.783361
622.557176	2546.223793
622.904506	2545.412167
623.251783	2541.989224
623.599007	2544.535007
623.946179	2541.717002
624.293297	2545.245809
624.640363	2548.699000
624.987376	2547.569781
625.334336	2547.839483
625.681243	2547.531973
626.028097	2545.762528
626.374899	2548.328475
626.721647	2548.378887
627.068343	2546.932075
627.414987	2545.157589
627.761577	2547.330327
628.108115	2542.947043
628.454600	2547.726057
628.801032	2545.369318
629.147412	2545.966694
629.493739	2543.741025
629.840014	2548.051212
630.186236	2544.708927
630.532405	2544.860161
630.878521	2547.562220
631.224585	2545.187836
631.570597	2546.312013
631.916556	2547.305121
632.262462	2545.586087
632.608316	2544.028371
632.954117	2541.792619
633.299866	2545.911242
633.645562	2544.696324
633.991206	2545.641540
634.336797	2545.112219
634.682336	2546.821170
635.027823	2543.972918
635.373257	2546.392672
635.718639	2544.398896
636.063968	2544.862682
636.409245	2544.285470
636.754470	2545.802857
637.099642	2547.398382
637.444762	2544.492157
637.789829	2541.974101
638.134845	2543.524255
638.479808	2544.552651
638.824719	2544.678680
639.169577	2545.797816
639.514383	2545.132383
639.859137	2545.898639
640.203839	2545.565923
640.548489	2543.632640
640.893086	2539.272042
641.237632	2538.036959
641.582125	2541.913607
641.926566	2538.299099
642.270955	2541.096940
642.615292	2542.354708
642.959576	2545.923845
643.303809	2544.126673
643.647990	2543.511652
643.992118	2546.120450
644.336195	2543.088196
644.680219	2542.526107
645.024192	2544.068700
645.368112	2546.248999
645.711981	2543.859492
646.055797	2543.277239
646.399562	2542.770603
646.743274	2543.403268
647.086935	2544.739173
647.430544	2542.223638
647.774101	2544.623227
648.117606	2544.756817
648.461059	2545.487785
648.804460	2546.269164
649.147810	2542.354708
649.491108	2542.934440
649.834354	2543.635161
650.177548	2541.651467
650.520690	2542.594163
650.863781	2543.105840
651.206820	2545.023999
651.549807	2544.930737
651.892742	2542.314378
652.235626	2543.360418
652.578458	2541.447300
652.921238	2540.776827
653.263967	2542.180788
653.606644	2541.311189
653.949269	2543.040305
654.291843	2542.659697
654.634365	2540.948226
654.976836	2540.204656
655.319255	2543.307486
655.661622	2541.787578
656.003938	2542.342105
656.346203	2544.721529
656.688416	2542.266487
657.030577	2541.767413
657.372687	2544.005686
657.714746	2541.101981
658.056753	2542.271529
658.398708	2536.416228
658.740612	2538.896476
659.082465	2537.416898
659.424266	2540.328164
659.766016	2536.799356
660.107715	2541.865716
660.449362	2541.719522
660.790958	2540.751621
661.132503	2542.006868
661.473996	2543.226827
661.815438	2543.015099
662.156829	2543.010058
662.498168	2544.131714
662.839456	2540.910417
663.180693	2541.837989
663.521879	2544.371169
663.863013	2540.996117
664.204097	2540.907897
664.545129	2542.687424
664.886110	2542.319420
665.227040	2538.861188
665.567918	2543.131045
665.908746	2541.873278
666.249522	2541.747249
666.590248	2539.798843
666.930922	2541.538041
667.271545	2541.538041
667.612118	2543.723381
667.952639	2540.706250
668.293109	2542.979811
668.633528	2542.238761
668.973896	2542.778165
669.314213	2541.356559
669.654480	2543.241951
669.994695	2541.364121
670.334859	2539.635005
670.674973	2539.564429
671.015035	2541.469985
671.355047	2543.574667
671.695008	2543.345294
672.034918	2540.862526
672.374777	2540.885211
672.714585	2541.764893
673.054342	2542.395037
673.394049	2543.269677
673.733705	2545.437373
674.073310	2545.651622
674.412864	2544.172044
674.752368	2542.140459
675.091820	2542.604245
675.431223	2540.307999
675.770574	2545.268495
676.109875	2535.092926
676.449125	2538.765406
676.788324	2538.372196
677.127473	2541.069213
677.466571	2537.311033
677.805619	2541.555685
678.144616	2540.310520
678.483562	2540.081147
678.822458	2541.112063
679.161303	2542.142979
679.500098	2543.693134
679.838842	2539.882022
680.177535	2541.031405
680.516179	2541.084337
680.854771	2542.208514
681.193314	2539.725746
681.531805	2544.824873
681.870247	2541.699358
682.208638	2540.917979
682.546978	2542.024512
682.885268	2540.280273
683.223508	2541.762372
683.561697	2540.237423
683.899836	2539.486291
684.237925	2541.638864
684.575963	2539.544264
684.913951	2541.994265
685.251889	2544.424101
685.589776	2540.935623
685.927614	2542.135417
686.265401	2544.129194
686.603137	2542.483257
686.940824	2538.324305
687.278460	2541.336395
687.616046	2538.112577
687.953582	2542.624409
688.291068	2541.112063
688.628504	2542.682383
688.965889	2541.028884
689.303224	2539.430838
689.640510	2542.095088
689.977745	2543.486447
690.314930	2541.807742
690.652065	2540.683565
690.989150	2541.414532
691.326185	2539.453524
691.663170	2541.923689
692.000105	2544.005686
692.336990	2539.524100
692.673825	2544.333361
693.010610	2540.938143
693.347345	2538.558719
693.684030	2537.749614
694.020665	2538.346990
694.357251	2533.905734
694.693786	2537.283307
695.030272	2541.427135
695.366707	2542.122815
695.703093	2538.571322
696.039429	2541.424615
696.375716	2540.623071
696.711952	2540.532331
697.048139	2539.342618
697.384276	2539.942516
697.720363	2537.008564
698.056400	2541.099460
698.392388	2539.879501
698.728326	2538.155427
699.064214	2538.397402
699.400053	2539.617361
699.735842	2537.474871
700.071581	2541.195242
700.407270	2538.974614
700.742910	2537.235416
701.078501	2540.323123
701.414042	2539.425797
701.749533	2540.560057
702.084974	2538.379758
702.420366	2538.286497
702.755709	2541.724563
703.091002	2537.099305
703.426246	2539.478729
703.761440	2537.956301
704.096584	2540.459234
704.431679	2539.395550
704.766725	2540.267670
705.101721	2539.813966
705.436668	2538.152906
705.771565	2539.468647
706.106413	2540.486960
706.441212	2537.681558
706.775961	2541.124666
707.110661	2538.644418
707.445311	2535.624767
707.779913	2538.399922
708.114465	2541.051569
708.448967	2537.938657
708.783421	2539.251878
709.117825	2535.728111
709.452180	2540.975952
709.786485	2540.292876
710.120742	2538.180632
710.454949	2540.418905
710.789107	2540.174409
711.123216	2533.948584
711.457275	2540.693647
711.791286	2536.776671
712.125247	2534.271217
712.459159	2539.778678
712.793023	2541.843031
713.126837	2538.420087
713.460602	2541.112063
713.794318	2539.231713
714.127985	2539.957639
714.461602	2538.525951
714.795171	2540.242464
715.128691	2540.043339
715.462162	2538.243647
715.795584	2537.550488
716.128957	2537.106867
716.462281	2537.757175
716.795556	2538.621733
717.128782	2538.823379
717.461960	2539.619882
717.795088	2536.610313
718.128167	2539.534182
718.461198	2536.484284
718.794180	2537.386651
719.127113	2537.706764
719.459997	2535.932278
719.792833	2536.035621
720.125619	2537.268183
720.458357	2537.459747
720.791046	2537.744572
721.123686	2536.164171
721.456278	2538.709953
721.788821	2539.335057
722.121315	2537.321116
722.453761	2535.846578
722.786158	2536.325488
723.118506	2536.340611
723.450805	2536.378420
723.783056	2537.003523
724.115259	2536.963194
724.447412	2537.870601
724.779518	2537.326157
725.111574	2535.468492
725.443582	2540.192053
725.775542	2538.906558
726.107453	2537.333718
726.439315	2539.856816
726.771129	2539.907227
727.102895	2535.821372
727.434612	2537.878163
727.766281	2537.419418
728.097901	2535.307175
728.429473	2532.257277
728.760996	2535.145858
729.092471	2532.290044
729.423897	2537.825231
729.755276	2536.612833
730.086606	2538.503266
730.417887	2537.800025
730.749120	2538.949408
731.080305	2539.942516
731.411442	2538.339429
731.742530	2539.713143
732.073570	2537.374048
732.404562	2537.583256
732.735506	2539.297248
733.066401	2538.389840
733.397249	2539.002340
733.728048	2541.162475
734.058798	2539.110725
734.389501	2539.214069
734.720156	2535.592000
735.050762	2537.689120
735.381320	2536.950591
735.711831	2538.725077
736.042293	2536.965714
736.372707	2535.355066
736.703073	2539.982845
737.033391	2535.967566
737.363661	2536.685930
737.693883	2537.167360
738.024056	2539.216589
738.354182	2535.652494
738.684260	2536.819521
739.014290	2537.255581
739.344272	2536.333049
739.674207	2539.249357
740.004093	2539.685417
740.333931	2534.941691
740.663722	2538.021836
740.993464	2536.406146
741.323159	2536.522093
741.652806	2536.214582
741.982405	2539.244316
742.311956	2537.852957
742.641460	2536.537216
742.970915	2538.853626
743.300323	2535.823893
743.629683	2539.413194
743.958996	2537.023688
744.288260	2536.960673
744.617477	2537.913451
744.946647	2531.594365
745.275768	2536.055786
745.604842	2533.905734
745.933869	2532.640404
746.262847	2530.765095
746.591778	2534.404808
746.920662	2535.528985
747.249498	2533.517565
747.578286	2535.055117
747.907027	2537.749614
748.235720	2536.040662
748.564365	2538.369676
748.892963	2534.200641
749.221514	2533.401618
749.550017	2536.849768
749.878473	2535.927237
750.206881	2537.542926
750.535242	2536.428831
750.863555	2537.235416
751.191821	2535.629808
751.520039	2535.869263
751.848210	2534.114942
752.176334	2535.690302
752.504411	2536.353214
752.832440	2534.777853
753.160421	2536.454037
753.488356	2535.602082
753.816243	2536.012936
754.144082	2538.609130
754.471875	2535.312216
754.799620	2534.399767
755.127318	2534.911444
755.454969	2537.331198
755.782572	2537.462268
756.110129	2536.673327
756.437638	2536.227185
756.765100	2533.797349
757.092515	2534.402287
757.419882	2534.014119
757.747203	2535.405477
758.074477	2535.818852
758.401703	2535.778523
758.728882	2535.735673
759.056014	2538.382278
759.383099	2534.545960
759.710138	2536.612833
760.037129	2537.381609
760.364073	2537.366486
760.690970	2535.246681
761.017820	2537.489994
761.344623	2535.541588
761.671379	2536.902700
761.998088	2531.612009
762.324751	2536.963194
762.651366	2534.064530
762.977935	2536.791794
763.304456	2536.882535
763.630931	2539.430838
763.957359	2536.688451
764.283740	2537.784902
764.610074	2534.455220
764.936362	2538.357073
765.262602	2538.014274
765.588796	2537.847916
765.914943	2537.759696
766.241044	2535.344983
766.567097	2536.423790
766.893104	2536.355735
767.219064	2534.855991
767.544978	2536.706095
767.870845	2534.122503
768.196665	2535.329860
768.522438	2535.387833
768.848165	2535.042514
769.173846	2533.799870
769.499479	2534.944212
769.825066	2533.573018
770.150607	2534.976979
770.476101	2533.900693
770.801548	2534.598893
771.126949	2535.632329
771.452303	2534.087215
771.777611	2534.556043
772.102872	2532.756351
772.428087	2536.015457
772.753256	2535.342463
773.078378	2534.755168
773.403453	2532.869777
773.728482	2531.967410
774.053465	2536.116280
774.378401	2533.255425
774.703291	2533.371372
775.028135	2533.956145
775.352932	2533.704088
775.677683	2532.945394
776.002388	2534.896321
776.327046	2535.027391
776.651658	2534.525796
776.976224	2534.256094
777.300743	2535.198790
777.625216	2536.012936
777.949643	2535.718029
778.274024	2533.991433
778.598359	2530.437420
778.922647	2531.831299
779.246889	2532.209386
779.571086	2531.261649
779.895236	2534.682072
780.219339	2533.620909
780.543397	2536.577545
780.867409	2533.333563
781.191374	2535.085364
781.515294	2533.570497
781.839167	2533.333563
782.162995	2535.047555
782.486776	2533.935981
782.810511	2534.639222
783.134201	2533.736855
783.457844	2533.726773
783.781441	2532.426155
784.104993	2534.319108
784.428498	2535.140817
784.751958	2535.221475
785.075372	2534.092257
785.398739	2536.383461
785.722061	2534.727442
786.045337	2533.825075
786.368568	2531.922040
786.691752	2533.187369
787.014891	2532.819365
787.337983	2534.087215
787.661030	2535.435724
787.984031	2532.486649
788.306987	2532.446320
788.629897	2536.741383
788.952760	2535.186187
789.275579	2535.087884
789.598351	2533.963707
789.921078	2533.280631
790.243759	2533.809952
790.566395	2533.474715
790.888984	2531.405322
791.211529	2533.005888
791.534027	2532.884900
791.856480	2533.893131
792.178888	2534.384643
792.501249	2536.267514
792.823566	2535.932278
793.145836	2534.243491
793.468062	2535.982689
793.790241	2532.113604
794.112375	2534.568646
794.434464	2532.043028
794.756507	2534.591331
795.078505	2536.234747
795.400457	2529.759385
795.722364	2531.324663
796.044226	2532.990764
796.366042	2531.455733
796.687812	2530.336597
797.009538	2534.016639
797.331218	2531.720394
797.652852	2535.649973
797.974442	2532.821886
798.295986	2536.887576
798.617484	2534.530837
798.938938	2532.532019
799.260346	2534.906403
799.581709	2536.673327
799.903026	2533.590662
800.224299	2533.845240
800.545526	2533.308357
800.866708	2534.094777
801.187845	2532.380785
801.508936	2533.399098
801.829983	2533.953625
802.150984	2533.414221
802.471940	2534.455220
802.792851	2532.025383
803.113717	2535.355066
803.434538	2534.215765
803.755314	2533.774664
804.076045	2535.682741
804.396731	2534.079654
804.717372	2532.852133
805.037967	2528.622605
805.358518	2531.959848
805.679024	2532.847092
805.999485	2534.659386
806.319901	2536.033101
806.640272	2535.302133
806.960598	2531.954807
807.280879	2533.010929
807.601115	2533.061341
807.921306	2533.704088
808.241453	2534.603934
808.561554	2531.233922
808.881611	2535.695343
809.201623	2533.799870
809.521590	2533.318439
809.841513	2532.098480
810.161390	2534.944212
810.481223	2533.560415
810.801011	2534.107380
811.120755	2530.815507
811.440453	2531.909437
811.760107	2532.620240
812.079716	2531.357431
812.399281	2528.610002
812.718801	2531.027235
813.038276	2527.011956
813.357707	2533.668800
813.677093	2531.244005
813.996434	2531.488501
814.315731	2532.577390
814.634983	2532.854653
814.954191	2533.588141
815.273354	2533.764582
815.592473	2533.237781
815.911547	2534.596372
816.230577	2534.634181
816.549562	2531.291896
816.868502	2530.197965
817.187399	2533.930940
817.506250	2533.845240
817.825058	2535.445806
818.143821	2532.509334
818.462539	2531.916999
818.781213	2533.159643
819.099843	2534.462781
819.418429	2534.523275
819.736970	2533.910775
820.055466	2537.237937
820.373919	2534.533357
820.692327	2536.320447
821.010691	2538.568801
821.329011	2538.677186
821.647286	2545.175233
821.965517	2547.937786
822.283704	2554.677808
822.601847	2552.754608
822.919945	2552.195040
823.237999	2545.457538
823.556010	2544.663556
823.873976	2541.238092
824.191897	2540.154244
824.509775	2537.613502
824.827609	2538.558719
825.145398	2535.740714
825.463144	2534.866074
825.780845	2537.356404
826.098502	2538.646939
826.416116	2538.422608
826.733685	2540.408822
827.051210	2537.069058
827.368692	2538.407484
827.686129	2540.560057
828.003522	2537.726928
828.320872	2530.477749
828.638177	2533.978831
828.955439	2527.727800
829.272656	2531.254087
829.589830	2528.972965
829.906960	2533.005888
830.224046	2530.714683
830.541088	2534.974458
830.858086	2535.632329
831.175041	2531.097811
831.491952	2532.557225
831.808819	2534.306506
832.125642	2533.283151
832.442421	2533.714170
832.759157	2532.965559
833.075849	2536.529654
833.392497	2533.555374
833.709101	2539.529141
834.025662	2534.727442
834.342179	2535.806249
834.658653	2534.455220
834.975083	2534.634181
835.291469	2536.668286
835.607811	2533.378933
835.924110	2533.600744
836.240366	2532.514375
836.556578	2531.138140
836.872746	2535.579397
837.188871	2532.922709
837.504952	2530.994467
837.820990	2531.909437
838.136984	2530.911288
838.452935	2530.127389
838.768842	2533.189890
839.084706	2534.094777
839.400526	2530.071936
839.716303	2531.304498
840.032037	2533.230219
840.347727	2532.179139
840.663373	2532.700898
840.978977	2531.261649
841.294537	2531.513706
841.610054	2535.828934
841.925527	2533.293234
842.240957	2531.364992
842.556344	2531.513706
842.871687	2531.213758
843.186987	2531.435568
843.502244	2529.729138
843.817458	2531.468336
844.132629	2532.892462
844.447756	2528.720907
844.762840	2529.000691
845.077881	2530.225692
845.392879	2528.925074
845.707833	2531.536392
846.022745	2525.514733
846.337613	2529.686288
846.652438	2533.588141
846.967221	2531.352389
847.281960	2531.677544
847.596656	2529.267872
847.911309	2532.199303
848.225919	2529.973634
848.540485	2531.327184
848.855009	2531.410363
849.169490	2532.985723
849.483928	2531.601927
849.798323	2529.910619
850.112675	2530.613860
850.426984	2529.842564
850.741251	2528.857018
851.055474	2529.857687
851.369654	2531.370033
851.683792	2532.174097
851.997887	2531.748120
852.311938	2529.976154
852.625947	2532.600075
852.939914	2531.180990
853.253837	2532.403470
853.567718	2532.978162
853.881555	2532.983203
854.195350	2530.991947
854.509103	2529.323325
854.822812	2532.131248
855.136479	2531.203675
855.450103	2532.869777
855.763685	2530.838192
856.077224	2529.693850
856.390720	2532.421114
856.704173	2532.325332
857.017584	2531.503624
857.330953	2527.947090
857.644278	2529.368695
857.957561	2534.021680
858.270802	2530.734848
858.584000	2530.507996
858.897155	2530.291227
859.210268	2530.192924
859.523339	2531.962369
859.836367	2529.487163
860.149352	2533.787267
860.462295	2530.351720
860.775195	2527.672347
861.088054	2528.239477
861.400869	2529.887934
861.713642	2527.881555
862.026373	2531.007070
862.339062	2531.312060
862.651708	2532.985723
862.964312	2529.945908
863.276873	2531.032276
863.589392	2530.145033
863.901869	2529.635877
864.214303	2529.976154
864.526696	2529.824920
864.839045	2529.068747
865.151353	2529.111597
865.463619	2527.432892
865.775842	2530.069416
866.088023	2530.560928
866.400162	2529.043541
866.712258	2530.878521
867.024313	2534.011598
867.336325	2531.876669
867.648296	2532.040507
867.960224	2529.088911
868.272110	2532.655528
868.583954	2530.419776
868.895755	2532.484128
869.207515	2530.666793
869.519233	2530.928932
869.830909	2533.993954
870.142542	2532.622760
870.454134	2533.504962
870.765684	2531.594365
871.077191	2531.140661
871.388657	2534.356917
871.700081	2531.110414
872.011463	2530.737369
872.322803	2530.732327
872.634101	2533.046217
872.945357	2531.453213
873.256571	2532.053110
873.567744	2529.184693
873.878874	2530.883562
874.189963	2531.884231
874.501010	2530.223171
874.812015	2528.408356
875.122979	2531.685106
875.433900	2530.863398
875.744780	2529.401463
876.055618	2531.438089
876.366415	2531.823737
876.677169	2529.719056
876.987882	2527.866432
877.298554	2529.353572
877.609183	2529.918181
877.919771	2528.420958
878.230317	2528.496576
878.540822	2534.051927
878.851285	2532.559746
879.161707	2531.430527
879.472087	2533.280631
879.782425	2531.233922
880.092722	2533.865405
880.402977	2533.920857
880.713191	2536.476722
881.023363	2538.198276
881.333494	2542.359749
881.643583	2541.079296
881.953631	2541.510314
882.263637	2540.721374
882.573602	2539.274563
882.883526	2538.165509
883.193408	2537.931095
883.503248	2535.407998
883.813048	2534.790456
884.122806	2532.469005
884.432522	2533.217616
884.742197	2530.800383
885.051831	2534.712318
885.361424	2528.128572
885.670975	2530.255938
885.980485	2532.242153
886.289954	2533.033614
886.599382	2532.529499
886.908768	2527.639580
887.218113	2530.321473
887.527417	2534.016639
887.836680	2529.562780
888.145901	2532.131248
888.455082	2530.220650
888.764221	2531.828778
889.073319	2529.615712
889.382376	2528.652852
889.691392	2528.998171
890.000366	2530.908768
890.309300	2531.707791
890.618193	2530.318953
890.927044	2529.018335
891.235855	2531.987575
891.544625	2532.088398
891.853353	2529.691329
892.162041	2529.809796
892.470687	2534.591331
892.779293	2528.829292
893.087858	2527.926925
893.396381	2526.500279
893.704864	2528.355423
894.013306	2525.265196
894.321707	2535.256763
894.630068	2530.944056
894.938387	2532.927750
895.246665	2533.527647
895.554903	2535.869263
895.863100	2530.190403
896.171256	2532.867256
896.479371	2530.051772
896.787446	2530.807945
897.095480	2527.992460
897.403473	2530.760054
897.711425	2529.973634
898.019336	2528.378109
898.327207	2528.713345
898.635038	2529.829961
898.942827	2531.244005
899.250576	2534.064530
899.558284	2527.241328
899.865952	2532.516896
900.173579	2529.504807
900.481165	2533.562935
900.788711	2530.376926
901.096216	2531.259128
901.403681	2529.532533
901.711105	2530.225692
902.018489	2528.703263
902.325832	2530.951618
902.633135	2528.667975
902.940397	2529.015815
903.247619	2527.967255
903.554800	2533.399098
903.861941	2534.092257
904.169041	2534.170394
904.476101	2534.694674
904.783121	2534.361958
905.090100	2534.742565
905.397039	2534.276259
905.703938	2532.713501
906.010796	2532.673172
906.317614	2530.293747
906.624391	2530.903727
906.931129	2530.903727
907.237826	2530.422297
907.544483	2532.496731
907.851099	2529.691329
908.157675	2530.354241
908.464211	2530.639066
908.770707	2526.142357
909.077163	2527.979858
909.383578	2525.315608
909.689954	2528.839374
909.996289	2523.541122
910.302584	2531.564118
910.608839	2527.246370
910.915054	2528.730989
911.221229	2528.930115
911.527363	2529.719056
911.833458	2529.935825
912.139513	2530.321473
912.445527	2530.704601
912.751502	2529.582944
913.057436	2527.251411
913.363331	2530.427338
913.669186	2530.250897
913.975000	2529.512368
914.280775	2529.494724
914.586510	2530.812986
914.892205	2530.949097
915.197859	2529.971113
915.503475	2529.524971
915.809050	2535.534027
916.114585	2533.416742
916.420081	2532.801721
916.725536	2533.721732
917.030952	2532.607637
917.336328	2531.067564
917.641665	2531.559077
917.946961	2531.548994
918.252218	2531.191072
918.557435	2530.271062
918.862612	2529.454395
919.167750	2528.751154
919.472848	2528.153777
919.777906	2530.437420
920.082925	2530.381967
920.387904	2530.323994
920.692843	2528.110928
920.997743	2528.042872
921.302603	2527.395084
921.607423	2529.383819
921.912204	2529.850126
922.216946	2531.211237
922.521647	2528.463808
922.826310	2527.758047
923.130932	2529.086391
923.435516	2528.393232
923.740059	2530.898686
924.044564	2530.286185
924.349028	2527.649662
924.653454	2524.685463
924.957840	2529.255269
925.262186	2524.415762
925.566493	2529.905578
925.870761	2524.095648
926.174989	2527.604292
926.479178	2528.874662
926.783328	2529.098994
927.087438	2526.800227
927.391509	2530.192924
927.695541	2525.769312
927.999533	2528.612522
928.303486	2528.005063
928.607400	2528.226874
928.911275	2528.007584
929.215110	2529.855167
929.518906	2528.189065
929.822663	2528.453726
930.126381	2525.723941
930.430060	2528.128572
930.733699	2524.398118
931.037299	2527.329549
931.340861	2527.137985
931.644383	2528.690660
931.947866	2528.030269
932.251309	2527.006915
932.554714	2531.584282
932.858080	2531.357431
933.161407	2526.573376
933.464694	2528.221833
933.767943	2525.902902
934.071153	2530.379447
934.374323	2528.176462
934.677455	2529.769467
934.980548	2527.911802
935.283602	2528.771319
935.586617	2525.542460
935.889593	2528.874662
936.192530	2528.680578
936.495428	2531.382636
936.798287	2525.045906
937.101108	2527.296781
937.403890	2528.362985
937.706632	2528.413397
938.009336	2528.408356
938.312002	2531.327184
938.614628	2528.854498
938.917216	2530.618902
939.219765	2530.019004
939.522275	2529.434230
939.824747	2529.187214
940.127179	2526.429703
940.429573	2523.531039
940.731929	2525.204702
941.034246	2524.287212
941.336524	2529.247708
941.638763	2527.919364
941.940964	2531.344828
942.243126	2528.912471
942.545250	2532.065713
942.847335	2527.246370
943.149381	2529.789632
943.451389	2529.789632
943.753359	2525.418951
944.055290	2525.325690
944.357182	2528.587317
944.659036	2527.979857
944.960851	2529.923222
945.262628	2527.011956
945.564367	2529.744261
945.866067	2528.453726
946.167729	2527.180835
946.469352	2528.733510
946.770937	2526.258303
947.072484	2528.148736
947.373992	2529.172090
947.675462	2525.955834
947.976893	2530.699560
948.278286	2529.401463
948.579641	2528.985568
948.880958	2528.564631
949.182236	2529.502286
949.483476	2528.108407
949.784678	2527.906761
950.085841	2528.675537
950.386967	2531.755682
950.688054	2527.148067
950.989103	2529.472039
951.290114	2528.546987
951.591087	2530.951618
951.892021	2530.409694
952.192917	2527.861390
952.493776	2528.756195
952.794596	2529.492204
953.095378	2531.453213
953.396122	2529.663603
953.696828	2527.942049
953.997496	2529.242667
954.298126	2522.860566
954.598718	2525.613036
954.899272	2528.216792
955.199788	2526.701925
955.500266	2526.880886
955.800706	2528.405835
956.101108	2520.995339
956.401472	2525.161853
956.701798	2524.584640
957.002087	2524.657737
957.302337	2524.607326
957.602550	2527.508510
957.902724	2527.637059
958.202861	2528.473891
958.502960	2529.741741
958.803022	2526.969106
959.103045	2528.035310
959.403031	2529.076308
959.702979	2527.561442
960.002889	2527.745444
960.302762	2526.996833
960.602596	2529.083870
960.902393	2527.909281
961.202153	2527.175793
961.501875	2527.500948
961.801559	2528.955321
962.101205	2526.553211
962.400814	2528.418438
962.700385	2529.156967
962.999918	2526.394415
963.299414	2525.134126
963.598873	2530.046731
963.898293	2529.504807
964.197677	2527.957172
964.497022	2525.371060
964.796331	2526.520443
965.095601	2526.076822
965.394835	2530.031607
965.694030	2526.157480
965.993189	2526.505320
966.292309	2526.109589
966.591393	2527.909281
966.890439	2526.810310
967.189447	2527.876514
967.488419	2526.517923
967.787353	2525.686133
968.086249	2525.461801
968.385108	2528.796524
968.683930	2528.115969
968.982714	2525.451719
969.281462	2527.866432
969.580172	2528.962882
969.878844	2526.069260
970.177480	2527.889117
970.476078	2526.177645
970.774639	2526.984230
971.073162	2524.566996
971.371649	2523.299146
971.670098	2524.877027
971.968510	2526.200330
972.266885	2523.016842
972.565223	2528.476411
972.863524	2527.311905
973.161788	2527.369878
973.460014	2526.089425
973.758204	2527.148067
974.056356	2526.298633
974.354471	2525.350896
974.652550	2525.789476
974.950591	2527.856349
975.248595	2528.345341
975.546563	2525.920546
975.844493	2527.274096
976.142386	2526.510361
976.440243	2525.459281
976.738062	2526.754857
977.035845	2525.272758
977.333590	2527.843746
977.631299	2525.471883
977.928971	2527.029600
978.226606	2527.896678
978.524204	2526.974147
978.821765	2529.257790
979.119290	2528.158818
979.416777	2527.354754
979.714228	2528.897348
980.011642	2526.538087
980.309020	2526.986750
980.606360	2526.729651
980.903664	2524.153622
981.200931	2528.660413
981.498162	2525.129085
981.795356	2526.545649
982.092513	2527.558921
982.389633	2528.025228
982.686717	2529.303160
982.983764	2526.054137
983.280775	2527.967255
983.577749	2528.811648
983.874686	2527.085053
984.171587	2527.591689
984.468451	2527.329549
984.765279	2526.810310
985.062070	2528.415917
985.358824	2527.755526
985.655543	2526.298633
985.952224	2528.660413
986.248869	2525.171935
986.545478	2523.286543
986.842050	2526.626308
987.138586	2522.870648
987.435086	2521.413755
987.731549	2518.832684
988.027975	2526.981709
988.324366	2524.062881
988.620719	2526.311236
988.917037	2526.154960
989.213318	2529.661082
989.509563	2524.466173
989.805772	2527.092614
990.101944	2522.953827
990.398080	2525.701256
990.694180	2527.193438
990.990244	2523.531039
991.286271	2526.124713
991.582262	2526.331400
991.878217	2527.284178
992.174136	2528.191586
992.470019	2525.378622
992.765865	2525.353416
993.061676	2528.035310
993.357450	2526.235618
993.653188	2528.589837
993.948890	2525.645803
994.244556	2525.945752
994.540186	2527.974816
994.835780	2525.600433
995.131337	2529.744261
995.426859	2525.970958
995.722345	2526.114631
996.017795	2524.821575
996.313208	2528.521782
996.608586	2524.642614
996.903928	2525.300484
997.199234	2526.233098
997.494504	2527.022038
997.789738	2527.347193
998.084936	2526.263345
998.380099	2526.361647
998.675225	2525.401307
998.970316	2530.790301
999.265371	2526.797707
999.560390	2529.726617
999.855373	2524.992974
1000.150320	2527.745444
1000.445232	2526.349044
1000.740108	2523.911646
1001.034948	2526.495238
1001.329752	2524.952645
1001.624521	2529.577903
1001.919254	2523.079856
1002.213951	2522.633714
1002.508613	2521.522139
1002.803239	2524.826616
1003.097829	2521.378467
1003.392384	2525.587830
1003.686903	2524.488858
1003.981386	2525.996163
1004.275834	2525.804600
1004.570246	2527.755526
1004.864623	2527.468180
1005.158964	2526.031452
1005.453270	2528.032790
1005.747540	2527.914322
1006.041775	2523.994825
1006.335974	2524.141019
1006.630138	2524.685463
1006.924266	2526.470032
1007.218359	2526.417100
1007.512416	2526.782583
1007.806438	2526.717048
1008.100425	2525.386184
1008.394376	2525.686133
1008.688292	2526.550690
1008.982172	2522.709331
1009.276017	2525.807120
1009.569827	2524.443488
1009.863602	2527.793335
1010.157341	2526.243180
1010.451045	2528.688140
1010.744714	2525.602953
1011.038347	2527.014477
1011.331945	2528.360465
1011.625508	2527.367357
1011.919036	2525.406348
1012.212528	2525.842408
1012.505986	2526.011287
1012.799408	2525.083715
1013.092795	2526.270906
1013.386147	2528.108407
1013.679464	2526.820392
1013.972745	2528.678057
1014.265992	2526.822913
1014.559204	2526.623787
1014.852380	2524.249404
1015.145521	2525.522295
1015.438628	2525.552542
1015.731699	2525.038344
1016.024736	2525.406348
1016.317737	2523.825947
1016.610703	2527.909281
1016.903635	2523.767973
1017.196531	2518.769669
1017.489393	2525.093797
1017.782219	2522.542973
1018.075011	2526.696884
1018.367768	2524.362830
1018.660490	2527.027079
1018.953177	2527.027079
1019.245829	2527.027079
