Dividing Wavelength (nm)	Counts (n)	Blue Motor Position (mm): 0.000000	Red Motor Position (mm): 13.000000	
326.493990	2147.735705
326.888308	2147.735705
327.282561	2147.735705
327.676750	2121.791407
328.070874	2124.296860
328.464933	2129.096039
328.858929	2136.408233
329.252859	2148.171765
329.646726	2163.128868
330.040528	2179.109326
330.434265	2195.578776
330.827938	2213.762218
331.221547	2237.616958
331.615091	2256.826274
332.008571	2275.176074
332.401986	2295.154167
332.795338	2315.681746
333.188625	2334.664210
333.581847	2353.039216
333.975006	2374.015457
334.368100	2391.551111
334.761129	2409.817732
335.154095	2427.466812
335.546996	2445.045315
335.939833	2456.183744
336.332606	2472.799388
336.725315	2482.322127
337.117960	2488.144660
337.510540	2497.354848
337.903056	2507.101919
338.295508	2514.189781
338.687896	2516.365039
339.080220	2528.733510
339.472480	2534.298944
339.864676	2537.721887
340.256807	2545.805377
340.648875	2543.798998
341.040879	2548.814946
341.432818	2546.039791
341.824694	2547.917621
342.216506	2546.097764
342.608253	2544.913093
342.999937	2549.803012
343.391557	2546.453166
343.783113	2544.542568
344.174605	2543.763710
344.566033	2539.967721
344.957397	2540.481919
345.348697	2537.759696
345.739934	2535.896990
346.131106	2533.396577
346.522215	2533.298275
346.913260	2529.184693
347.304241	2529.519930
347.695159	2523.848632
348.086012	2525.204702
348.476802	2524.446009
348.867528	2521.814526
349.258191	2519.031809
349.648789	2521.103724
350.039324	2518.709176
350.429796	2521.348220
350.820203	2517.012827
351.210548	2515.724813
351.600828	2516.039885
351.991045	2516.975019
352.381198	2514.182219
352.771288	2515.792868
353.161314	2516.546521
353.551276	2517.766480
353.941175	2515.717251
354.331010	2515.926459
354.720782	2516.385204
355.110490	2515.066942
355.500135	2518.099196
355.889717	2515.560975
356.279235	2516.153311
356.668689	2520.403003
357.058080	2516.894360
357.447408	2516.002076
357.836672	2514.681294
358.225873	2516.352436
358.615010	2513.494102
359.004084	2521.154135
359.393095	2518.346213
359.782043	2520.632376
360.170927	2521.181862
360.559748	2521.628004
360.948505	2522.346368
361.337199	2520.435771
361.725830	2522.860566
362.114398	2522.966430
362.502903	2524.211595
362.891344	2523.626821
363.279722	2524.342665
363.668037	2526.344003
364.056289	2526.475073
364.444478	2524.516585
364.832603	2527.087573
365.220665	2525.799558
365.608665	2525.928108
365.996601	2529.676206
366.384474	2527.790814
366.772284	2527.969775
367.160031	2528.695701
367.547715	2529.378778
367.935336	2530.586134
368.322893	2528.138654
368.710388	2527.485824
369.097820	2530.482790
369.485189	2529.872811
369.872495	2529.620753
370.259738	2530.818027
370.646918	2530.311391
371.034035	2530.538243
371.421090	2531.667462
371.808081	2533.295754
372.195010	2531.344828
372.581875	2532.393388
372.968678	2536.096115
373.355418	2534.205683
373.742096	2536.330529
374.128710	2538.034439
374.515262	2535.566794
374.901751	2541.008720
375.288177	2540.227341
375.674540	2539.514018
376.060841	2542.631971
376.447079	2543.902342
376.833254	2547.368135
377.219367	2542.387475
377.605417	2547.968033
377.991404	2547.784030
378.377329	2551.461552
378.763191	2553.830894
379.148991	2559.908005
379.534727	2561.243911
379.920402	2569.846640
380.306013	2570.272618
380.691563	2574.371076
381.077049	2580.329720
381.462474	2583.936665
381.847835	2590.212902
382.233134	2596.652976
382.618371	2598.651793
383.003545	2607.113370
383.388657	2613.898763
383.773706	2618.213991
384.158693	2623.300515
384.543618	2632.611526
384.928480	2637.733338
385.313280	2646.041160
385.698017	2654.326296
386.082692	2661.121772
386.467305	2665.578152
386.851856	2675.073165
387.236344	2687.595391
387.620770	2693.468335
388.005133	2702.000488
388.389435	2713.406099
388.773674	2716.672767
389.157851	2728.020404
389.541965	2738.241343
389.926018	2742.899369
390.310008	2756.263468
390.693936	2764.588934
391.077802	2768.011877
391.461606	2781.736419
391.845348	2790.868469
392.229027	2796.380971
392.612645	2812.489978
392.996200	2820.389466
393.379694	2833.924964
393.763125	2850.913652
394.146494	2858.997143
394.529801	2869.381919
394.913047	2886.118550
395.296230	2886.899929
395.679351	2894.960734
396.062410	2911.687283
396.445408	2904.322157
396.828343	2916.272212
397.211217	2920.113571
397.594028	2916.809095
397.976778	2927.985333
398.359466	2939.756427
398.742092	2935.027825
399.124656	2948.124743
399.507158	2959.240487
399.889598	2964.077474
400.271977	2975.238588
400.654294	2977.353353
401.036549	2985.489775
401.418742	2986.525732
401.800874	3004.585666
402.182944	3006.650018
402.564952	3029.282278
402.946898	3014.582274
403.328783	3016.543283
403.710606	3025.730785
404.092367	3039.599000
404.474067	3054.072152
404.855705	3038.913403
405.237282	3033.093391
405.618797	3051.806154
406.000250	3062.344686
406.381642	3077.631985
406.762972	3069.248546
407.144240	3051.838921
407.525447	3061.654048
407.906593	3050.376987
408.287677	3057.588357
408.668700	3059.272103
409.049661	3048.083262
409.430560	3048.020247
409.811399	3038.338711
410.192176	3038.918444
410.572891	3032.145654
410.953545	3046.588559
411.334138	3009.205883
411.714669	3028.460570
412.095139	2987.113026
412.475547	3000.260356
412.855894	2983.216214
413.236180	2986.913901
413.616405	2960.299129
413.996568	2959.235446
414.376670	2944.674073
414.756711	2928.184458
415.136691	2929.414500
415.516609	2921.197419
415.896466	2912.766089
416.276262	2906.192425
416.655997	2901.862074
417.035670	2891.341186
417.415283	2900.876528
417.794834	2890.123747
418.174324	2871.584904
418.553753	2858.031762
418.933121	2854.185361
419.312428	2839.608865
419.691674	2821.286791
420.070859	2819.068683
420.449983	2799.297278
420.829045	2795.529016
421.208047	2783.614248
421.586988	2775.021602
421.965867	2768.228647
422.344686	2759.204982
422.723444	2752.580905
423.102141	2723.052347
423.480777	2730.442678
423.859352	2718.225442
424.237866	2719.150494
424.616319	2703.558205
424.994712	2701.198945
425.373044	2688.033972
425.751314	2685.470545
426.129524	2670.457989
426.507673	2670.087464
426.885762	2660.131185
427.263789	2655.755463
427.641756	2647.225831
428.019662	2640.662249
428.397508	2633.927267
428.775292	2632.432565
429.153016	2625.601802
429.530679	2620.023765
429.908282	2614.470934
430.285824	2609.727208
430.663305	2606.024481
431.040726	2600.673296
431.418086	2596.670620
431.795385	2597.179776
432.172624	2592.630135
432.549802	2588.793817
432.926920	2586.091758
433.303977	2588.151070
433.680974	2584.844073
434.057910	2581.781572
434.434786	2581.690831
434.811601	2577.355439
435.188355	2578.139338
435.565050	2577.665470
435.941683	2577.753690
436.318257	2569.355128
436.694770	2571.275807
437.071222	2574.509707
437.447614	2569.650035
437.823946	2569.244222
438.200218	2573.196487
438.576429	2571.734552
438.952580	2571.926116
439.328670	2570.504511
439.704700	2569.042576
440.080670	2569.841599
440.456580	2571.656414
440.832429	2569.760941
441.208218	2569.387895
441.583947	2571.873184
441.959616	2569.453430
442.335224	2569.027453
442.710773	2573.093143
443.086261	2570.360838
443.461689	2571.923596
443.837057	2569.382854
444.212365	2569.960066
444.587612	2568.349417
444.962800	2569.171126
445.337927	2571.868143
445.712995	2568.293965
446.088002	2570.570046
446.462949	2570.633060
446.837837	2568.898903
447.212664	2568.634243
447.587431	2572.253791
447.962139	2571.134655
448.336786	2574.902917
448.711374	2574.242526
449.085901	2572.246229
449.460369	2568.921588
449.834776	2571.926116
450.209124	2572.389902
450.583412	2572.336970
450.957640	2573.231775
451.331808	2569.758420
451.705917	2573.405695
452.079965	2571.200190
452.453954	2573.239337
452.827883	2570.766651
453.201752	2571.588359
453.575562	2574.227403
453.949311	2572.868812
454.323001	2574.696230
454.696632	2571.921075
455.070202	2570.675910
455.443713	2573.151117
455.817164	2574.020716
456.190556	2573.032649
456.563888	2573.788822
456.937160	2569.705488
457.310373	2575.154975
457.683526	2573.965263
458.056619	2576.047259
458.429653	2574.766806
458.802628	2574.519790
459.175542	2577.950295
459.548398	2574.673545
459.921194	2576.483319
460.293930	2577.496591
460.666607	2575.427198
461.039224	2578.265367
461.411782	2577.587332
461.784280	2576.206056
462.156719	2577.955336
462.529099	2579.757549
462.901419	2576.243864
463.273680	2577.547003
463.645882	2575.018864
464.018024	2579.364339
464.390106	2579.389544
464.762130	2577.433577
465.134094	2580.012127
465.505999	2583.530852
465.877845	2585.038157
466.249631	2588.244331
466.621358	2586.187540
466.993026	2587.195771
467.364634	2586.643765
467.736184	2582.177302
468.107674	2583.064546
468.479105	2580.743094
468.850477	2583.412385
469.221790	2583.019175
469.593043	2582.522622
469.964238	2581.668146
470.335373	2580.175964
470.706449	2581.390882
471.077467	2581.204360
471.448425	2584.836511
471.819324	2583.193095
472.190164	2584.382807
472.560945	2583.982036
472.931667	2583.742581
473.302330	2582.333578
473.672934	2583.845924
474.043479	2584.108064
474.413965	2580.848958
474.784393	2577.688155
475.154761	2579.059349
475.525070	2578.078844
475.895321	2580.417940
476.265513	2580.029771
476.635645	2584.032447
477.005719	2582.633527
477.375734	2585.028075
477.745691	2581.201839
478.115588	2584.014803
478.485427	2586.303487
478.855207	2584.128229
479.224928	2588.521595
479.594591	2586.794999
479.964194	2588.624938
480.333739	2589.224836
480.703226	2586.628641
481.072653	2590.729620
481.442022	2589.880186
481.811333	2587.044537
482.180584	2587.379773
482.549777	2588.146029
482.918912	2587.697366
483.287988	2588.251893
483.657005	2587.591502
484.025964	2587.294074
484.394864	2585.857345
484.763706	2587.911615
485.132489	2585.690987
485.501213	2585.696028
485.869879	2587.374732
486.238487	2582.991449
486.607036	2584.806264
486.975527	2587.102510
487.343959	2582.436922
487.712333	2584.874320
488.080648	2584.932293
488.448905	2583.684607
488.817104	2586.111923
489.185244	2587.278950
489.553326	2585.234762
489.921350	2585.595205
490.289315	2590.006214
490.657222	2588.561924
491.025070	2589.804568
491.392861	2588.839187
491.760593	2589.953282
492.128267	2589.338262
492.495883	2590.986719
492.863440	2586.991604
493.230939	2585.396079
493.598380	2585.350709
493.965763	2583.437591
494.333088	2583.614031
494.700354	2584.234093
495.067563	2582.935996
495.434713	2581.564802
495.801805	2584.551686
496.168839	2584.859196
496.535815	2584.027406
496.902733	2585.287694
497.269593	2586.744588
497.636395	2585.660740
498.003139	2587.026892
498.369825	2585.819536
498.736453	2584.886923
499.103023	2585.023034
499.469535	2585.403641
499.835989	2584.367684
500.202385	2585.307859
500.568723	2584.160997
500.935003	2585.746439
501.301226	2583.334247
501.667390	2587.694845
502.033497	2584.019844
502.399546	2584.471028
502.765537	2586.492530
503.131470	2585.166707
503.497345	2586.295925
503.863163	2585.461614
504.228923	2583.654361
504.594625	2584.924731
504.960269	2583.122519
505.325856	2582.522622
505.691385	2585.144022
506.056856	2586.923549
506.422270	2586.663929
506.787625	2587.551172
507.152924	2584.808785
507.518164	2586.134608
507.883347	2580.203691
508.248472	2583.830801
508.613540	2585.025554
508.978550	2585.247365
509.343503	2584.869279
509.708398	2588.425813
510.073236	2585.227201
510.438016	2585.222159
510.802738	2583.840883
511.167403	2587.531008
511.532010	2584.851635
511.896561	2585.146542
512.261053	2584.957499
512.625488	2580.390213
512.989866	2584.367684
513.354186	2581.960533
513.718449	2582.026068
514.082655	2583.102354
514.446803	2583.568661
514.810894	2582.580595
515.174927	2586.079156
515.538904	2581.857189
515.902822	2584.758373
516.266684	2584.670153
516.630488	2584.891964
516.994235	2584.465986
517.357925	2584.176120
517.721558	2587.026892
518.085133	2581.287539
518.448651	2587.226018
518.812112	2585.806933
519.175516	2584.660071
519.538863	2587.289032
519.902152	2588.501430
520.265385	2586.739547
520.628560	2583.949268
520.991678	2583.951789
521.354739	2583.235945
521.717743	2584.511357
522.080690	2586.197623
522.443580	2586.389187
522.806413	2585.683425
523.169189	2585.635534
523.531908	2583.654361
523.894569	2586.348857
524.257174	2586.139649
524.619722	2585.622931
524.982213	2585.915318
525.344647	2585.461614
525.707025	2585.247365
526.069345	2584.395410
526.431608	2584.518918
526.793815	2586.001018
527.155964	2586.333734
527.518057	2584.637386
527.880093	2584.440781
528.242072	2585.569999
528.603995	2585.050760
528.965860	2587.707448
529.327669	2584.579412
529.689421	2583.316603
530.051117	2586.089238
530.412755	2584.970102
530.774337	2585.060842
531.135862	2588.781214
531.497331	2582.878023
531.858743	2580.329720
532.220098	2583.233424
532.581396	2580.876685
532.942638	2580.581777
533.303824	2586.416913
533.664953	2583.987077
534.026025	2585.771645
534.387040	2584.806264
534.747999	2583.286356
535.108902	2583.311562
535.469748	2585.307859
535.830537	2585.776686
536.191270	2583.997159
536.551947	2587.533528
536.912567	2584.292067
537.273131	2588.191399
537.633638	2585.491861
537.994089	2583.949268
538.354483	2584.350040
538.714821	2585.199474
539.075103	2587.528487
539.435328	2585.784248
539.795497	2583.568661
540.155609	2587.289033
540.515665	2586.021182
540.875665	2585.391038
541.235609	2586.915987
541.595496	2583.490523
541.955328	2585.196954
542.315102	2583.992118
542.674821	2582.436922
543.034483	2583.273753
543.394090	2585.186871
543.753640	2585.305338
544.113134	2586.147211
544.472571	2582.716706
544.831953	2584.516398
545.191278	2583.596387
545.550548	2585.270050
545.909761	2584.060173
546.268918	2583.142683
546.628019	2585.406162
546.987064	2584.261820
547.346053	2584.909608
547.704986	2581.753846
548.063863	2584.576892
548.422684	2586.374063
548.781449	2584.723085
549.140158	2583.944227
549.498811	2586.484968
549.857408	2585.670822
550.215949	2578.928279
550.574434	2581.388362
550.932864	2580.145717
551.291237	2581.509350
551.649555	2585.728795
552.007817	2584.649988
552.366022	2584.770976
552.724173	2585.055801
553.082267	2582.270564
553.440305	2585.670822
553.798288	2585.585122
554.156215	2586.081676
554.514086	2583.072107
554.871902	2586.384145
555.229661	2585.449011
555.587365	2583.094793
555.945014	2586.205184
556.302606	2582.026068
556.660143	2583.989597
557.017625	2584.279464
557.375050	2585.789289
557.732421	2585.577561
558.089735	2588.355237
558.446994	2583.651840
558.804197	2585.370873
559.161345	2584.176120
559.518437	2583.258630
559.875474	2585.121336
560.232455	2584.110585
560.589381	2583.407344
560.946251	2587.261306
561.303065	2585.580081
561.659825	2585.411203
562.016528	2583.505647
562.373177	2583.513208
562.729770	2583.528332
563.086307	2583.462797
563.442789	2584.849114
563.799216	2584.188723
564.155587	2583.193095
564.511904	2584.072776
564.868164	2586.106882
565.224370	2585.030596
565.580520	2581.237127
565.936615	2584.985225
566.292654	2585.557396
566.648638	2586.137129
567.004567	2584.614700
567.360441	2585.829618
567.716260	2585.524629
568.072023	2582.426840
568.427732	2582.358784
568.783385	2581.698393
569.138982	2580.962384
569.494525	2581.688311
569.850013	2581.090934
570.205445	2584.720565
570.560823	2582.555389
570.916145	2585.438929
571.271412	2584.927252
571.626625	2585.527149
571.981782	2582.888105
572.336884	2582.961202
572.691931	2584.450863
573.046923	2586.739547
573.401860	2585.776686
573.756743	2585.428847
574.111570	2581.617734
574.466342	2583.863568
574.821059	2586.336254
575.175722	2584.816347
575.530330	2584.733168
575.884882	2583.747622
576.239380	2586.149732
576.593823	2587.215936
576.948211	2584.854155
577.302544	2585.154104
577.656823	2583.941706
578.011047	2585.575040
578.365216	2583.389700
578.719330	2583.866089
579.073389	2583.283836
579.427394	2584.405492
579.781344	2584.518918
580.135239	2583.435070
580.489080	2584.889443
580.842866	2583.641758
581.196597	2584.697879
581.550273	2584.816347
581.903895	2584.816347
582.257463	2581.123701
582.610975	2584.483630
582.964434	2586.129567
583.317837	2583.119998
583.671186	2585.363312
584.024481	2581.113619
584.377721	2582.837694
584.730906	2583.704772
585.084037	2580.513722
585.437113	2581.617734
585.790135	2584.050091
586.143103	2586.842890
586.496016	2582.472210
586.848874	2582.308372
587.201679	2582.535224
587.554428	2581.653023
587.907124	2581.811819
588.259765	2577.799060
588.612352	2583.727457
588.964884	2582.938517
589.317362	2586.376584
589.669786	2584.518918
590.022155	2586.439598
590.374470	2583.228383
590.726731	2582.530183
591.078937	2582.285687
591.431090	2582.641089
591.783188	2582.436922
592.135232	2582.331058
592.487222	2582.754515
592.839157	2583.424988
593.191038	2581.035481
593.542866	2583.452714
593.894639	2580.745615
594.246358	2585.005390
594.598022	2584.909608
594.949633	2583.467838
595.301190	2581.179154
595.652692	2582.283167
596.004141	2580.977508
596.355535	2585.106213
596.706876	2582.550348
597.058162	2582.333578
597.409395	2583.031778
597.760573	2581.199319
598.111698	2582.807447
598.462768	2581.526994
598.813785	2580.420460
599.164748	2580.911973
599.515657	2584.602097
599.866511	2581.973136
600.217312	2582.585636
600.568060	2582.245358
600.918753	2582.462128
601.269392	2582.918352
601.619978	2583.256109
601.970510	2583.946747
602.320988	2581.655543
602.671412	2583.515729
603.021783	2584.599577
603.372100	2581.211922
603.722363	2584.160997
604.072572	2583.621593
604.422728	2583.283836
604.772830	2579.150090
605.122878	2581.043043
605.472872	2579.760069
605.822813	2578.051118
606.172701	2577.761252
606.522534	2581.158989
606.872314	2584.755853
607.222041	2582.683938
607.571714	2583.934145
607.921333	2582.421798
608.270899	2581.622776
608.620411	2583.545976
608.969870	2581.564802
609.319276	2582.142014
609.668627	2584.218970
610.017926	2583.432550
610.367171	2584.234093
610.716362	2583.760225
611.065500	2583.545976
611.414585	2581.479103
611.763616	2581.136304
612.112594	2582.875502
612.461518	2584.453383
612.810389	2581.753846
613.159207	2584.725606
613.507971	2583.374577
613.856682	2581.998342
614.205340	2582.081521
614.553945	2582.925914
614.902496	2583.412385
615.250994	2582.111767
615.599439	2584.191243
615.947830	2585.237283
616.296169	2583.485482
616.644454	2583.949268
616.992686	2581.020358
617.340864	2585.746439
617.688990	2580.574216
618.037063	2584.564289
618.385082	2584.206367
618.733048	2584.763414
619.080961	2581.824422
619.428821	2581.804257
619.776628	2580.541448
620.124382	2585.809454
620.472083	2584.355081
620.819731	2584.367684
621.167326	2583.419947
621.514868	2581.209401
621.862357	2581.900039
622.209793	2583.117478
622.557176	2582.963723
622.904506	2582.154617
623.251783	2577.153793
623.599007	2576.674883
623.946179	2578.109091
624.293297	2580.435584
624.640363	2581.849627
624.987376	2582.167220
625.334336	2582.560430
625.681243	2580.778382
626.028097	2581.889957
626.374899	2580.854000
626.721647	2579.727302
627.068343	2581.572364
627.414987	2581.426171
627.761577	2582.736871
628.108115	2580.279308
628.454600	2582.048753
628.801032	2580.914493
629.147412	2581.857189
629.493739	2580.307034
629.840014	2583.062025
630.186236	2581.847107
630.532405	2585.519587
630.878521	2581.741243
631.224585	2581.779051
631.570597	2581.456418
631.916556	2579.003896
632.262462	2579.485326
632.608316	2583.248548
632.954117	2579.132446
633.299866	2582.197467
633.645562	2579.815522
633.991206	2582.021027
634.336797	2581.925245
634.682336	2582.487333
635.027823	2578.461972
635.373257	2579.316448
635.718639	2578.235120
636.063968	2583.765266
636.409245	2581.113619
636.754470	2580.869123
637.099642	2581.935327
637.444762	2579.351736
637.789829	2578.162023
638.134845	2579.800398
638.479808	2580.909452
638.824719	2580.796026
639.169577	2580.546489
639.514383	2580.803588
639.859137	2579.825604
640.203839	2580.443146
640.548489	2581.597570
640.893086	2576.558937
641.237632	2577.178998
641.582125	2576.589183
641.926566	2574.915520
642.270955	2581.776531
642.615292	2579.326530
642.959576	2579.823084
643.303809	2580.685121
643.647990	2580.531366
643.992118	2579.757549
644.336195	2577.781416
644.680219	2580.818712
645.024192	2581.673187
645.368112	2579.644123
645.711981	2580.453228
646.055797	2580.506160
646.399562	2581.380800
646.743274	2579.402147
647.086935	2580.758218
647.430544	2580.251582
647.774101	2581.148907
648.117606	2579.258474
648.461059	2582.205029
648.804460	2582.570513
649.147810	2581.133784
649.491108	2577.768813
649.834354	2578.444328
650.177548	2579.976839
650.520690	2580.574216
650.863781	2581.567323
651.206820	2584.125708
651.549807	2580.178485
651.892742	2578.590522
652.235626	2581.907601
652.578458	2578.101530
652.921238	2580.811150
653.263967	2578.855182
653.606644	2579.883577
653.949269	2580.498598
654.291843	2579.550861
654.634365	2582.744432
654.976836	2580.107909
655.319255	2580.271746
655.661622	2577.443659
656.003938	2579.490368
656.346203	2580.158320
656.688416	2578.978690
657.030577	2579.220666
657.372687	2577.978021
657.714746	2577.796540
658.056753	2578.819894
658.398708	2574.993658
658.740612	2574.618092
659.082465	2575.170099
659.424266	2574.131621
659.766016	2573.670355
660.107715	2578.358628
660.449362	2578.265367
660.790958	2578.890470
661.132503	2577.675552
661.473996	2580.682600
661.815438	2579.366859
662.156829	2577.005079
662.498168	2580.634709
662.839456	2580.244020
663.180693	2579.676890
663.521879	2577.594894
663.863013	2579.475244
664.204097	2578.184709
664.545129	2580.347364
664.886110	2579.530697
665.227040	2578.835017
665.567918	2576.758062
665.908746	2579.215625
666.249522	2577.282342
666.590248	2581.080852
666.930922	2579.482806
667.271545	2578.666139
667.612118	2581.491706
667.952639	2578.197312
668.293109	2580.680080
668.633528	2579.510532
668.973896	2578.492219
669.314213	2578.235120
669.654480	2578.535069
669.994695	2579.540779
670.334859	2579.397106
670.674973	2575.409553
671.015035	2579.165213
671.355047	2576.899214
671.695008	2579.155131
672.034918	2577.839390
672.374777	2579.981880
672.714585	2578.015830
673.054342	2577.859554
673.394049	2578.310737
673.733705	2579.674370
674.073310	2579.087075
674.412864	2580.042374
674.752368	2578.885429
675.091820	2577.811663
675.431223	2578.414081
675.770574	2580.130594
676.109875	2571.462330
676.449125	2574.066086
676.788324	2574.119018
677.127473	2574.686148
677.466571	2574.880232
677.805619	2578.179667
678.144616	2578.817373
678.483562	2579.843248
678.822458	2577.201684
679.161303	2579.533217
679.500098	2579.321489
679.838842	2576.299317
680.177535	2577.794019
680.516179	2578.797209
680.854771	2578.093968
681.193314	2580.112950
681.531805	2579.177816
681.870247	2576.082547
682.208638	2579.621437
682.546978	2579.976839
682.885268	2579.019020
683.223508	2580.455748
683.561697	2576.556416
683.899836	2577.347877
684.237925	2576.899214
684.575963	2579.576067
684.913951	2578.804771
685.251889	2579.031623
685.589776	2578.502301
685.927614	2580.982549
686.265401	2578.403999
686.603137	2577.824266
686.940824	2578.698906
687.278460	2581.030440
687.616046	2579.129925
687.953582	2577.269739
688.291068	2576.563978
688.628504	2579.250913
688.965889	2575.780078
689.303224	2577.617579
689.640510	2576.929461
689.977745	2579.530697
690.314930	2576.763103
690.652065	2577.725964
690.989150	2576.546334
691.326185	2578.804771
691.663170	2576.183371
692.000105	2582.205029
692.336990	2577.552044
692.673825	2577.531879
693.010610	2579.094637
693.347345	2571.658935
693.684030	2573.279666
694.020665	2575.472568
694.357251	2575.112125
694.693786	2575.923751
695.030272	2576.387537
695.366707	2575.714543
695.703093	2575.626323
696.039429	2576.437949
696.375716	2575.664132
696.711952	2573.529203
697.048139	2577.040367
697.384276	2576.256467
697.720363	2576.707651
698.056400	2577.052970
698.392388	2575.515418
698.728326	2576.322002
699.064214	2575.858216
699.400053	2576.601786
699.735842	2574.202197
700.071581	2576.344687
700.407270	2575.863257
700.742910	2576.251426
701.078501	2575.210428
701.414042	2577.418453
701.749533	2574.890315
702.084974	2576.087589
702.420366	2576.475757
702.755709	2575.104564
703.091002	2574.446693
703.426246	2576.019533
703.761440	2574.638257
704.096584	2578.061200
704.431679	2576.611869
704.766725	2574.660942
705.101721	2575.563309
705.436668	2577.862075
705.771565	2573.619944
706.106413	2572.140365
706.441212	2576.004410
706.775961	2580.362487
707.110661	2575.618761
707.445311	2575.598597
707.779913	2575.346539
708.114465	2578.235120
708.448967	2577.531879
708.783421	2575.583473
709.117825	2575.041549
709.452180	2577.642785
709.786485	2575.696899
710.120742	2578.038515
710.454949	2576.823597
710.789107	2572.881415
711.123216	2575.255798
711.457275	2574.260170
711.791286	2570.754048
712.125247	2576.264029
712.459159	2575.039029
712.793023	2576.982393
713.126837	2574.736559
713.460602	2575.575912
713.794318	2576.445511
714.127985	2574.741601
714.461602	2576.327043
714.795171	2575.759914
715.128691	2574.965932
715.462162	2577.975501
715.795584	2576.445511
716.128957	2579.346695
716.462281	2575.306210
716.795556	2576.019533
717.128782	2576.117836
717.461960	2579.167734
717.795088	2574.726477
718.128167	2575.996848
718.461198	2573.478792
718.794180	2575.865778
719.127113	2574.325705
719.459997	2575.273442
719.792833	2573.864440
720.125619	2573.914851
720.458357	2572.984758
720.791046	2575.568350
721.123686	2576.798391
721.456278	2575.843093
721.788821	2575.167578
722.121315	2575.283525
722.453761	2575.956519
722.786158	2572.168092
723.118506	2576.881570
723.450805	2576.881570
723.783056	2573.128431
724.115259	2572.715057
724.447412	2575.805284
724.779518	2574.265212
725.111574	2574.484502
725.443582	2577.063052
725.775542	2573.607341
726.107453	2575.833010
726.439315	2574.449214
726.771129	2576.780747
727.102895	2572.929306
727.434612	2575.598597
727.766281	2575.323854
728.097901	2571.699264
728.429473	2571.714388
728.760996	2572.087433
729.092471	2570.118862
729.423897	2577.695717
729.755276	2573.798905
730.086606	2575.323854
730.417887	2575.162537
730.749120	2576.208576
731.080305	2576.052301
731.411442	2575.054152
731.742530	2573.093143
732.073570	2575.028946
732.404562	2574.507187
732.735506	2574.655901
733.066401	2573.118349
733.397249	2575.780078
733.728048	2574.368555
734.058798	2574.640777
734.389501	2574.013154
734.720156	2576.548854
735.050762	2576.417784
735.381320	2575.046590
735.711831	2574.993658
736.042293	2576.226220
736.372707	2573.042732
736.703073	2576.531210
737.033391	2573.950139
737.363661	2571.757237
737.693883	2573.980386
738.024056	2576.362332
738.354182	2577.872157
738.684260	2574.333267
739.014290	2574.229923
739.344272	2575.182702
739.674207	2575.785119
740.004093	2576.266550
740.333931	2573.584656
740.663722	2574.802094
740.993464	2573.861919
741.323159	2574.149265
741.652806	2573.425859
741.982405	2573.798905
742.311956	2572.841086
742.641460	2574.754203
742.970915	2574.953329
743.300323	2575.671693
743.629683	2574.671024
743.958996	2572.883935
744.288260	2572.205900
744.617477	2573.246898
744.946647	2568.215827
745.275768	2571.878225
745.604842	2567.469736
745.933869	2569.793708
746.262847	2569.425704
746.591778	2573.219172
746.920662	2572.626837
747.249498	2573.907290
747.578286	2572.173133
747.907027	2576.140521
748.235720	2574.476940
748.564365	2574.325705
748.892963	2572.107598
749.221514	2572.397464
749.550017	2573.491394
749.878473	2571.147258
750.206881	2573.584656
750.535242	2575.482650
750.863555	2574.973494
751.191821	2572.765468
751.520039	2575.951477
751.848210	2574.252609
752.176334	2577.557085
752.504411	2572.984758
752.832440	2572.117680
753.160421	2572.122721
753.488356	2573.889646
753.816243	2576.637074
754.144082	2573.115828
754.471875	2572.505849
754.799620	2573.400654
755.127318	2570.973338
755.454969	2573.463668
755.782572	2574.542475
756.110129	2573.282187
756.437638	2573.582135
756.765100	2575.230592
757.092515	2574.166909
757.419882	2574.358473
757.747203	2570.660787
758.074477	2573.488874
758.401703	2570.350756
758.728882	2574.073648
759.056014	2573.176322
759.383099	2571.132134
759.710138	2574.429049
760.037129	2574.368555
760.364073	2574.366035
760.690970	2571.772361
761.017820	2572.977197
761.344623	2573.347722
761.671379	2573.758576
761.998088	2569.108111
762.324751	2570.388564
762.651366	2573.700602
762.977935	2575.865778
763.304456	2572.954512
763.630931	2576.959708
763.957359	2577.478947
764.283740	2575.250757
764.610074	2574.345870
764.936362	2578.164544
765.262602	2576.344687
765.588796	2578.071283
765.914943	2572.490725
766.241044	2572.490725
766.567097	2572.435273
766.893104	2571.379151
767.219064	2572.336970
767.544978	2572.654563
767.870845	2573.327557
768.196665	2571.689182
768.522438	2572.299162
768.848165	2573.589697
769.173846	2575.487691
769.499479	2573.070458
769.825066	2571.273287
770.150607	2574.509707
770.476101	2573.851837
770.801548	2574.751683
771.126949	2571.754717
771.452303	2572.442834
771.777611	2574.560119
772.102872	2571.089285
772.428087	2569.864284
772.753256	2571.845458
773.078378	2572.498287
773.403453	2571.827814
773.728482	2570.459140
774.053465	2572.437793
774.378401	2573.274625
774.703291	2570.501990
775.028135	2571.802608
775.352932	2569.271949
775.677683	2571.938719
776.002388	2572.894018
776.327046	2570.970818
776.651658	2571.351425
776.976224	2572.483164
777.300743	2570.726322
777.625216	2570.363358
777.949643	2572.147927
778.274024	2571.878225
778.598359	2568.979562
778.922647	2568.735066
779.246889	2568.261197
779.571086	2567.905796
779.895236	2567.260528
780.219339	2571.253122
780.543397	2569.050138
780.867409	2572.581466
781.191374	2571.830334
781.515294	2572.440314
781.839167	2571.575756
782.162995	2571.704305
782.486776	2571.341342
782.810511	2569.793708
783.134201	2569.171126
783.457844	2570.927968
783.781441	2570.648184
784.104993	2571.192628
784.428498	2569.841599
784.751958	2569.143399
785.075372	2571.202711
785.398739	2570.960735
785.722061	2572.115159
786.045337	2571.275807
786.368568	2570.743966
786.691752	2572.092474
787.014891	2571.842937
787.337983	2572.105077
787.661030	2571.064079
787.984031	2572.654563
788.306987	2571.636250
788.629897	2570.552402
788.952760	2572.604151
789.275579	2571.290931
789.598351	2572.485684
789.921078	2570.633060
790.243759	2569.095508
790.566395	2570.262535
790.888984	2574.358473
791.211529	2572.687330
791.534027	2572.936868
791.856480	2571.520303
792.178888	2571.805128
792.501249	2571.643812
792.823566	2571.132134
793.145836	2569.549212
793.468062	2573.584656
793.790241	2573.501477
794.112375	2574.141703
794.434464	2572.722618
794.756507	2569.022412
795.078505	2571.250602
795.400457	2570.035683
795.722364	2565.576783
796.044226	2567.313460
796.366042	2567.074006
796.687812	2566.832030
797.009538	2571.200190
797.331218	2570.779254
797.652852	2572.838565
797.974442	2570.781774
798.295986	2570.088616
798.617484	2569.776064
798.938938	2569.667679
799.260346	2571.734552
799.581709	2570.381002
799.903026	2573.267063
800.224299	2567.739438
800.545526	2571.971487
800.866708	2568.851012
801.187845	2570.045766
801.508936	2570.096177
801.829983	2570.688513
802.150984	2571.137176
802.471940	2571.053997
802.792851	2570.139027
803.113717	2570.852350
803.434538	2571.878225
803.755314	2572.647001
804.076045	2569.037535
804.396731	2568.120045
804.717372	2568.586352
805.037967	2569.783626
805.358518	2571.104408
805.679024	2571.490056
805.999485	2568.730025
806.319901	2572.074830
806.640272	2571.497618
806.960598	2569.082905
807.280879	2569.347566
807.601115	2569.614747
807.921306	2569.087947
808.241453	2568.238512
808.561554	2569.052658
808.881611	2571.263204
809.201623	2571.202711
809.521590	2572.727660
809.841513	2570.121383
810.161390	2570.648184
810.481223	2571.147258
810.801011	2569.796229
811.120755	2571.820252
811.440453	2571.459809
811.760107	2570.007957
812.079716	2568.377144
812.399281	2566.012843
812.718801	2565.428069
813.038276	2563.129303
813.357707	2569.463512
813.677093	2570.451579
813.996434	2570.837227
814.315731	2569.032494
814.634983	2571.585838
814.954191	2569.803790
815.273354	2567.227761
815.592473	2567.406722
815.911547	2571.434604
816.230577	2571.290931
816.549562	2566.915209
816.868502	2571.893349
817.187399	2568.921588
817.506250	2571.041394
817.825058	2573.047773
818.143821	2573.052814
818.462539	2569.597103
818.781213	2569.985272
819.099843	2569.340004
819.418429	2567.961249
819.736970	2571.318657
820.055466	2570.222206
820.373919	2573.173802
820.692327	2571.459809
821.010691	2575.827969
821.329011	2577.005079
821.647286	2586.353898
821.965517	2590.533015
822.283704	2595.387646
822.601847	2596.743717
822.919945	2594.276072
823.237999	2591.279106
823.556010	2591.493355
823.873976	2587.135277
824.191897	2584.342478
824.509775	2582.590677
824.827609	2583.687128
825.145398	2579.197981
825.463144	2579.298804
825.780845	2577.972980
826.098502	2577.131107
826.416116	2579.787796
826.733685	2578.653536
827.051210	2580.949782
827.368692	2578.146900
827.686129	2581.206880
828.003522	2578.635892
828.320872	2572.868812
828.638177	2571.490056
828.955439	2571.048955
829.272656	2571.626167
829.589830	2569.884449
829.906960	2574.605489
830.224046	2571.048955
830.541088	2572.200859
830.858086	2570.885118
831.175041	2570.902762
831.491952	2571.351425
831.808819	2572.178174
832.125642	2570.481826
832.442421	2570.469223
832.759157	2569.897052
833.075849	2570.363358
833.392497	2573.942578
833.709101	2577.007599
834.025662	2574.761765
834.342179	2571.686661
834.658653	2572.951991
834.975083	2570.544840
835.291469	2575.102043
835.607811	2571.888307
835.924110	2571.820252
836.240366	2570.219686
836.556578	2570.451579
836.872746	2569.433266
837.188871	2571.726991
837.504952	2571.721949
837.820990	2569.037535
838.136984	2569.133317
838.452935	2569.660117
838.768842	2568.324212
839.084706	2566.716084
839.400526	2567.575600
839.716303	2567.699109
840.032037	2571.994172
840.347727	2570.156671
840.663373	2570.834706
840.978977	2570.265056
841.294537	2569.987792
841.610054	2567.915878
841.925527	2570.194480
842.240957	2567.159705
842.556344	2569.934860
842.871687	2570.010478
843.186987	2570.058369
843.502244	2569.072823
843.817458	2570.784295
844.132629	2567.010991
844.447756	2569.793708
844.762840	2563.661144
845.077881	2567.104252
845.392879	2565.034859
845.707833	2566.237174
846.022745	2562.889848
846.337613	2566.766495
846.652438	2570.625498
846.967221	2569.899572
847.281960	2567.157185
847.596656	2569.632391
847.911309	2569.748338
848.225919	2568.213306
848.540485	2567.948646
848.855009	2570.055848
849.169490	2568.362020
849.483928	2568.011660
849.798323	2569.856722
850.112675	2566.879921
850.426984	2566.829510
850.741251	2568.747669
851.055474	2569.690364
851.369654	2567.590724
851.683792	2567.157185
851.997887	2567.956207
852.311938	2566.617781
852.625947	2566.728687
852.939914	2567.323543
853.253837	2568.586352
853.567718	2570.446537
853.881555	2568.319171
854.195350	2567.517627
854.509103	2566.950497
854.822812	2566.068295
855.136479	2566.327915
855.450103	2567.656259
855.763685	2566.920250
856.077224	2569.196331
856.390720	2568.026784
856.704173	2563.646021
857.017584	2567.550395
857.330953	2566.509396
857.644278	2566.118707
857.957561	2568.354459
858.270802	2569.506362
858.584000	2567.351269
858.897155	2566.315312
859.210268	2564.298850
859.523339	2567.424366
859.836367	2567.366392
860.149352	2569.201372
860.462295	2568.722463
860.775195	2559.850032
861.088054	2564.515620
861.400869	2564.336659
861.713642	2564.084601
862.026373	2565.957390
862.339062	2567.913358
862.651708	2567.752041
862.964312	2566.557287
863.276873	2567.613409
863.589392	2567.114335
863.901869	2566.595096
864.214303	2569.435786
864.526696	2568.157854
864.839045	2570.940571
865.151353	2567.956207
865.463619	2569.629871
865.775842	2567.240364
866.088023	2568.261197
866.400162	2566.832030
866.712258	2565.793552
867.024313	2567.376475
867.336325	2568.359500
867.648296	2568.024263
867.960224	2568.379664
868.272110	2568.185580
868.583954	2567.091650
868.895755	2568.306568
869.207515	2564.543346
869.519233	2568.203224
869.830909	2569.471074
870.142542	2565.218861
870.454134	2567.482339
870.765684	2568.283882
871.077191	2568.777916
871.388657	2569.919737
871.700081	2564.782801
872.011463	2568.248594
872.322803	2561.571586
872.634101	2567.706670
872.945357	2569.256825
873.256571	2567.535271
873.567744	2568.195662
873.878874	2567.895714
874.189963	2567.247925
874.501010	2569.246743
874.812015	2569.430745
875.122979	2568.253636
875.433900	2568.281362
875.744780	2569.438307
876.055618	2567.341187
876.366415	2568.959397
876.677169	2567.328584
876.987882	2564.964283
877.298554	2562.650393
877.609183	2565.385219
877.919771	2565.639797
878.230317	2566.852195
878.540822	2568.349418
878.851285	2568.583831
879.161707	2568.251115
879.472087	2569.455951
879.782425	2569.748338
880.092722	2572.168092
880.402977	2571.724470
880.713191	2578.207394
881.023363	2576.634554
881.333494	2580.140676
881.643583	2579.208063
881.953631	2581.164031
882.263637	2582.126891
882.573602	2579.394586
882.883526	2581.418609
883.193408	2580.710327
883.503248	2578.174626
883.813048	2577.993145
884.122806	2579.071952
884.432522	2577.121025
884.742197	2571.694223
885.051831	2574.282856
885.361424	2571.936198
885.670975	2572.798236
885.980485	2571.212793
886.289954	2568.127607
886.599382	2569.067782
886.908768	2570.610375
887.218113	2566.890003
887.527417	2567.862946
887.836680	2570.257494
888.145901	2567.588203
888.455082	2567.552915
888.764221	2566.877401
889.073319	2567.051320
889.382376	2567.807493
889.691392	2566.423697
890.000366	2569.234140
890.309300	2565.997719
890.618193	2569.211455
890.927044	2567.242884
891.235855	2569.118193
891.544625	2567.421845
891.853353	2565.584345
892.162041	2567.885631
892.470687	2567.711712
892.779293	2569.975190
893.087858	2567.457133
893.396381	2567.752041
893.704864	2567.865467
894.013306	2564.356824
894.321707	2571.931157
894.630068	2570.479305
894.938387	2568.137689
895.246665	2570.875036
895.554903	2572.039542
895.863100	2570.890159
896.171256	2569.156002
896.479371	2569.284552
896.787446	2571.094326
897.095480	2568.810683
897.403473	2571.593400
897.711425	2568.195662
898.019336	2566.562328
898.327207	2568.921588
898.635038	2570.827145
898.942827	2567.991496
899.250576	2566.993347
899.558284	2568.790518
899.865952	2569.748338
900.173579	2565.665003
900.481165	2568.924109
900.788711	2566.557287
901.096216	2567.721794
901.403681	2565.990157
901.711105	2567.787329
902.018489	2566.569890
902.325832	2568.616599
902.633135	2568.120045
902.940397	2564.969324
903.247619	2571.187587
903.554800	2567.749520
903.861941	2570.945612
904.169041	2571.043914
904.476101	2571.996692
904.783121	2569.592062
905.090100	2571.608523
905.397039	2570.156671
905.703938	2568.868656
906.010796	2567.542833
906.317614	2569.077864
906.624391	2570.159192
906.931129	2566.978224
907.237826	2569.176167
907.544483	2568.946794
907.851099	2567.772205
908.157675	2567.217678
908.464211	2567.741958
908.770707	2566.242215
909.077163	2566.033007
909.383578	2564.087122
909.689954	2561.926988
909.996289	2560.739796
910.302584	2566.569890
910.608839	2565.783470
910.915054	2566.645507
911.221229	2567.235322
911.527363	2567.689026
911.833458	2570.847309
912.139513	2565.644838
912.445527	2568.742627
912.751502	2566.423697
913.057436	2566.360682
913.363331	2567.172308
913.669186	2568.614078
913.975000	2568.833368
914.280775	2564.639128
914.586510	2567.053841
914.892205	2569.307237
915.197859	2567.530230
915.503475	2568.485529
915.809050	2571.442165
916.114585	2570.912844
916.420081	2571.870663
916.725536	2573.690520
917.030952	2570.466702
917.336328	2573.211610
917.641665	2572.604151
917.946961	2571.144737
918.252218	2570.050807
918.557435	2570.517114
918.862612	2570.824624
919.167750	2568.467885
919.472848	2569.660118
919.777906	2569.244222
920.082925	2567.457133
920.387904	2565.753223
920.692843	2570.607854
920.997743	2567.079047
921.302603	2567.709191
921.607423	2567.888152
921.912204	2566.534602
922.216946	2565.468398
922.521647	2567.472257
922.826310	2566.935374
923.130932	2569.403019
923.435516	2566.189283
923.740059	2562.320197
924.044564	2565.130641
924.349028	2566.579972
924.653454	2561.760629
924.957840	2562.695763
925.262186	2560.507903
925.566493	2561.211144
925.870761	2561.102759
926.174989	2568.069633
926.479178	2562.713407
926.783328	2564.583676
927.087438	2565.584345
927.391509	2566.242215
927.695541	2565.372616
927.999533	2565.685168
928.303486	2564.976886
928.607400	2564.465208
928.911275	2564.160219
929.215110	2567.799932
929.518906	2565.975034
929.822663	2566.716084
930.126381	2564.886145
930.430060	2566.408573
930.733699	2564.598799
931.037299	2564.881104
931.340861	2564.127451
931.644383	2563.189797
931.947866	2564.775239
932.251309	2568.235992
932.554714	2564.944118
932.858080	2564.626525
933.161407	2563.769529
933.464694	2565.501166
933.767943	2566.390929
934.071153	2565.518810
934.374323	2564.235836
934.677455	2563.885476
934.980548	2562.413459
935.283602	2567.005950
935.586617	2562.904971
935.889593	2567.126938
936.192530	2564.598799
936.495428	2563.275496
936.798287	2565.987637
937.101108	2566.824468
937.403890	2564.818089
937.706632	2566.990827
938.009336	2565.828841
938.312002	2565.299519
938.614628	2565.594427
938.917216	2566.839592
939.219765	2567.086608
939.522275	2566.403532
939.824747	2564.379509
940.127179	2562.259704
940.429573	2561.006977
940.731929	2561.924467
941.034246	2560.880948
941.336524	2565.226423
941.638763	2563.512430
941.940964	2566.393450
942.243126	2565.798594
942.545250	2567.706670
942.847335	2567.477298
943.149381	2562.930177
943.451389	2564.409756
943.753359	2564.634087
944.055290	2564.555949
944.357182	2562.892368
944.659036	2562.925136
944.960851	2564.840774
945.262628	2566.925292
945.564367	2563.782132
945.866067	2565.158367
946.167729	2563.101576
946.469352	2568.457802
946.770937	2565.869170
947.072484	2563.136864
947.373992	2568.422514
947.675462	2565.944787
947.976893	2566.088460
948.278286	2563.789694
948.579641	2565.627194
948.880958	2564.079560
949.182236	2566.184242
949.483476	2564.409756
949.784678	2563.335990
950.085841	2564.001422
950.386967	2562.478994
950.688054	2564.618964
950.989103	2564.213151
951.290114	2562.589899
951.591087	2562.476473
951.892021	2566.985785
952.192917	2567.353790
952.493776	2562.705846
952.794596	2567.447051
953.095378	2566.832030
953.396122	2565.186093
953.696828	2565.589386
953.997496	2563.940928
954.298126	2565.412945
954.598718	2565.259190
954.899272	2567.363872
955.199788	2564.041752
955.500266	2565.511248
955.800706	2563.215002
956.101108	2559.608057
956.401472	2562.289951
956.701798	2563.018397
957.002087	2560.139898
957.302337	2565.682647
957.602550	2564.379509
957.902724	2564.828172
958.202861	2563.285578
958.502960	2563.209961
958.803022	2562.670558
959.103045	2563.005794
959.403031	2562.118551
959.702979	2560.712069
960.002889	2564.782801
960.302762	2565.339849
960.602596	2563.706515
960.902393	2565.362534
961.202153	2564.311453
961.501875	2565.372616
961.801559	2565.160888
962.101205	2563.502348
962.400814	2561.672409
962.700385	2563.479663
962.999918	2565.947308
963.299414	2563.295661
963.598873	2562.799107
963.898293	2562.675599
964.197677	2563.648542
964.497022	2562.146278
964.796331	2565.329766
965.095601	2562.211813
965.394835	2566.632905
965.694030	2563.096535
965.993189	2567.018553
966.292309	2563.832544
966.591393	2564.765157
966.890439	2562.136195
967.189447	2564.823130
967.488419	2563.557801
967.787353	2562.035372
968.086249	2561.301884
968.385108	2562.771381
968.683930	2565.415466
968.982714	2564.419838
969.281462	2562.748696
969.580172	2563.512430
969.878844	2564.964283
970.177480	2565.468398
970.476078	2561.410269
970.774639	2562.257183
971.073162	2562.501679
971.371649	2562.279868
971.670098	2559.993705
971.968510	2559.015721
972.266885	2561.526216
972.565223	2563.797256
972.863524	2564.024108
973.161788	2565.599468
973.460014	2561.972358
973.758204	2564.528223
974.056356	2562.693243
974.354471	2564.586196
974.652550	2562.501679
974.950591	2566.743810
975.248595	2563.298181
975.546563	2566.070816
975.844493	2564.210630
976.142386	2561.337172
976.440243	2563.880435
976.738062	2564.639128
977.035845	2564.445044
977.333590	2566.345559
977.631299	2562.531926
977.928971	2565.123079
978.226606	2562.993192
978.524204	2561.962276
978.821765	2563.358675
979.119290	2563.570404
979.416777	2563.025959
979.714228	2564.389591
980.011642	2562.564693
980.309020	2565.307081
980.606360	2564.155177
980.903664	2563.555280
981.200931	2562.020249
981.498162	2564.049313
981.795356	2562.153839
982.092513	2565.841443
982.389633	2564.830692
982.686717	2566.955538
982.983764	2563.827502
983.280775	2564.071998
983.577749	2561.881617
983.874686	2567.232802
984.171587	2562.242060
984.468451	2563.545198
984.765279	2562.776422
985.062070	2563.058727
985.358824	2560.608726
985.655543	2564.860939
985.952224	2562.715928
986.248869	2563.630897
986.545478	2559.618139
986.842050	2562.330280
987.138586	2558.257027
987.435086	2559.144271
987.731549	2558.330124
988.027975	2564.298850
988.324366	2561.707697
988.620719	2566.002760
988.917037	2564.908830
989.213318	2564.124931
989.509563	2563.046124
989.805772	2563.313305
990.101944	2564.573593
990.398080	2562.168963
990.694180	2562.146278
990.990244	2563.199879
991.286271	2562.494117
991.582262	2563.487225
991.878217	2564.054354
992.174136	2564.865980
992.470019	2563.426731
992.765865	2562.617626
993.061676	2561.652245
993.357450	2563.388922
993.653188	2562.257183
993.948890	2561.218705
994.244556	2562.123593
994.540186	2565.581824
994.835780	2561.367419
995.131337	2563.794735
995.426859	2562.957903
995.722345	2563.399004
996.017795	2561.644683
996.313208	2565.208779
996.608586	2563.633418
996.903928	2563.588048
997.199234	2563.519992
997.494504	2563.429251
997.789738	2562.592420
998.084936	2558.642676
998.380099	2563.000753
998.675225	2564.019066
998.970316	2564.308933
999.265371	2563.512430
999.560390	2562.415979
999.855373	2563.464539
1000.150320	2563.020918
1000.445232	2566.033007
1000.740108	2564.273645
1001.034948	2565.702812
1001.329752	2562.345403
1001.624521	2560.172666
1001.919254	2558.710731
1002.213951	2559.131668
1002.508613	2559.255176
1002.803239	2559.950855
1003.097829	2557.102603
1003.392384	2561.039744
1003.686903	2560.528067
1003.981386	2560.167625
1004.275834	2561.196020
1004.570246	2561.876576
1004.864623	2563.754406
1005.158964	2565.236505
1005.453270	2560.039075
1005.747540	2564.230795
1006.041775	2562.347924
1006.335974	2561.377502
1006.630138	2563.540157
1006.924266	2563.363716
1007.218359	2561.634601
1007.512416	2562.514282
1007.806438	2561.382543
1008.100425	2562.269786
1008.394376	2560.724672
1008.688292	2562.778942
1008.982172	2562.554611
1009.276017	2559.076215
1009.569827	2561.639642
1009.863602	2561.803479
1010.157341	2560.858263
1010.451045	2560.921277
1010.744714	2560.119734
1011.038347	2559.673592
1011.331945	2562.461350
1011.625508	2562.955383
1011.919036	2562.547049
1012.212528	2559.678633
1012.505986	2563.008315
1012.799408	2558.251986
1013.092795	2563.431772
1013.386147	2560.686864
1013.679464	2560.749878
1013.972745	2562.199210
1014.265992	2559.166956
1014.559204	2563.492266
1014.852380	2562.882286
1015.145521	2564.107287
1015.438628	2562.158881
1015.731699	2561.168294
1016.024736	2561.027142
1016.317737	2565.327246
1016.610703	2563.157029
1016.903635	2558.872048
1017.196531	2559.066133
1017.489393	2558.395659
1017.782219	2557.495813
1018.075011	2557.606719
1018.367768	2563.487225
1018.660490	2559.963458
1018.953177	2559.963458
1019.245829	2559.963458
