Dividing Wavelength (nm)	Counts (n)	Blue Motor Position (mm): 0.000000	Red Motor Position (mm): 7.400000	
326.493990	2122.325769
326.888308	2122.325769
327.282561	2122.325769
327.676750	2076.955385
328.070874	2102.161154
328.464933	2044.187885
328.858929	2134.928654
329.252859	2092.078846
329.646726	2097.120000
330.040528	2134.928654
330.434265	2094.599423
330.827938	2084.517115
331.221547	2124.846346
331.615091	2197.943077
332.008571	2180.299038
332.401986	2225.669423
332.795338	2291.204423
333.188625	2276.080962
333.581847	2273.560385
333.975006	2278.601538
334.368100	2306.327885
334.761129	2273.560385
335.154095	2402.109808
335.546996	2472.685962
335.939833	2354.218846
336.332606	2341.615962
336.725315	2306.327885
337.117960	2359.260000
337.510540	2399.589231
337.903056	2447.480192
338.295508	2429.836154
338.687896	2467.644808
339.080220	2455.041923
339.472480	2560.906154
339.864676	2427.315577
340.256807	2399.589231
340.648875	2381.945192
341.040879	2507.974038
341.432818	2364.301154
341.824694	2502.932885
342.216506	2434.877308
342.608253	2586.111923
342.999937	2477.727115
343.391557	2386.986346
343.783113	2485.288846
344.174605	2502.932885
344.566033	2477.727115
344.957397	2477.727115
345.348697	2412.192115
345.739934	2381.945192
346.131106	2525.618077
346.522215	2497.891731
346.913260	2376.904038
347.304241	2500.412308
347.695159	2444.959615
348.086012	2427.315577
348.476802	2437.397885
348.867528	2442.439038
349.258191	2424.795000
349.648789	2427.315577
350.039324	2392.027500
350.429796	2457.562500
350.820203	2555.865000
351.210548	2497.891731
351.600828	2533.179808
351.991045	2444.959615
352.381198	2467.644808
352.771288	2412.192115
353.161314	2467.644808
353.551276	2334.054231
353.941175	2497.891731
354.331010	2432.356731
354.720782	2515.535769
355.110490	2462.603654
355.500135	2492.850577
355.889717	2432.356731
356.279235	2444.959615
356.668689	2457.562500
357.058080	2409.671538
357.447408	2419.753846
357.836672	2414.712692
358.225873	2397.068654
358.615010	2467.644808
359.004084	2485.288846
359.393095	2374.383462
359.782043	2482.768269
360.170927	2412.192115
360.559748	2497.891731
360.948505	2417.233269
361.337199	2507.974038
361.725830	2444.959615
362.114398	2414.712692
362.502903	2381.945192
362.891344	2412.192115
363.279722	2407.150962
363.668037	2452.521346
364.056289	2477.727115
364.444478	2480.247692
364.832603	2500.412308
365.220665	2482.768269
365.608665	2495.371154
365.996601	2462.603654
366.384474	2444.959615
366.772284	2429.836154
367.160031	2429.836154
367.547715	2437.397885
367.935336	2374.383462
368.322893	2492.850577
368.710388	2439.918462
369.097820	2384.465769
369.485189	2422.274423
369.872495	2502.932885
370.259738	2414.712692
370.646918	2424.795000
371.034035	2513.015192
371.421090	2409.671538
371.808081	2586.111923
372.195010	2558.385577
372.581875	2422.274423
372.968678	2470.165385
373.355418	2495.371154
373.742096	2482.768269
374.128710	2472.685962
374.515262	2515.535769
374.901751	2530.659231
375.288177	2513.015192
375.674540	2535.700385
376.060841	2495.371154
376.447079	2482.768269
376.833254	2455.041923
377.219367	2369.342308
377.605417	2376.904038
377.991404	2538.220962
378.377329	2495.371154
378.763191	2528.138654
379.148991	2470.165385
379.534727	2548.303269
379.920402	2452.521346
380.306013	2457.562500
380.691563	2502.932885
381.077049	2444.959615
381.462474	2482.768269
381.847835	2404.630385
382.233134	2538.220962
382.618371	2424.795000
383.003545	2518.056346
383.388657	2515.535769
383.773706	2457.562500
384.158693	2497.891731
384.543618	2392.027500
384.928480	2457.562500
385.313280	2528.138654
385.698017	2452.521346
386.082692	2513.015192
386.467305	2455.041923
386.851856	2553.344423
387.236344	2447.480192
387.620770	2560.906154
388.005133	2444.959615
388.389435	2462.603654
388.773674	2480.247692
389.157851	2442.439038
389.541965	2399.589231
389.926018	2513.015192
390.310008	2530.659231
390.693936	2394.548077
391.077802	2470.165385
391.461606	2515.535769
391.845348	2525.618077
392.229027	2475.206538
392.612645	2477.727115
392.996200	2470.165385
393.379694	2457.562500
393.763125	2397.068654
394.146494	2487.809423
394.529801	2432.356731
394.913047	2414.712692
395.296230	2487.809423
395.679351	2462.603654
396.062410	2462.603654
396.445408	2460.083077
396.828343	2442.439038
397.211217	2518.056346
397.594028	2450.000769
397.976778	2374.383462
398.359466	2495.371154
398.742092	2414.712692
399.124656	2533.179808
399.507158	2384.465769
399.889598	2482.768269
400.271977	2427.315577
400.654294	2523.097500
401.036549	2444.959615
401.418742	2462.603654
401.800874	2444.959615
402.182944	2518.056346
402.564952	2490.330000
402.946898	2502.932885
403.328783	2475.206538
403.710606	2507.974038
404.092367	2497.891731
404.474067	2520.576923
404.855705	2470.165385
405.237282	2467.644808
405.618797	2472.685962
406.000250	2477.727115
406.381642	2409.671538
406.762972	2485.288846
407.144240	2442.439038
407.525447	2560.906154
407.906593	2528.138654
408.287677	2480.247692
408.668700	2583.591346
409.049661	2530.659231
409.430560	2480.247692
409.811399	2402.109808
410.192176	2480.247692
410.572891	2455.041923
410.953545	2465.124231
411.334138	2520.576923
411.714669	2465.124231
412.095139	2520.576923
412.475547	2523.097500
412.855894	2432.356731
413.236180	2460.083077
413.616405	2487.809423
413.996568	2485.288846
414.376670	2500.412308
414.756711	2429.836154
415.136691	2490.330000
415.516609	2462.603654
415.896466	2548.303269
416.276262	2495.371154
416.655997	2495.371154
417.035670	2465.124231
417.415283	2560.906154
417.794834	2397.068654
418.174324	2538.220962
418.553753	2437.397885
418.933121	2412.192115
419.312428	2530.659231
419.691674	2507.974038
420.070859	2487.809423
420.449983	2482.768269
420.829045	2495.371154
421.208047	2439.918462
421.586988	2487.809423
421.965867	2381.945192
422.344686	2500.412308
422.723444	2507.974038
423.102141	2520.576923
423.480777	2513.015192
423.859352	2485.288846
424.237866	2470.165385
424.616319	2442.439038
424.994712	2480.247692
425.373044	2475.206538
425.751314	2533.179808
426.129524	2424.795000
426.507673	2434.877308
426.885762	2369.342308
427.263789	2513.015192
427.641756	2470.165385
428.019662	2518.056346
428.397508	2492.850577
428.775292	2505.453462
429.153016	2565.947308
429.530679	2520.576923
429.908282	2482.768269
430.285824	2470.165385
430.663305	2518.056346
431.040726	2467.644808
431.418086	2465.124231
431.795385	2485.288846
432.172624	2535.700385
432.549802	2457.562500
432.926920	2518.056346
433.303977	2523.097500
433.680974	2492.850577
434.057910	2467.644808
434.434786	2492.850577
434.811601	2477.727115
435.188355	2455.041923
435.565050	2550.823846
435.941683	2533.179808
436.318257	2470.165385
436.694770	2507.974038
437.071222	2442.439038
437.447614	2434.877308
437.823946	2465.124231
438.200218	2460.083077
438.576429	2482.768269
438.952580	2460.083077
439.328670	2442.439038
439.704700	2412.192115
440.080670	2505.453462
440.456580	2475.206538
440.832429	2475.206538
441.208218	2465.124231
441.583947	2500.412308
441.959616	2472.685962
442.335224	2477.727115
442.710773	2507.974038
443.086261	2402.109808
443.461689	2576.029615
443.837057	2475.206538
444.212365	2513.015192
444.587612	2513.015192
444.962800	2450.000769
445.337927	2457.562500
445.712995	2482.768269
446.088002	2545.782692
446.462949	2475.206538
446.837837	2500.412308
447.212664	2472.685962
447.587431	2414.712692
447.962139	2507.974038
448.336786	2462.603654
448.711374	2470.165385
449.085901	2550.823846
449.460369	2568.467885
449.834776	2523.097500
450.209124	2621.400000
450.583412	2455.041923
450.957640	2510.494615
451.331808	2538.220962
451.705917	2515.535769
452.079965	2465.124231
452.453954	2568.467885
452.827883	2399.589231
453.201752	2492.850577
453.575562	2482.768269
453.949311	2477.727115
454.323001	2573.509038
454.696632	2515.535769
455.070202	2565.947308
455.443713	2460.083077
455.817164	2497.891731
456.190556	2510.494615
456.563888	2467.644808
456.937160	2432.356731
457.310373	2510.494615
457.683526	2492.850577
458.056619	2444.959615
458.429653	2407.150962
458.802628	2525.618077
459.175542	2485.288846
459.548398	2520.576923
459.921194	2437.397885
460.293930	2452.521346
460.666607	2477.727115
461.039224	2402.109808
461.411782	2520.576923
461.784280	2452.521346
462.156719	2480.247692
462.529099	2528.138654
462.901419	2399.589231
463.273680	2455.041923
463.645882	2485.288846
464.018024	2596.194231
464.390106	2502.932885
464.762130	2450.000769
465.134094	2442.439038
465.505999	2467.644808
465.877845	2513.015192
466.249631	2460.083077
466.621358	2480.247692
466.993026	2550.823846
467.364634	2457.562500
467.736184	2470.165385
468.107674	2495.371154
468.479105	2490.330000
468.850477	2450.000769
469.221790	2563.426731
469.593043	2485.288846
469.964238	2492.850577
470.335373	2495.371154
470.706449	2570.988462
471.077467	2495.371154
471.448425	2573.509038
471.819324	2465.124231
472.190164	2523.097500
472.560945	2530.659231
472.931667	2452.521346
473.302330	2490.330000
473.672934	2482.768269
474.043479	2495.371154
474.413965	2596.194231
474.784393	2460.083077
475.154761	2475.206538
475.525070	2510.494615
475.895321	2507.974038
476.265513	2462.603654
476.635645	2530.659231
477.005719	2447.480192
477.375734	2490.330000
477.745691	2442.439038
478.115588	2525.618077
478.485427	2429.836154
478.855207	2472.685962
479.224928	2439.918462
479.594591	2470.165385
479.964194	2523.097500
480.333739	2540.741538
480.703226	2545.782692
481.072653	2490.330000
481.442022	2495.371154
481.811333	2434.877308
482.180584	2500.412308
482.549777	2432.356731
482.918912	2535.700385
483.287988	2487.809423
483.657005	2502.932885
484.025964	2550.823846
484.394864	2510.494615
484.763706	2528.138654
485.132489	2477.727115
485.501213	2505.453462
485.869879	2455.041923
486.238487	2485.288846
486.607036	2558.385577
486.975527	2507.974038
487.343959	2452.521346
487.712333	2477.727115
488.080648	2487.809423
488.448905	2447.480192
488.817104	2452.521346
489.185244	2475.206538
489.553326	2583.591346
489.921350	2487.809423
490.289315	2487.809423
490.657222	2460.083077
491.025070	2507.974038
491.392861	2480.247692
491.760593	2497.891731
492.128267	2553.344423
492.495883	2480.247692
492.863440	2482.768269
493.230939	2470.165385
493.598380	2462.603654
493.965763	2455.041923
494.333088	2545.782692
494.700354	2455.041923
495.067563	2495.371154
495.434713	2460.083077
495.801805	2548.303269
496.168839	2507.974038
496.535815	2462.603654
496.902733	2472.685962
497.269593	2525.618077
497.636395	2533.179808
498.003139	2553.344423
498.369825	2475.206538
498.736453	2576.029615
499.103023	2497.891731
499.469535	2581.070769
499.835989	2470.165385
500.202385	2502.932885
500.568723	2477.727115
500.935003	2523.097500
501.301226	2465.124231
501.667390	2475.206538
502.033497	2540.741538
502.399546	2513.015192
502.765537	2520.576923
503.131470	2518.056346
503.497345	2533.179808
503.863163	2545.782692
504.228923	2495.371154
504.594625	2505.453462
504.960269	2533.179808
505.325856	2444.959615
505.691385	2477.727115
506.056856	2548.303269
506.422270	2447.480192
506.787625	2450.000769
507.152924	2523.097500
507.518164	2533.179808
507.883347	2513.015192
508.248472	2462.603654
508.613540	2540.741538
508.978550	2495.371154
509.343503	2500.412308
509.708398	2485.288846
510.073236	2424.795000
510.438016	2550.823846
510.802738	2543.262115
511.167403	2460.083077
511.532010	2538.220962
511.896561	2513.015192
512.261053	2515.535769
512.625488	2500.412308
512.989866	2530.659231
513.354186	2477.727115
513.718449	2525.618077
514.082655	2502.932885
514.446803	2505.453462
514.810894	2460.083077
515.174927	2502.932885
515.538904	2523.097500
515.902822	2555.865000
516.266684	2457.562500
516.630488	2576.029615
516.994235	2419.753846
517.357925	2475.206538
517.721558	2533.179808
518.085133	2528.138654
518.448651	2477.727115
518.812112	2520.576923
519.175516	2492.850577
519.538863	2480.247692
519.902152	2518.056346
520.265385	2523.097500
520.628560	2550.823846
520.991678	2515.535769
521.354739	2565.947308
521.717743	2492.850577
522.080690	2525.618077
522.443580	2505.453462
522.806413	2432.356731
523.169189	2497.891731
523.531908	2490.330000
523.894569	2523.097500
524.257174	2543.262115
524.619722	2520.576923
524.982213	2452.521346
525.344647	2475.206538
525.707025	2510.494615
526.069345	2540.741538
526.431608	2525.618077
526.793815	2515.535769
527.155964	2573.509038
527.518057	2460.083077
527.880093	2550.823846
528.242072	2548.303269
528.603995	2497.891731
528.965860	2586.111923
529.327669	2621.400000
529.689421	2545.782692
530.051117	2487.809423
530.412755	2507.974038
530.774337	2447.480192
531.135862	2565.947308
531.497331	2482.768269
531.858743	2477.727115
532.220098	2422.274423
532.581396	2477.727115
532.942638	2518.056346
533.303824	2419.753846
533.664953	2487.809423
534.026025	2475.206538
534.387040	2487.809423
534.747999	2492.850577
535.108902	2444.959615
535.469748	2402.109808
535.830537	2523.097500
536.191270	2482.768269
536.551947	2500.412308
536.912567	2523.097500
537.273131	2460.083077
537.633638	2565.947308
537.994089	2535.700385
538.354483	2480.247692
538.714821	2495.371154
539.075103	2495.371154
539.435328	2432.356731
539.795497	2477.727115
540.155609	2450.000769
540.515665	2482.768269
540.875665	2487.809423
541.235609	2535.700385
541.595496	2417.233269
541.955328	2515.535769
542.315102	2450.000769
542.674821	2472.685962
543.034483	2518.056346
543.394090	2533.179808
543.753640	2518.056346
544.113134	2581.070769
544.472571	2515.535769
544.831953	2528.138654
545.191278	2565.947308
545.550548	2492.850577
545.909761	2560.906154
546.268918	2477.727115
546.628019	2548.303269
546.987064	2487.809423
547.346053	2515.535769
547.704986	2515.535769
548.063863	2573.509038
548.422684	2518.056346
548.781449	2447.480192
549.140158	2452.521346
549.498811	2432.356731
549.857408	2525.618077
550.215949	2502.932885
550.574434	2432.356731
550.932864	2505.453462
551.291237	2434.877308
551.649555	2513.015192
552.007817	2490.330000
552.366022	2540.741538
552.724173	2497.891731
553.082267	2492.850577
553.440305	2490.330000
553.798288	2490.330000
554.156215	2465.124231
554.514086	2412.192115
554.871902	2540.741538
555.229661	2495.371154
555.587365	2455.041923
555.945014	2583.591346
556.302606	2495.371154
556.660143	2545.782692
557.017625	2457.562500
557.375050	2593.673654
557.732421	2545.782692
558.089735	2528.138654
558.446994	2447.480192
558.804197	2477.727115
559.161345	2429.836154
559.518437	2528.138654
559.875474	2543.262115
560.232455	2513.015192
560.589381	2452.521346
560.946251	2576.029615
561.303065	2447.480192
561.659825	2550.823846
562.016528	2490.330000
562.373177	2495.371154
562.729770	2528.138654
563.086307	2558.385577
563.442789	2540.741538
563.799216	2455.041923
564.155587	2518.056346
564.511904	2568.467885
564.868164	2492.850577
565.224370	2510.494615
565.580520	2487.809423
565.936615	2507.974038
566.292654	2472.685962
566.648638	2505.453462
567.004567	2450.000769
567.360441	2467.644808
567.716260	2563.426731
568.072023	2475.206538
568.427732	2462.603654
568.783385	2490.330000
569.138982	2513.015192
569.494525	2455.041923
569.850013	2543.262115
570.205445	2444.959615
570.560823	2500.412308
570.916145	2581.070769
571.271412	2513.015192
571.626625	2495.371154
571.981782	2477.727115
572.336884	2510.494615
572.691931	2621.400000
573.046923	2480.247692
573.401860	2487.809423
573.756743	2432.356731
574.111570	2515.535769
574.466342	2555.865000
574.821059	2570.988462
575.175722	2492.850577
575.530330	2530.659231
575.884882	2432.356731
576.239380	2513.015192
576.593823	2525.618077
576.948211	2520.576923
577.302544	2530.659231
577.656823	2515.535769
578.011047	2470.165385
578.365216	2412.192115
578.719330	2465.124231
579.073389	2470.165385
579.427394	2462.603654
579.781344	2480.247692
580.135239	2545.782692
580.489080	2502.932885
580.842866	2520.576923
581.196597	2500.412308
581.550273	2485.288846
581.903895	2553.344423
582.257463	2525.618077
582.610975	2465.124231
582.964434	2520.576923
583.317837	2523.097500
583.671186	2485.288846
584.024481	2407.150962
584.377721	2523.097500
584.730906	2515.535769
585.084037	2475.206538
585.437113	2397.068654
585.790135	2487.809423
586.143103	2515.535769
586.496016	2518.056346
586.848874	2437.397885
587.201679	2507.974038
587.554428	2472.685962
587.907124	2533.179808
588.259765	2487.809423
588.612352	2417.233269
588.964884	2452.521346
589.317362	2480.247692
589.669786	2465.124231
590.022155	2523.097500
590.374470	2507.974038
590.726731	2576.029615
591.078937	2480.247692
591.431090	2507.974038
591.783188	2429.836154
592.135232	2507.974038
592.487222	2507.974038
592.839157	2555.865000
593.191038	2482.768269
593.542866	2404.630385
593.894639	2497.891731
594.246358	2548.303269
594.598022	2497.891731
594.949633	2434.877308
595.301190	2553.344423
595.652692	2432.356731
596.004141	2558.385577
596.355535	2442.439038
596.706876	2507.974038
597.058162	2510.494615
597.409395	2485.288846
597.760573	2588.632500
598.111698	2480.247692
598.462768	2548.303269
598.813785	2576.029615
599.164748	2538.220962
599.515657	2502.932885
599.866511	2500.412308
600.217312	2397.068654
600.568060	2502.932885
600.918753	2462.603654
601.269392	2505.453462
601.619978	2505.453462
601.970510	2543.262115
602.320988	2495.371154
602.671412	2545.782692
603.021783	2482.768269
603.372100	2502.932885
603.722363	2565.947308
604.072572	2467.644808
604.422728	2513.015192
604.772830	2480.247692
605.122878	2500.412308
605.472872	2407.150962
605.822813	2477.727115
606.172701	2515.535769
606.522534	2485.288846
606.872314	2490.330000
607.222041	2462.603654
607.571714	2533.179808
607.921333	2548.303269
608.270899	2457.562500
608.620411	2505.453462
608.969870	2555.865000
609.319276	2460.083077
609.668627	2447.480192
610.017926	2568.467885
610.367171	2457.562500
610.716362	2538.220962
611.065500	2480.247692
611.414585	2628.961731
611.763616	2452.521346
612.112594	2518.056346
612.461518	2492.850577
612.810389	2540.741538
613.159207	2533.179808
613.507971	2520.576923
613.856682	2472.685962
614.205340	2555.865000
614.553945	2540.741538
614.902496	2439.918462
615.250994	2560.906154
615.599439	2510.494615
615.947830	2482.768269
616.296169	2560.906154
616.644454	2515.535769
616.992686	2510.494615
617.340864	2434.877308
617.688990	2485.288846
618.037063	2490.330000
618.385082	2417.233269
618.733048	2570.988462
619.080961	2487.809423
619.428821	2553.344423
619.776628	2460.083077
620.124382	2502.932885
620.472083	2465.124231
620.819731	2432.356731
621.167326	2465.124231
621.514868	2525.618077
621.862357	2530.659231
622.209793	2437.397885
622.557176	2455.041923
622.904506	2492.850577
623.251783	2447.480192
623.599007	2475.206538
623.946179	2548.303269
624.293297	2392.027500
624.640363	2495.371154
624.987376	2543.262115
625.334336	2497.891731
625.681243	2507.974038
626.028097	2465.124231
626.374899	2573.509038
626.721647	2490.330000
627.068343	2442.439038
627.414987	2376.904038
627.761577	2422.274423
628.108115	2570.988462
628.454600	2434.877308
628.801032	2510.494615
629.147412	2588.632500
629.493739	2444.959615
629.840014	2485.288846
630.186236	2457.562500
630.532405	2495.371154
630.878521	2447.480192
631.224585	2518.056346
631.570597	2573.509038
631.916556	2502.932885
632.262462	2447.480192
632.608316	2472.685962
632.954117	2553.344423
633.299866	2455.041923
633.645562	2480.247692
633.991206	2452.521346
634.336797	2500.412308
634.682336	2500.412308
635.027823	2523.097500
635.373257	2475.206538
635.718639	2394.548077
636.063968	2505.453462
636.409245	2455.041923
636.754470	2439.918462
637.099642	2507.974038
637.444762	2472.685962
637.789829	2467.644808
638.134845	2538.220962
638.479808	2485.288846
638.824719	2447.480192
639.169577	2480.247692
639.514383	2492.850577
639.859137	2518.056346
640.203839	2457.562500
640.548489	2518.056346
640.893086	2565.947308
641.237632	2485.288846
641.582125	2558.385577
641.926566	2472.685962
642.270955	2427.315577
642.615292	2588.632500
642.959576	2502.932885
643.303809	2492.850577
643.647990	2439.918462
643.992118	2507.974038
644.336195	2462.603654
644.680219	2505.453462
645.024192	2490.330000
645.368112	2550.823846
645.711981	2487.809423
646.055797	2490.330000
646.399562	2497.891731
646.743274	2470.165385
647.086935	2399.589231
647.430544	2518.056346
647.774101	2591.153077
648.117606	2422.274423
648.461059	2505.453462
648.804460	2535.700385
649.147810	2518.056346
649.491108	2520.576923
649.834354	2495.371154
650.177548	2487.809423
650.520690	2558.385577
650.863781	2583.591346
651.206820	2500.412308
651.549807	2583.591346
651.892742	2578.550192
652.235626	2603.755962
652.578458	2470.165385
652.921238	2555.865000
653.263967	2525.618077
653.606644	2507.974038
653.949269	2510.494615
654.291843	2490.330000
654.634365	2467.644808
654.976836	2487.809423
655.319255	2447.480192
655.661622	2505.453462
656.003938	2515.535769
656.346203	2583.591346
656.688416	2482.768269
657.030577	2583.591346
657.372687	2437.397885
657.714746	2538.220962
658.056753	2530.659231
658.398708	2570.988462
658.740612	2460.083077
659.082465	2492.850577
659.424266	2492.850577
659.766016	2495.371154
660.107715	2515.535769
660.449362	2515.535769
660.790958	2570.988462
661.132503	2480.247692
661.473996	2492.850577
661.815438	2472.685962
662.156829	2518.056346
662.498168	2429.836154
662.839456	2560.906154
663.180693	2455.041923
663.521879	2505.453462
663.863013	2432.356731
664.204097	2439.918462
664.545129	2460.083077
664.886110	2533.179808
665.227040	2462.603654
665.567918	2525.618077
665.908746	2460.083077
666.249522	2409.671538
666.590248	2545.782692
666.930922	2455.041923
667.271545	2573.509038
667.612118	2470.165385
667.952639	2510.494615
668.293109	2462.603654
668.633528	2523.097500
668.973896	2429.836154
669.314213	2505.453462
669.654480	2480.247692
669.994695	2596.194231
670.334859	2555.865000
670.674973	2565.947308
671.015035	2492.850577
671.355047	2465.124231
671.695008	2543.262115
672.034918	2482.768269
672.374777	2518.056346
672.714585	2495.371154
673.054342	2523.097500
673.394049	2535.700385
673.733705	2495.371154
674.073310	2397.068654
674.412864	2573.509038
674.752368	2434.877308
675.091820	2502.932885
675.431223	2422.274423
675.770574	2538.220962
676.109875	2455.041923
676.449125	2558.385577
676.788324	2480.247692
677.127473	2475.206538
677.466571	2462.603654
677.805619	2568.467885
678.144616	2462.603654
678.483562	2520.576923
678.822458	2538.220962
679.161303	2439.918462
679.500098	2507.974038
679.838842	2485.288846
680.177535	2490.330000
680.516179	2487.809423
680.854771	2444.959615
681.193314	2538.220962
681.531805	2563.426731
681.870247	2591.153077
682.208638	2538.220962
682.546978	2442.439038
682.885268	2548.303269
683.223508	2434.877308
683.561697	2470.165385
683.899836	2523.097500
684.237925	2550.823846
684.575963	2558.385577
684.913951	2472.685962
685.251889	2550.823846
685.589776	2460.083077
685.927614	2475.206538
686.265401	2528.138654
686.603137	2555.865000
686.940824	2500.412308
687.278460	2565.947308
687.616046	2497.891731
687.953582	2467.644808
688.291068	2487.809423
688.628504	2530.659231
688.965889	2502.932885
689.303224	2452.521346
689.640510	2507.974038
689.977745	2588.632500
690.314930	2450.000769
690.652065	2394.548077
690.989150	2525.618077
691.326185	2523.097500
691.663170	2472.685962
692.000105	2460.083077
692.336990	2427.315577
692.673825	2497.891731
693.010610	2570.988462
693.347345	2510.494615
693.684030	2540.741538
694.020665	2452.521346
694.357251	2402.109808
694.693786	2485.288846
695.030272	2485.288846
695.366707	2520.576923
695.703093	2515.535769
696.039429	2530.659231
696.375716	2492.850577
696.711952	2452.521346
697.048139	2500.412308
697.384276	2502.932885
697.720363	2535.700385
698.056400	2475.206538
698.392388	2455.041923
698.728326	2576.029615
699.064214	2480.247692
699.400053	2553.344423
699.735842	2513.015192
700.071581	2452.521346
700.407270	2507.974038
700.742910	2560.906154
701.078501	2570.988462
701.414042	2525.618077
701.749533	2404.630385
702.084974	2533.179808
702.420366	2460.083077
702.755709	2475.206538
703.091002	2437.397885
703.426246	2543.262115
703.761440	2545.782692
704.096584	2540.741538
704.431679	2497.891731
704.766725	2437.397885
705.101721	2470.165385
705.436668	2422.274423
705.771565	2530.659231
706.106413	2497.891731
706.441212	2513.015192
706.775961	2470.165385
707.110661	2490.330000
707.445311	2586.111923
707.779913	2452.521346
708.114465	2545.782692
708.448967	2525.618077
708.783421	2495.371154
709.117825	2502.932885
709.452180	2434.877308
709.786485	2462.603654
710.120742	2477.727115
710.454949	2452.521346
710.789107	2555.865000
711.123216	2437.397885
711.457275	2560.906154
711.791286	2442.439038
712.125247	2555.865000
712.459159	2639.044038
712.793023	2482.768269
713.126837	2490.330000
713.460602	2641.564615
713.794318	2487.809423
714.127985	2558.385577
714.461602	2460.083077
714.795171	2601.235385
715.128691	2515.535769
715.462162	2553.344423
715.795584	2507.974038
716.128957	2520.576923
716.462281	2520.576923
716.795556	2497.891731
717.128782	2530.659231
717.461960	2593.673654
717.795088	2450.000769
718.128167	2500.412308
718.461198	2518.056346
718.794180	2495.371154
719.127113	2500.412308
719.459997	2495.371154
719.792833	2631.482308
720.125619	2568.467885
720.458357	2442.439038
720.791046	2419.753846
721.123686	2502.932885
721.456278	2510.494615
721.788821	2407.150962
722.121315	2470.165385
722.453761	2495.371154
722.786158	2505.453462
723.118506	2550.823846
723.450805	2543.262115
723.783056	2485.288846
724.115259	2548.303269
724.447412	2518.056346
724.779518	2475.206538
725.111574	2540.741538
725.443582	2477.727115
725.775542	2593.673654
726.107453	2513.015192
726.439315	2487.809423
726.771129	2455.041923
727.102895	2482.768269
727.434612	2470.165385
727.766281	2510.494615
728.097901	2497.891731
728.429473	2502.932885
728.760996	2525.618077
729.092471	2409.671538
729.423897	2485.288846
729.755276	2412.192115
730.086606	2545.782692
730.417887	2538.220962
730.749120	2550.823846
731.080305	2417.233269
731.411442	2470.165385
731.742530	2432.356731
732.073570	2477.727115
732.404562	2520.576923
732.735506	2588.632500
733.066401	2510.494615
733.397249	2515.535769
733.728048	2497.891731
734.058798	2419.753846
734.389501	2538.220962
734.720156	2570.988462
735.050762	2422.274423
735.381320	2432.356731
735.711831	2495.371154
736.042293	2442.439038
736.372707	2540.741538
736.703073	2500.412308
737.033391	2550.823846
737.363661	2543.262115
737.693883	2525.618077
738.024056	2475.206538
738.354182	2475.206538
738.684260	2581.070769
739.014290	2586.111923
739.344272	2538.220962
739.674207	2407.150962
740.004093	2513.015192
740.333931	2450.000769
740.663722	2462.603654
740.993464	2477.727115
741.323159	2568.467885
741.652806	2465.124231
741.982405	2520.576923
742.311956	2495.371154
742.641460	2543.262115
742.970915	2513.015192
743.300323	2578.550192
743.629683	2525.618077
743.958996	2492.850577
744.288260	2485.288846
744.617477	2485.288846
744.946647	2462.603654
745.275768	2533.179808
745.604842	2490.330000
745.933869	2472.685962
746.262847	2558.385577
746.591778	2525.618077
746.920662	2480.247692
747.249498	2490.330000
747.578286	2490.330000
747.907027	2513.015192
748.235720	2573.509038
748.564365	2510.494615
748.892963	2460.083077
749.221514	2490.330000
749.550017	2505.453462
749.878473	2500.412308
750.206881	2576.029615
750.535242	2515.535769
750.863555	2429.836154
751.191821	2558.385577
751.520039	2394.548077
751.848210	2366.821731
752.176334	2497.891731
752.504411	2570.988462
752.832440	2482.768269
753.160421	2507.974038
753.488356	2492.850577
753.816243	2492.850577
754.144082	2525.618077
754.471875	2439.918462
754.799620	2523.097500
755.127318	2485.288846
755.454969	2586.111923
755.782572	2477.727115
756.110129	2495.371154
756.437638	2535.700385
756.765100	2482.768269
757.092515	2477.727115
757.419882	2563.426731
757.747203	2538.220962
758.074477	2548.303269
758.401703	2505.453462
758.728882	2417.233269
759.056014	2460.083077
759.383099	2487.809423
759.710138	2432.356731
760.037129	2573.509038
760.364073	2457.562500
760.690970	2535.700385
761.017820	2608.797115
761.344623	2465.124231
761.671379	2485.288846
761.998088	2487.809423
762.324751	2447.480192
762.651366	2533.179808
762.977935	2553.344423
763.304456	2467.644808
763.630931	2518.056346
763.957359	2553.344423
764.283740	2444.959615
764.610074	2450.000769
764.936362	2442.439038
765.262602	2528.138654
765.588796	2460.083077
765.914943	2487.809423
766.241044	2510.494615
766.567097	2475.206538
766.893104	2513.015192
767.219064	2576.029615
767.544978	2558.385577
767.870845	2560.906154
768.196665	2452.521346
768.522438	2495.371154
768.848165	2487.809423
769.173846	2507.974038
769.499479	2555.865000
769.825066	2530.659231
770.150607	2513.015192
770.476101	2538.220962
770.801548	2513.015192
771.126949	2558.385577
771.452303	2434.877308
771.777611	2520.576923
772.102872	2467.644808
772.428087	2555.865000
772.753256	2457.562500
773.078378	2452.521346
773.403453	2460.083077
773.728482	2452.521346
774.053465	2543.262115
774.378401	2492.850577
774.703291	2444.959615
775.028135	2465.124231
775.352932	2510.494615
775.677683	2465.124231
776.002388	2439.918462
776.327046	2533.179808
776.651658	2507.974038
776.976224	2490.330000
777.300743	2492.850577
777.625216	2485.288846
777.949643	2576.029615
778.274024	2533.179808
778.598359	2455.041923
778.922647	2485.288846
779.246889	2518.056346
779.571086	2457.562500
779.895236	2500.412308
780.219339	2513.015192
780.543397	2482.768269
780.867409	2543.262115
781.191374	2447.480192
781.515294	2525.618077
781.839167	2550.823846
782.162995	2570.988462
782.486776	2586.111923
782.810511	2457.562500
783.134201	2513.015192
783.457844	2455.041923
783.781441	2485.288846
784.104993	2477.727115
784.428498	2507.974038
784.751958	2434.877308
785.075372	2553.344423
785.398739	2568.467885
785.722061	2427.315577
786.045337	2538.220962
786.368568	2583.591346
786.691752	2455.041923
787.014891	2482.768269
787.337983	2452.521346
787.661030	2513.015192
787.984031	2525.618077
788.306987	2513.015192
788.629897	2439.918462
788.952760	2525.618077
789.275579	2450.000769
789.598351	2497.891731
789.921078	2490.330000
790.243759	2565.947308
790.566395	2427.315577
790.888984	2495.371154
791.211529	2452.521346
791.534027	2455.041923
791.856480	2467.644808
792.178888	2422.274423
792.501249	2497.891731
792.823566	2475.206538
793.145836	2502.932885
793.468062	2472.685962
793.790241	2535.700385
794.112375	2422.274423
794.434464	2437.397885
794.756507	2570.988462
795.078505	2470.165385
795.400457	2548.303269
795.722364	2424.795000
796.044226	2497.891731
796.366042	2515.535769
796.687812	2490.330000
797.009538	2502.932885
797.331218	2523.097500
797.652852	2447.480192
797.974442	2442.439038
798.295986	2560.906154
798.617484	2404.630385
798.938938	2495.371154
799.260346	2608.797115
799.581709	2565.947308
799.903026	2485.288846
800.224299	2548.303269
800.545526	2573.509038
800.866708	2447.480192
801.187845	2487.809423
801.508936	2613.838269
801.829983	2462.603654
802.150984	2606.276538
802.471940	2467.644808
802.792851	2482.768269
803.113717	2439.918462
803.434538	2485.288846
803.755314	2472.685962
804.076045	2482.768269
804.396731	2439.918462
804.717372	2470.165385
805.037967	2457.562500
805.358518	2475.206538
805.679024	2455.041923
805.999485	2510.494615
806.319901	2500.412308
806.640272	2437.397885
806.960598	2497.891731
807.280879	2497.891731
807.601115	2530.659231
807.921306	2485.288846
808.241453	2507.974038
808.561554	2538.220962
808.881611	2553.344423
809.201623	2565.947308
809.521590	2613.838269
809.841513	2497.891731
810.161390	2402.109808
810.481223	2404.630385
810.801011	2427.315577
811.120755	2374.383462
811.440453	2482.768269
811.760107	2485.288846
812.079716	2482.768269
812.399281	2462.603654
812.718801	2402.109808
813.038276	2480.247692
813.357707	2492.850577
813.677093	2525.618077
813.996434	2520.576923
814.315731	2540.741538
814.634983	2500.412308
814.954191	2414.712692
815.273354	2528.138654
815.592473	2500.412308
815.911547	2490.330000
816.230577	2475.206538
816.549562	2432.356731
816.868502	2462.603654
817.187399	2419.753846
817.506250	2460.083077
817.825058	2538.220962
818.143821	2560.906154
818.462539	2510.494615
818.781213	2495.371154
819.099843	2520.576923
819.418429	2558.385577
819.736970	2510.494615
820.055466	2455.041923
820.373919	2507.974038
820.692327	2510.494615
821.010691	2578.550192
821.329011	2515.535769
821.647286	2573.509038
821.965517	2422.274423
822.283704	2490.330000
822.601847	2477.727115
822.919945	2523.097500
823.237999	2535.700385
823.556010	2465.124231
823.873976	2505.453462
824.191897	2482.768269
824.509775	2485.288846
824.827609	2442.439038
825.145398	2548.303269
825.463144	2538.220962
825.780845	2515.535769
826.098502	2497.891731
826.416116	2570.988462
826.733685	2623.920577
827.051210	2563.426731
827.368692	2518.056346
827.686129	2548.303269
828.003522	2555.865000
828.320872	2515.535769
828.638177	2444.959615
828.955439	2381.945192
829.272656	2482.768269
829.589830	2472.685962
829.906960	2457.562500
830.224046	2563.426731
830.541088	2444.959615
830.858086	2500.412308
831.175041	2480.247692
831.491952	2528.138654
831.808819	2480.247692
832.125642	2543.262115
832.442421	2465.124231
832.759157	2349.177692
833.075849	2407.150962
833.392497	2359.260000
833.709101	2550.823846
834.025662	2563.426731
834.342179	2480.247692
834.658653	2513.015192
834.975083	2480.247692
835.291469	2505.453462
835.607811	2495.371154
835.924110	2460.083077
836.240366	2450.000769
836.556578	2480.247692
836.872746	2432.356731
837.188871	2538.220962
837.504952	2439.918462
837.820990	2470.165385
838.136984	2424.795000
838.452935	2525.618077
838.768842	2497.891731
839.084706	2576.029615
839.400526	2505.453462
839.716303	2588.632500
840.032037	2523.097500
840.347727	2513.015192
840.663373	2538.220962
840.978977	2462.603654
841.294537	2528.138654
841.610054	2565.947308
841.925527	2525.618077
842.240957	2442.439038
842.556344	2429.836154
842.871687	2548.303269
843.186987	2492.850577
843.502244	2392.027500
843.817458	2515.535769
844.132629	2470.165385
844.447756	2497.891731
844.762840	2424.795000
845.077881	2535.700385
845.392879	2452.521346
845.707833	2490.330000
846.022745	2507.974038
846.337613	2497.891731
846.652438	2518.056346
846.967221	2460.083077
847.281960	2490.330000
847.596656	2417.233269
847.911309	2487.809423
848.225919	2502.932885
848.540485	2515.535769
848.855009	2439.918462
849.169490	2462.603654
849.483928	2462.603654
849.798323	2465.124231
850.112675	2528.138654
850.426984	2434.877308
850.741251	2414.712692
851.055474	2465.124231
851.369654	2492.850577
851.683792	2477.727115
851.997887	2432.356731
852.311938	2492.850577
852.625947	2462.603654
852.939914	2505.453462
853.253837	2533.179808
853.567718	2460.083077
853.881555	2429.836154
854.195350	2490.330000
854.509103	2538.220962
854.822812	2510.494615
855.136479	2475.206538
855.450103	2555.865000
855.763685	2460.083077
856.077224	2447.480192
856.390720	2581.070769
856.704173	2472.685962
857.017584	2472.685962
857.330953	2500.412308
857.644278	2467.644808
857.957561	2465.124231
858.270802	2530.659231
858.584000	2434.877308
858.897155	2480.247692
859.210268	2457.562500
859.523339	2442.439038
859.836367	2480.247692
860.149352	2437.397885
860.462295	2485.288846
860.775195	2502.932885
861.088054	2444.959615
861.400869	2520.576923
861.713642	2507.974038
862.026373	2543.262115
862.339062	2565.947308
862.651708	2497.891731
862.964312	2475.206538
863.276873	2523.097500
863.589392	2515.535769
863.901869	2492.850577
864.214303	2548.303269
864.526696	2533.179808
864.839045	2540.741538
865.151353	2477.727115
865.463619	2515.535769
865.775842	2452.521346
866.088023	2460.083077
866.400162	2550.823846
866.712258	2548.303269
867.024313	2497.891731
867.336325	2510.494615
867.648296	2515.535769
867.960224	2535.700385
868.272110	2513.015192
868.583954	2502.932885
868.895755	2540.741538
869.207515	2482.768269
869.519233	2507.974038
869.830909	2460.083077
870.142542	2520.576923
870.454134	2475.206538
870.765684	2510.494615
871.077191	2392.027500
871.388657	2450.000769
871.700081	2414.712692
872.011463	2356.739423
872.322803	2540.741538
872.634101	2444.959615
872.945357	2550.823846
873.256571	2513.015192
873.567744	2482.768269
873.878874	2480.247692
874.189963	2397.068654
874.501010	2455.041923
874.812015	2576.029615
875.122979	2545.782692
875.433900	2460.083077
875.744780	2513.015192
876.055618	2427.315577
876.366415	2644.085192
876.677169	2588.632500
876.987882	2515.535769
877.298554	2505.453462
877.609183	2457.562500
877.919771	2444.959615
878.230317	2553.344423
878.540822	2513.015192
878.851285	2523.097500
879.161707	2518.056346
879.472087	2376.904038
879.782425	2500.412308
880.092722	2485.288846
880.402977	2500.412308
880.713191	2427.315577
881.023363	2523.097500
881.333494	2550.823846
881.643583	2533.179808
881.953631	2465.124231
882.263637	2513.015192
882.573602	2570.988462
882.883526	2555.865000
883.193408	2485.288846
883.503248	2553.344423
883.813048	2515.535769
884.122806	2570.988462
884.432522	2497.891731
884.742197	2507.974038
885.051831	2439.918462
885.361424	2502.932885
885.670975	2409.671538
885.980485	2543.262115
886.289954	2462.603654
886.599382	2515.535769
886.908768	2505.453462
887.218113	2480.247692
887.527417	2470.165385
887.836680	2581.070769
888.145901	2477.727115
888.455082	2533.179808
888.764221	2550.823846
889.073319	2485.288846
889.382376	2505.453462
889.691392	2477.727115
890.000366	2480.247692
890.309300	2475.206538
890.618193	2548.303269
890.927044	2452.521346
891.235855	2402.109808
891.544625	2515.535769
891.853353	2427.315577
892.162041	2482.768269
892.470687	2429.836154
892.779293	2475.206538
893.087858	2487.809423
893.396381	2452.521346
893.704864	2510.494615
894.013306	2495.371154
894.321707	2422.274423
894.630068	2422.274423
894.938387	2439.918462
895.246665	2495.371154
895.554903	2487.809423
895.863100	2525.618077
896.171256	2450.000769
896.479371	2500.412308
896.787446	2422.274423
897.095480	2487.809423
897.403473	2497.891731
897.711425	2515.535769
898.019336	2520.576923
898.327207	2555.865000
898.635038	2513.015192
898.942827	2487.809423
899.250576	2412.192115
899.558284	2505.453462
899.865952	2472.685962
900.173579	2485.288846
900.481165	2472.685962
900.788711	2444.959615
901.096216	2417.233269
901.403681	2485.288846
901.711105	2553.344423
902.018489	2450.000769
902.325832	2492.850577
902.633135	2543.262115
902.940397	2472.685962
903.247619	2470.165385
903.554800	2490.330000
903.861941	2500.412308
904.169041	2500.412308
904.476101	2429.836154
904.783121	2389.506923
905.090100	2455.041923
905.397039	2419.753846
905.703938	2510.494615
906.010796	2490.330000
906.317614	2490.330000
906.624391	2432.356731
906.931129	2560.906154
907.237826	2470.165385
907.544483	2500.412308
907.851099	2475.206538
908.157675	2460.083077
908.464211	2581.070769
908.770707	2470.165385
909.077163	2540.741538
909.383578	2518.056346
909.689954	2555.865000
909.996289	2505.453462
910.302584	2576.029615
910.608839	2414.712692
910.915054	2538.220962
911.221229	2507.974038
911.527363	2507.974038
911.833458	2462.603654
912.139513	2447.480192
912.445527	2518.056346
912.751502	2563.426731
913.057436	2487.809423
913.363331	2505.453462
913.669186	2447.480192
913.975000	2588.632500
914.280775	2505.453462
914.586510	2492.850577
914.892205	2477.727115
915.197859	2507.974038
915.503475	2502.932885
915.809050	2447.480192
916.114585	2520.576923
916.420081	2533.179808
916.725536	2523.097500
917.030952	2475.206538
917.336328	2538.220962
917.641665	2465.124231
917.946961	2565.947308
918.252218	2565.947308
918.557435	2553.344423
918.862612	2528.138654
919.167750	2528.138654
919.472848	2578.550192
919.777906	2477.727115
920.082925	2424.795000
920.387904	2523.097500
920.692843	2467.644808
920.997743	2548.303269
921.302603	2513.015192
921.607423	2538.220962
921.912204	2535.700385
922.216946	2467.644808
922.521647	2417.233269
922.826310	2500.412308
923.130932	2477.727115
923.435516	2462.603654
923.740059	2573.509038
924.044564	2452.521346
924.349028	2450.000769
924.653454	2457.562500
924.957840	2465.124231
925.262186	2480.247692
925.566493	2505.453462
925.870761	2525.618077
926.174989	2563.426731
926.479178	2477.727115
926.783328	2495.371154
927.087438	2482.768269
927.391509	2457.562500
927.695541	2414.712692
927.999533	2437.397885
928.303486	2568.467885
928.607400	2414.712692
928.911275	2472.685962
929.215110	2518.056346
929.518906	2452.521346
929.822663	2487.809423
930.126381	2492.850577
930.430060	2394.548077
930.733699	2492.850577
931.037299	2525.618077
931.340861	2492.850577
931.644383	2490.330000
931.947866	2407.150962
932.251309	2394.548077
932.554714	2397.068654
932.858080	2545.782692
933.161407	2455.041923
933.464694	2538.220962
933.767943	2467.644808
934.071153	2548.303269
934.374323	2497.891731
934.677455	2502.932885
934.980548	2447.480192
935.283602	2518.056346
935.586617	2563.426731
935.889593	2417.233269
936.192530	2470.165385
936.495428	2513.015192
936.798287	2422.274423
937.101108	2560.906154
937.403890	2513.015192
937.706632	2570.988462
938.009336	2419.753846
938.312002	2495.371154
938.614628	2475.206538
938.917216	2470.165385
939.219765	2520.576923
939.522275	2576.029615
939.824747	2497.891731
940.127179	2497.891731
940.429573	2414.712692
940.731929	2495.371154
941.034246	2487.809423
941.336524	2472.685962
941.638763	2507.974038
941.940964	2487.809423
942.243126	2618.879423
942.545250	2477.727115
942.847335	2379.424615
943.149381	2528.138654
943.451389	2482.768269
943.753359	2497.891731
944.055290	2427.315577
944.357182	2576.029615
944.659036	2447.480192
944.960851	2601.235385
945.262628	2543.262115
945.564367	2507.974038
945.866067	2482.768269
946.167729	2518.056346
946.469352	2540.741538
946.770937	2429.836154
947.072484	2487.809423
947.373992	2495.371154
947.675462	2548.303269
947.976893	2500.412308
948.278286	2485.288846
948.579641	2487.809423
948.880958	2482.768269
949.182236	2497.891731
949.483476	2480.247692
949.784678	2518.056346
950.085841	2523.097500
950.386967	2409.671538
950.688054	2477.727115
950.989103	2490.330000
951.290114	2497.891731
951.591087	2560.906154
951.892021	2530.659231
952.192917	2407.150962
952.493776	2565.947308
952.794596	2573.509038
953.095378	2439.918462
953.396122	2465.124231
953.696828	2437.397885
953.997496	2553.344423
954.298126	2560.906154
954.598718	2460.083077
954.899272	2548.303269
955.199788	2497.891731
955.500266	2525.618077
955.800706	2424.795000
956.101108	2500.412308
956.401472	2523.097500
956.701798	2482.768269
957.002087	2477.727115
957.302337	2558.385577
957.602550	2555.865000
957.902724	2470.165385
958.202861	2550.823846
958.502960	2447.480192
958.803022	2457.562500
959.103045	2432.356731
959.403031	2495.371154
959.702979	2530.659231
960.002889	2407.150962
960.302762	2472.685962
960.602596	2444.959615
960.902393	2533.179808
961.202153	2520.576923
961.501875	2442.439038
961.801559	2500.412308
962.101205	2432.356731
962.400814	2565.947308
962.700385	2450.000769
962.999918	2480.247692
963.299414	2480.247692
963.598873	2520.576923
963.898293	2492.850577
964.197677	2470.165385
964.497022	2540.741538
964.796331	2540.741538
965.095601	2485.288846
965.394835	2490.330000
965.694030	2535.700385
965.993189	2455.041923
966.292309	2520.576923
966.591393	2482.768269
966.890439	2480.247692
967.189447	2492.850577
967.488419	2452.521346
967.787353	2455.041923
968.086249	2550.823846
968.385108	2535.700385
968.683930	2444.959615
968.982714	2439.918462
969.281462	2477.727115
969.580172	2505.453462
969.878844	2472.685962
970.177480	2507.974038
970.476078	2475.206538
970.774639	2497.891731
971.073162	2487.809423
971.371649	2616.358846
971.670098	2392.027500
971.968510	2507.974038
972.266885	2513.015192
972.565223	2528.138654
972.863524	2457.562500
973.161788	2470.165385
973.460014	2543.262115
973.758204	2495.371154
974.056356	2538.220962
974.354471	2422.274423
974.652550	2505.453462
974.950591	2520.576923
975.248595	2457.562500
975.546563	2497.891731
975.844493	2384.465769
976.142386	2467.644808
976.440243	2505.453462
976.738062	2487.809423
977.035845	2538.220962
977.333590	2432.356731
977.631299	2548.303269
977.928971	2538.220962
978.226606	2573.509038
978.524204	2467.644808
978.821765	2490.330000
979.119290	2482.768269
979.416777	2507.974038
979.714228	2495.371154
980.011642	2513.015192
980.309020	2485.288846
980.606360	2530.659231
980.903664	2558.385577
981.200931	2518.056346
981.498162	2510.494615
981.795356	2462.603654
982.092513	2465.124231
982.389633	2462.603654
982.686717	2528.138654
982.983764	2515.535769
983.280775	2525.618077
983.577749	2407.150962
983.874686	2490.330000
984.171587	2518.056346
984.468451	2477.727115
984.765279	2467.644808
985.062070	2477.727115
985.358824	2450.000769
985.655543	2447.480192
985.952224	2437.397885
986.248869	2472.685962
986.545478	2528.138654
986.842050	2586.111923
987.138586	2593.673654
987.435086	2472.685962
987.731549	2535.700385
988.027975	2518.056346
988.324366	2442.439038
988.620719	2404.630385
988.917037	2465.124231
989.213318	2472.685962
989.509563	2487.809423
989.805772	2460.083077
990.101944	2588.632500
990.398080	2462.603654
990.694180	2505.453462
990.990244	2477.727115
991.286271	2450.000769
991.582262	2487.809423
991.878217	2500.412308
992.174136	2397.068654
992.470019	2518.056346
992.765865	2545.782692
993.061676	2467.644808
993.357450	2525.618077
993.653188	2417.233269
993.948890	2523.097500
994.244556	2477.727115
994.540186	2412.192115
994.835780	2467.644808
995.131337	2507.974038
995.426859	2485.288846
995.722345	2457.562500
996.017795	2444.959615
996.313208	2482.768269
996.608586	2452.521346
996.903928	2452.521346
997.199234	2422.274423
997.494504	2497.891731
997.789738	2515.535769
998.084936	2475.206538
998.380099	2439.918462
998.675225	2591.153077
998.970316	2477.727115
999.265371	2523.097500
999.560390	2437.397885
999.855373	2424.795000
1000.150320	2505.453462
1000.445232	2533.179808
1000.740108	2465.124231
1001.034948	2502.932885
1001.329752	2553.344423
1001.624521	2487.809423
1001.919254	2500.412308
1002.213951	2376.904038
1002.508613	2535.700385
1002.803239	2429.836154
1003.097829	2442.439038
1003.392384	2480.247692
1003.686903	2477.727115
1003.981386	2422.274423
1004.275834	2470.165385
1004.570246	2490.330000
1004.864623	2540.741538
1005.158964	2422.274423
1005.453270	2525.618077
1005.747540	2515.535769
1006.041775	2510.494615
1006.335974	2505.453462
1006.630138	2540.741538
1006.924266	2462.603654
1007.218359	2558.385577
1007.512416	2490.330000
1007.806438	2528.138654
1008.100425	2475.206538
1008.394376	2495.371154
1008.688292	2543.262115
1008.982172	2475.206538
1009.276017	2447.480192
1009.569827	2513.015192
1009.863602	2452.521346
1010.157341	2450.000769
1010.451045	2538.220962
1010.744714	2477.727115
1011.038347	2450.000769
1011.331945	2505.453462
1011.625508	2505.453462
1011.919036	2442.439038
1012.212528	2603.755962
1012.505986	2465.124231
1012.799408	2528.138654
1013.092795	2492.850577
1013.386147	2455.041923
1013.679464	2455.041923
1013.972745	2548.303269
1014.265992	2563.426731
1014.559204	2485.288846
1014.852380	2462.603654
1015.145521	2472.685962
1015.438628	2518.056346
1015.731699	2414.712692
1016.024736	2528.138654
1016.317737	2460.083077
1016.610703	2540.741538
1016.903635	2563.426731
1017.196531	2573.509038
1017.489393	2477.727115
1017.782219	2565.947308
1018.075011	2475.206538
1018.367768	2455.041923
1018.660490	2480.247692
1018.953177	2480.247692
1019.245829	2480.247692
