Dividing Wavelength (nm)	Counts (n)	Blue Motor Position (mm): 0.000000	Red Motor Position (mm): 19.000000	
326.493990	2084.774214
326.888308	2084.774214
327.282561	2084.774214
327.676750	2058.197251
328.070874	2060.770760
328.464933	2069.378530
328.858929	2078.528225
329.252859	2090.790831
329.646726	2102.539240
330.040528	2121.385594
330.434265	2140.983080
330.827938	2161.273724
331.221547	2180.979594
331.615091	2198.663962
332.008571	2220.769422
332.401986	2240.278687
332.795338	2259.556059
333.188625	2280.565068
333.581847	2299.741617
333.975006	2315.611169
334.368100	2335.506083
334.761129	2352.925790
335.154095	2370.037987
335.546996	2387.193033
335.939833	2404.779099
336.332606	2417.737385
336.725315	2428.069229
337.117960	2436.689602
337.510540	2445.579677
337.903056	2454.371450
338.295508	2459.155505
338.687896	2468.952987
339.080220	2473.953812
339.472480	2480.630820
339.864676	2482.049905
340.256807	2485.853455
340.648875	2487.123826
341.040879	2490.047695
341.432818	2490.466111
341.824694	2492.490134
342.216506	2491.547439
342.608253	2488.648775
342.999937	2488.356388
343.391557	2489.654485
343.783113	2488.976450
344.174605	2488.575678
344.566033	2484.472179
344.957397	2482.047384
345.348697	2482.402786
345.739934	2480.101499
346.131106	2476.728967
346.522215	2476.882722
346.913260	2473.580766
347.304241	2473.197639
347.695159	2470.475416
348.086012	2472.262505
348.476802	2465.819910
348.867528	2469.552884
349.258191	2466.742441
349.648789	2464.849488
350.039324	2464.937708
350.429796	2463.347224
350.820203	2462.706998
351.210548	2465.232616
351.600828	2460.088118
351.991045	2463.009467
352.381198	2461.111472
352.771288	2459.853704
353.161314	2461.650876
353.551276	2462.001236
353.941175	2463.029631
354.331010	2461.282872
354.720782	2460.682974
355.110490	2462.608695
355.500135	2464.854529
355.889717	2464.042903
356.279235	2463.153140
356.668689	2466.951649
357.058080	2466.124900
357.447408	2462.321349
357.836672	2463.954683
358.225873	2464.128603
358.615010	2464.536936
359.004084	2469.951136
359.393095	2466.646659
359.782043	2468.227061
360.170927	2471.523976
360.559748	2473.174953
360.948505	2472.995993
361.337199	2471.796198
361.725830	2473.883236
362.114398	2476.338278
362.502903	2474.268884
362.891344	2477.706951
363.279722	2475.062866
363.668037	2477.477578
364.056289	2478.077476
364.444478	2478.122846
364.832603	2479.330202
365.220665	2479.557054
365.608665	2479.728453
365.996601	2481.255923
366.384474	2485.341778
366.772284	2484.189875
367.160031	2484.237766
367.547715	2484.373877
367.935336	2484.162148
368.322893	2485.394710
368.710388	2485.878661
369.097820	2489.946872
369.485189	2487.814464
369.872495	2489.034423
370.259738	2490.145998
370.646918	2492.346462
371.034035	2493.775629
371.421090	2497.193531
371.808081	2499.701505
372.195010	2506.474295
372.581875	2508.112670
372.968678	2513.731036
373.355418	2518.386542
373.742096	2528.635207
374.128710	2535.546629
374.515262	2545.893598
374.901751	2562.269786
375.288177	2573.559450
375.674540	2592.990577
376.060841	2612.527569
376.447079	2633.002216
376.833254	2654.880823
377.219367	2676.315809
377.605417	2710.031046
377.991404	2734.427710
378.377329	2767.492638
378.763191	2800.534881
379.148991	2844.415605
379.534727	2891.603326
379.920402	2933.946497
380.306013	2976.171202
380.691563	3040.259391
381.077049	3088.775455
381.462474	3145.296872
381.847835	3211.945967
382.233134	3278.882408
382.618371	3334.871983
383.003545	3415.429622
383.388657	3492.133298
383.773706	3578.440372
384.158693	3648.593069
384.543618	3734.721183
384.928480	3805.877069
385.313280	3909.606372
385.698017	4007.482894
386.082692	4119.943475
386.467305	4182.415974
386.851856	4298.871669
387.236344	4446.237198
387.620770	4509.392774
388.005133	4623.300166
388.389435	4759.113891
388.773674	4843.606150
389.157851	4965.534018
389.541965	5092.462710
389.926018	5112.067757
390.310008	5289.007216
390.693936	5399.801695
391.077802	5519.990365
391.461606	5644.985774
391.845348	5758.404174
392.229027	5869.793510
392.612645	6085.534730
392.996200	6196.850968
393.379694	6366.069900
393.763125	6580.865904
394.146494	6666.699110
394.529801	6802.974101
394.913047	7026.776126
395.296230	7024.454675
395.679351	7081.051709
396.062410	7333.404309
396.445408	7233.380255
396.828343	7380.297122
397.211217	7520.836929
397.594028	7400.181953
397.976778	7601.054290
398.359466	7774.028881
398.742092	7745.947134
399.124656	7886.370995
399.507158	8072.971825
399.889598	8098.711956
400.271977	8305.507649
400.654294	8338.111311
401.036549	8532.427628
401.418742	8562.780415
401.800874	8856.021813
402.182944	8937.796891
402.564952	9283.962843
402.946898	9124.954768
403.328783	9181.887039
403.710606	9373.466009
404.092367	9624.109657
404.474067	9969.975661
404.855705	9782.958936
405.237282	9741.160209
405.618797	10158.471965
406.000250	10398.458615
406.381642	10749.731256
406.762972	10702.077228
407.144240	10508.852322
407.525447	10765.492423
407.906593	10707.791376
408.287677	10964.439039
408.668700	11111.217275
409.049661	11099.249575
409.430560	11259.180181
409.811399	11226.021992
410.192176	11387.101981
410.572891	11463.362035
410.953545	11934.977101
411.334138	11417.122052
411.714669	12000.807009
412.095139	11353.729542
412.475547	11821.546098
412.855894	11686.559122
413.236180	11997.502532
413.616405	11687.224554
413.996568	11962.544651
414.376670	11928.932758
414.756711	11812.288019
415.136691	12080.759709
415.516609	12238.694017
415.896466	12306.442084
416.276262	12576.300091
416.655997	13024.675437
417.035670	13050.622256
417.415283	13639.953305
417.794834	13708.747411
418.174324	13435.801698
418.553753	13326.993433
418.933121	13776.586218
419.312428	13571.746494
419.691674	13458.363382
420.070859	13873.469634
420.449983	13499.375689
420.829045	13987.424916
421.208047	13721.413310
421.586988	14089.059619
421.965867	14273.966622
422.344686	14210.052352
422.723444	14680.218087
423.102141	13403.316503
423.480777	14426.738789
423.859352	13898.549374
424.237866	14805.112673
424.616319	14465.454850
424.994712	14952.445435
425.373044	14665.548329
425.751314	15160.241797
426.129524	14299.074088
426.507673	15112.597852
426.885762	14752.820784
427.263789	14779.004537
427.641756	14793.427278
428.019662	14716.416092
428.397508	14621.859169
428.775292	14700.755747
429.153016	14542.829000
429.530679	14443.036839
429.908282	14319.367253
430.285824	13956.578096
430.663305	14309.748732
431.040726	13871.014592
431.418086	13586.582609
431.795385	13858.305843
432.172624	13981.340244
432.549802	13501.361904
432.926920	13461.393115
433.303977	13192.621477
433.680974	13170.190863
434.057910	13182.622349
434.434786	13000.659380
434.811601	12753.973037
435.188355	13194.796735
435.565050	12782.765588
435.941683	12549.201368
436.318257	12846.994929
436.694770	12523.488963
437.071222	12632.546765
437.447614	11909.831826
437.823946	11712.337062
438.200218	11584.339645
438.576429	11264.357446
438.952580	11199.881088
439.328670	10970.732920
439.704700	10955.526279
440.080670	10560.816536
440.456580	10611.144895
440.832429	10461.528490
441.208218	9848.551909
441.583947	9823.227673
441.959616	9661.333537
442.335224	9559.489627
442.710773	9413.457482
443.086261	9403.249146
443.461689	8976.732242
443.837057	8830.790838
444.212365	8848.480247
444.587612	8652.104620
444.962800	8337.256836
445.337927	8263.293027
445.712995	7719.899492
446.088002	8059.438847
446.462949	7932.356400
446.837837	7785.114378
447.212664	7598.826100
447.587431	8108.275025
447.962139	8611.717416
448.336786	8938.139689
448.711374	8368.670786
449.085901	7378.061370
449.460369	7158.967783
449.834776	6967.454348
450.209124	7238.025678
450.583412	6992.879407
450.957640	6900.225520
451.331808	6512.296129
451.705917	6117.495645
452.079965	5961.355987
452.453954	5863.562643
452.827883	5700.166244
453.201752	5540.122213
453.575562	5422.481847
453.949311	5418.766516
454.323001	5293.539213
454.696632	5142.440709
455.070202	5181.986041
455.443713	5074.559052
455.817164	5008.358620
456.190556	4932.814409
456.563888	4769.733082
456.937160	4689.654353
457.310373	4453.183908
457.683526	4377.584245
458.056619	4282.044297
458.429653	4183.121735
458.802628	4133.300012
459.175542	4057.362591
459.548398	4052.795305
459.921194	4061.045154
460.293930	4035.403325
460.666607	4072.896906
461.039224	4077.101229
461.411782	4008.574304
461.784280	3869.977861
462.156719	3769.071605
462.529099	3676.674817
462.901419	3565.406469
463.273680	3473.670072
463.645882	3426.137033
464.018024	3376.375803
464.390106	3359.664378
464.762130	3398.163670
465.134094	3481.468737
465.505999	3581.139910
465.877845	3647.030312
466.249631	3614.585446
466.621358	3520.149511
466.993026	3427.546035
467.364634	3347.177440
467.736184	3273.838734
468.107674	3223.953996
468.479105	3186.180630
468.850477	3152.906494
469.221790	3110.528034
469.593043	3063.579768
469.964238	3036.017260
470.335373	3021.087883
470.706449	3032.264121
471.077467	3055.453428
471.448425	3109.671038
471.819324	3134.924698
472.190164	3099.429934
472.560945	3048.219373
472.931667	2996.451764
473.302330	2975.283959
473.672934	2954.693366
474.043479	2958.018007
474.413965	2942.592076
474.784393	2930.883996
475.154761	2936.313319
475.525070	2932.126641
475.895321	2925.003490
476.265513	2925.568100
476.635645	2937.689554
477.005719	2931.909871
477.375734	2934.344748
477.745691	2939.637960
478.115588	2952.281174
478.485427	2969.607620
478.855207	3007.209586
479.224928	3033.622712
479.594591	3049.288097
479.964194	3036.052548
480.333739	3037.892569
480.703226	3037.113711
481.072653	3040.655121
481.442022	3044.138559
481.811333	3048.121070
482.180584	3031.134902
482.549777	3023.845394
482.918912	3019.530166
483.287988	3013.589166
483.657005	3003.010305
484.025964	2992.441526
484.394864	2992.784324
484.763706	2991.125785
485.132489	2978.994248
485.501213	2977.038280
485.869879	2975.034422
486.238487	2969.945377
486.607036	2973.141468
486.975527	2964.727783
487.343959	2965.138637
487.712333	2966.724080
488.080648	2965.420941
488.448905	2966.048565
488.817104	2965.161322
489.185244	2974.462251
489.553326	2987.523880
489.921350	3013.281656
490.289315	3040.120759
490.657222	3049.341029
491.025070	3046.941440
491.392861	3037.448948
491.760593	3018.380783
492.128267	2997.442351
492.495883	2980.551965
492.863440	2965.516723
493.230939	2949.465689
493.598380	2937.780295
493.965763	2926.379725
494.333088	2918.334044
494.700354	2909.320461
495.067563	2901.705798
495.434713	2896.710014
495.801805	2900.281672
496.168839	2891.144581
496.535815	2886.733571
496.902733	2882.642675
497.269593	2879.030688
497.636395	2876.285780
498.003139	2878.259391
498.369825	2870.163298
498.736453	2868.882845
499.103023	2863.017463
499.469535	2856.695856
499.835989	2859.576875
500.202385	2853.948427
500.568723	2849.242510
500.935003	2849.418950
501.301226	2846.043898
501.667390	2852.438601
502.033497	2852.962881
502.399546	2845.391068
502.765537	2838.928309
503.131470	2837.652897
503.497345	2838.545181
503.863163	2830.461691
504.228923	2831.636280
504.594625	2834.499655
504.960269	2832.024449
505.325856	2831.248111
505.691385	2827.832729
506.056856	2827.066474
506.422270	2831.439675
506.787625	2825.261741
507.152924	2824.792914
507.518164	2825.241576
507.883347	2818.735967
508.248472	2821.170845
508.613540	2825.130671
508.978550	2825.944817
509.343503	2821.064980
509.708398	2821.942141
510.073236	2827.401711
510.438016	2828.674602
510.802738	2822.466421
511.167403	2826.393480
511.532010	2826.060764
511.896561	2828.311639
512.261053	2837.284893
512.625488	2830.388594
512.989866	2823.746874
513.354186	2823.071360
513.718449	2821.581699
514.082655	2827.474807
514.446803	2824.724858
514.810894	2828.742658
515.174927	2828.672082
515.538904	2823.673777
515.902822	2829.108141
516.266684	2823.356185
516.630488	2826.292657
516.994235	2825.909529
517.357925	2831.374140
517.721558	2831.175014
518.085133	2832.210972
518.448651	2832.037052
518.812112	2829.322390
519.175516	2828.954386
519.538863	2827.646207
519.902152	2828.190651
520.265385	2828.251145
520.628560	2830.449088
520.991678	2828.835919
521.354739	2827.192503
521.717743	2827.421875
522.080690	2829.632421
522.443580	2828.687205
522.806413	2831.588389
523.169189	2828.856084
523.531908	2827.696618
523.894569	2823.668736
524.257174	2824.132522
524.619722	2827.172338
524.982213	2825.412976
525.344647	2822.549600
525.707025	2819.993735
526.069345	2821.599343
526.431608	2821.743016
526.793815	2821.596822
527.155964	2820.132367
527.518057	2817.516008
527.880093	2816.061635
528.242072	2818.864517
528.603995	2815.287818
528.965860	2813.225986
529.327669	2810.786068
529.689421	2810.889411
530.051117	2809.833290
530.412755	2808.429328
530.774337	2805.056796
531.135862	2803.380613
531.497331	2801.694347
531.858743	2799.519089
532.220098	2801.616209
532.581396	2797.986578
532.942638	2794.901392
533.303824	2796.070940
533.664953	2794.578758
534.026025	2791.012142
534.387040	2794.593882
534.747999	2793.515075
535.108902	2790.233283
535.469748	2789.525001
535.830537	2786.386883
536.191270	2788.103396
536.551947	2781.512087
536.912567	2784.151131
537.273131	2782.391769
537.633638	2777.315327
537.994089	2779.848507
538.354483	2778.298352
538.714821	2780.826490
539.075103	2781.481840
539.435328	2777.620317
539.795497	2777.229627
540.155609	2774.111673
540.515665	2774.971190
540.875665	2769.735952
541.235609	2769.362907
541.595496	2770.361055
541.955328	2775.364400
542.315102	2769.176384
542.674821	2766.197062
543.034483	2765.246804
543.394090	2763.210178
543.753640	2763.570621
544.113134	2764.520878
544.472571	2762.358223
544.831953	2766.174377
545.191278	2760.515682
545.550548	2757.342275
545.909761	2756.999477
546.268918	2759.910743
546.628019	2760.331679
546.987064	2755.318252
547.346053	2749.770462
547.704986	2754.327665
548.063863	2749.359608
548.422684	2752.603591
548.781449	2750.309866
549.140158	2751.723909
549.498811	2748.076634
549.857408	2744.865419
550.215949	2746.889443
550.574434	2745.145203
550.932864	2744.288207
551.291237	2745.036819
551.649555	2743.345512
552.007817	2743.864750
552.366022	2744.222672
552.724173	2744.245357
553.082267	2742.818711
553.440305	2743.446335
553.798288	2742.478433
554.156215	2740.885428
554.514086	2742.801067
554.871902	2741.220665
555.229661	2739.799060
555.587365	2737.875860
555.945014	2738.314440
556.302606	2735.219172
556.660143	2733.545508
557.017625	2733.394274
557.375050	2732.996023
557.732421	2736.121538
558.089735	2731.917216
558.446994	2731.924777
558.804197	2737.122207
559.161345	2732.323029
559.518437	2730.309088
559.875474	2729.310939
560.232455	2727.478480
560.589381	2730.513254
560.946251	2731.077864
561.303065	2728.247256
561.659825	2728.542163
562.016528	2723.248952
562.373177	2722.989332
562.729770	2722.391956
563.086307	2719.558827
563.442789	2721.829867
563.799216	2722.165104
564.155587	2720.607387
564.511904	2720.998077
564.868164	2719.082438
565.224370	2719.309290
565.580520	2718.931203
565.936615	2719.863817
566.292654	2717.149156
566.648638	2717.481872
567.004567	2716.690411
567.360441	2714.310986
567.716260	2715.651933
568.072023	2716.087993
568.427732	2709.925182
568.783385	2713.333002
569.138982	2711.003989
569.494525	2709.358052
569.850013	2707.971735
570.205445	2708.314533
570.560823	2706.640870
570.916145	2704.886549
571.271412	2707.397043
571.626625	2709.368135
571.981782	2703.832948
572.336884	2703.893442
572.691931	2702.822196
573.046923	2703.724563
573.401860	2700.102494
573.756743	2698.721218
574.111570	2697.281968
574.466342	2700.125179
574.821059	2699.691640
575.175722	2696.185517
575.530330	2694.879858
575.884882	2693.430527
576.239380	2695.172245
576.593823	2695.252904
576.948211	2691.444312
577.302544	2689.695032
577.656823	2687.280319
578.011047	2689.926925
578.365216	2685.901563
578.719330	2685.589012
579.073389	2684.999197
579.427394	2684.222859
579.781344	2684.268230
580.135239	2683.088600
580.489080	2681.054494
580.842866	2681.543486
581.196597	2683.527180
581.550273	2682.808816
581.903895	2678.793537
582.257463	2681.210770
582.610975	2679.446366
582.964434	2678.014678
583.317837	2678.498629
583.671186	2675.511745
584.024481	2678.783454
584.377721	2672.552588
584.730906	2671.887156
585.084037	2672.494615
585.437113	2670.760458
585.790135	2674.992507
586.143103	2670.765499
586.496016	2670.846157
586.848874	2665.260559
587.201679	2668.106290
587.554428	2666.735097
587.907124	2664.501865
588.259765	2662.684529
588.612352	2667.927329
588.964884	2663.024807
589.317362	2666.034376
589.669786	2665.563028
590.022155	2663.763336
590.374470	2659.344765
590.726731	2661.096566
591.078937	2660.867193
591.431090	2660.229487
591.783188	2659.493479
592.135232	2656.267141
592.487222	2658.064312
592.839157	2656.448622
593.191038	2655.178251
593.542866	2653.633138
593.894639	2653.386121
594.246358	2654.066677
594.598022	2653.751605
594.949633	2652.682880
595.301190	2651.437715
595.652692	2650.096768
596.004141	2652.577016
596.355535	2650.343785
596.706876	2647.245996
597.058162	2646.588125
597.409395	2647.210708
597.760573	2647.782879
598.111698	2646.227683
598.462768	2647.019144
598.813785	2642.736684
599.164748	2643.356746
599.515657	2643.424801
599.866511	2643.029071
600.217312	2643.971766
600.568060	2642.497229
600.918753	2642.587970
601.269392	2641.761220
601.619978	2639.747279
601.970510	2640.881539
602.320988	2640.740387
602.671412	2642.111581
603.021783	2638.461785
603.372100	2638.252577
603.722363	2638.489512
604.072572	2639.396919
604.422728	2639.822897
604.772830	2638.292907
605.122878	2632.634211
605.472872	2636.001702
605.822813	2634.045734
606.172701	2635.212762
606.522534	2638.822228
606.872314	2637.055303
607.222041	2634.416259
607.571714	2638.791981
607.921333	2632.848460
608.270899	2633.060189
608.620411	2638.582773
608.969870	2634.570014
609.319276	2632.493059
609.668627	2634.701084
610.017926	2634.917854
610.367171	2635.913482
610.716362	2633.614716
611.065500	2633.576907
611.414585	2635.008595
611.763616	2635.376599
612.112594	2632.493059
612.461518	2634.471712
612.810389	2635.104377
613.159207	2635.409367
613.507971	2632.755199
613.856682	2634.912813
614.205340	2635.512710
614.553945	2637.188894
614.902496	2634.441465
615.250994	2633.362658
615.599439	2635.089253
615.947830	2636.578914
616.296169	2635.719397
616.644454	2635.306023
616.992686	2632.256125
617.340864	2638.948257
617.688990	2631.986423
618.037063	2633.581948
618.385082	2634.645632
618.733048	2636.785602
619.080961	2633.869294
619.428821	2635.855509
619.776628	2632.364510
620.124382	2635.154788
620.472083	2633.236629
620.819731	2635.507669
621.167326	2632.815693
621.514868	2632.359468
621.862357	2629.115486
622.209793	2629.785959
622.557176	2627.860239
622.904506	2626.302522
623.251783	2622.723303
623.599007	2624.303705
623.946179	2622.052829
624.293297	2620.558127
624.640363	2620.853035
624.987376	2621.084928
625.334336	2620.999228
625.681243	2620.064094
626.028097	2618.977726
626.374899	2619.025617
626.721647	2617.422530
627.068343	2618.385390
627.414987	2617.588888
627.761577	2616.247941
628.108115	2617.188116
628.454600	2614.793568
628.801032	2613.828187
629.147412	2615.058228
629.493739	2611.378186
629.840014	2613.722323
630.186236	2610.150665
630.532405	2611.237034
630.878521	2612.991355
631.224585	2612.494802
631.570597	2612.048660
631.916556	2610.811056
632.262462	2610.498505
632.608316	2610.228803
632.954117	2607.186467
633.299866	2608.870212
633.645562	2609.044132
633.991206	2607.075561
634.336797	2606.715119
634.682336	2608.310644
635.027823	2600.690940
635.373257	2603.750920
635.718639	2603.390478
636.063968	2603.430807
636.409245	2599.244129
636.754470	2600.758996
637.099642	2598.535847
637.444762	2598.230857
637.789829	2598.550970
638.134845	2597.066350
638.479808	2597.701536
638.824719	2599.123141
639.169577	2594.591144
639.514383	2595.838829
639.859137	2590.764908
640.203839	2596.290013
640.548489	2597.459560
640.893086	2591.999991
641.237632	2588.854311
641.582125	2588.990422
641.926566	2590.838005
642.270955	2591.211050
642.615292	2591.064857
642.959576	2591.848756
643.303809	2589.751636
643.647990	2591.064857
643.992118	2592.352872
644.336195	2593.724065
644.680219	2591.047213
645.024192	2593.083839
645.368112	2593.320773
645.711981	2595.990064
646.055797	2594.379415
646.399562	2592.637697
646.743274	2595.306988
647.086935	2596.312698
647.430544	2595.916967
647.774101	2594.913778
648.117606	2596.937801
648.461059	2599.460898
648.804460	2596.985692
649.147810	2596.048037
649.491108	2593.822368
649.834354	2594.170207
650.177548	2592.713314
650.520690	2589.986050
650.863781	2589.118971
651.206820	2589.887747
651.549807	2588.506471
651.892742	2587.654516
652.235626	2585.786769
652.578458	2584.634865
652.921238	2585.033116
653.263967	2583.281315
653.606644	2585.885071
653.949269	2583.130081
654.291843	2583.301480
654.634365	2584.642427
654.976836	2584.133270
655.319255	2584.196285
655.661622	2581.801737
656.003938	2580.617065
656.346203	2583.077148
656.688416	2580.624627
657.030577	2581.083372
657.372687	2580.614545
657.714746	2580.261664
658.056753	2581.479103
658.398708	2577.153793
658.740612	2579.913824
659.082465	2574.706312
659.424266	2579.540779
659.766016	2578.950964
660.107715	2580.269226
660.449362	2578.131777
660.790958	2575.505335
661.132503	2582.149576
661.473996	2581.153948
661.815438	2581.620255
662.156829	2581.158989
662.498168	2576.488360
662.839456	2581.577405
663.180693	2577.983062
663.521879	2578.966087
663.863013	2580.314596
664.204097	2581.138825
664.545129	2579.409709
664.886110	2578.436766
665.227040	2580.183526
665.567918	2581.325347
665.908746	2580.140676
666.249522	2583.263671
666.590248	2580.886767
666.930922	2579.515573
667.271545	2579.361818
667.612118	2583.941706
667.952639	2582.499936
668.293109	2581.340471
668.633528	2578.978690
668.973896	2576.596745
669.314213	2580.238979
669.654480	2578.739236
669.994695	2577.443659
670.334859	2578.719071
670.674973	2574.502146
671.015035	2578.930799
671.355047	2577.030284
671.695008	2578.429205
672.034918	2578.298135
672.374777	2576.747980
672.714585	2577.105902
673.054342	2576.508525
673.394049	2577.925089
673.733705	2576.024574
674.073310	2576.846282
674.412864	2576.069945
674.752368	2573.065417
675.091820	2578.000707
675.431223	2575.525500
675.770574	2573.940057
676.109875	2569.629871
676.449125	2570.539799
676.788324	2571.656414
677.127473	2571.479974
677.466571	2568.830848
677.805619	2573.214131
678.144616	2569.932340
678.483562	2573.937537
678.822458	2568.069633
679.161303	2569.213975
679.500098	2570.280179
679.838842	2569.541650
680.177535	2569.917216
680.516179	2572.657083
680.854771	2569.932340
681.193314	2571.792526
681.531805	2574.083730
681.870247	2573.831672
682.208638	2576.140521
682.546978	2577.673032
682.885268	2578.706468
683.223508	2577.221848
683.561697	2574.383679
683.899836	2575.812846
684.237925	2576.543813
684.575963	2574.683627
684.913951	2572.858730
685.251889	2573.282187
685.589776	2575.883422
685.927614	2574.149265
686.265401	2575.023905
686.603137	2573.657752
686.940824	2574.832341
687.278460	2574.043401
687.616046	2576.863926
687.953582	2578.603124
688.291068	2576.914338
688.628504	2577.960377
688.965889	2576.866447
689.303224	2577.221848
689.640510	2576.243864
689.977745	2573.841755
690.314930	2575.142372
690.652065	2570.663307
690.989150	2571.616085
691.326185	2571.129614
691.663170	2568.117524
692.000105	2567.870508
692.336990	2565.866649
692.673825	2562.983109
693.010610	2563.260373
693.347345	2559.076215
693.684030	2558.746019
694.020665	2561.306926
694.357251	2554.612273
694.693786	2559.734086
695.030272	2558.803993
695.366707	2558.067984
695.703093	2555.665874
696.039429	2557.889023
696.375716	2556.341389
696.711952	2554.120761
697.048139	2556.033879
697.384276	2554.841646
697.720363	2556.684187
698.056400	2554.186296
698.392388	2553.357026
698.728326	2553.127653
699.064214	2550.783517
699.400053	2554.433312
699.735842	2551.050698
700.071581	2552.898281
700.407270	2551.804351
700.742910	2551.151521
701.078501	2551.557334
701.414042	2551.834597
701.749533	2551.249824
702.084974	2548.605738
702.420366	2550.352498
702.755709	2549.505584
703.091002	2551.070863
703.426246	2548.946016
703.761440	2547.388300
704.096584	2548.648588
704.431679	2547.738660
704.766725	2549.021634
705.101721	2546.264122
705.436668	2548.593136
705.771565	2546.455686
706.106413	2548.199926
706.441212	2546.957281
706.775961	2550.090358
707.110661	2545.535676
707.445311	2550.730585
707.779913	2550.927190
708.114465	2550.370142
708.448967	2549.503064
708.783421	2550.808723
709.117825	2550.438198
709.452180	2554.793755
709.786485	2553.082283
710.120742	2554.821481
710.454949	2554.559341
710.789107	2553.329300
711.123216	2552.603373
711.457275	2554.461039
711.791286	2554.808878
712.125247	2554.100596
712.459159	2558.224260
712.793023	2558.544373
713.126837	2559.343396
713.460602	2557.266441
713.794318	2557.097562
714.127985	2555.466749
714.461602	2554.904660
714.795171	2554.279557
715.128691	2550.652447
715.462162	2552.976419
715.795584	2548.946016
716.128957	2549.495502
716.462281	2548.028526
716.795556	2547.302600
717.128782	2546.251520
717.461960	2547.821839
717.795088	2545.124822
718.128167	2545.233207
718.461198	2543.988042
718.794180	2545.371838
719.127113	2545.417209
719.459997	2542.586601
719.792833	2539.740869
720.125619	2543.609955
720.458357	2537.757175
720.791046	2543.055428
721.123686	2538.210879
721.456278	2539.642567
721.788821	2539.629964
722.121315	2542.465613
722.453761	2540.449152
722.786158	2537.825231
723.118506	2540.217258
723.450805	2539.791281
723.783056	2542.165664
724.115259	2539.531662
724.447412	2538.974614
724.779518	2542.637012
725.111574	2540.428987
725.443582	2539.763555
725.775542	2541.888401
726.107453	2543.902342
726.439315	2542.125335
726.771129	2549.941644
727.102895	2544.204811
727.434612	2546.450645
727.766281	2544.340922
728.097901	2544.509801
728.429473	2543.816642
728.760996	2542.984852
729.092471	2543.788916
729.423897	2543.952753
729.755276	2547.088351
730.086606	2544.043494
730.417887	2546.377548
730.749120	2550.105482
731.080305	2545.707075
731.411442	2548.131870
731.742530	2550.586912
732.073570	2549.757642
732.404562	2549.513146
732.735506	2549.712272
733.066401	2551.617828
733.397249	2548.646068
733.728048	2548.648588
734.058798	2544.903011
734.389501	2541.916127
734.720156	2544.396375
735.050762	2542.541230
735.381320	2542.160623
735.711831	2539.564429
736.042293	2539.471168
736.372707	2538.810777
736.703073	2539.551826
737.033391	2539.027546
737.363661	2539.806404
737.693883	2537.464788
738.024056	2538.097453
738.354182	2540.529810
738.684260	2542.374872
739.014290	2541.318751
739.344272	2540.552495
739.674207	2543.005017
740.004093	2544.172044
740.333931	2540.953267
740.663722	2545.570964
740.993464	2541.517876
741.323159	2543.085675
741.652806	2541.895963
741.982405	2540.804553
742.311956	2540.174409
742.641460	2540.925541
742.970915	2541.076775
743.300323	2540.479398
743.629683	2537.709284
743.958996	2537.482433
744.288260	2534.969417
744.617477	2537.159799
744.946647	2533.164684
745.275768	2534.024201
745.604842	2533.373892
745.933869	2533.588141
746.262847	2531.909437
746.591778	2537.179963
746.920662	2534.903882
747.249498	2535.271887
747.578286	2534.588810
747.907027	2536.088553
748.235720	2536.564943
748.564365	2534.465302
748.892963	2536.456558
749.221514	2537.240457
749.550017	2536.983358
749.878473	2535.234078
750.206881	2532.075795
750.535242	2535.622247
750.863555	2536.385982
751.191821	2533.613347
751.520039	2537.293389
751.848210	2534.848430
752.176334	2534.790456
752.504411	2537.280786
752.832440	2535.337422
753.160421	2535.871784
753.488356	2530.792821
753.816243	2535.236598
754.144082	2533.956145
754.471875	2535.160981
754.799620	2532.257277
755.127318	2532.595034
755.454969	2531.881711
755.782572	2532.723583
756.110129	2533.628470
756.437638	2532.055630
756.765100	2532.773995
757.092515	2533.938501
757.419882	2535.249201
757.747203	2533.512524
758.074477	2532.889941
758.401703	2534.016639
758.728882	2532.617719
759.056014	2534.460261
759.383099	2532.985723
759.710138	2539.176260
760.037129	2535.639891
760.364073	2537.396733
760.690970	2533.436907
761.017820	2535.115611
761.344623	2536.728780
761.671379	2537.507638
761.998088	2534.056968
762.324751	2539.824048
762.651366	2548.250337
762.977935	2561.564024
763.304456	2561.012018
763.630931	2568.984603
763.957359	2564.545867
764.283740	2558.746019
764.610074	2559.078736
764.936362	2548.003321
765.262602	2542.974770
765.588796	2540.234902
765.914943	2539.156096
766.241044	2536.620395
766.567097	2532.542102
766.893104	2533.946063
767.219064	2532.151412
767.544978	2530.528161
767.870845	2529.396422
768.196665	2531.344828
768.522438	2527.672347
768.848165	2529.290557
769.173846	2526.853160
769.499479	2526.762419
769.825066	2526.772501
770.150607	2527.032121
770.476101	2524.599764
770.801548	2528.103366
771.126949	2525.534898
771.452303	2525.050947
771.777611	2524.040196
772.102872	2524.667819
772.428087	2524.506503
772.753256	2522.396780
773.078378	2523.299146
773.403453	2523.694877
773.728482	2523.490710
774.053465	2523.674712
774.378401	2523.856194
774.703291	2523.871317
775.028135	2519.974505
775.352932	2524.166225
775.677683	2523.281502
776.002388	2524.211595
776.327046	2521.615401
776.651658	2524.027593
776.976224	2520.332427
777.300743	2521.118847
777.625216	2521.363343
777.949643	2520.657582
778.274024	2521.842253
778.598359	2517.312776
778.922647	2517.300173
779.246889	2517.869823
779.571086	2515.581140
779.895236	2517.874865
780.219339	2521.270082
780.543397	2519.054495
780.867409	2521.055833
781.191374	2520.105575
781.515294	2519.704803
781.839167	2520.534073
782.162995	2524.438447
782.486776	2520.282016
782.810511	2522.300998
783.134201	2521.234794
783.457844	2520.435771
783.781441	2519.336799
784.104993	2518.870493
784.428498	2518.194978
784.751958	2523.105062
785.075372	2521.098683
785.398739	2518.174813
785.722061	2522.374094
786.045337	2520.057684
786.368568	2520.632376
786.691752	2520.408044
787.014891	2523.410052
787.337983	2519.808147
787.661030	2525.658406
787.984031	2522.910977
788.306987	2527.251411
788.629897	2526.404497
788.952760	2526.674199
789.275579	2526.543129
789.598351	2522.096831
789.921078	2520.544156
790.243759	2523.195803
790.566395	2522.328724
790.888984	2524.488858
791.211529	2522.089269
791.534027	2520.811337
791.856480	2522.036337
792.178888	2518.651202
792.501249	2520.198837
792.823566	2520.057684
793.145836	2520.161028
793.468062	2520.357633
793.790241	2519.437622
794.112375	2520.032478
794.434464	2520.312262
794.756507	2520.493744
795.078505	2521.086080
795.400457	2515.896212
795.722364	2520.415606
796.044226	2521.164217
796.366042	2520.352592
796.687812	2520.942407
797.009538	2523.601615
797.331218	2521.302849
797.652852	2523.485669
797.974442	2523.049609
798.295986	2522.898374
798.617484	2521.564989
798.938938	2519.505678
799.260346	2522.548014
799.581709	2521.547345
799.903026	2521.189423
800.224299	2522.500123
800.545526	2518.290760
800.866708	2520.561800
801.187845	2520.377797
801.508936	2518.948630
801.829983	2519.510719
802.150984	2520.350071
802.471940	2518.671367
802.792851	2517.403517
803.113717	2518.673888
803.434538	2516.891840
803.755314	2519.016686
804.076045	2518.436953
804.396731	2517.438805
804.717372	2519.752694
805.037967	2518.678929
805.358518	2514.918228
805.679024	2519.830832
805.999485	2516.750687
806.319901	2519.223373
806.640272	2517.832015
806.960598	2519.251100
807.280879	2519.011645
807.601115	2521.993487
807.921306	2520.019876
808.241453	2516.352436
808.561554	2518.648682
808.881611	2520.594567
809.201623	2519.742612
809.521590	2519.603980
809.841513	2518.257992
810.161390	2518.381501
810.481223	2519.593898
810.801011	2519.639268
811.120755	2519.896367
811.440453	2521.491893
811.760107	2519.140194
812.079716	2517.169103
812.399281	2515.233300
812.718801	2514.469565
813.038276	2511.263391
813.357707	2517.461490
813.677093	2517.297652
813.996434	2521.817047
814.315731	2517.572395
814.634983	2517.166582
814.954191	2515.447549
815.273354	2515.331602
815.592473	2519.782941
815.911547	2518.847807
816.230577	2517.705986
816.549562	2519.969464
816.868502	2519.314114
817.187399	2519.835873
817.506250	2521.262520
817.825058	2520.118178
818.143821	2523.473066
818.462539	2521.179341
818.781213	2522.215298
819.099843	2528.794004
819.418429	2525.786956
819.736970	2531.740558
820.055466	2534.543440
820.373919	2539.113246
820.692327	2546.180943
821.010691	2560.868345
821.329011	2592.282295
821.647286	2637.360293
821.965517	2682.420647
822.283704	2708.795964
822.601847	2714.273177
822.919945	2693.869107
823.237999	2672.562670
823.556010	2650.689104
823.873976	2630.542132
824.191897	2609.187805
824.509775	2593.469487
824.827609	2582.197467
825.145398	2575.321333
825.463144	2569.216496
825.780845	2568.861095
826.098502	2574.131621
826.416116	2586.414392
826.733685	2603.067844
827.051210	2601.847885
827.368692	2593.605598
827.686129	2580.695203
828.003522	2570.101218
828.320872	2556.686708
828.638177	2551.196892
828.955439	2543.796478
829.272656	2537.643749
829.589830	2531.768285
829.906960	2531.072605
830.224046	2527.264014
830.541088	2529.131761
830.858086	2523.803262
831.175041	2525.020700
831.491952	2522.041378
831.808819	2523.510875
832.125642	2524.337624
832.442421	2527.805938
832.759157	2534.830786
833.075849	2542.793288
833.392497	2551.461552
833.709101	2560.676781
834.025662	2556.227963
834.342179	2553.896429
834.658653	2542.672300
834.975083	2541.167516
835.291469	2539.398071
835.607811	2530.278624
835.924110	2529.111597
836.240366	2526.089425
836.556578	2522.537932
836.872746	2523.410052
837.188871	2519.971985
837.504952	2519.840915
837.820990	2516.438136
838.136984	2518.384021
838.452935	2514.585512
838.768842	2516.181037
839.084706	2516.622138
839.400526	2521.431399
839.716303	2523.730165
840.032037	2529.777029
840.347727	2529.714014
840.663373	2528.975485
840.978977	2524.972809
841.294537	2522.865607
841.610054	2520.166069
841.925527	2517.665657
842.240957	2515.515605
842.556344	2517.136336
842.871687	2513.945285
843.186987	2515.344205
843.502244	2511.807836
843.817458	2513.363032
844.132629	2513.113495
844.447756	2509.834224
844.762840	2507.853051
845.077881	2508.533607
845.392879	2507.059069
845.707833	2507.222907
846.022745	2508.163082
846.337613	2507.827845
846.652438	2509.408247
846.967221	2510.971004
847.281960	2511.336488
847.596656	2508.883967
847.911309	2509.975377
848.225919	2510.618124
848.540485	2509.196518
848.855009	2509.947650
849.169490	2510.867661
849.483928	2511.669204
849.798323	2507.086795
850.112675	2510.953360
850.426984	2508.846158
850.741251	2507.754748
851.055474	2511.031498
851.369654	2510.597959
851.683792	2508.402537
851.997887	2511.202898
852.311938	2509.478823
852.625947	2510.182064
852.939914	2505.829027
853.253837	2511.323885
853.567718	2511.540655
853.881555	2508.765500
854.195350	2509.995541
854.509103	2510.671056
854.822812	2508.692403
855.136479	2508.561333
855.450103	2508.518483
855.763685	2510.260202
856.077224	2510.078720
856.390720	2510.718947
856.704173	2509.897239
857.017584	2510.524862
857.330953	2510.045953
857.644278	2510.749194
857.957561	2513.743639
858.270802	2511.878412
858.584000	2510.345901
858.897155	2511.129801
859.210268	2510.938237
859.523339	2509.410767
859.836367	2510.262722
860.149352	2509.491426
860.462295	2509.604852
860.775195	2506.040756
861.088054	2504.558657
861.400869	2505.430776
861.713642	2504.407422
862.026373	2508.586539
862.339062	2507.222907
862.651708	2511.830521
862.964312	2509.637619
863.276873	2509.635099
863.589392	2509.829183
863.901869	2509.942609
864.214303	2510.729029
864.526696	2510.202228
864.839045	2509.579646
865.151353	2512.644668
865.463619	2509.128463
865.775842	2512.750532
866.088023	2510.078720
866.400162	2510.950840
866.712258	2510.353463
867.024313	2511.427229
867.336325	2511.853206
867.648296	2512.347239
867.960224	2512.553927
868.272110	2510.625685
868.583954	2510.993690
868.895755	2510.792043
869.207515	2512.115346
869.519233	2510.597959
869.830909	2510.729029
870.142542	2509.307424
870.454134	2510.771879
870.765684	2509.378000
871.077191	2510.555109
871.388657	2512.954698
871.700081	2510.837414
872.011463	2512.702641
872.322803	2510.761797
872.634101	2513.368073
872.945357	2509.299862
873.256571	2513.390758
873.567744	2512.019564
873.878874	2512.453104
874.189963	2514.497292
874.501010	2513.668022
874.812015	2511.283556
875.122979	2513.415964
875.433900	2515.467714
875.744780	2513.829339
876.055618	2514.933351
876.366415	2512.054852
876.677169	2514.036026
876.987882	2512.748011
877.298554	2510.139214
877.609183	2511.568381
877.919771	2512.977384
878.230317	2514.658608
878.540822	2518.028620
878.851285	2521.953158
879.161707	2518.762108
879.472087	2523.722603
879.782425	2529.756864
880.092722	2541.747249
880.402977	2556.911039
880.713191	2577.584811
881.023363	2596.080805
881.333494	2605.268308
881.643583	2609.805346
881.953631	2609.399533
882.263637	2601.734459
882.573602	2593.971082
882.883526	2586.893302
883.193408	2578.706468
883.503248	2569.642473
883.813048	2565.143244
884.122806	2556.328786
884.432522	2551.960626
884.742197	2545.518032
885.051831	2541.868236
885.361424	2534.946732
885.670975	2530.606299
885.980485	2525.829805
886.289954	2524.239321
886.599382	2523.470545
886.908768	2523.856194
887.218113	2521.315452
887.527417	2519.546007
887.836680	2515.843280
888.145901	2515.044257
888.455082	2516.178516
888.764221	2513.685666
889.073319	2513.509225
889.382376	2516.564165
889.691392	2516.556603
890.000366	2514.547703
890.309300	2513.665501
890.618193	2513.068124
890.927044	2514.668691
891.235855	2512.654750
891.544625	2515.324041
891.853353	2513.763804
892.162041	2515.273629
892.470687	2517.471572
892.779293	2516.914525
893.087858	2515.848321
893.396381	2518.910822
893.704864	2525.091276
894.013306	2527.518592
894.321707	2536.882535
894.630068	2539.403112
894.938387	2539.022505
895.246665	2539.622402
895.554903	2535.100487
895.863100	2535.390354
896.171256	2528.736031
896.479371	2528.403314
896.787446	2527.347193
897.095480	2522.921060
897.403473	2526.671678
897.711425	2519.281347
898.019336	2519.742612
898.327207	2521.133971
898.635038	2519.046933
898.942827	2519.551048
899.250576	2519.291429
899.558284	2514.719102
899.865952	2514.940913
900.173579	2511.636437
900.481165	2513.605007
900.788711	2509.486385
901.096216	2513.171468
901.403681	2510.792043
901.711105	2513.599966
902.018489	2512.624503
902.325832	2515.084586
902.633135	2513.794051
902.940397	2514.494771
903.247619	2519.838394
903.554800	2528.887265
903.861941	2538.586445
904.169041	2546.369987
904.476101	2546.715306
904.783121	2545.291180
905.090100	2544.585418
905.397039	2536.988399
905.703938	2532.504293
906.010796	2528.786442
906.317614	2525.434075
906.624391	2522.389218
906.931129	2522.656399
907.237826	2521.499454
907.544483	2520.254289
907.851099	2514.943434
908.157675	2513.438649
908.464211	2512.753052
908.770707	2507.356497
909.077163	2506.176867
909.383578	2507.558143
909.689954	2507.989162
909.996289	2505.196363
910.302584	2508.079903
910.608839	2509.183915
910.915054	2506.784326
911.221229	2508.717609
911.527363	2510.751714
911.833458	2507.848010
912.139513	2509.030160
912.445527	2507.371621
912.751502	2511.654081
913.057436	2508.412619
913.363331	2511.954029
913.669186	2509.430932
913.975000	2512.942096
914.280775	2513.789009
914.586510	2517.779083
914.892205	2521.796882
915.197859	2527.422810
915.503475	2536.234747
915.809050	2542.326981
916.114585	2542.730274
916.420081	2546.339740
916.725536	2544.197249
917.030952	2542.664739
917.336328	2540.711292
917.641665	2540.479398
917.946961	2533.998995
918.252218	2532.221988
918.557435	2527.619415
918.862612	2527.609333
919.167750	2526.835516
919.472848	2522.658920
919.777906	2523.437778
920.082925	2519.099865
920.387904	2516.629700
920.692843	2516.622138
920.997743	2513.786489
921.302603	2513.383197
921.607423	2511.666684
921.912204	2512.246416
922.216946	2510.403875
922.521647	2510.608041
922.826310	2510.900428
923.130932	2512.241375
923.435516	2508.553771
923.740059	2509.637619
924.044564	2507.633761
924.349028	2506.665859
924.653454	2504.924140
924.957840	2505.362721
925.262186	2501.481032
925.566493	2504.336846
925.870761	2502.794253
926.174989	2504.621671
926.479178	2506.610406
926.783328	2504.215858
927.087438	2504.480519
927.391509	2505.796260
927.695541	2507.001096
927.999533	2506.113853
928.303486	2504.137720
928.607400	2506.428925
928.911275	2506.113853
929.215110	2503.502535
929.518906	2505.876918
929.822663	2506.575118
930.126381	2505.980262
930.430060	2503.802484
930.733699	2504.959428
931.037299	2501.382730
931.340861	2506.491939
931.644383	2503.716784
931.947866	2504.467916
932.251309	2503.600838
932.554714	2506.358349
932.858080	2507.227948
933.161407	2504.041938
933.464694	2506.965808
933.767943	2503.386588
934.071153	2501.997751
934.374323	2505.874398
934.677455	2503.588235
934.980548	2504.515807
935.283602	2506.691065
935.586617	2504.394819
935.889593	2502.645539
936.192530	2503.011022
936.495428	2504.669562
936.798287	2504.946826
937.101108	2504.725015
937.403890	2505.632422
937.706632	2507.051507
938.009336	2505.183760
938.312002	2509.841786
938.614628	2504.450272
938.917216	2507.391785
939.219765	2506.189470
939.522275	2506.973369
939.824747	2508.475633
940.127179	2502.516989
940.429573	2504.929182
940.731929	2502.481701
941.034246	2503.525220
941.336524	2508.851199
941.638763	2509.282218
941.940964	2506.330622
942.243126	2507.716940
942.545250	2507.278359
942.847335	2504.969511
943.149381	2506.454131
943.451389	2502.663183
943.753359	2505.776095
944.055290	2505.342556
944.357182	2504.175529
944.659036	2506.996055
944.960851	2505.337515
945.262628	2505.055210
945.564367	2505.357680
945.866067	2504.840961
946.167729	2505.324912
946.469352	2504.369613
946.770937	2506.257526
947.072484	2504.901455
947.373992	2506.375993
947.675462	2504.949346
947.976893	2506.295334
948.278286	2504.828358
948.579641	2506.363390
948.880958	2505.604696
949.182236	2505.057731
949.483476	2507.747187
949.784678	2505.133348
950.085841	2504.392299
950.386967	2506.834738
950.688054	2505.652587
950.989103	2504.178050
951.290114	2506.764162
951.591087	2503.734428
951.892021	2504.664521
952.192917	2505.927330
952.493776	2504.568739
952.794596	2505.340036
953.095378	2508.382372
953.396122	2506.915396
953.696828	2505.755931
953.997496	2504.601507
954.298126	2506.025633
954.598718	2507.285921
954.899272	2507.525376
955.199788	2503.928512
955.500266	2502.756444
955.800706	2503.096722
956.101108	2501.418018
956.401472	2501.397853
956.701798	2500.225785
957.002087	2501.914572
957.302337	2502.746362
957.602550	2499.734273
957.902724	2503.658811
958.202861	2504.830879
958.502960	2501.947339
958.803022	2504.495642
959.103045	2503.767196
959.403031	2502.156547
959.702979	2501.944818
960.002889	2503.434479
960.302762	2502.017915
960.602596	2503.109325
960.902393	2502.945488
961.202153	2501.286948
961.501875	2498.864673
961.801559	2502.630415
962.101205	2504.609068
962.400814	2501.629746
962.700385	2500.402225
962.999918	2503.232833
963.299414	2499.033552
963.598873	2502.965652
963.898293	2502.305261
964.197677	2500.671927
964.497022	2503.391630
964.796331	2500.893738
965.095601	2499.756958
965.394835	2505.216527
965.694030	2500.518172
965.993189	2502.663183
966.292309	2500.523213
966.591393	2502.443893
966.890439	2499.638491
967.189447	2501.758296
967.488419	2502.222082
967.787353	2501.052534
968.086249	2500.866012
968.385108	2503.273163
968.683930	2502.580004
968.982714	2500.107318
969.281462	2503.391630
969.580172	2500.331649
969.878844	2502.948008
970.177480	2502.335508
970.476078	2503.457165
970.774639	2501.536485
971.073162	2502.486742
971.371649	2499.958604
971.670098	2499.058758
971.968510	2497.720332
972.266885	2498.564725
972.565223	2501.740652
972.863524	2500.452637
973.161788	2501.964983
973.460014	2501.556650
973.758204	2501.551608
974.056356	2503.557988
974.354471	2501.095384
974.652550	2502.544716
974.950591	2500.621516
975.248595	2502.297699
975.546563	2502.007833
975.844493	2500.802997
976.142386	2504.379696
976.440243	2500.293841
976.738062	2502.325426
977.035845	2501.854078
977.333590	2500.866012
977.631299	2498.567245
977.928971	2502.156547
978.226606	2498.897441
978.524204	2501.080261
978.821765	2500.676968
979.119290	2501.763337
979.416777	2498.274858
979.714228	2501.367606
980.011642	2501.372647
980.309020	2501.052534
980.606360	2498.552122
980.903664	2501.599499
981.200931	2500.704695
981.498162	2502.476660
981.795356	2503.570591
982.092513	2502.300220
982.389633	2504.152844
982.686717	2505.161075
982.983764	2508.856240
983.280775	2502.585045
983.577749	2506.169305
983.874686	2506.801970
984.171587	2505.093019
984.468451	2504.994717
984.765279	2505.899604
985.062070	2506.519666
985.358824	2503.051352
985.655543	2503.857936
985.952224	2499.845178
986.248869	2501.707884
986.545478	2499.956083
986.842050	2500.770230
987.138586	2495.580362
987.435086	2499.419200
987.731549	2497.276710
988.027975	2500.934067
988.324366	2498.617657
988.620719	2500.682009
988.917037	2497.521206
989.213318	2501.508759
989.509563	2500.092194
989.805772	2501.934736
990.101944	2497.816113
990.398080	2500.787874
990.694180	2499.598161
990.990244	2500.618995
991.286271	2498.829385
991.582262	2498.088336
991.878217	2500.969355
992.174136	2502.816938
992.470019	2499.323418
992.765865	2501.675117
993.061676	2499.409118
993.357450	2501.251660
993.653188	2500.182935
993.948890	2499.527585
994.244556	2498.325270
994.540186	2503.739469
994.835780	2500.775271
995.131337	2504.437669
995.426859	2503.270642
995.722345	2501.165960
996.017795	2504.173008
996.313208	2503.968842
996.608586	2503.469768
996.903928	2503.220230
997.199234	2502.698471
997.494504	2502.171670
997.789738	2504.609068
998.084936	2502.280055
998.380099	2504.004130
998.675225	2498.738645
998.970316	2501.904489
999.265371	2501.274345
999.560390	2498.436175
999.855373	2499.083964
1000.150320	2498.819303
1000.445232	2498.297544
1000.740108	2501.811228
1001.034948	2500.792915
1001.329752	2501.115549
1001.624521	2498.453819
1001.919254	2496.817965
1002.213951	2495.686226
1002.508613	2495.146822
1002.803239	2494.930053
1003.097829	2495.653458
1003.392384	2499.817452
1003.686903	2497.735455
1003.981386	2499.653614
1004.275834	2498.111021
1004.570246	2500.316526
1004.864623	2499.880466
1005.158964	2498.040445
1005.453270	2499.583038
1005.747540	2502.401043
1006.041775	2499.076402
1006.335974	2497.385095
1006.630138	2498.542040
1006.924266	2498.393326
1007.218359	2501.803666
1007.512416	2501.055055
1007.806438	2499.303254
1008.100425	2498.501710
1008.394376	2499.976248
1008.688292	2499.388953
1008.982172	2497.236381
1009.276017	2499.341063
1009.569827	2498.529437
1009.863602	2502.471619
1010.157341	2496.553304
1010.451045	2501.579335
1010.744714	2498.756289
1011.038347	2497.191010
1011.331945	2496.439878
1011.625508	2498.889879
1011.919036	2499.633449
1012.212528	2500.603872
1012.505986	2497.385095
1012.799408	2499.353665
1013.092795	2498.947853
1013.386147	2499.855260
1013.679464	2497.470794
1013.972745	2499.704026
1014.265992	2496.376864
1014.559204	2498.315188
1014.852380	2498.602533
1015.145521	2498.622698
1015.438628	2498.214365
1015.731699	2497.806031
1016.024736	2498.539519
1016.317737	2498.761330
1016.610703	2497.811072
1016.903635	2494.408293
1017.196531	2496.112203
1017.489393	2498.307626
1017.782219	2493.266472
1018.075011	2495.434168
1018.367768	2496.880979
1018.660490	2499.993892
1018.953177	2499.993892
1019.245829	2499.993892
