Dividing Wavelength (nm)	Counts (n)	Blue Motor Position (mm): 0.000000	Red Motor Position (mm): 10.000000	
326.493990	2137.449231
326.888308	2137.449231
327.282561	2137.449231
327.676750	2142.490385
328.070874	2152.572692
328.464933	2208.025385
328.858929	2160.134423
329.252859	2197.943077
329.646726	2220.628269
330.040528	2145.010962
330.434265	2132.408077
330.827938	2208.025385
331.221547	2268.519231
331.615091	2218.107692
332.008571	2245.834038
332.401986	2271.039808
332.795338	2349.177692
333.188625	2339.095385
333.581847	2359.260000
333.975006	2336.574808
334.368100	2334.054231
334.761129	2424.795000
335.154095	2404.630385
335.546996	2470.165385
335.939833	2467.644808
336.332606	2472.685962
336.725315	2487.809423
337.117960	2507.974038
337.510540	2570.988462
337.903056	2492.850577
338.295508	2485.288846
338.687896	2563.426731
339.080220	2533.179808
339.472480	2515.535769
339.864676	2460.083077
340.256807	2523.097500
340.648875	2581.070769
341.040879	2525.618077
341.432818	2578.550192
341.824694	2581.070769
342.216506	2596.194231
342.608253	2611.317692
342.999937	2623.920577
343.391557	2613.838269
343.783113	2555.865000
344.174605	2573.509038
344.566033	2576.029615
344.957397	2540.741538
345.348697	2611.317692
345.739934	2628.961731
346.131106	2495.371154
346.522215	2603.755962
346.913260	2495.371154
347.304241	2465.124231
347.695159	2528.138654
348.086012	2507.974038
348.476802	2626.441154
348.867528	2548.303269
349.258191	2482.768269
349.648789	2553.344423
350.039324	2583.591346
350.429796	2608.797115
350.820203	2528.138654
351.210548	2581.070769
351.600828	2576.029615
351.991045	2591.153077
352.381198	2523.097500
352.771288	2538.220962
353.161314	2490.330000
353.551276	2613.838269
353.941175	2606.276538
354.331010	2495.371154
354.720782	2533.179808
355.110490	2616.358846
355.500135	2475.206538
355.889717	2518.056346
356.279235	2563.426731
356.668689	2515.535769
357.058080	2608.797115
357.447408	2568.467885
357.836672	2513.015192
358.225873	2611.317692
358.615010	2593.673654
359.004084	2603.755962
359.393095	2583.591346
359.782043	2535.700385
360.170927	2535.700385
360.559748	2611.317692
360.948505	2485.288846
361.337199	2555.865000
361.725830	2538.220962
362.114398	2608.797115
362.502903	2505.453462
362.891344	2543.262115
363.279722	2588.632500
363.668037	2477.727115
364.056289	2568.467885
364.444478	2492.850577
364.832603	2570.988462
365.220665	2598.714808
365.608665	2568.467885
365.996601	2543.262115
366.384474	2601.235385
366.772284	2530.659231
367.160031	2603.755962
367.547715	2528.138654
367.935336	2545.782692
368.322893	2651.646923
368.710388	2540.741538
369.097820	2535.700385
369.485189	2548.303269
369.872495	2518.056346
370.259738	2550.823846
370.646918	2576.029615
371.034035	2447.480192
371.421090	2543.262115
371.808081	2618.879423
372.195010	2565.947308
372.581875	2613.838269
372.968678	2533.179808
373.355418	2540.741538
373.742096	2568.467885
374.128710	2543.262115
374.515262	2555.865000
374.901751	2540.741538
375.288177	2540.741538
375.674540	2528.138654
376.060841	2591.153077
376.447079	2563.426731
376.833254	2596.194231
377.219367	2570.988462
377.605417	2528.138654
377.991404	2570.988462
378.377329	2570.988462
378.763191	2613.838269
379.148991	2495.371154
379.534727	2477.727115
379.920402	2545.782692
380.306013	2515.535769
380.691563	2555.865000
381.077049	2628.961731
381.462474	2573.509038
381.847835	2553.344423
382.233134	2492.850577
382.618371	2578.550192
383.003545	2573.509038
383.388657	2601.235385
383.773706	2676.852692
384.158693	2515.535769
384.543618	2649.126346
384.928480	2596.194231
385.313280	2606.276538
385.698017	2487.809423
386.082692	2613.838269
386.467305	2583.591346
386.851856	2578.550192
387.236344	2623.920577
387.620770	2573.509038
388.005133	2621.400000
388.389435	2540.741538
388.773674	2598.714808
389.157851	2646.605769
389.541965	2535.700385
389.926018	2530.659231
390.310008	2550.823846
390.693936	2704.579038
391.077802	2654.167500
391.461606	2618.879423
391.845348	2636.523462
392.229027	2535.700385
392.612645	2550.823846
392.996200	2641.564615
393.379694	2598.714808
393.763125	2588.632500
394.146494	2598.714808
394.529801	2530.659231
394.913047	2560.906154
395.296230	2628.961731
395.679351	2659.208654
396.062410	2578.550192
396.445408	2601.235385
396.828343	2636.523462
397.211217	2623.920577
397.594028	2553.344423
397.976778	2644.085192
398.359466	2530.659231
398.742092	2492.850577
399.124656	2570.988462
399.507158	2525.618077
399.889598	2570.988462
400.271977	2550.823846
400.654294	2641.564615
401.036549	2601.235385
401.418742	2502.932885
401.800874	2586.111923
402.182944	2570.988462
402.564952	2520.576923
402.946898	2540.741538
403.328783	2581.070769
403.710606	2639.044038
404.092367	2510.494615
404.474067	2520.576923
404.855705	2611.317692
405.237282	2626.441154
405.618797	2523.097500
406.000250	2646.605769
406.381642	2611.317692
406.762972	2586.111923
407.144240	2518.056346
407.525447	2565.947308
407.906593	2623.920577
408.287677	2545.782692
408.668700	2689.455577
409.049661	2482.768269
409.430560	2578.550192
409.811399	2535.700385
410.192176	2533.179808
410.572891	2578.550192
410.953545	2565.947308
411.334138	2644.085192
411.714669	2608.797115
412.095139	2601.235385
412.475547	2588.632500
412.855894	2568.467885
413.236180	2601.235385
413.616405	2553.344423
413.996568	2555.865000
414.376670	2573.509038
414.756711	2644.085192
415.136691	2651.646923
415.516609	2555.865000
415.896466	2583.591346
416.276262	2591.153077
416.655997	2565.947308
417.035670	2616.358846
417.415283	2639.044038
417.794834	2646.605769
418.174324	2576.029615
418.553753	2568.467885
418.933121	2628.961731
419.312428	2558.385577
419.691674	2659.208654
420.070859	2639.044038
420.449983	2623.920577
420.829045	2553.344423
421.208047	2558.385577
421.586988	2598.714808
421.965867	2573.509038
422.344686	2616.358846
422.723444	2565.947308
423.102141	2618.879423
423.480777	2644.085192
423.859352	2581.070769
424.237866	2608.797115
424.616319	2628.961731
424.994712	2487.809423
425.373044	2631.482308
425.751314	2550.823846
426.129524	2669.290962
426.507673	2618.879423
426.885762	2578.550192
427.263789	2555.865000
427.641756	2616.358846
428.019662	2639.044038
428.397508	2639.044038
428.775292	2664.249808
429.153016	2573.509038
429.530679	2598.714808
429.908282	2583.591346
430.285824	2598.714808
430.663305	2555.865000
431.040726	2626.441154
431.418086	2543.262115
431.795385	2651.646923
432.172624	2694.496731
432.549802	2699.537885
432.926920	2563.426731
433.303977	2631.482308
433.680974	2550.823846
434.057910	2611.317692
434.434786	2538.220962
434.811601	2560.906154
435.188355	2631.482308
435.565050	2656.688077
435.941683	2656.688077
436.318257	2639.044038
436.694770	2576.029615
437.071222	2560.906154
437.447614	2704.579038
437.823946	2659.208654
438.200218	2639.044038
438.576429	2664.249808
438.952580	2697.017308
439.328670	2681.893846
439.704700	2644.085192
440.080670	2714.661346
440.456580	2631.482308
440.832429	2583.591346
441.208218	2697.017308
441.583947	2777.675769
441.959616	2742.387692
442.335224	2717.181923
442.710773	2722.223077
443.086261	2800.360962
443.461689	2790.278654
443.837057	2787.758077
444.212365	2886.060577
444.587612	2893.622308
444.962800	2870.937115
445.337927	2886.060577
445.712995	2916.307500
446.088002	2888.581154
446.462949	2984.363077
446.837837	2991.924808
447.212664	3019.651154
447.587431	3145.680000
447.962139	3354.887885
448.336786	3417.902308
448.711374	3627.110192
449.085901	3324.640962
449.460369	3448.149231
449.834776	3460.752115
450.209124	3654.836538
450.583412	3859.003269
450.957640	3954.785192
451.331808	3901.853077
451.705917	3957.305769
452.079965	3904.373654
452.453954	4075.772885
452.827883	4194.240000
453.201752	4279.939615
453.575562	4282.460192
453.949311	4451.338846
454.323001	4471.503462
454.696632	4693.314231
455.070202	4902.522115
455.443713	4887.398654
455.817164	5331.020192
456.190556	5492.337115
456.563888	5668.777500
456.937160	5696.503846
457.310373	5532.666346
457.683526	5804.888654
458.056619	5860.341346
458.429653	6094.755000
458.802628	6019.137692
459.175542	6389.662500
459.548398	6737.502115
459.921194	7133.232692
460.293930	7418.057885
460.666607	7707.924231
461.039224	8703.552115
461.411782	8983.336154
461.784280	8995.939038
462.156719	9217.749808
462.529099	9283.284808
462.901419	9129.529615
463.273680	8983.336154
463.645882	8998.459615
464.018024	9311.011154
464.390106	9802.523654
464.762130	10236.062885
465.134094	10999.797692
465.505999	12852.421731
465.877845	15065.488269
466.249631	16681.178077
466.621358	16721.507308
466.993026	15970.375385
467.364634	15539.356731
467.736184	14629.428462
468.107674	14974.747500
468.479105	15151.187885
468.850477	14972.226923
469.221790	15123.461538
469.593043	14538.687692
469.964238	14337.041538
470.335373	14455.508654
470.706449	15022.638462
471.077467	15405.766154
471.448425	17699.491154
471.819324	21117.393462
472.190164	21563.535577
472.560945	18516.158077
472.931667	17180.252308
473.302330	16971.044423
473.672934	16819.809808
474.043479	17480.200962
474.413965	17323.925192
474.784393	17003.811923
475.154761	18485.911154
475.525070	18037.248462
475.895321	18120.427500
476.265513	18768.215769
476.635645	19461.374423
477.005719	19637.814808
477.375734	19554.635769
477.745691	20204.944615
478.115588	20736.786346
478.485427	21747.537692
478.855207	23005.305577
479.224928	25253.660192
479.594591	27328.095000
479.964194	26186.273654
480.333739	26950.008462
480.703226	26735.759423
481.072653	26660.142115
481.442022	27638.125962
481.811333	28462.354615
482.180584	28301.037692
482.549777	27098.722500
482.918912	26889.514615
483.287988	27378.506538
483.657005	26955.049615
484.025964	26728.197692
484.394864	26524.030962
484.763706	25906.489615
485.132489	25651.911346
485.501213	25667.034808
485.869879	25472.950385
486.238487	25334.318654
486.607036	25359.524423
486.975527	25215.851538
487.343959	25183.084038
487.712333	24845.326731
488.080648	24744.503654
488.448905	25104.946154
488.817104	25049.493462
489.185244	25626.705577
489.553326	25170.481154
489.921350	26677.786154
490.289315	29082.416538
490.657222	29755.410577
491.025070	29941.933269
491.392861	29180.719038
491.760593	28447.231154
492.128267	27330.615577
492.495883	26188.794231
492.863440	25021.767115
493.230939	24202.579615
493.598380	23751.396346
493.965763	23085.964038
494.333088	22526.395962
494.700354	22304.585192
495.067563	21921.457500
495.434713	21341.724808
495.801805	21523.206346
496.168839	20814.924231
496.535815	20830.047692
496.902733	20850.212308
497.269593	20509.934423
497.636395	20066.312885
498.003139	19410.962885
498.369825	19252.166538
498.736453	19398.360000
499.103023	18853.915385
499.469535	18490.952308
499.835989	18480.870000
500.202385	18327.114808
500.568723	17775.108462
500.935003	17497.845000
501.301226	17437.351154
501.667390	17568.421154
502.033497	17530.612500
502.399546	16797.124615
502.765537	16134.212885
503.131470	16577.834423
503.497345	16335.859038
503.863163	15559.521346
504.228923	15627.576923
504.594625	15496.506923
504.960269	15093.214615
505.325856	14800.827692
505.691385	14352.165000
506.056856	14281.588846
506.422270	14427.782308
506.787625	13767.391154
507.152924	13515.333462
507.518164	13522.895192
507.883347	12882.668654
508.248472	12673.460769
508.613540	12721.351731
508.978550	12333.182885
509.343503	12234.880385
509.708398	11808.902885
510.073236	11821.505769
510.438016	11718.162115
510.802738	11302.266923
511.167403	11284.622885
511.532010	10994.756538
511.896561	10936.783269
512.261053	10541.052692
512.625488	10420.065000
512.989866	10268.830385
513.354186	9767.235577
513.718449	9530.301346
514.082655	9731.947500
514.446803	9222.790962
514.810894	9202.626346
515.174927	8990.897885
515.538904	8867.389615
515.902822	8615.331923
516.266684	8330.506731
516.630488	8330.506731
516.994235	7947.379038
517.357925	7775.979808
517.721558	7715.485962
518.085133	7491.154615
518.448651	7430.660769
518.812112	7213.891154
519.175516	7108.026923
519.538863	6976.956923
519.902152	6815.640000
520.265385	6634.158462
520.628560	6440.074038
520.991678	6387.141923
521.354739	6225.825000
521.717743	6301.442308
522.080690	5938.479231
522.443580	5925.876346
522.806413	5628.448269
523.169189	5668.777500
523.531908	5560.392692
523.894569	5399.075769
524.257174	5204.991346
524.619722	5152.059231
524.982213	4990.742308
525.344647	4957.974808
525.707025	5038.633269
526.069345	4864.713462
526.431608	4663.067308
526.793815	4557.203077
527.155964	4524.435577
527.518057	4504.270962
527.880093	4438.735962
528.242072	4221.966346
528.603995	4335.392308
528.965860	4106.019808
529.327669	4055.608269
529.689421	4073.252308
530.051117	3964.867500
530.412755	3886.729615
530.774337	3806.071154
531.135862	3806.071154
531.497331	3715.330385
531.858743	3669.960000
532.220098	3617.027885
532.581396	3511.163654
532.942638	3591.822115
533.303824	3531.328269
533.664953	3498.560769
534.026025	3420.422885
534.387040	3433.025769
534.747999	3357.408462
535.108902	3301.955769
535.469748	3231.379615
535.830537	3382.614231
536.191270	3344.805577
536.551947	3105.350769
536.912567	3082.665577
537.273131	3057.459808
537.633638	3122.994808
537.994089	3102.830192
538.354483	3125.515385
538.714821	3057.459808
539.075103	3024.692308
539.435328	2991.924808
539.795497	3007.048269
540.155609	3029.733462
540.515665	2974.280769
540.875665	2898.663462
541.235609	2916.307500
541.595496	2838.169615
541.955328	2810.443269
542.315102	2812.963846
542.674821	2870.937115
543.034483	2873.457692
543.394090	2800.360962
543.753640	2855.813654
544.113134	2818.005000
544.472571	2815.484423
544.831953	2757.511154
545.191278	2805.402115
545.550548	2833.128462
545.909761	2800.360962
546.268918	2707.099615
546.628019	2724.743654
546.987064	2873.457692
547.346053	2792.799231
547.704986	2760.031731
548.063863	2785.237500
548.422684	2802.881538
548.781449	2691.976154
549.140158	2762.552308
549.498811	2775.155192
549.857408	2717.181923
550.215949	2727.264231
550.574434	2747.428846
550.932864	2691.976154
551.291237	2641.564615
551.649555	2744.908269
552.007817	2704.579038
552.366022	2714.661346
552.724173	2732.305385
553.082267	2712.140769
553.440305	2686.935000
553.798288	2616.358846
554.156215	2712.140769
554.514086	2727.264231
554.871902	2722.223077
555.229661	2664.249808
555.587365	2674.332115
555.945014	2727.264231
556.302606	2608.797115
556.660143	2631.482308
557.017625	2717.181923
557.375050	2697.017308
557.732421	2724.743654
558.089735	2684.414423
558.446994	2722.223077
558.804197	2654.167500
559.161345	2613.838269
559.518437	2661.729231
559.875474	2626.441154
560.232455	2757.511154
560.589381	2686.935000
560.946251	2676.852692
561.303065	2641.564615
561.659825	2724.743654
562.016528	2538.220962
562.373177	2659.208654
562.729770	2674.332115
563.086307	2636.523462
563.442789	2661.729231
563.799216	2674.332115
564.155587	2644.085192
564.511904	2686.935000
564.868164	2699.537885
565.224370	2656.688077
565.580520	2576.029615
565.936615	2691.976154
566.292654	2644.085192
566.648638	2639.044038
567.004567	2598.714808
567.360441	2749.949423
567.716260	2631.482308
568.072023	2641.564615
568.427732	2613.838269
568.783385	2598.714808
569.138982	2613.838269
569.494525	2601.235385
569.850013	2676.852692
570.205445	2671.811538
570.560823	2639.044038
570.916145	2666.770385
571.271412	2661.729231
571.626625	2618.879423
571.981782	2611.317692
572.336884	2684.414423
572.691931	2644.085192
573.046923	2631.482308
573.401860	2649.126346
573.756743	2712.140769
574.111570	2671.811538
574.466342	2616.358846
574.821059	2631.482308
575.175722	2654.167500
575.530330	2631.482308
575.884882	2691.976154
576.239380	2603.755962
576.593823	2621.400000
576.948211	2606.276538
577.302544	2646.605769
577.656823	2626.441154
578.011047	2586.111923
578.365216	2712.140769
578.719330	2639.044038
579.073389	2628.961731
579.427394	2639.044038
579.781344	2714.661346
580.135239	2596.194231
580.489080	2603.755962
580.842866	2628.961731
581.196597	2644.085192
581.550273	2626.441154
581.903895	2598.714808
582.257463	2676.852692
582.610975	2659.208654
582.964434	2606.276538
583.317837	2623.920577
583.671186	2649.126346
584.024481	2649.126346
584.377721	2578.550192
584.730906	2613.838269
585.084037	2621.400000
585.437113	2603.755962
585.790135	2548.303269
586.143103	2694.496731
586.496016	2606.276538
586.848874	2666.770385
587.201679	2641.564615
587.554428	2644.085192
587.907124	2686.935000
588.259765	2593.673654
588.612352	2603.755962
588.964884	2611.317692
589.317362	2671.811538
589.669786	2669.290962
590.022155	2631.482308
590.374470	2576.029615
590.726731	2676.852692
591.078937	2611.317692
591.431090	2770.114038
591.783188	2606.276538
592.135232	2644.085192
592.487222	2623.920577
592.839157	2621.400000
593.191038	2563.426731
593.542866	2613.838269
593.894639	2616.358846
594.246358	2671.811538
594.598022	2606.276538
594.949633	2666.770385
595.301190	2631.482308
595.652692	2568.467885
596.004141	2676.852692
596.355535	2618.879423
596.706876	2603.755962
597.058162	2656.688077
597.409395	2734.825962
597.760573	2639.044038
598.111698	2623.920577
598.462768	2586.111923
598.813785	2618.879423
599.164748	2646.605769
599.515657	2588.632500
599.866511	2616.358846
600.217312	2603.755962
600.568060	2644.085192
600.918753	2578.550192
601.269392	2659.208654
601.619978	2634.002885
601.970510	2606.276538
602.320988	2520.576923
602.671412	2639.044038
603.021783	2628.961731
603.372100	2626.441154
603.722363	2588.632500
604.072572	2762.552308
604.422728	2603.755962
604.772830	2608.797115
605.122878	2644.085192
605.472872	2664.249808
605.822813	2671.811538
606.172701	2641.564615
606.522534	2548.303269
606.872314	2742.387692
607.222041	2646.605769
607.571714	2616.358846
607.921333	2591.153077
608.270899	2613.838269
608.620411	2626.441154
608.969870	2573.509038
609.319276	2618.879423
609.668627	2606.276538
610.017926	2591.153077
610.367171	2583.591346
610.716362	2646.605769
611.065500	2664.249808
611.414585	2618.879423
611.763616	2611.317692
612.112594	2651.646923
612.461518	2669.290962
612.810389	2626.441154
613.159207	2598.714808
613.507971	2641.564615
613.856682	2636.523462
614.205340	2613.838269
614.553945	2618.879423
614.902496	2563.426731
615.250994	2555.865000
615.599439	2608.797115
615.947830	2661.729231
616.296169	2578.550192
616.644454	2646.605769
616.992686	2634.002885
617.340864	2598.714808
617.688990	2626.441154
618.037063	2593.673654
618.385082	2649.126346
618.733048	2656.688077
619.080961	2644.085192
619.428821	2634.002885
619.776628	2576.029615
620.124382	2669.290962
620.472083	2654.167500
620.819731	2560.906154
621.167326	2651.646923
621.514868	2628.961731
621.862357	2623.920577
622.209793	2611.317692
622.557176	2540.741538
622.904506	2591.153077
623.251783	2659.208654
623.599007	2616.358846
623.946179	2636.523462
624.293297	2576.029615
624.640363	2565.947308
624.987376	2568.467885
625.334336	2669.290962
625.681243	2729.784808
626.028097	2608.797115
626.374899	2649.126346
626.721647	2578.550192
627.068343	2593.673654
627.414987	2659.208654
627.761577	2644.085192
628.108115	2598.714808
628.454600	2623.920577
628.801032	2631.482308
629.147412	2634.002885
629.493739	2586.111923
629.840014	2628.961731
630.186236	2641.564615
630.532405	2606.276538
630.878521	2691.976154
631.224585	2623.920577
631.570597	2664.249808
631.916556	2707.099615
632.262462	2608.797115
632.608316	2636.523462
632.954117	2666.770385
633.299866	2666.770385
633.645562	2578.550192
633.991206	2709.620192
634.336797	2669.290962
634.682336	2603.755962
635.027823	2598.714808
635.373257	2623.920577
635.718639	2623.920577
636.063968	2654.167500
636.409245	2535.700385
636.754470	2644.085192
637.099642	2621.400000
637.444762	2581.070769
637.789829	2545.782692
638.134845	2538.220962
638.479808	2611.317692
638.824719	2616.358846
639.169577	2591.153077
639.514383	2603.755962
639.859137	2573.509038
640.203839	2631.482308
640.548489	2618.879423
640.893086	2626.441154
641.237632	2596.194231
641.582125	2565.947308
641.926566	2616.358846
642.270955	2694.496731
642.615292	2659.208654
642.959576	2583.591346
643.303809	2649.126346
643.647990	2553.344423
643.992118	2661.729231
644.336195	2669.290962
644.680219	2515.535769
645.024192	2634.002885
645.368112	2651.646923
645.711981	2581.070769
646.055797	2598.714808
646.399562	2588.632500
646.743274	2591.153077
647.086935	2646.605769
647.430544	2631.482308
647.774101	2608.797115
648.117606	2644.085192
648.461059	2581.070769
648.804460	2634.002885
649.147810	2576.029615
649.491108	2628.961731
649.834354	2651.646923
650.177548	2686.935000
650.520690	2530.659231
650.863781	2664.249808
651.206820	2654.167500
651.549807	2626.441154
651.892742	2608.797115
652.235626	2631.482308
652.578458	2606.276538
652.921238	2601.235385
653.263967	2482.768269
653.606644	2573.509038
653.949269	2661.729231
654.291843	2659.208654
654.634365	2586.111923
654.976836	2601.235385
655.319255	2601.235385
655.661622	2540.741538
656.003938	2649.126346
656.346203	2593.673654
656.688416	2621.400000
657.030577	2691.976154
657.372687	2676.852692
657.714746	2679.373269
658.056753	2661.729231
658.398708	2626.441154
658.740612	2631.482308
659.082465	2704.579038
659.424266	2634.002885
659.766016	2586.111923
660.107715	2608.797115
660.449362	2732.305385
660.790958	2646.605769
661.132503	2611.317692
661.473996	2689.455577
661.815438	2644.085192
662.156829	2601.235385
662.498168	2618.879423
662.839456	2671.811538
663.180693	2644.085192
663.521879	2611.317692
663.863013	2666.770385
664.204097	2659.208654
664.545129	2591.153077
664.886110	2641.564615
665.227040	2581.070769
665.567918	2598.714808
665.908746	2639.044038
666.249522	2601.235385
666.590248	2616.358846
666.930922	2611.317692
667.271545	2573.509038
667.612118	2654.167500
667.952639	2686.935000
668.293109	2608.797115
668.633528	2702.058462
668.973896	2621.400000
669.314213	2641.564615
669.654480	2518.056346
669.994695	2649.126346
670.334859	2555.865000
670.674973	2686.935000
671.015035	2651.646923
671.355047	2613.838269
671.695008	2664.249808
672.034918	2558.385577
672.374777	2563.426731
672.714585	2651.646923
673.054342	2621.400000
673.394049	2611.317692
673.733705	2578.550192
674.073310	2646.605769
674.412864	2591.153077
674.752368	2636.523462
675.091820	2560.906154
675.431223	2664.249808
675.770574	2603.755962
676.109875	2626.441154
676.449125	2623.920577
676.788324	2570.988462
677.127473	2621.400000
677.466571	2611.317692
677.805619	2583.591346
678.144616	2656.688077
678.483562	2651.646923
678.822458	2591.153077
679.161303	2661.729231
679.500098	2671.811538
679.838842	2689.455577
680.177535	2646.605769
680.516179	2631.482308
680.854771	2576.029615
681.193314	2661.729231
681.531805	2573.509038
681.870247	2618.879423
682.208638	2596.194231
682.546978	2623.920577
682.885268	2596.194231
683.223508	2651.646923
683.561697	2593.673654
683.899836	2669.290962
684.237925	2636.523462
684.575963	2634.002885
684.913951	2606.276538
685.251889	2586.111923
685.589776	2634.002885
685.927614	2649.126346
686.265401	2707.099615
686.603137	2563.426731
686.940824	2659.208654
687.278460	2631.482308
687.616046	2573.509038
687.953582	2628.961731
688.291068	2606.276538
688.628504	2664.249808
688.965889	2626.441154
689.303224	2596.194231
689.640510	2644.085192
689.977745	2639.044038
690.314930	2616.358846
690.652065	2664.249808
690.989150	2679.373269
691.326185	2606.276538
691.663170	2644.085192
692.000105	2699.537885
692.336990	2697.017308
692.673825	2669.290962
693.010610	2659.208654
693.347345	2646.605769
693.684030	2578.550192
694.020665	2659.208654
694.357251	2578.550192
694.693786	2644.085192
695.030272	2679.373269
695.366707	2628.961731
695.703093	2613.838269
696.039429	2598.714808
696.375716	2626.441154
696.711952	2689.455577
697.048139	2689.455577
697.384276	2626.441154
697.720363	2598.714808
698.056400	2558.385577
698.392388	2608.797115
698.728326	2578.550192
699.064214	2598.714808
699.400053	2628.961731
699.735842	2669.290962
700.071581	2664.249808
700.407270	2608.797115
700.742910	2608.797115
701.078501	2659.208654
701.414042	2608.797115
701.749533	2686.935000
702.084974	2603.755962
702.420366	2659.208654
702.755709	2659.208654
703.091002	2598.714808
703.426246	2618.879423
703.761440	2646.605769
704.096584	2583.591346
704.431679	2628.961731
704.766725	2588.632500
705.101721	2578.550192
705.436668	2649.126346
705.771565	2707.099615
706.106413	2639.044038
706.441212	2588.632500
706.775961	2669.290962
707.110661	2628.961731
707.445311	2674.332115
707.779913	2598.714808
708.114465	2608.797115
708.448967	2543.262115
708.783421	2608.797115
709.117825	2535.700385
709.452180	2644.085192
709.786485	2719.702500
710.120742	2616.358846
710.454949	2634.002885
710.789107	2538.220962
711.123216	2676.852692
711.457275	2593.673654
711.791286	2568.467885
712.125247	2586.111923
712.459159	2533.179808
712.793023	2628.961731
713.126837	2616.358846
713.460602	2639.044038
713.794318	2598.714808
714.127985	2565.947308
714.461602	2618.879423
714.795171	2593.673654
715.128691	2578.550192
715.462162	2598.714808
715.795584	2628.961731
716.128957	2618.879423
716.462281	2596.194231
716.795556	2578.550192
717.128782	2608.797115
717.461960	2639.044038
717.795088	2639.044038
718.128167	2598.714808
718.461198	2588.632500
718.794180	2628.961731
719.127113	2578.550192
719.459997	2628.961731
719.792833	2608.797115
720.125619	2558.385577
720.458357	2649.126346
720.791046	2543.262115
721.123686	2669.290962
721.456278	2598.714808
721.788821	2598.714808
722.121315	2634.002885
722.453761	2616.358846
722.786158	2659.208654
723.118506	2472.685962
723.450805	2659.208654
723.783056	2606.276538
724.115259	2649.126346
724.447412	2618.879423
724.779518	2616.358846
725.111574	2659.208654
725.443582	2598.714808
725.775542	2628.961731
726.107453	2628.961731
726.439315	2679.373269
726.771129	2558.385577
727.102895	2538.220962
727.434612	2679.373269
727.766281	2639.044038
728.097901	2613.838269
728.429473	2618.879423
728.760996	2598.714808
729.092471	2664.249808
729.423897	2543.262115
729.755276	2565.947308
730.086606	2528.138654
730.417887	2608.797115
730.749120	2626.441154
731.080305	2646.605769
731.411442	2613.838269
731.742530	2568.467885
732.073570	2608.797115
732.404562	2588.632500
732.735506	2558.385577
733.066401	2616.358846
733.397249	2578.550192
733.728048	2608.797115
734.058798	2628.961731
734.389501	2487.809423
734.720156	2628.961731
735.050762	2588.632500
735.381320	2644.085192
735.711831	2598.714808
736.042293	2628.961731
736.372707	2618.879423
736.703073	2613.838269
737.033391	2676.852692
737.363661	2634.002885
737.693883	2563.426731
738.024056	2770.114038
738.354182	2707.099615
738.684260	2563.426731
739.014290	2565.947308
739.344272	2626.441154
739.674207	2603.755962
740.004093	2659.208654
740.333931	2626.441154
740.663722	2598.714808
740.993464	2588.632500
741.323159	2666.770385
741.652806	2578.550192
741.982405	2558.385577
742.311956	2608.797115
742.641460	2603.755962
742.970915	2608.797115
743.300323	2659.208654
743.629683	2644.085192
743.958996	2623.920577
744.288260	2656.688077
744.617477	2593.673654
744.946647	2558.385577
745.275768	2676.852692
745.604842	2601.235385
745.933869	2618.879423
746.262847	2596.194231
746.591778	2649.126346
746.920662	2649.126346
747.249498	2626.441154
747.578286	2649.126346
747.907027	2684.414423
748.235720	2578.550192
748.564365	2598.714808
748.892963	2618.879423
749.221514	2528.138654
749.550017	2666.770385
749.878473	2543.262115
750.206881	2639.044038
750.535242	2649.126346
750.863555	2528.138654
751.191821	2623.920577
751.520039	2656.688077
751.848210	2568.467885
752.176334	2603.755962
752.504411	2669.290962
752.832440	2636.523462
753.160421	2598.714808
753.488356	2639.044038
753.816243	2611.317692
754.144082	2719.702500
754.471875	2639.044038
754.799620	2669.290962
755.127318	2644.085192
755.454969	2676.852692
755.782572	2588.632500
756.110129	2593.673654
756.437638	2598.714808
756.765100	2626.441154
757.092515	2684.414423
757.419882	2558.385577
757.747203	2576.029615
758.074477	2563.426731
758.401703	2634.002885
758.728882	2586.111923
759.056014	2598.714808
759.383099	2568.467885
759.710138	2576.029615
760.037129	2606.276538
760.364073	2684.414423
760.690970	2608.797115
761.017820	2613.838269
761.344623	2578.550192
761.671379	2558.385577
761.998088	2631.482308
762.324751	2674.332115
762.651366	2596.194231
762.977935	2608.797115
763.304456	2649.126346
763.630931	2636.523462
763.957359	2656.688077
764.283740	2639.044038
764.610074	2598.714808
764.936362	2628.961731
765.262602	2588.632500
765.588796	2623.920577
765.914943	2639.044038
766.241044	2583.591346
766.567097	2644.085192
766.893104	2649.126346
767.219064	2586.111923
767.544978	2573.509038
767.870845	2505.453462
768.196665	2591.153077
768.522438	2593.673654
768.848165	2659.208654
769.173846	2636.523462
769.499479	2644.085192
769.825066	2545.782692
770.150607	2651.646923
770.476101	2603.755962
770.801548	2649.126346
771.126949	2606.276538
771.452303	2598.714808
771.777611	2646.605769
772.102872	2576.029615
772.428087	2518.056346
772.753256	2553.344423
773.078378	2568.467885
773.403453	2563.426731
773.728482	2558.385577
774.053465	2538.220962
774.378401	2510.494615
774.703291	2558.385577
775.028135	2596.194231
775.352932	2563.426731
775.677683	2588.632500
776.002388	2565.947308
776.327046	2644.085192
776.651658	2588.632500
776.976224	2646.605769
777.300743	2623.920577
777.625216	2639.044038
777.949643	2606.276538
778.274024	2623.920577
778.598359	2593.673654
778.922647	2636.523462
779.246889	2639.044038
779.571086	2588.632500
779.895236	2581.070769
780.219339	2565.947308
780.543397	2593.673654
780.867409	2694.496731
781.191374	2618.879423
781.515294	2596.194231
781.839167	2598.714808
782.162995	2686.935000
782.486776	2565.947308
782.810511	2608.797115
783.134201	2608.797115
783.457844	2628.961731
783.781441	2558.385577
784.104993	2618.879423
784.428498	2608.797115
784.751958	2568.467885
785.075372	2628.961731
785.398739	2628.961731
785.722061	2563.426731
786.045337	2598.714808
786.368568	2543.262115
786.691752	2644.085192
787.014891	2563.426731
787.337983	2666.770385
787.661030	2603.755962
787.984031	2656.688077
788.306987	2656.688077
788.629897	2591.153077
788.952760	2472.685962
789.275579	2596.194231
789.598351	2618.879423
789.921078	2568.467885
790.243759	2596.194231
790.566395	2646.605769
790.888984	2568.467885
791.211529	2608.797115
791.534027	2608.797115
791.856480	2659.208654
792.178888	2578.550192
792.501249	2528.138654
792.823566	2593.673654
793.145836	2588.632500
793.468062	2603.755962
793.790241	2628.961731
794.112375	2553.344423
794.434464	2621.400000
794.756507	2588.632500
795.078505	2631.482308
795.400457	2528.138654
795.722364	2565.947308
796.044226	2560.906154
796.366042	2578.550192
796.687812	2641.564615
797.009538	2623.920577
797.331218	2588.632500
797.652852	2606.276538
797.974442	2659.208654
798.295986	2596.194231
798.617484	2555.865000
798.938938	2628.961731
799.260346	2588.632500
799.581709	2659.208654
799.903026	2583.591346
800.224299	2538.220962
800.545526	2613.838269
800.866708	2634.002885
801.187845	2593.673654
801.508936	2656.688077
801.829983	2608.797115
802.150984	2686.935000
802.471940	2661.729231
802.792851	2505.453462
803.113717	2598.714808
803.434538	2588.632500
803.755314	2634.002885
804.076045	2626.441154
804.396731	2639.044038
804.717372	2634.002885
805.037967	2573.509038
805.358518	2616.358846
805.679024	2568.467885
805.999485	2628.961731
806.319901	2555.865000
806.640272	2606.276538
806.960598	2623.920577
807.280879	2618.879423
807.601115	2603.755962
807.921306	2628.961731
808.241453	2674.332115
808.561554	2681.893846
808.881611	2563.426731
809.201623	2661.729231
809.521590	2603.755962
809.841513	2646.605769
810.161390	2495.371154
810.481223	2550.823846
810.801011	2651.646923
811.120755	2616.358846
811.440453	2497.891731
811.760107	2628.961731
812.079716	2550.823846
812.399281	2636.523462
812.718801	2593.673654
813.038276	2563.426731
813.357707	2578.550192
813.677093	2525.618077
813.996434	2543.262115
814.315731	2596.194231
814.634983	2581.070769
814.954191	2593.673654
815.273354	2603.755962
815.592473	2576.029615
815.911547	2593.673654
816.230577	2596.194231
816.549562	2676.852692
816.868502	2651.646923
817.187399	2513.015192
817.506250	2676.852692
817.825058	2553.344423
818.143821	2628.961731
818.462539	2621.400000
818.781213	2611.317692
819.099843	2603.755962
819.418429	2626.441154
819.736970	2613.838269
820.055466	2596.194231
820.373919	2576.029615
820.692327	2621.400000
821.010691	2669.290962
821.329011	2707.099615
821.647286	2694.496731
821.965517	2709.620192
822.283704	2601.235385
822.601847	2734.825962
822.919945	2689.455577
823.237999	2691.976154
823.556010	2669.290962
823.873976	2646.605769
824.191897	2581.070769
824.509775	2659.208654
824.827609	2586.111923
825.145398	2573.509038
825.463144	2664.249808
825.780845	2676.852692
826.098502	2613.838269
826.416116	2654.167500
826.733685	2666.770385
827.051210	2671.811538
827.368692	2578.550192
827.686129	2676.852692
828.003522	2616.358846
828.320872	2588.632500
828.638177	2616.358846
828.955439	2669.290962
829.272656	2593.673654
829.589830	2618.879423
829.906960	2588.632500
830.224046	2628.961731
830.541088	2603.755962
830.858086	2656.688077
831.175041	2659.208654
831.491952	2618.879423
831.808819	2639.044038
832.125642	2616.358846
832.442421	2644.085192
832.759157	2598.714808
833.075849	2548.303269
833.392497	2639.044038
833.709101	2628.961731
834.025662	2656.688077
834.342179	2553.344423
834.658653	2568.467885
834.975083	2563.426731
835.291469	2598.714808
835.607811	2588.632500
835.924110	2596.194231
836.240366	2623.920577
836.556578	2636.523462
836.872746	2659.208654
837.188871	2583.591346
837.504952	2644.085192
837.820990	2606.276538
838.136984	2639.044038
838.452935	2523.097500
838.768842	2565.947308
839.084706	2596.194231
839.400526	2684.414423
839.716303	2628.961731
840.032037	2596.194231
840.347727	2603.755962
840.663373	2588.632500
840.978977	2596.194231
841.294537	2523.097500
841.610054	2608.797115
841.925527	2550.823846
842.240957	2613.838269
842.556344	2628.961731
842.871687	2631.482308
843.186987	2593.673654
843.502244	2586.111923
843.817458	2616.358846
844.132629	2548.303269
844.447756	2621.400000
844.762840	2555.865000
845.077881	2613.838269
845.392879	2639.044038
845.707833	2538.220962
846.022745	2606.276538
846.337613	2578.550192
846.652438	2586.111923
846.967221	2558.385577
847.281960	2649.126346
847.596656	2618.879423
847.911309	2618.879423
848.225919	2598.714808
848.540485	2588.632500
848.855009	2533.179808
849.169490	2618.879423
849.483928	2618.879423
849.798323	2538.220962
850.112675	2598.714808
850.426984	2576.029615
850.741251	2634.002885
851.055474	2603.755962
851.369654	2623.920577
851.683792	2649.126346
851.997887	2553.344423
852.311938	2540.741538
852.625947	2626.441154
852.939914	2641.564615
853.253837	2558.385577
853.567718	2555.865000
853.881555	2636.523462
854.195350	2588.632500
854.509103	2565.947308
854.822812	2608.797115
855.136479	2649.126346
855.450103	2679.373269
855.763685	2654.167500
856.077224	2538.220962
856.390720	2518.056346
856.704173	2634.002885
857.017584	2628.961731
857.330953	2586.111923
857.644278	2573.509038
857.957561	2634.002885
858.270802	2591.153077
858.584000	2674.332115
858.897155	2618.879423
859.210268	2626.441154
859.523339	2676.852692
859.836367	2515.535769
860.149352	2550.823846
860.462295	2639.044038
860.775195	2674.332115
861.088054	2578.550192
861.400869	2578.550192
861.713642	2596.194231
862.026373	2588.632500
862.339062	2656.688077
862.651708	2543.262115
862.964312	2497.891731
863.276873	2588.632500
863.589392	2578.550192
863.901869	2618.879423
864.214303	2626.441154
864.526696	2628.961731
864.839045	2644.085192
865.151353	2613.838269
865.463619	2608.797115
865.775842	2573.509038
866.088023	2603.755962
866.400162	2530.659231
866.712258	2596.194231
867.024313	2583.591346
867.336325	2606.276538
867.648296	2540.741538
867.960224	2560.906154
868.272110	2608.797115
868.583954	2601.235385
868.895755	2618.879423
869.207515	2636.523462
869.519233	2611.317692
869.830909	2558.385577
870.142542	2606.276538
870.454134	2553.344423
870.765684	2598.714808
871.077191	2565.947308
871.388657	2659.208654
871.700081	2603.755962
872.011463	2651.646923
872.322803	2649.126346
872.634101	2659.208654
872.945357	2487.809423
873.256571	2611.317692
873.567744	2591.153077
873.878874	2649.126346
874.189963	2513.015192
874.501010	2674.332115
874.812015	2565.947308
875.122979	2676.852692
875.433900	2598.714808
875.744780	2661.729231
876.055618	2656.688077
876.366415	2558.385577
876.677169	2608.797115
876.987882	2538.220962
877.298554	2535.700385
877.609183	2558.385577
877.919771	2578.550192
878.230317	2603.755962
878.540822	2583.591346
878.851285	2654.167500
879.161707	2628.961731
879.472087	2634.002885
879.782425	2591.153077
880.092722	2661.729231
880.402977	2621.400000
880.713191	2709.620192
881.023363	2616.358846
881.333494	2646.605769
881.643583	2686.935000
881.953631	2691.976154
882.263637	2664.249808
882.573602	2654.167500
882.883526	2659.208654
883.193408	2608.797115
883.503248	2621.400000
883.813048	2586.111923
884.122806	2606.276538
884.432522	2608.797115
884.742197	2538.220962
885.051831	2631.482308
885.361424	2664.249808
885.670975	2573.509038
885.980485	2593.673654
886.289954	2679.373269
886.599382	2596.194231
886.908768	2631.482308
887.218113	2565.947308
887.527417	2631.482308
887.836680	2593.673654
888.145901	2694.496731
888.455082	2586.111923
888.764221	2543.262115
889.073319	2581.070769
889.382376	2591.153077
889.691392	2611.317692
890.000366	2492.850577
890.309300	2646.605769
890.618193	2545.782692
890.927044	2555.865000
891.235855	2560.906154
891.544625	2596.194231
891.853353	2563.426731
892.162041	2573.509038
892.470687	2613.838269
892.779293	2676.852692
893.087858	2593.673654
893.396381	2611.317692
893.704864	2626.441154
894.013306	2586.111923
894.321707	2623.920577
894.630068	2666.770385
894.938387	2611.317692
895.246665	2583.591346
895.554903	2649.126346
895.863100	2586.111923
896.171256	2623.920577
896.479371	2646.605769
896.787446	2586.111923
897.095480	2563.426731
897.403473	2644.085192
897.711425	2550.823846
898.019336	2613.838269
898.327207	2608.797115
898.635038	2671.811538
898.942827	2686.935000
899.250576	2691.976154
899.558284	2520.576923
899.865952	2618.879423
900.173579	2626.441154
900.481165	2618.879423
900.788711	2611.317692
901.096216	2656.688077
901.403681	2548.303269
901.711105	2603.755962
902.018489	2538.220962
902.325832	2586.111923
902.633135	2593.673654
902.940397	2639.044038
903.247619	2576.029615
903.554800	2608.797115
903.861941	2618.879423
904.169041	2570.988462
904.476101	2644.085192
904.783121	2709.620192
905.090100	2593.673654
905.397039	2588.632500
905.703938	2550.823846
906.010796	2621.400000
906.317614	2568.467885
906.624391	2626.441154
906.931129	2593.673654
907.237826	2621.400000
907.544483	2601.235385
907.851099	2649.126346
908.157675	2548.303269
908.464211	2626.441154
908.770707	2535.700385
909.077163	2616.358846
909.383578	2528.138654
909.689954	2528.138654
909.996289	2548.303269
910.302584	2583.591346
910.608839	2639.044038
910.915054	2644.085192
911.221229	2613.838269
911.527363	2497.891731
911.833458	2586.111923
912.139513	2603.755962
912.445527	2581.070769
912.751502	2616.358846
913.057436	2608.797115
913.363331	2543.262115
913.669186	2606.276538
913.975000	2621.400000
914.280775	2644.085192
914.586510	2613.838269
914.892205	2570.988462
915.197859	2623.920577
915.503475	2616.358846
915.809050	2656.688077
916.114585	2565.947308
916.420081	2586.111923
916.725536	2646.605769
917.030952	2664.249808
917.336328	2608.797115
917.641665	2654.167500
917.946961	2659.208654
918.252218	2598.714808
918.557435	2621.400000
918.862612	2628.961731
919.167750	2641.564615
919.472848	2669.290962
919.777906	2654.167500
920.082925	2666.770385
920.387904	2558.385577
920.692843	2631.482308
920.997743	2618.879423
921.302603	2570.988462
921.607423	2608.797115
921.912204	2538.220962
922.216946	2490.330000
922.521647	2613.838269
922.826310	2621.400000
923.130932	2568.467885
923.435516	2649.126346
923.740059	2691.976154
924.044564	2596.194231
924.349028	2631.482308
924.653454	2593.673654
924.957840	2588.632500
925.262186	2545.782692
925.566493	2548.303269
925.870761	2601.235385
926.174989	2601.235385
926.479178	2623.920577
926.783328	2573.509038
927.087438	2578.550192
927.391509	2576.029615
927.695541	2616.358846
927.999533	2631.482308
928.303486	2581.070769
928.607400	2618.879423
928.911275	2639.044038
929.215110	2664.249808
929.518906	2611.317692
929.822663	2570.988462
930.126381	2553.344423
930.430060	2588.632500
930.733699	2626.441154
931.037299	2500.412308
931.340861	2616.358846
931.644383	2626.441154
931.947866	2654.167500
932.251309	2583.591346
932.554714	2570.988462
932.858080	2623.920577
933.161407	2613.838269
933.464694	2676.852692
933.767943	2691.976154
934.071153	2631.482308
934.374323	2550.823846
934.677455	2601.235385
934.980548	2603.755962
935.283602	2545.782692
935.586617	2641.564615
935.889593	2606.276538
936.192530	2591.153077
936.495428	2601.235385
936.798287	2628.961731
937.101108	2641.564615
937.403890	2523.097500
937.706632	2676.852692
938.009336	2535.700385
938.312002	2568.467885
938.614628	2606.276538
938.917216	2591.153077
939.219765	2634.002885
939.522275	2608.797115
939.824747	2598.714808
940.127179	2623.920577
940.429573	2586.111923
940.731929	2535.700385
941.034246	2634.002885
941.336524	2558.385577
941.638763	2616.358846
941.940964	2573.509038
942.243126	2639.044038
942.545250	2550.823846
942.847335	2634.002885
943.149381	2669.290962
943.451389	2555.865000
943.753359	2477.727115
944.055290	2626.441154
944.357182	2505.453462
944.659036	2634.002885
944.960851	2523.097500
945.262628	2608.797115
945.564367	2583.591346
945.866067	2623.920577
946.167729	2636.523462
946.469352	2560.906154
946.770937	2598.714808
947.072484	2535.700385
947.373992	2596.194231
947.675462	2588.632500
947.976893	2535.700385
948.278286	2639.044038
948.579641	2578.550192
948.880958	2608.797115
949.182236	2593.673654
949.483476	2618.879423
949.784678	2588.632500
950.085841	2654.167500
950.386967	2563.426731
950.688054	2656.688077
950.989103	2628.961731
951.290114	2573.509038
951.591087	2681.893846
951.892021	2586.111923
952.192917	2588.632500
952.493776	2548.303269
952.794596	2656.688077
953.095378	2616.358846
953.396122	2583.591346
953.696828	2639.044038
953.997496	2543.262115
954.298126	2618.879423
954.598718	2588.632500
954.899272	2616.358846
955.199788	2618.879423
955.500266	2616.358846
955.800706	2573.509038
956.101108	2588.632500
956.401472	2578.550192
956.701798	2598.714808
957.002087	2623.920577
957.302337	2555.865000
957.602550	2563.426731
957.902724	2649.126346
958.202861	2603.755962
958.502960	2525.618077
958.803022	2502.932885
959.103045	2570.988462
959.403031	2518.056346
959.702979	2636.523462
960.002889	2623.920577
960.302762	2646.605769
960.602596	2591.153077
960.902393	2583.591346
961.202153	2628.961731
961.501875	2591.153077
961.801559	2598.714808
962.101205	2596.194231
962.400814	2581.070769
962.700385	2578.550192
962.999918	2616.358846
963.299414	2674.332115
963.598873	2664.249808
963.898293	2515.535769
964.197677	2613.838269
964.497022	2634.002885
964.796331	2581.070769
965.095601	2550.823846
965.394835	2644.085192
965.694030	2576.029615
965.993189	2666.770385
966.292309	2581.070769
966.591393	2646.605769
966.890439	2636.523462
967.189447	2593.673654
967.488419	2659.208654
967.787353	2676.852692
968.086249	2679.373269
968.385108	2523.097500
968.683930	2596.194231
968.982714	2628.961731
969.281462	2588.632500
969.580172	2649.126346
969.878844	2535.700385
970.177480	2593.673654
970.476078	2639.044038
970.774639	2628.961731
971.073162	2588.632500
971.371649	2593.673654
971.670098	2606.276538
971.968510	2558.385577
972.266885	2553.344423
972.565223	2482.768269
972.863524	2656.688077
973.161788	2679.373269
973.460014	2548.303269
973.758204	2616.358846
974.056356	2596.194231
974.354471	2598.714808
974.652550	2563.426731
974.950591	2492.850577
975.248595	2608.797115
975.546563	2608.797115
975.844493	2583.591346
976.142386	2646.605769
976.440243	2565.947308
976.738062	2654.167500
977.035845	2588.632500
977.333590	2616.358846
977.631299	2502.932885
977.928971	2593.673654
978.226606	2626.441154
978.524204	2578.550192
978.821765	2618.879423
979.119290	2591.153077
979.416777	2586.111923
979.714228	2613.838269
980.011642	2573.509038
980.309020	2598.714808
980.606360	2586.111923
980.903664	2578.550192
981.200931	2500.412308
981.498162	2601.235385
981.795356	2628.961731
982.092513	2513.015192
982.389633	2538.220962
982.686717	2545.782692
982.983764	2596.194231
983.280775	2588.632500
983.577749	2505.453462
983.874686	2679.373269
984.171587	2598.714808
984.468451	2613.838269
984.765279	2628.961731
985.062070	2543.262115
985.358824	2593.673654
985.655543	2634.002885
985.952224	2636.523462
986.248869	2583.591346
986.545478	2646.605769
986.842050	2525.618077
987.138586	2631.482308
987.435086	2634.002885
987.731549	2671.811538
988.027975	2613.838269
988.324366	2548.303269
988.620719	2586.111923
988.917037	2591.153077
989.213318	2596.194231
989.509563	2621.400000
989.805772	2568.467885
990.101944	2578.550192
990.398080	2606.276538
990.694180	2608.797115
990.990244	2671.811538
991.286271	2649.126346
991.582262	2593.673654
991.878217	2679.373269
992.174136	2472.685962
992.470019	2581.070769
992.765865	2568.467885
993.061676	2581.070769
993.357450	2608.797115
993.653188	2535.700385
993.948890	2570.988462
994.244556	2553.344423
994.540186	2616.358846
994.835780	2573.509038
995.131337	2714.661346
995.426859	2535.700385
995.722345	2626.441154
996.017795	2674.332115
996.313208	2621.400000
996.608586	2545.782692
996.903928	2634.002885
997.199234	2669.290962
997.494504	2601.235385
997.789738	2616.358846
998.084936	2593.673654
998.380099	2540.741538
998.675225	2543.262115
998.970316	2606.276538
999.265371	2588.632500
999.560390	2616.358846
999.855373	2520.576923
1000.150320	2565.947308
1000.445232	2628.961731
1000.740108	2583.591346
1001.034948	2639.044038
1001.329752	2596.194231
1001.624521	2588.632500
1001.919254	2618.879423
1002.213951	2581.070769
1002.508613	2578.550192
1002.803239	2573.509038
1003.097829	2598.714808
1003.392384	2558.385577
1003.686903	2641.564615
1003.981386	2603.755962
1004.275834	2641.564615
1004.570246	2644.085192
1004.864623	2538.220962
1005.158964	2611.317692
1005.453270	2540.741538
1005.747540	2581.070769
1006.041775	2530.659231
1006.335974	2583.591346
1006.630138	2616.358846
1006.924266	2545.782692
1007.218359	2646.605769
1007.512416	2586.111923
1007.806438	2576.029615
1008.100425	2593.673654
1008.394376	2598.714808
1008.688292	2623.920577
1008.982172	2558.385577
1009.276017	2593.673654
1009.569827	2641.564615
1009.863602	2639.044038
1010.157341	2606.276538
1010.451045	2502.932885
1010.744714	2560.906154
1011.038347	2586.111923
1011.331945	2623.920577
1011.625508	2568.467885
1011.919036	2596.194231
1012.212528	2631.482308
1012.505986	2598.714808
1012.799408	2414.712692
1013.092795	2603.755962
1013.386147	2502.932885
1013.679464	2581.070769
1013.972745	2518.056346
1014.265992	2639.044038
1014.559204	2560.906154
1014.852380	2515.535769
1015.145521	2570.988462
1015.438628	2523.097500
1015.731699	2523.097500
1016.024736	2616.358846
1016.317737	2497.891731
1016.610703	2500.412308
1016.903635	2636.523462
1017.196531	2621.400000
1017.489393	2608.797115
1017.782219	2548.303269
1018.075011	2661.729231
1018.367768	2639.044038
1018.660490	2626.441154
1018.953177	2626.441154
1019.245829	2626.441154
