Dividing Wavelength (nm)	Counts (n)	Blue Motor Position (mm): 0.000000	Red Motor Position (mm): 22.000000	
326.493990	2083.166086
326.888308	2083.166086
327.282561	2083.166086
327.676750	2058.293033
328.070874	2059.326470
328.464933	2066.048848
328.858929	2075.523697
329.252859	2088.388722
329.646726	2101.825917
330.040528	2119.558176
330.434265	2137.729015
330.827938	2156.512354
331.221547	2175.197391
331.615091	2197.290248
332.008571	2218.926880
332.401986	2237.044787
332.795338	2258.633528
333.188625	2277.517690
333.581847	2296.883283
333.975006	2315.555717
334.368100	2332.766216
334.761129	2350.203567
335.154095	2367.008253
335.546996	2387.079608
335.939833	2406.127607
336.332606	2418.856521
336.725315	2429.934456
337.117960	2436.606423
337.510540	2444.606735
337.903056	2454.890688
338.295508	2462.729683
338.687896	2466.908799
339.080220	2475.128401
339.472480	2478.780717
339.864676	2487.048209
340.256807	2487.375884
340.648875	2489.195740
341.040879	2493.810917
341.432818	2489.480566
341.824694	2491.446616
342.216506	2493.460557
342.608253	2490.912253
342.999937	2491.234887
343.391557	2491.020638
343.783113	2488.144660
344.174605	2488.424444
344.566033	2486.410503
344.957397	2485.344299
345.348697	2482.974957
345.739934	2481.719709
346.131106	2478.624441
346.522215	2474.977166
346.913260	2474.848617
347.304241	2474.984728
347.695159	2474.321816
348.086012	2474.001703
348.476802	2470.835858
348.867528	2470.727473
349.258191	2469.036166
349.648789	2467.591876
350.039324	2466.634056
350.429796	2466.261011
350.820203	2465.645990
351.210548	2463.813531
351.600828	2467.241515
351.991045	2463.616926
352.381198	2463.299333
352.771288	2462.858232
353.161314	2463.286730
353.551276	2468.050621
353.941175	2466.283696
354.331010	2466.593727
354.720782	2465.335959
355.110490	2465.484673
355.500135	2465.260342
355.889717	2467.760754
356.279235	2466.233285
356.668689	2466.354272
357.058080	2468.234623
357.447408	2465.068778
357.836672	2464.398305
358.225873	2466.518110
358.615010	2462.336473
359.004084	2471.317288
359.393095	2472.212093
359.782043	2472.456589
360.170927	2472.189408
360.559748	2473.031281
360.948505	2475.463637
361.337199	2473.888277
361.725830	2474.039511
362.114398	2474.573874
362.502903	2475.551858
362.891344	2481.145018
363.279722	2479.191571
363.668037	2482.291880
364.056289	2479.846921
364.444478	2478.851293
364.832603	2482.750625
365.220665	2483.312714
365.608665	2480.903042
365.996601	2483.474031
366.384474	2485.102323
366.772284	2483.708444
367.160031	2486.261789
367.547715	2485.598877
367.935336	2486.632314
368.322893	2490.090545
368.710388	2487.879999
369.097820	2491.154229
369.485189	2490.372850
369.872495	2494.362923
370.259738	2494.670433
370.646918	2497.848881
371.034035	2497.185969
371.421090	2499.406598
371.808081	2501.677637
372.195010	2506.476816
372.581875	2509.519152
372.968678	2514.459483
373.355418	2521.191944
373.742096	2531.468336
374.128710	2541.961498
374.515262	2550.760832
374.901751	2566.033007
375.288177	2582.015986
375.674540	2596.925198
376.060841	2612.832559
376.447079	2636.140334
376.833254	2658.344096
377.219367	2679.315296
377.605417	2713.224617
377.991404	2738.899214
378.377329	2776.486057
378.763191	2803.020170
379.148991	2847.909125
379.534727	2892.609036
379.920402	2939.292641
380.306013	2983.357367
380.691563	3043.384906
381.077049	3094.910540
381.462474	3150.784168
381.847835	3217.587018
382.233134	3283.157307
382.618371	3341.556553
383.003545	3417.945158
383.388657	3498.306191
383.773706	3581.989345
384.158693	3651.784120
384.543618	3741.829210
384.928480	3818.898370
385.313280	3915.829676
385.698017	4010.288296
386.082692	4124.001603
386.467305	4187.815049
386.851856	4306.529181
387.236344	4453.196511
387.620770	4509.715408
388.005133	4622.793530
388.389435	4763.537504
388.773674	4841.173794
389.157851	4969.463597
389.541965	5098.358339
389.926018	5123.193584
390.310008	5290.247340
390.693936	5409.581534
391.077802	5520.285272
391.461606	5649.951311
391.845348	5752.881590
392.229027	5866.894846
392.612645	6083.588844
392.996200	6201.047729
393.379694	6369.548296
393.763125	6577.742909
394.146494	6669.912845
394.529801	6801.129039
394.913047	7033.306941
395.296230	7032.225613
395.679351	7084.411638
396.062410	7331.957497
396.445408	7234.532158
396.828343	7384.314921
397.211217	7514.195209
397.594028	7402.722695
397.976778	7607.184333
398.359466	7764.947243
398.742092	7749.296980
399.124656	7887.875779
399.507158	8074.350580
399.889598	8099.276566
400.271977	8307.173750
400.654294	8335.220210
401.036549	8533.516517
401.418742	8563.677740
401.800874	8858.738995
402.182944	8939.261346
402.564952	9290.339903
402.946898	9134.159915
403.328783	9179.956277
403.710606	9378.124035
404.092367	9622.433474
404.474067	9980.594852
404.855705	9783.735273
405.237282	9740.633408
405.618797	10158.908025
406.000250	10398.965251
406.381642	10757.827349
406.762972	10706.024452
407.144240	10525.909066
407.525447	10773.601119
407.906593	10718.765968
408.287677	10971.978085
408.668700	11119.353697
409.049661	11113.269024
409.430560	11277.434199
409.811399	11246.743655
410.192176	11402.248127
410.572891	11481.255611
410.953545	11950.125768
411.334138	11447.540374
411.714669	12020.364165
412.095139	11370.360309
412.475547	11847.606343
412.855894	11718.174718
413.236180	12028.223324
413.616405	11727.710061
413.996568	12011.297650
414.376670	11981.953093
414.756711	11873.333872
415.136691	12140.313380
415.516609	12310.409472
415.896466	12394.947102
416.276262	12683.515351
416.655997	13136.473106
417.035670	13185.006815
417.415283	13790.083908
417.794834	13866.301113
418.174324	13625.356644
418.553753	13530.003219
418.933121	14012.323175
419.312428	13847.404348
419.691674	13749.825253
420.070859	14223.068612
420.449983	13867.586607
420.829045	14413.455348
421.208047	14178.666129
421.586988	14622.706083
421.965867	14863.542167
422.344686	14862.244070
422.723444	15424.118474
423.102141	14142.826045
423.480777	15313.167719
423.859352	14819.782431
424.237866	15900.540280
424.616319	15619.377486
424.994712	16248.500883
425.373044	16041.238884
425.751314	16725.943523
426.129524	15852.956829
426.507673	16908.120741
426.885762	16641.421017
427.263789	16810.856718
427.641756	16983.138151
428.019662	17023.827824
428.397508	17055.745890
428.775292	17321.981827
429.153016	17288.317002
429.530679	17346.282710
429.908282	17355.881067
430.285824	17082.703460
430.663305	17731.540289
431.040726	17345.360178
431.418086	17157.867064
431.795385	17741.809120
432.172624	18135.498029
432.549802	17667.293304
432.926920	17829.210125
433.303977	17662.766348
433.680974	17864.518366
434.057910	18108.235469
434.434786	18089.288293
434.811601	17956.549671
435.188355	18892.896107
435.565050	18513.531636
435.941683	18394.449500
436.318257	19156.419903
436.694770	18895.409122
437.071222	19351.192444
437.447614	18393.189211
437.823946	18327.528182
438.200218	18396.327329
438.576429	18078.439730
438.952580	18249.987674
439.328670	18110.960213
439.704700	18359.902472
440.080670	17864.694807
440.456580	18274.623793
440.832429	18291.315054
441.208218	17291.104760
441.583947	17539.709262
441.959616	17510.417638
442.335224	17575.057833
442.710773	17541.471145
443.086261	17843.285026
443.461689	17140.840567
443.837057	17111.153212
444.212365	17469.816185
444.587612	17309.908264
444.962800	16809.964434
445.337927	16983.458264
445.712995	15840.399315
446.088002	17074.594764
446.462949	17043.763067
446.837837	16982.276114
447.212664	16793.547917
447.587431	18670.969391
447.962139	20517.970022
448.336786	21882.305379
448.711374	20484.786627
449.085901	17727.794712
449.460369	17462.927448
449.834776	17194.891818
450.209124	18589.247246
450.583412	18008.473555
450.957640	18061.463644
451.331808	16980.990620
451.705917	15896.882923
452.079965	15668.995043
452.453954	15635.239477
452.827883	15340.526061
453.201752	14991.484131
453.575562	14839.878991
453.949311	15171.203786
454.323001	14962.663854
454.696632	14588.441360
455.070202	15126.960099
455.443713	14952.871413
455.817164	14959.424913
456.190556	14941.753148
456.563888	14413.006686
456.937160	14333.190097
457.310373	13331.837982
457.683526	13240.812388
458.056619	12979.506699
458.429653	12705.220038
458.802628	12686.998788
459.175542	12489.441010
459.548398	12752.059919
459.921194	13094.389554
460.293930	13114.937297
460.666607	13573.326895
461.039224	13917.400769
461.411782	13737.164395
461.784280	13006.955781
462.156719	12503.336950
462.529099	12035.437215
462.901419	11359.075686
463.273680	10788.091916
463.645882	10564.138656
464.018024	10313.933588
464.390106	10313.237909
464.762130	10812.576800
465.134094	11679.327587
465.505999	12830.575891
465.877845	13694.894320
466.249631	13572.916041
466.621358	12713.535422
466.993026	11826.937612
467.364634	11035.897395
467.736184	10345.191263
468.107674	9832.049692
468.479105	9432.850801
468.850477	9053.330054
469.221790	8578.907066
469.593043	8065.944456
469.964238	7705.920372
470.335373	7500.521079
470.706449	7573.007830
471.077467	7764.201152
471.448425	8214.461890
471.819324	8408.642095
472.190164	7952.037065
472.560945	7298.902652
472.931667	6743.143167
473.302330	6438.619666
473.672934	6185.226067
474.043479	6088.859371
474.413965	5868.669332
474.784393	5697.441501
475.154761	5651.020036
475.525070	5525.802815
475.895321	5366.772055
476.265513	5291.525273
476.635645	5257.293317
477.005719	5131.531652
477.375734	5055.382503
477.745691	4999.990304
478.115588	4984.148478
478.485427	5017.483108
478.855207	5130.289008
479.224928	5193.558009
479.594591	5175.291388
479.964194	5001.326210
480.333739	4894.932658
480.703226	4801.144512
481.072653	4745.820369
481.442022	4691.910269
481.811333	4610.815748
482.180584	4477.046210
482.549777	4379.323443
482.918912	4284.343063
483.287988	4208.057803
483.657005	4120.334164
484.025964	4035.262172
484.394864	3980.726970
484.763706	3916.928647
485.132489	3842.180939
485.501213	3796.850883
485.869879	3757.376128
486.238487	3710.763099
486.607036	3680.788398
486.975527	3637.071512
487.343959	3610.625619
487.712333	3587.537135
488.080648	3557.078483
488.448905	3545.763613
488.817104	3520.346116
489.185244	3518.982483
489.553326	3535.068805
489.921350	3577.691761
490.289315	3626.011221
490.657222	3618.867906
491.025070	3605.924743
491.392861	3567.682550
491.760593	3524.033720
492.128267	3474.809373
492.495883	3428.851694
492.863440	3383.844272
493.230939	3349.428315
493.598380	3317.941268
493.965763	3297.680871
494.333088	3274.456275
494.700354	3255.244438
495.067563	3241.892942
495.434713	3225.723441
495.801805	3218.801937
496.168839	3208.407077
496.535815	3193.013914
496.902733	3184.075948
497.269593	3172.009947
497.636395	3159.651558
498.003139	3156.894047
498.369825	3141.631953
498.736453	3138.481232
499.103023	3124.847432
499.469535	3112.506687
499.835989	3108.446038
500.202385	3094.890375
500.568723	3086.927872
500.935003	3083.159610
501.301226	3072.111921
501.667390	3073.495718
502.033497	3070.561767
502.399546	3055.629869
502.765537	3037.219575
503.131470	3037.312836
503.497345	3036.392826
503.863163	3015.930782
504.228923	3015.252747
504.594625	3009.576408
504.960269	2997.089470
505.325856	2998.437978
505.691385	2988.360712
506.056856	2984.453818
506.422270	2983.380052
506.787625	2974.489977
507.152924	2968.896817
507.518164	2966.348514
507.883347	2953.692697
508.248472	2951.230093
508.613540	2954.539611
508.978550	2952.447532
509.343503	2946.652726
509.708398	2947.071141
510.073236	2946.846810
510.438016	2943.300358
510.802738	2932.081270
511.167403	2938.506221
511.532010	2937.107301
511.896561	2937.419852
512.261053	2944.492591
512.625488	2933.369285
512.989866	2926.518357
513.354186	2923.448294
513.718449	2919.334713
514.082655	2927.254366
514.446803	2920.022830
514.810894	2925.182451
515.174927	2921.630958
515.538904	2921.063829
515.902822	2924.869900
516.266684	2916.904877
516.630488	2918.150042
516.994235	2916.488982
517.357925	2916.897315
517.721558	2921.446956
518.085133	2918.152562
518.448651	2920.002666
518.812112	2914.409506
519.175516	2917.625762
519.538863	2919.173396
519.902152	2918.233221
520.265385	2916.173909
520.628560	2918.946544
520.991678	2913.013106
521.354739	2914.021337
521.717743	2916.751122
522.080690	2913.771800
522.443580	2918.976791
522.806413	2916.635175
523.169189	2915.478230
523.531908	2915.523601
523.894569	2911.800708
524.257174	2911.465472
524.619722	2912.904721
524.982213	2912.972777
525.344647	2910.361459
525.707025	2908.095460
526.069345	2911.281470
526.431608	2911.054618
526.793815	2912.471182
527.155964	2906.726787
527.518057	2906.545306
527.880093	2905.819379
528.242072	2906.774678
528.603995	2899.903585
528.965860	2898.297978
529.327669	2899.006260
529.689421	2898.565159
530.051117	2897.219171
530.412755	2895.946280
530.774337	2898.794532
531.135862	2893.619787
531.497331	2890.441340
531.858743	2885.858931
532.220098	2892.876217
532.581396	2886.809188
532.942638	2884.112171
533.303824	2886.433622
533.664953	2885.082593
534.026025	2883.013199
534.387040	2886.158879
534.747999	2886.473952
535.108902	2884.928838
535.469748	2875.592621
535.830537	2879.171840
536.191270	2877.392313
536.551947	2874.690254
536.912567	2876.517673
537.273131	2875.423742
537.633638	2870.052393
537.994089	2870.387630
538.354483	2869.313864
538.714821	2871.045500
539.075103	2871.753782
539.435328	2866.919316
539.795497	2869.248329
540.155609	2865.722042
540.515665	2868.948380
540.875665	2863.846732
541.235609	2864.428986
541.595496	2863.045189
541.955328	2867.514172
542.315102	2862.586444
542.674821	2857.537728
543.034483	2858.288860
543.394090	2855.465814
543.753640	2856.456401
544.113134	2862.115096
544.472571	2854.104703
544.831953	2859.884386
545.191278	2853.315762
545.550548	2851.810978
545.909761	2851.432891
546.268918	2852.093282
546.628019	2856.771473
546.987064	2853.711493
547.346053	2845.272601
547.704986	2850.704444
548.063863	2845.819566
548.422684	2844.861747
548.781449	2842.603310
549.140158	2846.888291
549.498811	2846.996676
549.857408	2839.815552
550.215949	2841.615244
550.574434	2836.916889
550.932864	2838.628360
551.291237	2839.785305
551.649555	2841.166581
552.007817	2841.648012
552.366022	2837.489060
552.724173	2839.732373
553.082267	2840.985100
553.440305	2842.943588
553.798288	2835.969152
554.156215	2836.377485
554.514086	2838.038545
554.871902	2838.492249
555.229661	2838.154492
555.587365	2833.035200
555.945014	2833.534274
556.302606	2834.134172
556.660143	2831.016218
557.017625	2831.863132
557.375050	2831.638801
557.732421	2835.618792
558.089735	2832.493276
558.446994	2828.977071
558.804197	2832.107628
559.161345	2832.911692
559.518437	2827.754592
559.875474	2828.258707
560.232455	2830.867504
560.589381	2828.099911
560.946251	2828.402380
561.303065	2829.559325
561.659825	2828.795590
562.016528	2826.091011
562.373177	2825.496155
562.729770	2828.422544
563.086307	2821.022131
563.442789	2827.026145
563.799216	2824.334169
564.155587	2822.942810
564.511904	2823.411637
564.868164	2824.374498
565.224370	2826.206957
565.580520	2821.075063
565.936615	2822.027841
566.292654	2821.019610
566.648638	2820.346616
567.004567	2822.254693
567.360441	2820.200422
567.716260	2817.810916
568.072023	2818.834270
568.427732	2816.585915
568.783385	2813.808239
569.138982	2813.445276
569.494525	2812.656336
569.850013	2807.385809
570.205445	2813.967036
570.560823	2812.343784
570.916145	2812.144659
571.271412	2810.874288
571.626625	2811.365800
571.981782	2808.845223
572.336884	2804.756848
572.691931	2809.203145
573.046923	2805.450006
573.401860	2803.604944
573.756743	2802.919347
574.111570	2800.451702
574.466342	2800.035807
574.821059	2801.228040
575.175722	2798.563790
575.530330	2793.933490
575.884882	2794.268727
576.239380	2791.261679
576.593823	2794.724952
576.948211	2791.972482
577.302544	2789.076339
577.656823	2788.337810
578.011047	2788.007614
578.365216	2784.834208
578.719330	2783.145421
579.073389	2782.583332
579.427394	2778.250461
579.781344	2782.684156
580.135239	2780.168620
580.489080	2777.761469
580.842866	2777.375821
581.196597	2775.656787
581.550273	2777.824483
581.903895	2775.606376
582.257463	2777.237189
582.610975	2772.435490
582.964434	2772.899276
583.317837	2770.338370
583.671186	2770.398864
584.024481	2770.156888
584.377721	2766.791918
584.730906	2765.161105
585.084037	2767.409459
585.437113	2764.835950
585.790135	2764.611619
586.143103	2760.190527
586.496016	2759.527615
586.848874	2757.990063
587.201679	2760.712287
587.554428	2753.601739
587.907124	2756.649117
588.259765	2752.601070
588.612352	2757.299425
588.964884	2753.528642
589.317362	2754.509147
589.669786	2752.802716
590.022155	2751.111409
590.374470	2753.871441
590.726731	2750.302304
591.078937	2747.149062
591.431090	2746.183681
591.783188	2743.627816
592.135232	2742.430542
592.487222	2742.357445
592.839157	2738.889132
593.191038	2738.919378
593.542866	2738.843761
593.894639	2734.447875
594.246358	2736.751682
594.598022	2735.115828
594.949633	2730.740106
595.301190	2732.973337
595.652692	2730.717421
596.004141	2734.281517
596.355535	2724.998232
596.706876	2726.997050
597.058162	2722.114692
597.409395	2723.533777
597.760573	2725.981257
598.111698	2722.346585
598.462768	2722.560834
598.813785	2721.139229
599.164748	2718.270812
599.515657	2717.882643
599.866511	2715.044474
600.217312	2717.544886
600.568060	2713.643033
600.918753	2717.542366
601.269392	2714.253013
601.619978	2713.910214
601.970510	2714.721840
602.320988	2714.421891
602.671412	2716.135884
603.021783	2711.261088
603.372100	2710.146993
603.722363	2710.015923
604.072572	2712.866695
604.422728	2708.732949
604.772830	2706.441745
605.122878	2704.742876
605.472872	2706.109029
605.822813	2702.098791
606.172701	2704.931919
606.522534	2708.680017
606.872314	2706.734132
607.222041	2705.153730
607.571714	2704.074923
607.921333	2700.420087
608.270899	2702.950746
608.620411	2704.682382
608.969870	2703.056610
609.319276	2702.103832
609.668627	2703.870756
610.017926	2700.765406
610.367171	2705.549461
610.716362	2701.970241
611.065500	2704.654656
611.414585	2701.261959
611.763616	2702.983513
612.112594	2698.456557
612.461518	2700.767926
612.810389	2701.561908
613.159207	2701.768595
613.507971	2698.759026
613.856682	2700.190714
614.205340	2700.016794
614.553945	2704.142979
614.902496	2699.598378
615.250994	2700.301619
615.599439	2700.962011
615.947830	2701.811445
616.296169	2700.604089
616.644454	2701.236753
616.992686	2699.749613
617.340864	2698.811958
617.688990	2699.540405
618.037063	2699.605940
618.385082	2699.628625
618.733048	2699.923533
619.080961	2701.224151
619.428821	2700.203317
619.776628	2699.016125
620.124382	2700.273893
620.472083	2697.264324
620.819731	2698.312884
621.167326	2695.794828
621.514868	2693.165866
621.862357	2693.133099
622.209793	2692.702080
622.557176	2688.974147
622.904506	2684.976512
623.251783	2683.880061
623.599007	2680.668846
623.946179	2678.254133
624.293297	2680.484844
624.640363	2676.867816
624.987376	2678.009637
625.334336	2677.011489
625.681243	2676.194822
626.028097	2674.251457
626.374899	2674.932013
626.721647	2672.608041
627.068343	2672.411436
627.414987	2671.549398
627.761577	2670.750376
628.108115	2669.447237
628.454600	2668.375992
628.801032	2666.621671
629.147412	2664.461536
629.493739	2662.694612
629.840014	2665.442041
630.186236	2663.818789
630.532405	2664.824499
630.878521	2661.275527
631.224585	2661.257883
631.570597	2658.051709
631.916556	2661.943480
632.262462	2660.635300
632.608316	2660.915084
632.954117	2660.232008
633.299866	2658.515495
633.645562	2659.281751
633.991206	2655.193375
634.336797	2654.538025
634.682336	2651.964516
635.027823	2652.135915
635.373257	2649.673311
635.718639	2645.350522
636.063968	2646.109216
636.409245	2643.450007
636.754470	2644.034781
637.099642	2639.996817
637.444762	2641.912455
637.789829	2642.454379
638.134845	2640.543782
638.479808	2639.797691
638.824719	2641.126035
639.169577	2637.272073
639.514383	2635.835344
639.859137	2636.309212
640.203839	2636.130252
640.548489	2633.355096
640.893086	2632.845940
641.237632	2627.671195
641.582125	2631.867956
641.926566	2628.109776
642.270955	2633.597072
642.615292	2631.752009
642.959576	2630.484159
643.303809	2633.342493
643.647990	2630.723614
643.992118	2630.693367
644.336195	2629.390229
644.680219	2630.239663
645.024192	2630.554735
645.368112	2628.339148
645.711981	2632.387195
646.055797	2633.778553
646.399562	2632.472894
646.743274	2638.413894
647.086935	2638.005561
647.430544	2637.408184
647.774101	2633.350055
648.117606	2635.111938
648.461059	2636.483132
648.804460	2636.941877
649.147810	2634.073461
649.491108	2631.031124
649.834354	2630.244704
650.177548	2628.603809
650.520690	2627.661113
650.863781	2629.095321
651.206820	2628.099693
651.549807	2623.101389
651.892742	2625.044754
652.235626	2621.914198
652.578458	2621.745319
652.921238	2618.584516
653.263967	2622.327572
653.606644	2617.969495
653.949269	2615.597632
654.291843	2615.408589
654.634365	2619.194495
654.976836	2616.076542
655.319255	2616.946141
655.661622	2616.560492
656.003938	2615.781634
656.346203	2613.296345
656.688416	2615.043105
657.030577	2614.375152
657.372687	2614.380193
657.714746	2612.280553
658.056753	2613.865996
658.398708	2605.732094
658.740612	2604.970880
659.082465	2608.774430
659.424266	2606.475664
659.766016	2607.728391
660.107715	2612.194853
660.449362	2611.209307
660.790958	2608.938268
661.132503	2611.267281
661.473996	2609.424739
661.815438	2610.775768
662.156829	2610.173350
662.498168	2610.279215
662.839456	2609.679317
663.180693	2610.695110
663.521879	2611.758793
663.863013	2613.480347
664.204097	2608.540017
664.545129	2610.929523
664.886110	2611.821808
665.227040	2610.243927
665.567918	2614.448249
665.908746	2613.482868
666.249522	2613.344236
666.590248	2610.405243
666.930922	2612.126798
667.271545	2612.492281
667.612118	2611.254678
667.952639	2610.702672
668.293109	2610.450614
668.633528	2609.553288
668.973896	2607.138576
669.314213	2610.483381
669.654480	2607.587238
669.994695	2607.231837
670.334859	2607.156220
670.674973	2605.679162
671.015035	2607.967846
671.355047	2608.363576
671.695008	2607.448607
672.034918	2607.695623
672.374777	2606.079933
672.714585	2606.150510
673.054342	2607.703185
673.394049	2607.292331
673.733705	2607.783843
674.073310	2603.261928
674.412864	2603.498863
674.752368	2608.267794
675.091820	2605.623709
675.431223	2604.207145
675.770574	2603.735797
676.109875	2600.033069
676.449125	2598.296392
676.788324	2600.416197
677.127473	2597.837647
677.466571	2596.499221
677.805619	2598.563573
678.144616	2598.636670
678.483562	2598.185487
678.822458	2596.005187
679.161303	2600.353183
679.500098	2594.722214
679.838842	2598.165322
680.177535	2595.576689
680.516179	2598.550970
680.854771	2599.135744
681.193314	2600.469129
681.531805	2601.663883
681.870247	2604.736466
682.208638	2605.706888
682.546978	2609.444904
682.885268	2603.849223
683.223508	2605.595983
683.561697	2604.925509
683.899836	2603.067844
684.237925	2604.922989
684.575963	2602.881321
684.913951	2601.263111
685.251889	2603.632453
685.589776	2600.340580
685.927614	2600.748913
686.265401	2602.311671
686.603137	2601.580704
686.940824	2605.338884
687.278460	2603.950046
687.616046	2604.958277
687.953582	2608.350973
688.291068	2605.164964
688.628504	2606.500870
688.965889	2604.907865
689.303224	2605.283431
689.640510	2607.012547
689.977745	2601.676486
690.314930	2600.827051
690.652065	2598.810590
690.989150	2596.524426
691.326185	2595.816144
691.663170	2592.330186
692.000105	2589.567634
692.336990	2585.849783
692.673825	2587.024372
693.010610	2586.056470
693.347345	2581.045563
693.684030	2579.412230
694.020665	2579.140007
694.357251	2574.907959
694.693786	2577.204204
695.030272	2578.015830
695.366707	2577.020202
695.703093	2576.261508
696.039429	2575.364183
696.375716	2574.779409
696.711952	2573.340160
697.048139	2576.445511
697.384276	2573.408215
697.720363	2574.043401
698.056400	2575.001220
698.392388	2572.934347
698.728326	2574.930644
699.064214	2572.750345
699.400053	2573.060376
699.735842	2571.623647
700.071581	2573.935016
700.407270	2566.837071
700.742910	2567.948646
701.078501	2566.007802
701.414042	2567.988975
701.749533	2567.058882
702.084974	2564.923953
702.420366	2566.174160
702.755709	2567.016032
703.091002	2569.057700
703.426246	2565.206258
703.761440	2561.508572
704.096584	2563.328428
704.431679	2560.066802
704.766725	2564.555949
705.101721	2563.313305
705.436668	2563.031000
705.771565	2563.300702
706.106413	2560.704508
706.441212	2563.172152
706.775961	2564.379509
707.110661	2562.645352
707.445311	2563.930846
707.779913	2563.993861
708.114465	2564.808007
708.448967	2564.659293
708.783421	2569.902093
709.117825	2569.493759
709.452180	2571.643812
709.786485	2569.884449
710.120742	2574.499625
710.454949	2574.300500
710.789107	2573.680438
711.123216	2570.381003
711.457275	2573.531724
711.791286	2574.429049
712.125247	2578.603124
712.459159	2576.014492
712.793023	2577.708320
713.126837	2576.569019
713.460602	2575.457444
713.794318	2576.347208
714.127985	2573.630026
714.461602	2569.279510
714.795171	2573.435942
715.128691	2571.071641
715.462162	2570.504511
715.795584	2566.282544
716.128957	2568.785477
716.462281	2565.627194
716.795556	2565.233984
717.128782	2561.690053
717.461960	2561.178376
717.795088	2560.260886
718.128167	2563.270455
718.461198	2557.533622
718.794180	2559.068653
719.127113	2556.109496
719.459997	2554.634958
719.792833	2555.933056
720.125619	2556.351471
720.458357	2555.071018
720.791046	2555.166800
721.123686	2555.018086
721.456278	2554.816440
721.788821	2550.685214
722.121315	2555.186965
722.453761	2554.607232
722.786158	2552.452139
723.118506	2554.786193
723.450805	2552.862993
723.783056	2551.315359
724.115259	2553.662016
724.447412	2552.111861
724.779518	2553.150339
725.111574	2553.951882
725.443582	2554.950031
725.775542	2552.467262
726.107453	2555.686039
726.439315	2555.186965
726.771129	2562.791545
727.102895	2558.647717
727.434612	2558.945145
727.766281	2557.566389
728.097901	2556.464897
728.429473	2556.537994
728.760996	2557.853735
729.092471	2554.171172
729.423897	2559.305587
729.755276	2557.702501
730.086606	2560.954045
730.417887	2560.323901
730.749120	2563.023438
731.080305	2562.718449
731.411442	2564.490414
731.742530	2564.026628
732.073570	2565.186093
732.404562	2565.143244
732.735506	2564.046793
733.066401	2565.269273
733.397249	2565.155847
733.728048	2560.437327
734.058798	2560.941442
734.389501	2558.902295
734.720156	2558.332645
735.050762	2555.373487
735.381320	2553.309135
735.711831	2551.320400
736.042293	2552.668908
736.372707	2549.442570
736.703073	2550.445760
737.033391	2549.145142
737.363661	2551.774104
737.693883	2553.490617
738.024056	2555.842315
738.354182	2549.563558
738.684260	2555.917932
739.014290	2553.682180
739.344272	2559.678633
739.674207	2554.793755
740.004093	2557.941955
740.333931	2557.405073
740.663722	2556.074208
740.993464	2556.071687
741.323159	2556.180072
741.652806	2555.771739
741.982405	2553.785524
742.311956	2552.792417
742.641460	2554.813919
742.970915	2552.391645
743.300323	2552.938610
743.629683	2550.133208
743.958996	2550.130688
744.288260	2548.469627
744.617477	2547.907539
744.946647	2544.214893
745.275768	2547.252189
745.604842	2541.550644
745.933869	2543.042825
746.262847	2541.384286
746.591778	2547.620193
746.920662	2542.959646
747.249498	2547.642878
747.578286	2542.546272
747.907027	2544.698844
748.235720	2544.582898
748.564365	2548.152035
748.892963	2547.138763
749.221514	2545.376879
749.550017	2547.879812
749.878473	2544.396375
750.206881	2542.856302
750.535242	2545.944009
750.863555	2545.830583
751.191821	2545.482744
751.520039	2544.116591
751.848210	2546.198587
752.176334	2545.548279
752.504411	2543.093237
752.832440	2544.164482
753.160421	2545.462579
753.488356	2544.310675
753.816243	2543.897301
754.144082	2545.598690
754.471875	2543.294883
754.799620	2541.429656
755.127318	2540.630633
755.454969	2540.635674
755.782572	2543.771272
756.110129	2542.274049
756.437638	2542.931920
756.765100	2539.939995
757.092515	2543.534338
757.419882	2541.079296
757.747203	2543.937630
758.074477	2542.427804
758.401703	2542.420243
758.728882	2543.244471
759.056014	2543.136087
759.383099	2544.466951
759.710138	2545.898639
760.037129	2544.620706
760.364073	2543.988042
760.690970	2546.521221
761.017820	2547.426108
761.344623	2545.192877
761.671379	2549.848383
761.998088	2546.617003
762.324751	2551.965668
762.651366	2562.647872
762.977935	2579.797878
763.304456	2584.690318
763.630931	2591.069898
763.957359	2584.881882
764.283740	2582.381469
764.610074	2574.116498
764.936362	2567.555436
765.262602	2560.399518
765.588796	2554.478683
765.914943	2551.143959
766.241044	2547.176571
766.567097	2542.722712
766.893104	2541.979142
767.219064	2541.878319
767.544978	2541.593493
767.870845	2538.909079
768.196665	2537.527803
768.522438	2535.478574
768.848165	2536.184335
769.173846	2534.271218
769.499479	2534.593851
769.825066	2531.627132
770.150607	2531.637215
770.476101	2533.933460
770.801548	2533.073943
771.126949	2530.334076
771.452303	2530.024045
771.777611	2530.618902
772.102872	2532.705939
772.428087	2530.505476
772.753256	2530.596216
773.078378	2529.779549
773.403453	2527.468180
773.728482	2526.585978
774.053465	2526.384332
774.378401	2528.189065
774.703291	2528.662934
775.028135	2526.762419
775.352932	2526.959024
775.677683	2525.366019
776.002388	2524.561955
776.327046	2527.614374
776.651658	2528.216792
776.976224	2526.777542
777.300743	2525.474404
777.625216	2526.389373
777.949643	2527.039682
778.274024	2527.148067
778.598359	2521.759074
778.922647	2521.817047
779.246889	2520.090452
779.571086	2522.051461
779.895236	2523.468025
780.219339	2527.964734
780.543397	2525.474404
780.867409	2524.975330
781.191374	2527.027079
781.515294	2527.422810
781.839167	2525.673530
782.162995	2525.416431
782.486776	2526.691843
782.810511	2524.433406
783.134201	2526.764939
783.457844	2523.798220
783.781441	2526.139836
784.104993	2524.788807
784.428498	2522.757222
784.751958	2521.496934
785.075372	2523.682274
785.398739	2525.345855
785.722061	2521.169259
786.045337	2522.371574
786.368568	2523.339475
786.691752	2527.352234
787.014891	2527.445495
787.337983	2528.496576
787.661030	2529.938346
787.984031	2530.054292
788.306987	2532.393388
788.629897	2532.632843
788.952760	2531.327184
789.275579	2530.268541
789.598351	2532.015301
789.921078	2527.846267
790.243759	2527.057326
790.566395	2527.397604
790.888984	2526.437264
791.211529	2526.505320
791.534027	2523.982223
791.856480	2523.737727
792.178888	2523.362161
792.501249	2523.357119
792.823566	2526.167563
793.145836	2523.662109
793.468062	2524.478776
793.790241	2522.535411
794.112375	2523.447860
794.434464	2523.163035
794.756507	2522.008611
795.078505	2523.750329
795.400457	2524.423323
795.722364	2520.801254
796.044226	2525.086235
796.366042	2524.456091
796.687812	2526.079342
797.009538	2526.538088
797.331218	2528.925074
797.652852	2525.950793
797.974442	2528.030269
798.295986	2524.904754
798.617484	2528.494055
798.938938	2527.828623
799.260346	2526.220495
799.581709	2526.107069
799.903026	2526.621267
800.224299	2524.032634
800.545526	2525.948272
800.866708	2520.453415
801.187845	2524.254445
801.508936	2521.323014
801.829983	2521.764115
802.150984	2523.702438
802.471940	2523.047088
802.792851	2521.804444
803.113717	2519.745133
803.434538	2522.212777
803.755314	2520.894516
804.076045	2520.239166
804.396731	2520.755884
804.717372	2522.147243
805.037967	2519.861079
805.358518	2523.150432
805.679024	2519.707324
805.999485	2523.198323
806.319901	2521.766635
806.640272	2522.091790
806.960598	2525.182017
807.280879	2521.655730
807.601115	2522.086749
807.921306	2521.764115
808.241453	2523.309228
808.561554	2522.454753
808.881611	2522.084228
809.201623	2523.215967
809.521590	2523.989784
809.841513	2519.876203
810.161390	2521.111285
810.481223	2520.594567
810.801011	2522.565658
811.120755	2521.035668
811.440453	2522.447191
811.760107	2519.868641
812.079716	2519.745133
812.399281	2518.182375
812.718801	2515.480317
813.038276	2517.542148
813.357707	2521.622962
813.677093	2519.009124
813.996434	2521.340658
814.315731	2519.966943
814.634983	2518.081552
814.954191	2519.573733
815.273354	2522.139681
815.592473	2522.593385
815.911547	2522.847963
816.230577	2524.410721
816.549562	2524.713190
816.868502	2524.161183
817.187399	2523.034486
817.506250	2524.516585
817.825058	2523.130268
818.143821	2523.924249
818.462539	2527.571524
818.781213	2529.051103
819.099843	2531.410363
819.418429	2537.268183
819.736970	2540.028215
820.055466	2545.223124
820.373919	2550.216387
820.692327	2559.439178
821.010691	2579.470203
821.329011	2619.411265
821.647286	2680.719257
821.965517	2739.320150
822.283704	2776.148300
822.601847	2785.630710
822.919945	2759.474683
823.237999	2727.115517
823.556010	2698.002853
823.873976	2667.488749
824.191897	2643.409678
824.509775	2624.918725
824.827609	2607.272166
825.145398	2595.117944
825.463144	2592.362954
825.780845	2593.797162
826.098502	2598.795466
826.416116	2615.620317
826.733685	2629.024745
827.051210	2628.019035
827.368692	2621.457973
827.686129	2607.473812
828.003522	2594.180290
828.320872	2572.349573
828.638177	2565.886814
828.955439	2552.910884
829.272656	2546.783361
829.589830	2538.992258
829.906960	2537.883204
830.224046	2534.987061
830.541088	2532.920188
830.858086	2532.418593
831.175041	2528.040351
831.491952	2529.245187
831.808819	2528.410876
832.125642	2532.698377
832.442421	2536.224665
832.759157	2544.834955
833.075849	2556.477500
833.392497	2569.090467
833.709101	2577.476427
834.025662	2573.806467
834.342179	2564.651731
834.658653	2558.194013
834.975083	2553.130174
835.291469	2545.825542
835.607811	2541.288504
835.924110	2535.279448
836.240366	2532.285003
836.556578	2527.866432
836.872746	2525.492048
837.188871	2522.800072
837.504952	2520.387880
837.820990	2519.493075
838.136984	2519.054495
838.452935	2519.109947
838.768842	2518.741943
839.084706	2519.679598
839.400526	2526.417100
839.716303	2532.206865
840.032037	2537.248019
840.347727	2540.184491
840.663373	2533.310878
840.978977	2527.939528
841.294537	2527.758047
841.610054	2520.783610
841.925527	2519.319155
842.240957	2517.010307
842.556344	2517.534587
842.871687	2516.594412
843.186987	2516.125584
843.502244	2512.009482
843.817458	2512.634585
844.132629	2512.392610
844.447756	2513.113495
844.762840	2508.765500
845.077881	2510.348422
845.392879	2507.522855
845.707833	2509.209121
846.022745	2506.996055
846.337613	2510.431601
846.652438	2511.638957
846.967221	2510.071158
847.281960	2507.323730
847.596656	2512.964781
847.911309	2509.811539
848.225919	2511.724657
848.540485	2509.204080
848.855009	2509.365397
849.169490	2511.124760
849.483928	2512.049811
849.798323	2508.339522
850.112675	2511.414626
850.426984	2509.385562
850.741251	2509.297341
851.055474	2508.470592
851.369654	2510.721467
851.683792	2508.047135
851.997887	2508.848679
852.311938	2511.275994
852.625947	2509.592249
852.939914	2508.301713
853.253837	2511.200377
853.567718	2505.513955
853.881555	2511.558299
854.195350	2508.974707
854.509103	2510.655932
854.822812	2507.502691
855.136479	2508.906652
855.450103	2507.767351
855.763685	2512.437980
856.077224	2508.936899
856.390720	2509.317506
856.704173	2510.174502
857.017584	2509.055366
857.330953	2506.993534
857.644278	2508.735253
857.957561	2511.906138
858.270802	2510.877743
858.584000	2509.763648
858.897155	2511.281035
859.210268	2511.946468
859.523339	2508.495798
859.836367	2511.812877
860.149352	2509.496467
860.462295	2511.064266
860.775195	2507.091837
861.088054	2505.455982
861.400869	2505.745848
861.713642	2505.556805
862.026373	2508.692403
862.339062	2510.529903
862.651708	2510.812208
862.964312	2510.731550
863.276873	2510.381189
863.589392	2509.592249
863.901869	2508.757938
864.214303	2511.235665
864.526696	2508.324399
864.839045	2512.533762
865.151353	2513.179030
865.463619	2509.743483
865.775842	2512.445542
866.088023	2510.842455
866.400162	2512.710202
866.712258	2508.455469
867.024313	2514.280522
867.336325	2510.597959
867.648296	2512.604338
867.960224	2510.804646
868.272110	2512.001920
868.583954	2512.624503
868.895755	2512.304390
869.207515	2511.250788
869.519233	2511.555778
869.830909	2511.641478
870.142542	2512.569050
870.454134	2510.792043
870.765684	2514.439318
871.077191	2512.100223
871.388657	2512.443021
871.700081	2512.521159
872.011463	2511.051663
872.322803	2512.453104
872.634101	2511.893536
872.945357	2513.254647
873.256571	2513.526869
873.567744	2513.279853
873.878874	2515.883609
874.189963	2513.841942
874.501010	2515.384535
874.812015	2514.993845
875.122979	2514.525018
875.433900	2513.786489
875.744780	2516.077693
876.055618	2517.784124
876.366415	2515.066942
876.677169	2518.447036
876.987882	2512.296828
877.298554	2512.690038
877.609183	2514.673732
877.919771	2515.258506
878.230317	2513.098371
878.540822	2518.618435
878.851285	2520.153466
879.161707	2526.288550
879.472087	2530.233253
879.782425	2538.276414
880.092722	2552.497509
880.402977	2573.619944
880.713191	2599.060127
881.023363	2622.834208
881.333494	2636.460447
881.643583	2644.233906
881.953631	2641.284831
882.263637	2632.228398
882.573602	2623.809672
882.883526	2610.317023
883.193408	2602.304109
883.503248	2594.192893
883.813048	2581.189236
884.122806	2573.214131
884.432522	2563.807338
884.742197	2555.973385
885.051831	2549.765204
885.361424	2543.743546
885.670975	2538.992258
885.980485	2535.264325
886.289954	2530.155115
886.599382	2529.373737
886.908768	2530.225692
887.218113	2525.615556
887.527417	2525.111441
887.836680	2518.527694
888.145901	2520.438291
888.455082	2520.098013
888.764221	2520.415606
889.073319	2518.895698
889.382376	2514.358660
889.691392	2518.197498
890.000366	2516.029802
890.309300	2518.409227
890.618193	2514.769514
890.927044	2514.681294
891.235855	2515.800430
891.544625	2517.325379
891.853353	2517.539628
892.162041	2517.325379
892.470687	2519.314114
892.779293	2519.384690
893.087858	2521.617921
893.396381	2520.758405
893.704864	2530.903727
894.013306	2532.587472
894.321707	2544.998793
894.630068	2551.431305
894.938387	2552.784855
895.246665	2548.683876
895.554903	2545.845707
895.863100	2541.139790
896.171256	2538.203318
896.479371	2534.813142
896.787446	2533.459592
897.095480	2531.039838
897.403473	2529.600588
897.711425	2525.030782
898.019336	2523.185720
898.327207	2522.245545
898.635038	2521.227232
898.942827	2519.021727
899.250576	2517.953002
899.558284	2518.671367
899.865952	2520.866789
900.173579	2516.637261
900.481165	2515.218177
900.788711	2513.761283
901.096216	2514.777076
901.403681	2513.892353
901.711105	2516.803619
902.018489	2513.252127
902.325832	2514.966119
902.633135	2513.262209
902.940397	2517.562313
903.247619	2523.221008
903.554800	2534.724921
903.861941	2546.911911
904.169041	2556.091852
904.476101	2558.466235
904.783121	2555.461708
905.090100	2552.729402
905.397039	2546.692621
905.703938	2540.640715
906.010796	2535.234078
906.317614	2534.263656
906.624391	2527.957172
906.931129	2525.174455
907.237826	2522.603467
907.544483	2521.990967
907.851099	2518.575585
908.157675	2515.520646
908.464211	2515.629031
908.770707	2507.331291
909.077163	2511.936385
909.383578	2505.612258
909.689954	2508.488236
909.996289	2504.125117
910.302584	2508.531086
910.608839	2508.362207
910.915054	2510.925634
911.221229	2507.048987
911.527363	2506.945643
911.833458	2507.429594
912.139513	2509.090654
912.445527	2508.352125
912.751502	2511.212980
913.057436	2511.596108
913.363331	2512.526200
913.669186	2511.883453
913.975000	2515.681963
914.280775	2516.894360
914.586510	2520.980215
914.892205	2528.451205
915.197859	2534.989582
915.503475	2547.600028
915.809050	2550.894422
916.114585	2556.031358
916.420081	2556.628735
916.725536	2558.030176
917.030952	2556.122099
917.336328	2552.789896
917.641665	2550.879299
917.946961	2546.019627
918.252218	2538.291538
918.557435	2537.709284
918.862612	2533.391536
919.167750	2531.677544
919.472848	2528.257121
919.777906	2527.861390
920.082925	2523.183200
920.387904	2522.013652
920.692843	2518.749505
920.997743	2516.168434
921.302603	2518.144566
921.607423	2513.272291
921.912204	2515.185409
922.216946	2513.884791
922.521647	2515.918897
922.826310	2512.586694
923.130932	2511.432270
923.435516	2506.943123
923.740059	2508.664677
924.044564	2508.102588
924.349028	2510.648371
924.653454	2503.986486
924.957840	2504.173008
925.262186	2504.412463
925.566493	2504.057062
925.870761	2502.821979
926.174989	2504.858605
926.479178	2503.895745
926.783328	2505.806342
927.087438	2504.094871
927.391509	2505.108143
927.695541	2504.760303
927.999533	2503.409274
928.303486	2502.506907
928.607400	2504.682165
928.911275	2504.591424
929.215110	2505.735766
929.518906	2501.372648
929.822663	2505.461023
930.126381	2501.624705
930.430060	2503.341218
930.733699	2504.926661
931.037299	2505.110663
931.340861	2503.426918
931.644383	2505.995386
931.947866	2504.546054
932.251309	2504.636795
932.554714	2506.527227
932.858080	2505.153513
933.161407	2503.779798
933.464694	2503.678975
933.767943	2502.839623
934.071153	2504.972031
934.374323	2502.980776
934.677455	2503.356342
934.980548	2503.467247
935.283602	2503.328615
935.586617	2499.381392
935.889593	2501.972545
936.192530	2501.458347
936.495428	2504.034377
936.798287	2504.160406
937.101108	2504.311640
937.403890	2500.936588
937.706632	2506.212155
938.009336	2506.446569
938.312002	2508.306755
938.614628	2503.734428
938.917216	2508.049656
939.219765	2504.881291
939.522275	2508.883967
939.824747	2509.672907
940.127179	2506.340705
940.429573	2500.770230
940.731929	2504.412463
941.034246	2502.002792
941.336524	2504.966990
941.638763	2506.045797
941.940964	2507.283400
942.243126	2506.449089
942.545250	2506.610406
942.847335	2506.436487
943.149381	2504.772906
943.451389	2505.937412
943.753359	2503.835251
944.055290	2506.565036
944.357182	2507.600993
944.659036	2504.372134
944.960851	2506.305417
945.262628	2504.079747
945.564367	2503.931033
945.866067	2504.508245
946.167729	2505.546723
946.469352	2506.159223
946.770937	2506.287773
947.072484	2503.686537
947.373992	2505.859274
947.675462	2504.281393
947.976893	2503.701661
948.278286	2503.961280
948.579641	2505.108142
948.880958	2504.828358
949.182236	2502.625374
949.483476	2503.376506
949.784678	2504.493122
950.085841	2502.547236
950.386967	2503.079078
950.688054	2502.955570
950.989103	2503.366424
951.290114	2499.930878
951.591087	2504.770385
951.892021	2503.736949
952.192917	2504.775426
952.493776	2505.415653
952.794596	2506.754079
953.095378	2505.997906
953.396122	2507.671569
953.696828	2502.816938
953.997496	2504.210817
954.298126	2507.031343
954.598718	2507.026302
954.899272	2504.115035
955.199788	2504.006650
955.500266	2506.050838
955.800706	2501.254180
956.101108	2500.016577
956.401472	2500.354334
956.701798	2497.294354
957.002087	2502.690909
957.302337	2502.479181
957.602550	2503.641167
957.902724	2502.789212
958.202861	2504.077227
958.502960	2500.828203
958.803022	2500.170332
959.103045	2499.399036
959.403031	2501.644870
959.702979	2502.970693
960.002889	2502.416166
960.302762	2498.017760
960.602596	2499.230157
960.902393	2500.210662
961.202153	2499.751917
961.501875	2502.484222
961.801559	2500.089674
962.101205	2498.569766
962.400814	2500.208141
962.700385	2501.680158
962.999918	2502.121259
963.299414	2498.267297
963.598873	2501.720487
963.898293	2500.787874
964.197677	2499.232678
964.497022	2500.208141
964.796331	2500.603872
965.095601	2500.054386
965.394835	2501.564211
965.694030	2499.187307
965.993189	2498.849550
966.292309	2500.616474
966.591393	2498.010198
966.890439	2498.539519
967.189447	2498.542040
967.488419	2499.043634
967.787353	2500.256032
968.086249	2499.577997
968.385108	2500.896258
968.683930	2500.097236
968.982714	2500.636639
969.281462	2499.557832
969.580172	2501.634788
969.878844	2501.995230
970.177480	2502.196876
970.476078	2499.194869
970.774639	2499.961124
971.073162	2500.089674
971.371649	2498.025321
971.670098	2495.219919
971.968510	2498.138747
972.266885	2496.696977
972.565223	2496.167656
972.863524	2499.777122
973.161788	2500.298882
973.460014	2500.959273
973.758204	2502.406084
974.056356	2499.898110
974.354471	2499.946001
974.652550	2501.251660
974.950591	2499.124293
975.248595	2501.665034
975.546563	2497.634632
975.844493	2500.465240
976.142386	2499.933398
976.440243	2498.811741
976.738062	2499.497338
977.035845	2501.173522
977.333590	2500.147647
977.631299	2500.190497
977.928971	2499.908192
978.226606	2498.993223
978.524204	2498.597492
978.821765	2497.410301
979.119290	2500.714777
979.416777	2502.060765
979.714228	2498.993223
980.011642	2501.418018
980.309020	2500.571104
980.606360	2500.727380
980.903664	2500.770230
981.200931	2501.309633
981.498162	2502.133862
981.795356	2500.538337
982.092513	2503.389109
982.389633	2502.564880
982.686717	2506.388596
982.983764	2505.471106
983.280775	2507.021260
983.577749	2504.541013
983.874686	2503.563029
984.171587	2504.966990
984.468451	2507.021260
984.765279	2502.942967
985.062070	2506.653256
985.358824	2504.225941
985.655543	2504.553616
985.952224	2501.279386
986.248869	2501.501197
986.545478	2495.040958
986.842050	2501.881804
987.138586	2496.122286
987.435086	2497.445589
987.731549	2494.536843
988.027975	2499.787205
988.324366	2496.253356
988.620719	2499.572956
988.917037	2497.627070
989.213318	2499.764519
989.509563	2498.143788
989.805772	2499.237719
990.101944	2496.397029
990.398080	2499.169663
990.694180	2500.918944
990.990244	2499.368789
991.286271	2498.854591
991.582262	2499.114211
991.878217	2497.949704
992.174136	2496.875938
992.470019	2497.826196
992.765865	2499.552791
993.061676	2498.108500
993.357450	2497.470794
993.653188	2499.474653
993.948890	2500.714777
994.244556	2499.550270
994.540186	2502.847185
994.835780	2500.419869
995.131337	2500.250991
995.426859	2501.801146
995.722345	2498.473984
996.017795	2500.843326
996.313208	2502.637977
996.608586	2500.573625
996.903928	2502.300220
997.199234	2505.677793
997.494504	2501.851557
997.789738	2500.586227
998.084936	2501.748213
998.380099	2500.193018
998.675225	2501.670076
998.970316	2497.616988
999.265371	2501.355003
999.560390	2501.942298
999.855373	2500.288799
1000.150320	2499.008346
1000.445232	2500.044303
1000.740108	2501.735611
1001.034948	2498.088336
1001.329752	2499.159581
1001.624521	2500.422390
1001.919254	2496.457523
1002.213951	2496.540702
1002.508613	2495.056082
1002.803239	2495.824858
1003.097829	2493.810917
1003.392384	2499.197390
1003.686903	2494.640187
1003.981386	2500.233347
1004.275834	2496.581031
1004.570246	2498.105980
1004.864623	2497.927019
1005.158964	2497.422903
1005.453270	2496.633963
1005.747540	2499.073881
1006.041775	2496.152533
1006.335974	2497.927019
1006.630138	2494.798983
1006.924266	2497.415342
1007.218359	2496.686895
1007.512416	2498.090856
1007.806438	2496.538181
1008.100425	2496.981802
1008.394376	2497.501041
1008.688292	2499.416680
1008.982172	2497.586741
1009.276017	2494.980464
1009.569827	2498.514313
1009.863602	2498.544560
1010.157341	2499.283089
1010.451045	2499.484735
1010.744714	2496.520537
1011.038347	2497.914416
1011.331945	2494.073057
1011.625508	2496.575990
1011.919036	2499.867863
1012.212528	2496.533140
1012.505986	2497.478356
1012.799408	2496.341576
1013.092795	2496.510455
1013.386147	2494.980464
1013.679464	2497.407780
1013.972745	2498.632780
1014.265992	2494.751092
1014.559204	2497.470794
1014.852380	2495.895434
1015.145521	2498.531957
1015.438628	2497.690085
1015.731699	2498.320229
1016.024736	2495.739158
1016.317737	2496.036586
1016.610703	2497.536329
1016.903635	2491.204640
1017.196531	2492.843015
1017.489393	2494.118427
1017.782219	2493.276554
1018.075011	2493.747902
1018.367768	2497.632111
1018.660490	2497.332163
1018.953177	2497.332163
1019.245829	2497.332163
