Dividing Wavelength (nm)	Counts (n)	Blue Motor Position (mm): 0.000000	Red Motor Position (mm): 36.600000	
326.493990	2128.992695
326.888308	2128.992695
327.282561	2128.992695
327.676750	2096.777202
328.070874	2094.279310
328.464933	2097.452716
328.858929	2103.907914
329.252859	2112.697165
329.646726	2125.063116
330.040528	2140.138686
330.434265	2152.912970
330.827938	2171.293017
331.221547	2192.947293
331.615091	2211.745756
332.008571	2230.697974
332.401986	2251.850656
332.795338	2269.658532
333.188625	2285.500358
333.581847	2307.288224
333.975006	2322.419248
334.368100	2342.853565
334.761129	2359.728827
335.154095	2377.662732
335.546996	2398.296175
335.939833	2414.516087
336.332606	2432.041659
336.725315	2443.719492
337.117960	2451.487910
337.510540	2459.813375
337.903056	2470.540951
338.295508	2480.172075
338.687896	2488.661378
339.080220	2497.773264
339.472480	2502.879952
339.864676	2510.103926
340.256807	2511.782630
340.648875	2517.229597
341.040879	2518.003414
341.432818	2520.944927
341.824694	2519.563651
342.216506	2519.165400
342.608253	2521.932993
342.999937	2522.190092
343.391557	2521.401152
343.783113	2522.873169
344.174605	2520.143384
344.566033	2517.673218
344.957397	2519.488034
345.348697	2513.577281
345.739934	2513.988135
346.131106	2509.451097
346.522215	2509.267094
346.913260	2507.444717
347.304241	2504.684686
347.695159	2503.290807
348.086012	2501.710405
348.476802	2500.944149
348.867528	2501.294510
349.258191	2498.065651
349.648789	2497.538850
350.039324	2494.763695
350.429796	2497.029693
350.820203	2495.212358
351.210548	2492.275885
351.600828	2491.791935
351.991045	2493.624394
352.381198	2490.851759
352.771288	2491.025679
353.161314	2489.707417
353.551276	2489.974599
353.941175	2488.230359
354.331010	2491.812099
354.720782	2490.108189
355.110490	2490.536687
355.500135	2489.735144
355.889717	2487.534680
356.279235	2490.917294
356.668689	2494.032728
357.058080	2492.417038
357.447408	2492.291009
357.836672	2490.098107
358.225873	2490.514002
358.615010	2487.176758
359.004084	2492.016266
359.393095	2494.743530
359.782043	2493.947028
360.170927	2495.698829
360.559748	2497.397698
360.948505	2496.356699
361.337199	2497.669920
361.725830	2499.575476
362.114398	2499.494818
362.502903	2499.567914
362.891344	2500.409787
363.279722	2500.858450
363.668037	2500.813079
364.056289	2500.397184
364.444478	2503.278204
364.832603	2502.254849
365.220665	2504.044459
365.608665	2504.422546
365.996601	2504.417504
366.384474	2505.834069
366.772284	2508.773061
367.160031	2510.411436
367.547715	2512.246416
367.935336	2515.636592
368.322893	2515.490399
368.710388	2517.116171
369.097820	2528.937677
369.485189	2531.233922
369.872495	2534.465302
370.259738	2541.321271
370.646918	2550.639844
371.034035	2560.162584
371.421090	2566.252297
371.808081	2576.475758
372.195010	2585.859865
372.581875	2597.094077
372.968678	2613.475306
373.355418	2622.599795
373.742096	2640.296765
374.128710	2657.393838
374.515262	2670.142917
374.901751	2684.394258
375.288177	2697.667617
375.674540	2721.184599
376.060841	2737.170098
376.447079	2756.157604
376.833254	2779.679628
377.219367	2788.226904
377.605417	2830.721311
377.991404	2839.132476
378.377329	2861.522761
378.763191	2879.721326
379.148991	2916.995618
379.534727	2937.855912
379.920402	2965.980509
380.306013	2981.837459
380.691563	3029.146167
381.077049	3051.420505
381.462474	3071.002867
381.847835	3109.655915
382.233134	3131.005201
382.618371	3132.386477
383.003545	3197.583720
383.388657	3207.245091
383.773706	3240.650297
384.158693	3255.380549
384.543618	3279.855351
384.928480	3317.419509
385.313280	3363.314173
385.698017	3360.302084
386.082692	3415.870723
386.467305	3418.781989
386.851856	3452.406485
387.236344	3472.845843
387.620770	3505.741893
388.005133	3531.156870
388.389435	3558.515212
388.773674	3570.545926
389.157851	3613.594859
389.541965	3631.407776
389.926018	3592.792537
390.310008	3666.579906
390.693936	3683.409798
391.077802	3724.084348
391.461606	3715.078327
391.845348	3778.987555
392.229027	3775.047893
392.612645	3787.313020
392.996200	3867.197665
393.379694	3906.135537
393.763125	3970.117862
394.146494	3938.472018
394.529801	3998.504599
394.913047	4045.606620
395.296230	4015.140407
395.679351	4070.681319
396.062410	4093.185030
396.445408	4078.855550
396.828343	4106.690281
397.211217	4134.915702
397.594028	4051.030902
397.976778	4117.858957
398.359466	4143.026918
398.742092	4173.916588
399.124656	4096.575206
399.507158	4172.633615
399.889598	4202.005898
400.271977	4264.198613
400.654294	4231.637800
401.036549	4237.669540
401.418742	4211.475705
401.800874	4312.276097
402.182944	4335.142771
402.564952	4399.427564
402.946898	4386.408785
403.328783	4380.740007
403.710606	4296.275474
404.092367	4483.715657
404.474067	4454.292962
404.855705	4459.712203
405.237282	4386.055904
405.618797	4498.468593
406.000250	4533.678533
406.381642	4614.372282
406.762972	4571.958534
407.144240	4583.464968
407.525447	4584.511007
407.906593	4648.039628
408.287677	4688.222665
408.668700	4618.599290
409.049661	4666.447401
409.430560	4705.879307
409.811399	4635.035972
410.192176	4798.684428
410.572891	4738.964399
410.953545	4839.641283
411.334138	4721.763982
411.714669	4787.205721
412.095139	4684.517417
412.475547	4825.384900
412.855894	4805.305984
413.236180	4817.545906
413.616405	4764.331486
413.996568	4855.881360
414.376670	4797.245179
414.756711	4754.581894
415.136691	4785.542140
415.516609	4864.284963
415.896466	4898.194285
416.276262	4933.348771
416.655997	4916.034928
417.035670	5097.957568
417.415283	5186.089540
417.794834	5130.097444
418.174324	5083.557512
418.553753	4991.304396
418.933121	5174.663765
419.312428	5242.774794
419.691674	5177.585113
420.070859	5310.651410
420.449983	5222.058172
420.829045	5334.357436
421.208047	5244.788735
421.586988	5310.227953
421.965867	5324.814532
422.344686	5457.343946
422.723444	5315.538809
423.102141	5133.517867
423.480777	5431.631541
423.859352	5199.201581
424.237866	5458.868895
424.616319	5450.419921
424.994712	5560.102826
425.373044	5436.312252
425.751314	5575.770732
426.129524	5382.722266
426.507673	5575.382563
426.885762	5658.972456
427.263789	5590.828659
427.641756	5470.637469
428.019662	5593.467703
428.397508	5604.238128
428.775292	5549.465991
429.153016	5647.092977
429.530679	5574.719652
429.908282	5659.658053
430.285824	5530.796078
430.663305	5801.606863
431.040726	5535.804464
431.418086	5539.487027
431.795385	5643.765815
432.172624	5661.682076
432.549802	5651.461137
432.926920	5661.165358
433.303977	5669.780690
433.680974	5711.140836
434.057910	5729.243620
434.434786	5732.706892
434.811601	5700.808992
435.188355	5936.258603
435.565050	5808.656916
435.941683	5792.089164
436.318257	6005.093038
436.694770	5989.087374
437.071222	6027.132962
437.447614	5953.242250
437.823946	5869.609508
438.200218	6020.269431
438.576429	5888.816304
438.952580	5986.425645
439.328670	6033.608324
439.704700	5941.085507
440.080670	5925.490698
440.456580	6193.395257
440.832429	6083.871149
441.208218	5925.626809
441.583947	6081.620274
441.959616	6088.486325
442.335224	6013.625191
442.710773	6152.705584
443.086261	6181.727507
443.461689	5970.409899
443.837057	6121.710050
444.212365	6276.418020
444.587612	6165.520197
444.962800	6319.184649
445.337927	6301.901053
445.712995	5908.058388
446.088002	6489.666389
446.462949	6318.549463
446.837837	6254.221820
447.212664	6423.027377
447.587431	6567.927782
447.962139	7109.990452
448.336786	8032.229219
448.711374	7770.719364
449.085901	6846.643096
449.460369	6774.640296
449.834776	6707.358536
450.209124	7095.436641
450.583412	7246.588078
450.957640	7392.070737
451.331808	7158.987947
451.705917	6710.388269
452.079965	6630.032277
452.453954	6843.394073
452.827883	6721.710701
453.201752	6812.804351
453.575562	6616.282530
453.949311	6815.377860
454.323001	6705.188319
454.696632	6782.587675
455.070202	6923.382061
455.443713	7075.289670
455.817164	7174.910432
456.190556	7257.071157
456.563888	7329.948598
456.937160	7371.994341
457.310373	7030.249481
457.683526	7057.209572
458.056619	6944.885102
458.429653	6932.854389
458.802628	6869.393823
459.175542	6983.538149
459.548398	7336.933116
459.921194	7491.333576
460.293930	7496.747776
460.666607	8026.058847
461.039224	8337.181218
461.411782	8460.654200
461.784280	8476.521231
462.156719	8374.180767
462.529099	8248.721571
462.901419	7844.395827
463.273680	7733.167809
463.645882	7746.610045
464.018024	7611.809592
464.390106	7778.167668
464.762130	8166.649066
465.134094	8632.300447
465.505999	9653.355912
465.877845	10878.066430
466.249631	11527.503156
466.621358	11143.858746
466.993026	10518.269197
467.364634	10259.773952
467.736184	9894.176872
468.107674	9563.434330
468.479105	9592.862065
468.850477	9358.135860
469.221790	9137.799628
469.593043	8807.185636
469.964238	8666.771857
470.335373	8670.666148
470.706449	8735.444975
471.077467	8722.854693
471.448425	10025.604794
471.819324	11097.714544
472.190164	11126.086158
472.560945	9876.162309
472.931667	9080.166637
473.302330	8950.896329
473.672934	8591.320907
474.043479	8950.984549
474.413965	8895.713338
474.784393	8775.549875
475.154761	8932.652393
475.525070	9016.819498
475.895321	8850.380762
476.265513	9021.679170
476.635645	9191.901291
477.005719	9197.948155
477.375734	9305.929671
477.745691	9544.827431
478.115588	9675.355507
478.485427	9920.058156
478.855207	10461.155445
479.224928	11265.814340
479.594591	11896.712223
479.964194	11703.653675
480.333739	11653.567291
480.703226	11564.737119
481.072653	11657.680872
481.442022	11888.842982
481.811333	12086.360431
482.180584	11892.008826
482.549777	11597.479413
482.918912	11421.535582
483.287988	11447.842843
483.657005	11458.706530
484.025964	11139.593930
484.394864	11266.847776
484.763706	11233.760163
485.132489	10992.593883
485.501213	10961.016096
485.869879	11033.265913
486.238487	10871.470080
486.607036	10989.150775
486.975527	10765.683987
487.343959	10955.198604
487.712333	11005.889927
488.080648	10928.636765
488.448905	10982.085598
488.817104	10914.839127
489.185244	11185.536485
489.553326	11335.967037
489.921350	11880.971220
490.289315	12932.576077
490.657222	13282.608594
491.025070	13188.034027
491.392861	13060.031570
491.760593	12684.551308
492.128267	12336.807474
492.495883	12009.694563
492.863440	11662.250678
493.230939	11328.647281
493.598380	11274.293560
493.965763	11130.824843
494.333088	11037.913857
494.700354	10955.869078
495.067563	11016.708243
495.434713	10843.970586
495.801805	10979.645680
496.168839	10898.190716
496.535815	10823.611886
496.902733	10833.341313
497.269593	10768.885120
497.636395	10858.597494
498.003139	10852.641370
498.369825	10717.656914
498.736453	10873.058043
499.103023	10797.286981
499.469535	10830.893833
499.835989	10818.119549
500.202385	10782.092943
500.568723	10633.147011
500.935003	10855.504746
501.301226	10656.096864
501.667390	10925.982597
502.033497	11015.881494
502.399546	10869.196520
502.765537	10780.522623
503.131470	10860.545900
503.497345	11027.962619
503.863163	10643.209154
504.228923	10958.757659
504.594625	11018.089519
504.960269	10764.461507
505.325856	10983.978552
505.691385	10784.172419
506.056856	10940.506161
506.422270	10957.855292
506.787625	10848.545433
507.152924	10962.137752
507.518164	10942.305853
507.883347	10858.363080
508.248472	10784.328695
508.613540	11013.527275
508.978550	10900.885213
509.343503	10867.666529
509.708398	10987.895528
510.073236	11098.062384
510.438016	11106.539084
510.802738	11053.377596
511.167403	11097.946437
511.532010	11002.827426
511.896561	11233.820657
512.261053	11310.090794
512.625488	11178.373006
512.989866	11156.847279
513.354186	11145.481997
513.718449	11043.728827
514.082655	11238.367777
514.446803	11131.896088
514.810894	11252.508214
515.174927	11123.467278
515.538904	11141.567541
515.902822	11297.334154
516.266684	11180.434837
516.630488	11126.794440
516.994235	11177.332007
517.357925	11235.388456
517.721558	11315.764612
518.085133	11342.104641
518.448651	11350.296516
518.812112	11230.261602
519.175516	11240.643858
519.538863	11357.452434
519.902152	11274.419589
520.265385	11438.930083
520.628560	11342.351658
520.991678	11318.650673
521.354739	11378.776515
521.717743	11305.861266
522.080690	11288.605396
522.443580	11412.108624
522.806413	11360.885460
523.169189	11390.701364
523.531908	11446.466608
523.894569	11263.707137
524.257174	11263.613876
524.619722	11376.666792
524.982213	11321.123359
525.344647	11367.660771
525.707025	11313.385188
526.069345	11401.499516
526.431608	11314.375775
526.793815	11418.188256
527.155964	11210.681761
527.518057	11247.794735
527.880093	11190.320540
528.242072	11257.388051
528.603995	11162.417754
528.965860	11077.290309
529.327669	11117.304468
529.689421	11059.850437
530.051117	11029.056549
530.412755	11117.589293
530.774337	11006.789773
531.135862	10979.272634
531.497331	10994.068421
531.858743	10832.809471
532.220098	10997.085552
532.581396	10864.120078
532.942638	10838.211067
533.303824	10786.624940
533.664953	10789.127873
534.026025	10692.448625
534.387040	10778.606985
534.747999	10774.314443
535.108902	10813.648045
535.469748	10568.469008
535.830537	10663.514922
536.191270	10628.728440
536.551947	10629.958482
536.912567	10617.731163
537.273131	10539.615963
537.633638	10508.108752
537.994089	10465.289191
538.354483	10409.818855
538.714821	10535.419203
539.075103	10526.577019
539.435328	10478.590276
539.795497	10302.444798
540.155609	10427.674622
540.515665	10498.512916
540.875665	10236.438451
541.235609	10275.920768
541.595496	10255.985525
541.955328	10378.553619
542.315102	10248.925389
542.674821	10182.457775
543.034483	10168.753398
543.394090	10151.701696
543.753640	10059.849352
544.113134	10243.886755
544.472571	10086.408671
544.831953	10200.245487
545.191278	9995.887192
545.550548	9994.601698
545.909761	10102.288306
546.268918	10051.337364
546.628019	10105.257545
546.987064	9948.916241
547.346053	9860.159166
547.704986	9918.155120
548.063863	9876.704233
548.422684	9852.829328
548.781449	9741.276155
549.140158	9808.073964
549.498811	9667.493827
549.857408	9520.879430
550.215949	9678.314664
550.574434	9520.428246
550.932864	9570.769209
551.291237	9609.200445
551.649555	9513.688224
552.007817	9497.488476
552.366022	9436.470350
552.724173	9396.413341
553.082267	9359.527218
553.440305	9417.230786
553.798288	9232.870749
554.156215	9318.439294
554.514086	9267.085060
554.871902	9113.675187
555.229661	9102.718239
555.587365	9046.249754
555.945014	8936.098022
556.302606	8978.904980
556.660143	8878.954022
557.017625	8951.350033
557.375050	8838.511366
557.732421	8901.440089
558.089735	8788.031772
558.446994	8760.486907
558.804197	8752.232017
559.161345	8707.196870
559.518437	8559.440650
559.875474	8585.233714
560.232455	8561.593223
560.589381	8499.453440
560.946251	8433.593286
561.303065	8495.153336
561.659825	8393.266576
562.016528	8306.382289
562.373177	8188.895678
562.729770	8215.570944
563.086307	8129.364692
563.442789	8158.857963
563.799216	8009.362546
564.155587	8008.545879
564.511904	7935.612985
564.868164	7884.745222
565.224370	7869.883901
565.580520	7750.559789
565.936615	7743.338337
566.292654	7589.167249
566.648638	7649.461970
567.004567	7565.602375
567.360441	7523.286930
567.716260	7418.995539
568.072023	7449.141639
568.427732	7358.020263
568.783385	7278.722913
569.138982	7261.598113
569.494525	7239.631285
569.850013	7128.173894
570.205445	7121.968234
570.560823	7035.540172
570.916145	6936.257168
571.271412	6937.189781
571.626625	6864.796291
571.981782	6807.874103
572.336884	6745.535194
572.691931	6728.730508
573.046923	6642.103320
573.401860	6576.006231
573.756743	6505.858576
574.111570	6486.714794
574.466342	6446.468742
574.821059	6415.266520
575.175722	6320.969217
575.530330	6277.839625
575.884882	6242.430561
576.239380	6161.910731
576.593823	6112.940963
576.948211	6076.997536
577.302544	5996.505432
577.656823	5955.251150
578.011047	5922.715543
578.365216	5866.113467
578.719330	5798.889681
579.073389	5757.869812
579.427394	5708.385846
579.781344	5659.763917
580.135239	5596.023568
580.489080	5571.039609
580.842866	5487.903421
581.196597	5459.191529
581.550273	5441.731492
581.903895	5387.718050
582.257463	5386.871136
582.610975	5292.750273
582.964434	5284.064365
583.317837	5212.056523
583.671186	5183.475702
584.024481	5139.557169
584.377721	5078.440741
584.730906	5033.700500
585.084037	5012.918343
585.437113	4966.854800
585.790135	4932.096044
586.143103	4860.078121
586.496016	4829.430426
586.848874	4807.481242
587.201679	4785.229589
587.554428	4706.159091
587.907124	4695.139128
588.259765	4659.367101
588.612352	4623.804281
588.964884	4569.024583
589.317362	4542.102301
589.669786	4506.400849
590.022155	4506.983102
590.374470	4471.412721
590.726731	4434.342596
591.078937	4356.557592
591.431090	4357.308724
591.783188	4302.440806
592.135232	4263.192902
592.487222	4244.442331
592.839157	4231.337851
593.191038	4187.414278
593.542866	4151.914472
593.894639	4100.900516
594.246358	4087.818722
594.598022	4069.902461
594.949633	4016.632588
595.301190	3988.838187
595.652692	3973.770178
596.004141	3966.364723
596.355535	3904.572779
596.706876	3870.955845
597.058162	3830.109896
597.409395	3828.221984
597.760573	3819.021878
598.111698	3781.891259
598.462768	3748.405395
598.813785	3729.584247
599.164748	3697.749361
599.515657	3681.292514
599.866511	3634.150164
600.217312	3643.337667
600.568060	3595.973506
600.918753	3597.937035
601.269392	3574.795618
601.619978	3540.152809
601.970510	3530.972868
602.320988	3518.677494
602.671412	3505.996471
603.021783	3479.064107
603.372100	3458.486117
603.722363	3436.627674
604.072572	3421.867175
604.422728	3404.760020
604.772830	3378.603993
605.122878	3362.961293
605.472872	3348.813294
605.822813	3335.550018
606.172701	3318.052173
606.522534	3310.835762
606.872314	3297.166673
607.222041	3275.782098
607.571714	3269.329422
607.921333	3253.033892
608.270899	3236.826582
608.620411	3235.475553
608.969870	3214.821946
609.319276	3201.858618
609.668627	3193.210519
610.017926	3184.910259
610.367171	3180.814322
610.716362	3167.356962
611.065500	3151.305928
611.414585	3138.030049
611.763616	3131.549646
612.112594	3113.439301
612.461518	3108.047787
612.810389	3103.853547
613.159207	3083.421750
613.507971	3069.510686
613.856682	3069.354410
614.205340	3054.997204
614.553945	3053.542831
614.902496	3034.507434
615.250994	3031.308822
615.599439	3020.329189
615.947830	3011.058507
616.296169	3000.073833
616.644454	2994.974706
616.992686	2986.634117
617.340864	2983.934579
617.688990	2968.803556
618.037063	2971.641725
618.385082	2961.509006
618.733048	2958.436423
619.080961	2945.848662
619.428821	2943.166768
619.776628	2931.367947
620.124382	2922.303953
620.472083	2914.538055
620.819731	2905.204359
621.167326	2891.351268
621.514868	2885.397665
621.862357	2869.921323
622.209793	2865.495190
622.557176	2852.403313
622.904506	2841.053155
623.251783	2831.517813
623.599007	2824.041782
623.946179	2817.238745
624.293297	2808.081489
624.640363	2800.860036
624.987376	2796.683440
625.334336	2787.024589
625.681243	2779.525873
626.028097	2777.295162
626.374899	2768.669748
626.721647	2761.203799
627.068343	2757.039806
627.414987	2750.546800
627.761577	2748.873137
628.108115	2742.891808
628.454600	2737.008781
628.801032	2734.029459
629.147412	2731.607185
629.493739	2726.145095
629.840014	2721.088817
630.186236	2724.536967
630.532405	2712.763352
630.878521	2711.243444
631.224585	2710.487271
631.570597	2702.229861
631.916556	2700.102494
632.262462	2699.827751
632.608316	2695.663758
632.954117	2691.668643
633.299866	2691.915660
633.645562	2685.014320
633.991206	2682.619772
634.336797	2677.586180
634.682336	2676.489729
635.027823	2670.581497
635.373257	2667.118224
635.718639	2658.838129
636.063968	2661.141936
636.409245	2656.604898
636.754470	2654.411996
637.099642	2648.516367
637.444762	2648.879330
637.789829	2645.917652
638.134845	2642.645943
638.479808	2641.347846
638.824719	2641.453710
639.169577	2638.088740
639.514383	2635.474902
639.859137	2634.605302
640.203839	2631.540281
640.548489	2627.530043
640.893086	2626.811679
641.237632	2619.189454
641.582125	2622.201543
641.926566	2620.732047
642.270955	2622.554424
642.615292	2624.948972
642.959576	2623.403859
643.303809	2622.889661
643.647990	2620.873199
643.992118	2618.710544
644.336195	2617.346912
644.680219	2614.869185
645.024192	2619.648199
645.368112	2615.431274
645.711981	2616.512601
646.055797	2618.975205
646.399562	2617.273816
646.743274	2616.258023
647.086935	2618.793723
647.430544	2619.103754
647.774101	2618.163579
648.117606	2618.546707
648.461059	2617.709875
648.804460	2617.115019
649.147810	2613.782817
649.491108	2610.783330
649.834354	2609.913731
650.177548	2608.666045
650.520690	2605.590942
650.863781	2605.366610
651.206820	2606.868874
651.549807	2603.261928
651.892742	2601.026177
652.235626	2604.018102
652.578458	2604.759151
652.921238	2599.239088
653.263967	2598.291351
653.606644	2600.592637
653.949269	2592.839343
654.291843	2597.880497
654.634365	2599.526433
654.976836	2596.385795
655.319255	2596.537029
655.661622	2596.894951
656.003938	2596.171546
656.346203	2594.137440
656.688416	2596.879828
657.030577	2594.359251
657.372687	2592.814137
657.714746	2591.430340
658.056753	2592.801534
658.398708	2587.987232
658.740612	2591.029569
659.082465	2588.456060
659.424266	2589.287850
659.766016	2585.595205
660.107715	2587.896492
660.449362	2591.155597
660.790958	2593.058633
661.132503	2590.449836
661.473996	2589.885227
661.815438	2591.987388
662.156829	2592.158787
662.498168	2589.174424
662.839456	2588.942531
663.180693	2588.617377
663.521879	2590.575865
663.863013	2590.573344
664.204097	2589.605443
664.545129	2588.796337
664.886110	2590.384301
665.227040	2589.963365
665.567918	2589.706266
665.908746	2586.240472
666.249522	2592.032758
666.590248	2589.726430
666.930922	2586.641244
667.271545	2590.245669
667.612118	2591.299270
667.952639	2588.816502
668.293109	2586.260637
668.633528	2585.862386
668.973896	2585.305338
669.314213	2587.899012
669.654480	2586.580750
669.994695	2587.160483
670.334859	2587.715010
670.674973	2586.295925
671.015035	2589.660895
671.355047	2583.891295
671.695008	2586.731985
672.034918	2585.118816
672.374777	2585.932962
672.714585	2585.375915
673.054342	2586.865576
673.394049	2585.789289
673.733705	2584.476069
674.073310	2586.152252
674.412864	2585.590164
674.752368	2583.160327
675.091820	2583.949268
675.431223	2583.029257
675.770574	2582.590677
676.109875	2580.160841
676.449125	2581.854669
676.788324	2579.145048
677.127473	2579.994483
677.466571	2575.913669
677.805619	2580.962384
678.144616	2580.811150
678.483562	2582.900708
678.822458	2576.747980
679.161303	2580.286870
679.500098	2580.410378
679.838842	2580.042374
680.177535	2582.033630
680.516179	2580.014647
680.854771	2577.988104
681.193314	2582.852817
681.531805	2583.215780
681.870247	2584.108064
682.208638	2585.622931
682.546978	2585.456573
682.885268	2583.984556
683.223508	2583.102354
683.561697	2583.997159
683.899836	2584.604618
684.237925	2580.453228
684.575963	2583.006572
684.913951	2579.732343
685.251889	2583.452714
685.589776	2583.984556
685.927614	2579.553382
686.265401	2583.414906
686.603137	2581.504308
686.940824	2583.097313
687.278460	2582.676377
687.616046	2583.316603
687.953582	2586.366501
688.291068	2585.353229
688.628504	2586.623600
688.965889	2587.271388
689.303224	2584.634865
689.640510	2582.751994
689.977745	2581.663105
690.314930	2579.485326
690.652065	2580.833835
690.989150	2578.749318
691.326185	2578.257805
691.663170	2577.781416
692.000105	2575.371745
692.336990	2574.887794
692.673825	2575.323854
693.010610	2575.298648
693.347345	2571.686661
693.684030	2568.430076
694.020665	2571.361507
694.357251	2567.333625
694.693786	2569.110632
695.030272	2571.989131
695.366707	2570.990982
695.703093	2569.002247
696.039429	2571.689182
696.375716	2569.559294
696.711952	2569.589541
697.048139	2571.926116
697.384276	2568.223389
697.720363	2570.622978
698.056400	2567.568039
698.392388	2569.017370
698.728326	2570.537278
699.064214	2565.849005
699.400053	2568.810683
699.735842	2567.008471
700.071581	2568.636763
700.407270	2568.561146
700.742910	2566.849674
701.078501	2566.171639
701.414042	2566.532082
701.749533	2567.094170
702.084974	2566.980744
702.420366	2568.077195
702.755709	2567.875549
703.091002	2565.969993
703.426246	2565.697771
703.761440	2563.799776
704.096584	2564.916392
704.431679	2566.330435
704.766725	2564.384550
705.101721	2563.628377
705.436668	2564.276165
705.771565	2565.390260
706.106413	2565.710373
706.441212	2565.095353
706.775961	2565.639797
707.110661	2565.957390
707.445311	2566.758933
707.779913	2567.129458
708.114465	2563.318346
708.448967	2570.312947
708.783421	2568.561146
709.117825	2566.766495
709.452180	2566.600137
709.786485	2566.816907
710.120742	2571.311095
710.454949	2569.922257
710.789107	2568.326732
711.123216	2565.375137
711.457275	2564.434962
711.791286	2566.464026
712.125247	2570.408729
712.459159	2573.667835
712.793023	2571.147258
713.126837	2570.663307
713.460602	2570.675910
713.794318	2570.829665
714.127985	2571.122052
714.461602	2569.828996
714.795171	2568.276321
715.128691	2567.552915
715.462162	2566.337997
715.795584	2564.298850
716.128957	2565.922102
716.462281	2565.816238
716.795556	2566.055692
717.128782	2562.363047
717.461960	2563.787173
717.795088	2563.104097
718.128167	2563.046124
718.461198	2561.044786
718.794180	2563.933367
719.127113	2564.074519
719.459997	2560.646534
719.792833	2561.765671
720.125619	2561.969837
720.458357	2560.177707
720.791046	2560.439847
721.123686	2560.346586
721.456278	2561.697615
721.788821	2561.390105
722.121315	2559.537481
722.453761	2559.398849
722.786158	2558.867007
723.118506	2556.732078
723.450805	2562.360527
723.783056	2557.833571
724.115259	2558.635114
724.447412	2559.887841
724.779518	2560.994374
725.111574	2561.407749
725.443582	2560.475135
725.775542	2560.850701
726.107453	2558.413303
726.439315	2563.220043
726.771129	2565.120558
727.102895	2562.438665
727.434612	2563.459498
727.766281	2565.065106
728.097901	2562.237018
728.429473	2559.106462
728.760996	2561.286761
729.092471	2556.608570
729.423897	2563.383881
729.755276	2565.256670
730.086606	2564.664334
730.417887	2565.012174
730.749120	2564.961762
731.080305	2564.525702
731.411442	2564.099725
731.742530	2564.447564
732.073570	2565.140723
732.404562	2567.923440
732.735506	2566.489232
733.066401	2564.503017
733.397249	2567.721794
733.728048	2562.431103
734.058798	2561.430434
734.389501	2559.285423
734.720156	2561.664848
735.050762	2559.111503
735.381320	2558.214178
735.711831	2560.767522
736.042293	2557.979764
736.372707	2559.799621
736.703073	2560.676781
737.033391	2559.930691
737.363661	2561.490928
737.693883	2559.908005
738.024056	2560.212995
738.354182	2560.223077
738.684260	2560.568397
739.014290	2560.870866
739.344272	2559.857594
739.674207	2557.858776
740.004093	2560.780125
740.333931	2561.594271
740.663722	2559.499672
740.993464	2560.064281
741.323159	2561.937070
741.652806	2561.609395
741.982405	2560.472615
742.311956	2559.726524
742.641460	2561.246432
742.970915	2559.393808
743.300323	2561.140568
743.629683	2559.466904
743.958996	2560.165104
744.288260	2557.785680
744.617477	2558.211657
744.946647	2555.696121
745.275768	2556.953889
745.604842	2553.709907
745.933869	2554.574465
746.262847	2554.259392
746.591778	2556.704352
746.920662	2557.112686
747.249498	2557.775597
747.578286	2554.551779
747.907027	2557.999929
748.235720	2557.039589
748.564365	2555.451625
748.892963	2554.874413
749.221514	2554.745864
749.550017	2557.329455
749.878473	2557.246276
750.206881	2553.031872
750.535242	2554.541697
750.863555	2556.757284
751.191821	2556.727037
751.520039	2554.123281
751.848210	2556.086811
752.176334	2555.504558
752.504411	2556.585885
752.832440	2558.526729
753.160421	2554.365257
753.488356	2556.593447
753.816243	2557.241235
754.144082	2555.449105
754.471875	2553.730071
754.799620	2554.261913
755.127318	2556.101934
755.454969	2554.957592
755.782572	2556.164949
756.110129	2554.216543
756.437638	2556.333827
756.765100	2552.565565
757.092515	2557.384908
757.419882	2553.712427
757.747203	2555.728889
758.074477	2553.394835
758.401703	2554.050185
758.728882	2555.088662
759.056014	2556.711914
759.383099	2553.472973
759.710138	2558.282233
760.037129	2556.989177
760.364073	2557.755433
760.690970	2555.408776
761.017820	2556.797613
761.344623	2555.481872
761.671379	2556.953889
761.998088	2555.880123
762.324751	2559.537481
762.651366	2561.659806
762.977935	2573.914851
763.304456	2577.657908
763.630931	2581.509350
763.957359	2577.693196
764.283740	2572.105077
764.610074	2568.331773
764.936362	2563.051165
765.262602	2561.125444
765.588796	2559.066133
765.914943	2558.254507
766.241044	2553.097407
766.567097	2556.548076
766.893104	2553.145298
767.219064	2553.147818
767.544978	2554.753426
767.870845	2551.978270
768.196665	2551.761501
768.522438	2551.020451
768.848165	2551.703528
769.173846	2550.501212
769.499479	2551.532128
769.825066	2549.838301
770.150607	2548.305790
770.476101	2547.403423
770.801548	2550.292004
771.126949	2547.973074
771.452303	2547.867209
771.777611	2549.734957
772.102872	2548.860317
772.428087	2546.669935
772.753256	2547.869730
773.078378	2548.159596
773.403453	2548.391489
773.728482	2547.998279
774.053465	2549.137580
774.378401	2547.869730
774.703291	2549.709751
775.028135	2547.862168
775.352932	2548.545245
775.677683	2546.143135
776.002388	2547.756304
776.327046	2547.315203
776.651658	2547.226983
776.976224	2549.492982
777.300743	2544.565254
777.625216	2546.987528
777.949643	2545.208001
778.274024	2550.455842
778.598359	2543.877136
778.922647	2543.773792
779.246889	2544.522404
779.571086	2541.817825
779.895236	2543.609955
780.219339	2545.792775
780.543397	2546.289328
780.867409	2547.700851
781.191374	2545.722198
781.515294	2544.877805
781.839167	2545.109698
782.162995	2544.920655
782.486776	2545.076931
782.810511	2544.721529
783.134201	2544.497198
783.457844	2545.152548
783.781441	2546.317055
784.104993	2545.376879
784.428498	2545.271015
784.751958	2545.734801
785.075372	2545.757487
785.398739	2547.549617
785.722061	2545.893598
786.045337	2547.070707
786.368568	2546.256561
786.691752	2546.808567
787.014891	2546.354863
787.337983	2545.888557
787.661030	2547.925183
787.984031	2549.167827
788.306987	2552.426933
788.629897	2548.116747
788.952760	2550.108002
789.275579	2549.588763
789.598351	2548.250337
789.921078	2547.194215
790.243759	2548.237734
790.566395	2545.197918
790.888984	2549.293856
791.211529	2544.676159
791.534027	2547.363094
791.856480	2543.607434
792.178888	2547.796633
792.501249	2543.156251
792.823566	2546.672456
793.145836	2545.533155
793.468062	2544.383772
793.790241	2546.107847
794.112375	2546.473330
794.434464	2546.579195
794.756507	2543.980480
795.078505	2550.218908
795.400457	2545.359235
795.722364	2542.727753
796.044226	2544.509801
796.366042	2543.110881
796.687812	2545.301262
797.009538	2548.842673
797.331218	2547.713454
797.652852	2548.482230
797.974442	2547.186654
798.295986	2548.189843
798.617484	2545.840666
798.938938	2544.542568
799.260346	2546.987528
799.581709	2544.267826
799.903026	2544.078782
800.224299	2547.078269
800.545526	2543.793957
800.866708	2548.257899
801.187845	2543.718340
801.508936	2546.203629
801.829983	2543.952753
802.150984	2542.032074
802.471940	2545.081972
802.792851	2543.461241
803.113717	2546.092723
803.434538	2544.340922
803.755314	2544.766900
804.076045	2543.400747
804.396731	2543.292362
804.717372	2542.561395
805.037967	2545.321427
805.358518	2542.826056
805.679024	2547.179092
805.999485	2543.662887
806.319901	2542.644574
806.640272	2544.915614
806.960598	2544.986190
807.280879	2541.200283
807.601115	2544.638350
807.921306	2546.009544
808.241453	2543.778834
808.561554	2544.169523
808.881611	2543.292362
809.201623	2544.192208
809.521590	2545.628937
809.841513	2543.274718
810.161390	2543.718340
810.481223	2544.618186
810.801011	2543.085675
811.120755	2541.931251
811.440453	2547.179092
811.760107	2542.674821
812.079716	2541.008720
812.399281	2539.418236
812.718801	2541.921168
813.038276	2538.558719
813.357707	2545.339071
813.677093	2542.037115
813.996434	2543.294883
814.315731	2545.744884
814.634983	2544.729091
814.954191	2543.257074
815.273354	2544.353525
815.592473	2546.649771
815.911547	2543.988042
816.230577	2545.142466
816.549562	2545.810419
816.868502	2546.687579
817.187399	2545.021478
817.506250	2545.437373
817.825058	2544.605583
818.143821	2548.633465
818.462539	2546.735470
818.781213	2548.981304
819.099843	2550.072714
819.418429	2549.697148
819.736970	2552.883157
820.055466	2558.032696
820.373919	2560.999415
820.692327	2563.134344
821.010691	2569.675241
821.329011	2588.640062
821.647286	2623.668519
821.965517	2663.793583
822.283704	2685.851152
822.601847	2696.240970
822.919945	2675.723474
823.237999	2655.863848
823.556010	2632.578759
823.873976	2616.164762
824.191897	2599.516351
824.509775	2589.005545
824.827609	2582.769638
825.145398	2578.290573
825.463144	2573.627506
825.780845	2576.316961
826.098502	2580.755697
826.416116	2588.574527
826.733685	2602.036928
827.051210	2606.987341
827.368692	2602.173039
827.686129	2588.564444
828.003522	2579.540779
828.320872	2568.876218
828.638177	2560.276010
828.955439	2556.893395
829.272656	2551.416182
829.589830	2548.948537
829.906960	2550.523897
830.224046	2552.116902
830.541088	2548.557847
830.858086	2548.487271
831.175041	2547.025337
831.491952	2547.983156
831.808819	2548.290666
832.125642	2545.719678
832.442421	2549.853424
832.759157	2554.448436
833.075849	2563.583007
833.392497	2569.143399
833.709101	2574.441652
834.025662	2575.220510
834.342179	2572.619275
834.658653	2566.015363
834.975083	2560.399518
835.291469	2560.770043
835.607811	2552.363919
835.924110	2549.379556
836.240366	2547.625234
836.556578	2546.463248
836.872746	2544.474513
837.188871	2545.631458
837.504952	2545.054246
837.820990	2542.667259
838.136984	2542.400078
838.452935	2543.312527
838.768842	2542.878988
839.084706	2543.241951
839.400526	2544.955943
839.716303	2550.397869
840.032037	2556.517829
840.347727	2553.856100
840.663373	2551.811912
840.978977	2549.314021
841.294537	2547.463917
841.610054	2543.420912
841.925527	2543.967877
842.240957	2544.671118
842.556344	2543.252033
842.871687	2541.865716
843.186987	2541.994265
843.502244	2539.463606
843.817458	2539.602238
844.132629	2537.275745
844.447756	2538.460416
844.762840	2536.721218
845.077881	2535.075282
845.392879	2535.425642
845.707833	2536.446475
846.022745	2532.670651
846.337613	2537.832793
846.652438	2538.173071
846.967221	2538.258770
847.281960	2538.969573
847.596656	2536.524613
847.911309	2537.394212
848.225919	2539.647608
848.540485	2539.211548
848.855009	2540.759182
849.169490	2536.219623
849.483928	2540.199614
849.798323	2535.932278
850.112675	2540.267670
850.426984	2537.129552
850.741251	2538.967052
851.055474	2538.740200
851.369654	2541.427135
851.683792	2536.988399
851.997887	2538.465457
852.311938	2536.401105
852.625947	2536.166691
852.939914	2538.664583
853.253837	2537.931095
853.567718	2540.078627
853.881555	2535.803728
854.195350	2538.561239
854.509103	2535.977648
854.822812	2536.262473
855.136479	2538.651980
855.450103	2539.571991
855.763685	2538.984696
856.077224	2537.111908
856.390720	2538.029398
856.704173	2536.136444
857.017584	2540.156765
857.330953	2537.464788
857.644278	2539.743390
857.957561	2538.009233
858.270802	2542.150541
858.584000	2538.475540
858.897155	2538.122659
859.210268	2537.353883
859.523339	2540.161806
859.836367	2538.394881
860.149352	2535.521424
860.462295	2538.412525
860.775195	2532.824406
861.088054	2534.919006
861.400869	2534.861033
861.713642	2534.934129
862.026373	2536.920344
862.339062	2538.357073
862.651708	2539.193904
862.964312	2538.778009
863.276873	2540.035777
863.589392	2538.442772
863.901869	2539.345139
864.214303	2535.866743
864.526696	2535.707946
864.839045	2540.050900
865.151353	2538.097453
865.463619	2536.590148
865.775842	2539.619882
866.088023	2539.589635
866.400162	2542.090047
866.712258	2540.373534
867.024313	2537.981507
867.336325	2538.029398
867.648296	2540.655839
867.960224	2536.766589
868.272110	2539.100643
868.583954	2540.028215
868.895755	2539.340098
869.207515	2540.244985
869.519233	2540.222300
869.830909	2535.516382
870.142542	2542.889070
870.454134	2539.027546
870.765684	2539.806404
871.077191	2544.915614
871.388657	2540.204656
871.700081	2541.870757
872.011463	2542.740356
872.322803	2538.588966
872.634101	2540.532331
872.945357	2541.442259
873.256571	2540.509645
873.567744	2539.297248
873.878874	2538.115097
874.189963	2542.936961
874.501010	2539.108205
874.812015	2541.361600
875.122979	2542.750438
875.433900	2538.525951
875.744780	2541.817825
876.055618	2540.902855
876.366415	2542.412681
876.677169	2539.841692
876.987882	2540.008051
877.298554	2539.466127
877.609183	2539.844213
877.919771	2540.524769
878.230317	2539.831610
878.540822	2543.562064
878.851285	2544.998793
879.161707	2547.116077
879.472087	2549.515667
879.782425	2553.301573
880.092722	2562.141237
880.402977	2571.669017
880.713191	2590.830443
881.023363	2611.723505
881.333494	2627.078860
881.643583	2629.581793
881.953631	2628.447533
882.263637	2621.815895
882.573602	2615.383383
882.883526	2606.339553
883.193408	2594.112234
883.503248	2584.826429
883.813048	2578.779565
884.122806	2572.180694
884.432522	2568.253636
884.742197	2563.278017
885.051831	2558.987995
885.361424	2555.383570
885.670975	2551.950544
885.980485	2550.113043
886.289954	2545.747404
886.599382	2549.003990
886.908768	2550.065153
887.218113	2545.341591
887.527417	2547.428629
887.836680	2545.417209
888.145901	2542.689944
888.455082	2543.796478
888.764221	2541.575849
889.073319	2543.267157
889.382376	2543.310006
889.691392	2541.051569
890.000366	2542.488298
890.309300	2543.849410
890.618193	2543.332692
890.927044	2541.863195
891.235855	2540.996117
891.544625	2542.989893
891.853353	2543.146169
892.162041	2543.720860
892.470687	2545.308824
892.779293	2544.993752
893.087858	2544.802188
893.396381	2545.044163
893.704864	2549.929041
894.013306	2550.221428
894.321707	2560.086966
894.630068	2566.108625
894.938387	2573.761096
895.246665	2570.985941
895.554903	2564.576114
895.863100	2563.126782
896.171256	2557.712583
896.479371	2557.533622
896.787446	2551.834597
897.095480	2549.810574
897.403473	2549.278733
897.711425	2547.819318
898.019336	2548.217570
898.327207	2547.219421
898.635038	2546.687579
898.942827	2543.350336
899.250576	2543.231868
899.558284	2543.173895
899.865952	2544.429142
900.173579	2541.303627
900.481165	2539.415715
900.788711	2542.349667
901.096216	2541.366642
901.403681	2539.040149
901.711105	2541.903524
902.018489	2540.897814
902.325832	2545.041643
902.633135	2539.110725
902.940397	2543.065510
903.247619	2545.555840
903.554800	2550.077755
903.861941	2562.017728
904.169041	2575.427197
904.476101	2583.709813
904.783121	2582.240317
905.090100	2576.788309
905.397039	2568.999726
905.703938	2564.417318
906.010796	2556.157387
906.317614	2552.225287
906.624391	2549.553475
906.931129	2548.245296
907.237826	2543.698175
907.544483	2543.940151
907.851099	2541.737166
908.157675	2542.568957
908.464211	2540.098791
908.770707	2535.513862
909.077163	2535.576876
909.383578	2535.307175
909.689954	2531.470857
909.996289	2533.326001
910.302584	2540.118956
910.608839	2538.621733
910.915054	2537.447144
911.221229	2536.867412
911.527363	2539.146013
911.833458	2538.538554
912.139513	2539.687937
912.445527	2536.070909
912.751502	2538.873791
913.057436	2537.794984
913.363331	2537.598379
913.669186	2541.046528
913.975000	2543.738504
914.280775	2545.331509
914.586510	2545.646581
914.892205	2553.994732
915.197859	2555.723848
915.503475	2564.835733
915.809050	2570.257494
916.114585	2576.228741
916.420081	2578.252764
916.725536	2577.670511
917.030952	2571.777402
917.336328	2568.183059
917.641665	2566.307750
917.946961	2559.101421
918.252218	2555.204609
918.557435	2553.568754
918.862612	2550.473486
919.167750	2549.820657
919.472848	2547.045501
919.777906	2545.608773
920.082925	2544.446787
920.387904	2540.756662
920.692843	2540.171888
920.997743	2541.991745
921.302603	2540.769265
921.607423	2539.771116
921.912204	2543.557023
922.216946	2538.808256
922.521647	2539.118287
922.826310	2537.311033
923.130932	2540.789429
923.435516	2538.641898
923.740059	2540.025695
924.044564	2538.087371
924.349028	2538.921682
924.653454	2531.992616
924.957840	2534.240971
925.262186	2530.311391
925.566493	2535.581918
925.870761	2531.622091
926.174989	2536.219623
926.479178	2533.089067
926.783328	2535.120652
927.087438	2534.230888
927.391509	2533.983872
927.695541	2530.376926
927.999533	2532.990764
928.303486	2534.911444
928.607400	2534.946732
928.911275	2532.342976
929.215110	2534.019160
929.518906	2532.917668
929.822663	2532.589993
930.126381	2535.350024
930.430060	2535.067720
930.733699	2534.898841
931.037299	2533.847761
931.340861	2535.566794
931.644383	2534.041845
931.947866	2533.104190
932.251309	2533.593182
932.554714	2531.952287
932.858080	2534.787936
933.161407	2533.933460
933.464694	2532.499252
933.767943	2534.548481
934.071153	2536.222144
934.374323	2532.766433
934.677455	2532.761392
934.980548	2532.776515
935.283602	2532.027904
935.586617	2530.293747
935.889593	2531.773326
936.192530	2533.479756
936.495428	2535.085364
936.798287	2532.564787
937.101108	2534.634181
937.403890	2535.962525
937.706632	2536.985879
938.009336	2532.403470
938.312002	2534.727442
938.614628	2540.401261
938.917216	2536.438914
939.219765	2538.646939
939.522275	2537.046373
939.824747	2536.222144
940.127179	2535.445806
940.429573	2530.112266
940.731929	2534.545960
941.034246	2531.359951
941.336524	2534.850950
941.638763	2533.348686
941.940964	2536.191897
942.243126	2534.261135
942.545250	2535.160981
942.847335	2533.144520
943.149381	2533.545291
943.451389	2531.657379
943.753359	2534.450178
944.055290	2534.944212
944.357182	2534.520755
944.659036	2533.525127
944.960851	2534.954294
945.262628	2532.133768
945.564367	2533.489839
945.866067	2534.528316
946.167729	2533.953625
946.469352	2532.378264
946.770937	2535.423121
947.072484	2531.700229
947.373992	2535.289531
947.675462	2534.356917
947.976893	2535.619726
948.278286	2534.654345
948.579641	2534.200641
948.880958	2535.821372
949.182236	2529.804755
949.483476	2533.368851
949.784678	2532.373223
950.085841	2532.282482
950.386967	2530.407173
950.688054	2532.693336
950.989103	2532.726104
951.290114	2533.131917
951.591087	2531.309540
951.892021	2534.165353
952.192917	2534.127545
952.493776	2533.726773
952.794596	2534.500590
953.095378	2534.866074
953.396122	2535.874304
953.696828	2533.094108
953.997496	2535.445806
954.298126	2532.642925
954.598718	2533.459592
954.899272	2532.695857
955.199788	2534.878677
955.500266	2532.287523
955.800706	2532.131248
956.101108	2528.864580
956.401472	2528.970444
956.701798	2527.677388
957.002087	2529.608150
957.302337	2532.259797
957.602550	2531.627132
957.902724	2532.239632
958.202861	2534.598892
958.502960	2530.581093
958.803022	2533.076464
959.103045	2530.233253
959.403031	2531.065044
959.702979	2531.594365
960.002889	2531.450692
960.302762	2529.162008
960.602596	2532.741227
960.902393	2532.307688
961.202153	2530.318953
961.501875	2529.653521
961.801559	2532.002698
962.101205	2528.468849
962.400814	2529.993798
962.700385	2532.111083
962.999918	2529.303160
963.299414	2528.362985
963.598873	2531.957328
963.898293	2530.727286
964.197677	2531.871628
964.497022	2527.488345
964.796331	2529.812317
965.095601	2528.957841
965.394835	2532.257277
965.694030	2529.560259
965.993189	2529.217461
966.292309	2528.950280
966.591393	2528.952800
966.890439	2528.337779
967.189447	2533.691485
967.488419	2529.288037
967.787353	2532.320291
968.086249	2529.174611
968.385108	2530.555887
968.683930	2530.482790
968.982714	2529.870290
969.281462	2530.732328
969.580172	2531.004550
969.878844	2531.695188
970.177480	2531.019673
970.476078	2532.093439
970.774639	2528.864580
971.073162	2532.405991
971.371649	2526.724610
971.670098	2527.120341
971.968510	2526.298633
972.266885	2526.167563
972.565223	2530.071936
972.863524	2530.326515
973.161788	2530.954138
973.460014	2531.317101
973.758204	2529.260311
974.056356	2530.092101
974.354471	2532.514375
974.652550	2531.062523
974.950591	2528.715866
975.248595	2530.984385
975.546563	2529.696370
975.844493	2527.916843
976.142386	2530.550846
976.440243	2528.713345
976.738062	2528.153777
977.035845	2529.086391
977.333590	2530.944056
977.631299	2529.514889
977.928971	2528.718387
978.226606	2532.242153
978.524204	2531.407842
978.821765	2529.189734
979.119290	2529.335928
979.416777	2529.167049
979.714228	2528.463808
980.011642	2530.961700
980.309020	2530.656710
980.606360	2528.209230
980.903664	2529.648479
981.200931	2528.927594
981.498162	2529.383819
981.795356	2528.267203
982.092513	2532.221988
982.389633	2529.855167
982.686717	2534.056968
982.983764	2532.358100
983.280775	2531.193593
983.577749	2530.409694
983.874686	2533.434386
984.171587	2530.260980
984.468451	2529.761905
984.765279	2529.330887
985.062070	2532.083357
985.358824	2529.184693
985.655543	2530.122348
985.952224	2528.725948
986.248869	2530.139992
986.545478	2527.838705
986.842050	2530.374406
987.138586	2526.966586
987.435086	2524.884589
987.731549	2524.236801
988.027975	2527.533715
988.324366	2526.591020
988.620719	2530.041689
988.917037	2528.000022
989.213318	2527.884076
989.509563	2527.962213
989.805772	2527.042203
990.101944	2530.460105
990.398080	2528.781401
990.694180	2528.340300
990.990244	2532.380785
991.286271	2529.434230
991.582262	2529.799714
991.878217	2528.015146
992.174136	2528.078160
992.470019	2528.950280
992.765865	2531.060003
993.061676	2528.516740
993.357450	2528.925074
993.653188	2529.174611
993.948890	2526.248221
994.244556	2529.023376
994.540186	2527.359796
994.835780	2527.526154
995.131337	2527.117820
995.426859	2528.670496
995.722345	2526.890968
996.017795	2526.961544
996.313208	2531.349869
996.608586	2527.004394
996.903928	2528.993129
997.199234	2530.374406
997.494504	2527.528674
997.789738	2528.065557
998.084936	2529.955990
998.380099	2528.400794
998.675225	2529.464477
998.970316	2530.616381
999.265371	2528.829292
999.560390	2529.025897
999.855373	2527.846267
1000.150320	2526.802748
1000.445232	2530.835671
1000.740108	2528.806607
1001.034948	2528.894827
1001.329752	2526.628828
1001.624521	2528.184024
1001.919254	2523.374763
1002.213951	2524.700587
1002.508613	2523.823426
1002.803239	2526.104548
1003.097829	2524.345186
1003.392384	2528.526823
1003.686903	2526.427182
1003.981386	2527.589168
1004.275834	2527.538757
1004.570246	2528.708304
1004.864623	2527.120341
1005.158964	2529.154446
1005.453270	2524.922398
1005.747540	2528.799045
1006.041775	2528.229395
1006.335974	2528.846936
1006.630138	2527.891637
1006.924266	2526.928777
1007.218359	2525.187058
1007.512416	2527.085053
1007.806438	2527.233767
1008.100425	2527.873993
1008.394376	2526.429703
1008.688292	2529.164529
1008.982172	2527.468180
1009.276017	2528.877183
1009.569827	2527.989940
1009.863602	2528.879703
1010.157341	2527.377440
1010.451045	2526.407017
1010.744714	2528.546987
1011.038347	2526.643952
1011.331945	2525.996163
1011.625508	2528.191586
1011.919036	2527.523633
1012.212528	2528.874662
1012.505986	2526.099507
1012.799408	2526.684281
1013.092795	2530.034128
1013.386147	2528.042872
1013.679464	2528.839374
1013.972745	2525.885258
1014.265992	2526.588499
1014.559204	2527.785773
1014.852380	2526.223015
1015.145521	2525.915505
1015.438628	2526.659075
1015.731699	2528.045392
1016.024736	2525.885258
1016.317737	2529.303160
1016.610703	2525.413910
1016.903635	2526.117151
1017.196531	2523.223529
1017.489393	2525.292923
1017.782219	2521.633045
1018.075011	2526.094466
1018.367768	2526.855680
1018.660490	2524.317459
1018.953177	2524.317459
1019.245829	2524.317459
