Dividing Wavelength (nm)	Counts (n)	Blue Motor Position (mm): 0.000000	Red Motor Position (mm): 18.500000	
326.493990	2081.212639
326.888308	2081.212639
327.282561	2081.212639
327.676750	2057.488969
328.070874	2057.804041
328.464933	2067.024312
328.858929	2078.334140
329.252859	2088.391242
329.646726	2104.467482
330.040528	2118.068515
330.434265	2139.868985
330.827938	2158.362458
331.221547	2180.036898
331.615091	2196.370237
332.008571	2216.897815
332.401986	2241.110477
332.795338	2260.408014
333.188625	2282.248813
333.581847	2296.238015
333.975006	2316.095120
334.368100	2334.124807
334.761129	2352.459483
335.154095	2367.303161
335.546996	2385.826881
335.939833	2403.687689
336.332606	2416.774524
336.725315	2425.364650
337.117960	2437.019798
337.510540	2443.931220
337.903056	2452.241562
338.295508	2459.405042
338.687896	2466.616412
339.080220	2476.328195
339.472480	2480.489668
339.864676	2482.206181
340.256807	2488.293374
340.648875	2487.131388
341.040879	2492.643890
341.432818	2488.661378
341.824694	2489.294043
342.216506	2489.601553
342.608253	2491.370998
342.999937	2486.092910
343.391557	2485.740029
343.783113	2486.957468
344.174605	2485.803044
344.566033	2481.931438
344.957397	2482.584267
345.348697	2479.209215
345.739934	2477.585963
346.131106	2476.728967
346.522215	2474.568832
346.913260	2471.287041
347.304241	2470.377113
347.695159	2471.143368
348.086012	2471.639922
348.476802	2468.524489
348.867528	2465.782101
349.258191	2464.738582
349.648789	2465.968624
350.039324	2460.365382
350.429796	2462.845629
350.820203	2461.723973
351.210548	2459.768005
351.600828	2460.995526
351.991045	2460.667851
352.381198	2461.703808
352.771288	2459.455453
353.161314	2460.015021
353.551276	2461.441668
353.941175	2457.864969
354.331010	2464.287399
354.720782	2460.398149
355.110490	2463.221195
355.500135	2460.932511
355.889717	2463.410238
356.279235	2460.524178
356.668689	2465.265383
357.058080	2463.861422
357.447408	2463.871504
357.836672	2459.599126
358.225873	2465.144395
358.615010	2460.922429
359.004084	2465.777060
359.393095	2469.651187
359.782043	2471.392906
360.170927	2469.822586
360.559748	2468.655559
360.948505	2473.341312
361.337199	2475.945067
361.725830	2469.507514
362.114398	2473.563122
362.502903	2473.243009
362.891344	2473.837865
363.279722	2476.204687
363.668037	2478.117805
364.056289	2474.115129
364.444478	2476.086220
364.832603	2476.673514
365.220665	2479.902373
365.608665	2478.596714
365.996601	2481.593680
366.384474	2479.693165
366.772284	2484.041161
367.160031	2478.407671
367.547715	2484.540235
367.935336	2481.996973
368.322893	2483.257261
368.710388	2481.026551
369.097820	2486.370174
369.485189	2488.290853
369.872495	2487.181799
370.259738	2489.200782
370.646918	2493.324445
371.034035	2491.519712
371.421090	2495.199755
371.808081	2498.431134
372.195010	2499.842657
372.581875	2506.280211
372.968678	2511.162568
373.355418	2515.518125
373.742096	2525.194620
374.128710	2536.330529
374.515262	2547.461397
374.901751	2558.816596
375.288177	2573.942578
375.674540	2590.633838
376.060841	2609.444904
376.447079	2630.653038
376.833254	2653.416368
377.219367	2675.783968
377.605417	2708.816128
377.991404	2730.452761
378.377329	2766.035745
378.763191	2800.882721
379.148991	2840.269256
379.534727	2890.000239
379.920402	2935.005140
380.306013	2980.778817
380.691563	3038.399205
381.077049	3088.851073
381.462474	3143.045997
381.847835	3209.962273
382.233134	3280.757717
382.618371	3335.512210
383.003545	3415.641350
383.388657	3489.267402
383.773706	3578.750403
384.158693	3646.891680
384.543618	3737.299733
384.928480	3809.688182
385.313280	3909.450096
385.698017	4007.785363
386.082692	4120.971870
386.467305	4183.177188
386.851856	4296.106596
387.236344	4447.618475
387.620770	4510.678268
388.005133	4619.005103
388.389435	4757.465434
388.773674	4837.771015
389.157851	4968.548628
389.541965	5093.985138
389.926018	5114.827789
390.310008	5283.207369
390.693936	5402.665071
391.077802	5518.062123
391.461606	5643.370085
391.845348	5751.162557
392.229027	5870.723603
392.612645	6079.891158
392.996200	6195.096647
393.379694	6363.133428
393.763125	6572.908442
394.146494	6667.593914
394.529801	6794.273069
394.913047	7027.607916
395.296230	7022.632297
395.679351	7079.967861
396.062410	7325.131775
396.445408	7232.540902
396.828343	7382.217801
397.211217	7509.280084
397.594028	7400.323105
397.976778	7598.180832
398.359466	7757.221674
398.742092	7744.674242
399.124656	7882.504430
399.507158	8067.628202
399.889598	8091.866069
400.271977	8297.388871
400.654294	8333.266763
401.036549	8527.688943
401.418742	8556.940238
401.800874	8845.758024
402.182944	8929.645345
402.564952	9282.750445
402.946898	9125.501733
403.328783	9171.015791
403.710606	9361.941931
404.092367	9614.032391
404.474067	9965.468870
404.855705	9773.965517
405.237282	9734.581503
405.618797	10151.668928
406.000250	10389.941585
406.381642	10741.816644
406.762972	10695.682525
407.144240	10500.531898
407.525447	10753.519683
407.906593	10699.357526
408.287677	10958.014089
408.668700	11101.651685
409.049661	11087.901938
409.430560	11246.315157
409.811399	11222.044521
410.192176	11372.401976
410.572891	11449.917278
410.953545	11919.591500
411.334138	11404.380535
411.714669	11976.571662
412.095139	11327.457569
412.475547	11795.022068
412.855894	11655.674493
413.236180	11962.461472
413.616405	11655.767754
413.996568	11919.188207
414.376670	11877.157587
414.756711	11755.091088
415.136691	12013.268741
415.516609	12173.164059
415.896466	12230.189591
416.276262	12485.314825
416.655997	12921.109973
417.035670	12929.924430
417.415283	13504.386596
417.794834	13555.125809
418.174324	13282.149849
418.553753	13148.168583
418.933121	13577.495930
419.312428	13358.223381
419.691674	13225.812434
420.070859	13614.866003
420.449983	13232.781830
420.829045	13680.988298
421.208047	13388.268658
421.586988	13730.706677
421.965867	13878.218401
422.344686	13793.889979
422.723444	14217.467890
423.102141	12955.747741
423.480777	13923.825719
423.859352	13384.651630
424.237866	14225.541298
424.616319	13875.576836
424.994712	14304.964677
425.373044	14004.862268
425.751314	14435.366724
426.129524	13602.253036
426.507673	14322.049147
426.885762	13969.763234
427.263789	13959.507006
427.641756	13948.517291
428.019662	13838.526876
428.397508	13707.708933
428.775292	13751.312394
429.153016	13564.242736
429.530679	13447.300570
429.908282	13290.371971
430.285824	12929.662290
430.663305	13222.951580
431.040726	12777.038837
431.418086	12475.267806
431.795385	12695.077237
432.172624	12783.451184
432.549802	12303.215746
432.926920	12227.918551
433.303977	11961.901904
433.680974	11915.737538
434.057910	11887.307950
434.434786	11706.708614
434.811601	11463.581326
435.188355	11801.731843
435.565050	11422.228741
435.941683	11197.408403
436.318257	11410.797924
436.694770	11110.902202
437.071222	11165.651654
437.447614	10532.094562
437.823946	10329.246093
438.200218	10188.602942
438.576429	9885.122960
438.952580	9805.001381
439.328670	9589.890305
439.704700	9542.581597
440.080670	9193.779121
440.456580	9203.740441
440.832429	9059.313904
441.208218	8527.893110
441.583947	8479.878640
441.959616	8336.611568
442.335224	8216.934576
442.710773	8071.991320
443.086261	8037.282976
443.461689	7673.919128
443.837057	7531.914865
444.212365	7521.477156
444.587612	7345.361926
444.962800	7073.222797
445.337927	7000.047928
445.712995	6557.114507
446.088002	6789.859539
446.462949	6670.169944
446.837837	6550.379526
447.212664	6385.654783
447.587431	6751.153560
447.962139	7096.638957
448.336786	7333.091757
448.711374	6884.358489
449.085901	6132.263705
449.460369	5942.527277
449.834776	5785.759996
450.209124	5964.907480
450.583412	5766.505308
450.957640	5683.147309
451.331808	5383.695209
451.705917	5089.495991
452.079965	4963.638544
452.453954	4874.725193
452.827883	4752.245319
453.201752	4622.266729
453.575562	4528.526473
453.949311	4516.407539
454.323001	4422.987397
454.696632	4306.627484
455.070202	4323.086851
455.443713	4244.318822
455.817164	4189.004762
456.190556	4133.025269
456.563888	4019.400182
456.937160	3953.401396
457.310373	3793.375008
457.683526	3741.042790
458.056619	3668.518230
458.429653	3603.053806
458.802628	3567.382602
459.175542	3515.085672
459.548398	3513.706916
459.921194	3517.034077
460.293930	3497.819720
460.666607	3520.772093
461.039224	3525.301570
461.411782	3478.905310
461.784280	3393.798031
462.156719	3330.647496
462.529099	3276.197994
462.901419	3204.850543
463.273680	3148.566061
463.645882	3119.279477
464.018024	3095.860797
464.390106	3084.263623
464.762130	3115.223869
465.134094	3172.987930
465.505999	3246.792943
465.877845	3295.568627
466.249631	3280.286369
466.621358	3224.657237
466.993026	3172.178825
467.364634	3121.275774
467.736184	3076.467478
468.107674	3044.496481
468.479105	3020.321627
468.850477	3000.658607
469.221790	2975.072230
469.593043	2945.037036
469.964238	2926.876279
470.335373	2913.645771
470.706449	2931.045313
471.077467	2954.373253
471.448425	2998.644666
471.819324	3028.062319
472.190164	3000.847650
472.560945	2955.021041
472.931667	2920.443767
473.302330	2902.023391
473.672934	2891.396638
474.043479	2888.795403
474.413965	2880.109495
474.784393	2871.103473
475.154761	2878.440873
475.525070	2876.152189
475.895321	2872.560367
476.265513	2872.182280
476.635645	2887.189795
477.005719	2881.921790
477.375734	2885.306924
477.745691	2895.079201
478.115588	2901.612537
478.485427	2924.781680
478.855207	2958.141515
479.224928	2978.094402
479.594591	2997.112155
479.964194	2986.187975
480.333739	2988.083448
480.703226	2986.946668
481.072653	2993.840446
481.442022	2997.654079
481.811333	2999.708349
482.180584	2986.530773
482.549777	2980.763693
482.918912	2975.493167
483.287988	2972.118114
483.657005	2961.047740
484.025964	2957.483645
484.394864	2957.183696
484.763706	2951.396451
485.132489	2941.619133
485.501213	2942.115687
485.869879	2942.687858
486.238487	2935.116045
486.607036	2938.934719
486.975527	2932.608071
487.343959	2934.317022
487.712333	2935.786518
488.080648	2933.535643
488.448905	2935.476488
488.817104	2931.277206
489.185244	2943.665842
489.553326	2951.950978
489.921350	2978.593476
490.289315	3006.735718
490.657222	3013.937006
491.025070	3009.853671
491.392861	2998.377485
491.760593	2985.169662
492.128267	2965.799028
492.495883	2948.850669
492.863440	2934.972372
493.230939	2918.177768
493.598380	2907.682086
493.965763	2893.962586
494.333088	2889.468397
494.700354	2880.187633
495.067563	2878.173692
495.434713	2869.795294
495.801805	2875.214534
496.168839	2866.193390
496.535815	2863.103162
496.902733	2858.014117
497.269593	2855.024713
497.636395	2851.619414
498.003139	2851.896677
498.369825	2842.918382
498.736453	2847.082375
499.103023	2838.940912
499.469535	2837.539471
499.835989	2836.054851
500.202385	2832.659634
500.568723	2830.902792
500.935003	2831.739624
501.301226	2827.358861
501.667390	2830.065961
502.033497	2830.149140
502.399546	2827.860456
502.765537	2816.956440
503.131470	2821.735454
503.497345	2822.408448
503.863163	2811.469144
504.228923	2816.500216
504.594625	2818.582212
504.960269	2810.050059
505.325856	2816.117088
505.691385	2810.856644
506.056856	2811.287662
506.422270	2811.050728
506.787625	2811.335553
507.152924	2807.731128
507.518164	2809.908907
507.883347	2802.773154
508.248472	2805.689461
508.613540	2807.269863
508.978550	2810.433187
509.343503	2807.471509
509.708398	2809.354380
510.073236	2812.064000
510.438016	2813.011737
510.802738	2805.505459
511.167403	2811.774134
511.532010	2807.002682
511.896561	2811.816984
512.261053	2819.847542
512.625488	2810.599545
512.989866	2809.069555
513.354186	2809.949236
513.718449	2805.394554
514.082655	2810.138279
514.446803	2811.345636
514.810894	2814.229176
515.174927	2813.137766
515.538904	2811.993424
515.902822	2812.628609
516.266684	2807.640388
516.630488	2813.959474
516.994235	2807.688279
517.357925	2814.352684
517.721558	2813.142807
518.085133	2814.055256
518.448651	2816.487613
518.812112	2811.131387
519.175516	2811.161634
519.538863	2810.423105
519.902152	2812.575677
520.265385	2813.843527
520.628560	2813.737663
520.991678	2811.123825
521.354739	2810.975111
521.717743	2812.295893
522.080690	2808.366314
522.443580	2812.394196
522.806413	2812.048877
523.169189	2811.249854
523.531908	2809.498053
523.894569	2806.478402
524.257174	2807.824390
524.619722	2806.168371
524.982213	2808.346149
525.344647	2803.539409
525.707025	2803.602423
526.069345	2805.361786
526.431608	2803.736014
526.793815	2801.666620
527.155964	2799.146043
527.518057	2798.006743
527.880093	2792.958027
528.242072	2799.256949
528.603995	2794.586320
528.965860	2792.360650
529.327669	2792.053140
529.689421	2791.911988
530.051117	2787.989970
530.412755	2787.599281
530.774337	2785.378652
531.135862	2784.693055
531.497331	2784.352777
531.858743	2779.364556
532.220098	2782.245575
532.581396	2777.743825
532.942638	2774.875408
533.303824	2778.033691
533.664953	2774.792229
534.026025	2770.119080
534.387040	2774.333484
534.747999	2772.685027
535.108902	2772.947167
535.469748	2766.239912
535.830537	2763.593306
536.191270	2766.549943
536.551947	2765.377874
536.912567	2764.752771
537.273131	2764.271341
537.633638	2760.906371
537.994089	2761.110538
538.354483	2757.977461
538.714821	2761.100455
539.075103	2758.937800
539.435328	2757.939652
539.795497	2756.286153
540.155609	2754.514188
540.515665	2757.531318
540.875665	2751.988570
541.235609	2752.462438
541.595496	2752.321286
541.955328	2752.487644
542.315102	2751.844897
542.674821	2746.607138
543.034483	2746.541603
543.394090	2747.537231
543.753640	2742.173443
544.113134	2748.971439
544.472571	2743.325347
544.831953	2745.971953
545.191278	2742.206211
545.550548	2739.110942
545.909761	2740.424163
546.268918	2738.422825
546.628019	2742.904411
546.987064	2736.792012
547.346053	2734.833523
547.704986	2735.017525
548.063863	2735.998030
548.422684	2735.808987
548.781449	2731.702967
549.140158	2731.937380
549.498811	2729.933522
549.857408	2728.070815
550.215949	2729.540312
550.574434	2725.845146
550.932864	2726.500496
551.291237	2723.616956
551.649555	2726.646689
552.007817	2725.580485
552.366022	2721.837429
552.724173	2723.501009
553.082267	2725.993860
553.440305	2727.203737
553.798288	2720.521687
554.156215	2723.647203
554.514086	2720.657799
554.871902	2722.165104
555.229661	2720.650237
555.587365	2717.461707
555.945014	2717.320555
556.302606	2717.108826
556.660143	2716.140925
557.017625	2718.192674
557.375050	2713.907694
557.732421	2716.221583
558.089735	2717.617983
558.446994	2714.051367
558.804197	2716.892057
559.161345	2712.801160
559.518437	2709.685727
559.875474	2710.514997
560.232455	2711.646736
560.589381	2711.308979
560.946251	2712.090358
561.303065	2712.763352
561.659825	2709.610110
562.016528	2709.244626
562.373177	2706.194728
562.729770	2706.877805
563.086307	2706.703885
563.442789	2705.284800
563.799216	2707.049204
564.155587	2701.965200
564.511904	2703.792618
564.868164	2699.709284
565.224370	2704.710108
565.580520	2700.793132
565.936615	2701.584593
566.292654	2698.406146
566.648638	2700.359593
567.004567	2698.446475
567.360441	2700.984696
567.716260	2698.398584
568.072023	2699.300950
568.427732	2693.775846
568.783385	2694.216947
569.138982	2693.238963
569.494525	2691.875331
569.850013	2690.007583
570.205445	2694.663089
570.560823	2694.148891
570.916145	2689.188396
571.271412	2688.928776
571.626625	2690.080680
571.981782	2687.807120
572.336884	2687.464321
572.691931	2689.989939
573.046923	2685.374763
573.401860	2686.365350
573.756743	2683.199505
574.111570	2684.527849
574.466342	2686.990453
574.821059	2682.985256
575.175722	2680.363856
575.530330	2678.919565
575.884882	2676.038546
576.239380	2680.275636
576.593823	2679.622806
576.948211	2674.697599
577.302544	2674.135510
577.656823	2672.330777
578.011047	2676.845131
578.365216	2673.081909
578.719330	2670.488236
579.073389	2671.002433
579.427394	2668.635612
579.781344	2671.282217
580.135239	2668.275169
580.489080	2667.163595
580.842866	2668.179387
581.196597	2664.587565
581.550273	2665.197545
581.903895	2666.508245
582.257463	2666.795590
582.610975	2665.986485
582.964434	2664.698470
583.317837	2662.913902
583.671186	2662.359375
584.024481	2663.934736
584.377721	2661.701504
584.730906	2660.761329
585.084037	2664.643018
585.437113	2661.308294
585.790135	2660.105979
586.143103	2660.226967
586.496016	2657.739157
586.848874	2654.192706
587.201679	2656.083138
587.554428	2650.439567
587.907124	2652.629948
588.259765	2649.776655
588.612352	2656.781338
588.964884	2652.541728
589.317362	2655.916780
589.669786	2653.776811
590.022155	2651.495688
590.374470	2653.222284
590.726731	2653.935607
591.078937	2650.391676
591.431090	2647.631644
591.783188	2645.756335
592.135232	2646.552837
592.487222	2644.634678
592.839157	2646.930924
593.191038	2643.444966
593.542866	2645.370687
593.894639	2643.192908
594.246358	2642.507311
594.598022	2643.747435
594.949633	2638.116466
595.301190	2638.035808
595.652692	2639.795170
596.004141	2638.111425
596.355535	2638.282824
596.706876	2635.719397
597.058162	2634.159160
597.409395	2638.338277
597.760573	2637.030097
598.111698	2636.304171
598.462768	2635.477422
598.813785	2633.760909
599.164748	2632.051958
599.515657	2630.925260
599.866511	2631.005919
600.217312	2633.339973
600.568060	2632.157822
600.918753	2632.961886
601.269392	2629.929632
601.619978	2629.952317
601.970510	2633.801238
602.320988	2630.448871
602.671412	2632.172946
603.021783	2630.358130
603.372100	2626.284878
603.722363	2630.227060
604.072572	2630.973151
604.422728	2630.597585
604.772830	2622.967799
605.122878	2622.004938
605.472872	2624.399487
605.822813	2622.874537
606.172701	2625.359826
606.522534	2627.930815
606.872314	2628.318984
607.222041	2625.644652
607.571714	2626.196658
607.921333	2627.446864
608.270899	2626.176493
608.620411	2627.162039
608.969870	2624.951493
609.319276	2624.089456
609.668627	2624.820423
610.017926	2623.814713
610.367171	2625.511061
610.716362	2626.088273
611.065500	2626.864611
611.414585	2622.498972
611.763616	2626.274796
612.112594	2625.506020
612.461518	2627.812348
612.810389	2625.513582
613.159207	2627.295629
613.507971	2624.885958
613.856682	2627.376288
614.205340	2625.687501
614.553945	2624.636421
614.902496	2620.263220
615.250994	2624.782614
615.599439	2623.698766
615.947830	2622.400669
616.296169	2625.460649
616.644454	2627.000722
616.992686	2627.212450
617.340864	2625.546349
617.688990	2623.550052
618.037063	2627.439302
618.385082	2626.645321
618.733048	2622.680453
619.080961	2625.763119
619.428821	2626.481483
619.776628	2623.726492
620.124382	2624.187758
620.472083	2623.240021
620.819731	2622.327572
621.167326	2625.566514
621.514868	2621.972171
621.862357	2621.536111
622.209793	2622.793879
622.557176	2618.566872
622.904506	2614.465893
623.251783	2613.500512
623.599007	2615.799278
623.946179	2612.429267
624.293297	2612.719133
624.640363	2611.194184
624.987376	2614.891870
625.334336	2613.346757
625.681243	2612.467075
626.028097	2611.968001
626.374899	2613.598814
626.721647	2610.397682
627.068343	2610.710233
627.414987	2609.460027
627.761577	2609.959101
628.108115	2611.075717
628.454600	2606.611775
628.801032	2607.206631
629.147412	2607.499018
629.493739	2605.958946
629.840014	2606.609255
630.186236	2605.694285
630.532405	2606.490787
630.878521	2609.278546
631.224585	2604.270159
631.570597	2600.665734
631.916556	2602.596496
632.262462	2603.692947
632.608316	2602.215889
632.954117	2602.427617
633.299866	2601.736979
633.645562	2600.121290
633.991206	2599.990220
634.336797	2599.453337
634.682336	2601.676486
635.027823	2596.133737
635.373257	2598.956783
635.718639	2595.682554
636.063968	2594.177769
636.409245	2592.786411
636.754470	2594.815475
637.099642	2592.950248
637.444762	2591.901688
637.789829	2592.337748
638.134845	2590.873293
638.479808	2589.527305
638.824719	2589.587799
639.169577	2589.572675
639.514383	2588.740885
639.859137	2588.887078
640.203839	2588.014959
640.548489	2591.321956
640.893086	2582.225193
641.237632	2584.087900
641.582125	2583.538414
641.926566	2581.549679
642.270955	2585.186871
642.615292	2587.684763
642.959576	2586.835329
643.303809	2586.162335
643.647990	2586.409351
643.992118	2584.518918
644.336195	2586.293405
644.680219	2587.525967
645.024192	2584.965061
645.368112	2585.832139
645.711981	2588.037644
646.055797	2588.314907
646.399562	2586.442119
646.743274	2590.351533
647.086935	2588.259455
647.430544	2591.899168
647.774101	2589.555031
648.117606	2587.730133
648.461059	2591.790783
648.804460	2587.760380
649.147810	2590.981678
649.491108	2587.669640
649.834354	2586.338775
650.177548	2583.976994
650.520690	2583.659402
650.863781	2583.533373
651.206820	2585.950606
651.549807	2581.123701
651.892742	2582.930955
652.235626	2580.155800
652.578458	2580.569174
652.921238	2580.669997
653.263967	2580.942220
653.606644	2578.764441
653.949269	2580.203691
654.291843	2578.005748
654.634365	2578.030953
654.976836	2577.554564
655.319255	2576.074986
655.661622	2579.543300
656.003938	2578.119174
656.346203	2577.259657
656.688416	2578.187229
657.030577	2571.837896
657.372687	2574.809656
657.714746	2578.174626
658.056753	2574.716395
658.398708	2570.350756
658.740612	2569.337484
659.082465	2572.158009
659.424266	2572.342011
659.766016	2570.038204
660.107715	2576.301838
660.449362	2573.824111
660.790958	2574.638257
661.132503	2574.174471
661.473996	2574.131621
661.815438	2573.647670
662.156829	2575.477609
662.498168	2576.430387
662.839456	2575.197825
663.180693	2575.651529
663.521879	2575.061714
663.863013	2573.045252
664.204097	2573.811508
664.545129	2578.313258
664.886110	2575.691858
665.227040	2575.780078
665.567918	2575.777558
665.908746	2574.156827
666.249522	2577.970460
666.590248	2575.074317
666.930922	2574.693710
667.271545	2570.408729
667.612118	2574.744121
667.952639	2575.691858
668.293109	2576.632033
668.633528	2574.305541
668.973896	2573.927454
669.314213	2574.872671
669.654480	2573.259501
669.994695	2570.892680
670.334859	2571.308575
670.674973	2573.662794
671.015035	2571.656414
671.355047	2571.754717
671.695008	2575.777558
672.034918	2571.563153
672.374777	2572.329408
672.714585	2571.011147
673.054342	2573.720767
673.394049	2574.786971
673.733705	2573.178843
674.073310	2571.162381
674.412864	2570.270097
674.752368	2568.901424
675.091820	2573.430901
675.431223	2572.984758
675.770574	2571.096846
676.109875	2563.976217
676.449125	2567.706670
676.788324	2562.645352
677.127473	2564.704663
677.466571	2563.840105
677.805619	2563.603171
678.144616	2566.527040
678.483562	2569.503842
678.822458	2566.433779
679.161303	2568.041907
679.500098	2565.107956
679.838842	2565.856567
680.177535	2566.524520
680.516179	2563.310784
680.854771	2565.793552
681.193314	2568.543502
681.531805	2568.803121
681.870247	2572.969635
682.208638	2572.205900
682.546978	2571.885787
682.885268	2572.190777
683.223508	2573.325036
683.561697	2571.147258
683.899836	2571.754717
684.237925	2567.134499
684.575963	2571.273287
684.913951	2569.844120
685.251889	2571.880746
685.589776	2566.751372
685.927614	2567.452092
686.265401	2569.771023
686.603137	2567.336146
686.940824	2572.626837
687.278460	2571.792526
687.616046	2571.981569
687.953582	2574.464337
688.291068	2573.980386
688.628504	2573.824111
688.965889	2575.084399
689.303224	2571.812690
689.640510	2571.353945
689.977745	2569.100549
690.314930	2569.508883
690.652065	2568.881259
690.989150	2565.158367
691.326185	2565.269273
691.663170	2563.855229
692.000105	2563.260373
692.336990	2559.580330
692.673825	2559.275341
693.010610	2558.501523
693.347345	2553.472972
693.684030	2550.801161
694.020665	2553.218394
694.357251	2552.953734
694.693786	2553.142777
695.030272	2556.381718
695.366707	2554.420709
695.703093	2553.092365
696.039429	2552.434495
696.375716	2552.003476
696.711952	2550.017262
697.048139	2552.084135
697.384276	2553.969526
697.720363	2551.922818
698.056400	2550.357539
698.392388	2551.111192
698.728326	2553.354505
699.064214	2552.406768
699.400053	2549.722354
699.735842	2547.645399
700.071581	2548.699000
700.407270	2547.295038
700.742910	2546.939637
701.078501	2546.508618
701.414042	2548.948537
701.749533	2545.243289
702.084974	2546.979966
702.420366	2545.533155
702.755709	2546.947199
703.091002	2546.100285
703.426246	2547.123639
703.761440	2546.823691
704.096584	2543.337733
704.431679	2542.266488
704.766725	2540.701209
705.101721	2545.318906
705.436668	2543.345294
705.771565	2542.006868
706.106413	2545.132383
706.441212	2545.649102
706.775961	2546.601880
707.110661	2545.654143
707.445311	2546.349822
707.779913	2546.480892
708.114465	2547.910059
708.448967	2547.947868
708.783421	2547.088351
709.117825	2546.526263
709.452180	2547.166489
709.786485	2549.949206
710.120742	2550.753270
710.454949	2551.396017
710.789107	2548.648588
711.123216	2549.949206
711.457275	2552.361398
711.791286	2550.433157
712.125247	2550.634803
712.459159	2551.877447
712.793023	2554.468600
713.126837	2551.418702
713.460602	2553.929197
713.794318	2551.489278
714.127985	2553.735113
714.461602	2550.392827
714.795171	2548.802343
715.128691	2547.834442
715.462162	2546.445604
715.795584	2548.434339
716.128957	2547.055584
716.462281	2543.859492
716.795556	2544.860161
717.128782	2545.185316
717.461960	2543.310006
717.795088	2542.319420
718.128167	2544.401416
718.461198	2541.933771
718.794180	2542.780685
719.127113	2539.803884
719.459997	2542.889070
719.792833	2539.193904
720.125619	2538.031918
720.458357	2538.747762
720.791046	2540.252547
721.123686	2540.398740
721.456278	2538.606610
721.788821	2536.827083
722.121315	2538.357073
722.453761	2535.990251
722.786158	2541.533000
723.118506	2540.423946
723.450805	2537.618544
723.783056	2536.748945
724.115259	2536.839685
724.447412	2538.160468
724.779518	2537.273225
725.111574	2538.896476
725.443582	2537.432021
725.775542	2538.281455
726.107453	2540.169367
726.439315	2540.081147
726.771129	2545.971736
727.102895	2541.701878
727.434612	2544.207332
727.766281	2539.221631
728.097901	2543.055428
728.429473	2537.648791
728.760996	2541.462423
729.092471	2537.507638
729.423897	2543.957795
729.755276	2542.032074
730.086606	2543.269677
730.417887	2543.650284
730.749120	2544.769420
731.080305	2545.515511
731.411442	2545.570964
731.742530	2544.282949
732.073570	2544.885367
732.404562	2546.427960
732.735506	2544.393854
733.066401	2544.895449
733.397249	2546.798485
733.728048	2544.277908
734.058798	2541.732125
734.389501	2539.718184
734.720156	2542.200953
735.050762	2539.955118
735.381320	2535.067720
735.711831	2537.827752
736.042293	2536.338091
736.372707	2533.278110
736.703073	2536.660724
737.033391	2538.246167
737.363661	2534.908923
737.693883	2535.241640
738.024056	2539.466127
738.354182	2538.198276
738.684260	2539.138452
739.014290	2538.157947
739.344272	2538.876312
739.674207	2539.551826
740.004093	2542.269008
740.333931	2542.475695
740.663722	2540.481919
740.993464	2539.723225
741.323159	2544.429142
741.652806	2538.828421
741.982405	2538.810777
742.311956	2538.036959
742.641460	2537.966383
742.970915	2535.360107
743.300323	2535.889428
743.629683	2536.209541
743.958996	2537.905889
744.288260	2535.415559
744.617477	2533.515044
744.946647	2530.767616
745.275768	2532.025383
745.604842	2528.473891
745.933869	2531.133099
746.262847	2529.618233
746.591778	2531.574200
746.920662	2532.584952
747.249498	2533.817514
747.578286	2530.366844
747.907027	2533.056299
748.235720	2533.129396
748.564365	2534.114942
748.892963	2535.226516
749.221514	2532.877338
749.550017	2530.971782
749.878473	2532.645445
750.206881	2532.955476
750.535242	2533.169725
750.863555	2532.174097
751.191821	2532.302647
751.520039	2534.278779
751.848210	2532.315250
752.176334	2531.002029
752.504411	2534.861033
752.832440	2531.188552
753.160421	2528.201668
753.488356	2531.246525
753.816243	2534.203162
754.144082	2532.529499
754.471875	2532.857174
754.799620	2532.537061
755.127318	2532.562266
755.454969	2529.925743
755.782572	2534.659386
756.110129	2530.424817
756.437638	2532.600075
756.765100	2530.218130
757.092515	2531.601927
757.419882	2531.785929
757.747203	2529.751823
758.074477	2531.039838
758.401703	2529.845084
758.728882	2533.164684
759.056014	2531.818696
759.383099	2531.783408
759.710138	2530.717204
760.037129	2532.975641
760.364073	2533.641073
760.690970	2535.831455
761.017820	2533.492359
761.344623	2532.002698
761.671379	2534.311547
761.998088	2529.608150
762.324751	2536.958152
762.651366	2545.931406
762.977935	2553.621687
763.304456	2558.990515
763.630931	2562.834395
763.957359	2559.570248
764.283740	2557.450443
764.610074	2550.181099
764.936362	2546.521221
765.262602	2543.713299
765.588796	2539.561908
765.914943	2535.871784
766.241044	2534.659386
766.567097	2533.610826
766.893104	2530.999509
767.219064	2527.979858
767.544978	2530.187883
767.870845	2526.074301
768.196665	2528.746113
768.522438	2529.913140
768.848165	2528.181504
769.173846	2525.807120
769.499479	2526.157480
769.825066	2525.673530
770.150607	2524.642614
770.476101	2526.543129
770.801548	2527.695032
771.126949	2524.821575
771.452303	2524.072963
771.777611	2526.046575
772.102872	2520.806296
772.428087	2522.613549
772.753256	2521.900226
773.078378	2521.431399
773.403453	2520.072808
773.728482	2519.314114
774.053465	2521.517098
774.378401	2522.497603
774.703291	2521.141532
775.028135	2523.939373
775.352932	2520.203878
775.677683	2518.109278
776.002388	2522.951307
776.327046	2521.292767
776.651658	2521.297808
776.976224	2517.292611
777.300743	2518.938548
777.625216	2517.025430
777.949643	2519.850997
778.274024	2518.542818
778.598359	2517.668177
778.922647	2516.831346
779.246889	2517.191788
779.571086	2515.931500
779.895236	2520.125740
780.219339	2517.985770
780.543397	2519.835873
780.867409	2515.732374
781.191374	2520.103055
781.515294	2517.678260
781.839167	2520.569361
782.162995	2519.258661
782.486776	2521.444002
782.810511	2520.715555
783.134201	2520.128260
783.457844	2520.455935
783.781441	2519.908970
784.104993	2517.947961
784.428498	2517.557272
784.751958	2518.663805
785.075372	2517.978208
785.398739	2516.475944
785.722061	2517.539628
786.045337	2518.787313
786.368568	2517.133815
786.691752	2518.568023
787.014891	2516.728002
787.337983	2518.099196
787.661030	2522.878210
787.984031	2524.078004
788.306987	2526.011287
788.629897	2523.218488
788.952760	2528.176462
789.275579	2522.328724
789.598351	2524.191430
789.921078	2522.573220
790.243759	2521.723786
790.566395	2519.805627
790.888984	2518.832684
791.211529	2520.282016
791.534027	2520.466018
791.856480	2521.655730
792.178888	2520.198837
792.501249	2520.660102
792.823566	2519.568692
793.145836	2521.365864
793.468062	2517.529546
793.790241	2519.311593
794.112375	2519.782941
794.434464	2520.135822
794.756507	2521.827129
795.078505	2519.059536
795.400457	2520.428209
795.722364	2517.711027
796.044226	2517.779083
796.366042	2519.364526
796.687812	2517.012827
797.009538	2519.414937
797.331218	2521.403672
797.652852	2521.549866
797.974442	2520.284536
798.295986	2522.200175
798.617484	2519.946779
798.938938	2521.222191
799.260346	2519.586336
799.581709	2519.798065
799.903026	2519.452746
800.224299	2518.895698
800.545526	2519.049453
800.866708	2517.259844
801.187845	2519.810668
801.508936	2518.862931
801.829983	2519.442663
802.150984	2516.596932
802.471940	2515.424864
802.792851	2516.193640
803.113717	2517.506860
803.434538	2515.999555
803.755314	2516.677591
804.076045	2517.983249
804.396731	2516.793537
804.717372	2517.547190
805.037967	2516.385204
805.358518	2514.552744
805.679024	2520.702952
805.999485	2517.864782
806.319901	2517.811850
806.640272	2518.724299
806.960598	2517.854700
807.280879	2515.510563
807.601115	2520.166069
807.921306	2517.360667
808.241453	2519.818229
808.561554	2517.431243
808.881611	2517.511902
809.201623	2515.543331
809.521590	2517.234638
809.841513	2516.269257
810.161390	2516.854031
810.481223	2516.624658
810.801011	2517.360667
811.120755	2518.336130
811.440453	2516.869154
811.760107	2515.845800
812.079716	2515.445028
812.399281	2513.935203
812.718801	2515.243382
813.038276	2511.223062
813.357707	2517.146418
813.677093	2513.007631
813.996434	2516.750687
814.315731	2514.535100
814.634983	2517.043074
814.954191	2514.542662
815.273354	2516.823784
815.592473	2514.620800
815.911547	2518.550379
816.230577	2519.417458
816.549562	2517.819412
816.868502	2518.598270
817.187399	2520.133302
817.506250	2520.067767
817.825058	2516.924607
818.143821	2520.440812
818.462539	2521.980884
818.781213	2521.915349
819.099843	2523.578930
819.418429	2527.735362
819.736970	2531.574200
820.055466	2530.823068
820.373919	2538.115097
820.692327	2542.442928
821.010691	2557.823488
821.329011	2585.002869
821.647286	2631.938532
821.965517	2672.275325
822.283704	2701.418235
822.601847	2704.470654
822.919945	2686.869465
823.237999	2663.536484
823.556010	2641.148720
823.873976	2622.446039
824.191897	2603.826538
824.509775	2588.950093
824.827609	2576.563978
825.145398	2568.714901
825.463144	2567.663821
825.780845	2568.467885
826.098502	2570.617937
826.416116	2582.076479
826.733685	2593.461925
827.051210	2594.147522
827.368692	2590.911102
827.686129	2577.128587
828.003522	2568.513255
828.320872	2551.968188
828.638177	2545.404606
828.955439	2540.910417
829.272656	2535.574356
829.589830	2526.883407
829.906960	2528.264683
830.224046	2525.111441
830.541088	2524.453570
830.858086	2522.757222
831.175041	2519.777900
831.491952	2518.920904
831.808819	2523.765453
832.125642	2525.345855
832.442421	2525.010618
832.759157	2531.485980
833.075849	2540.673483
833.392497	2547.915100
833.709101	2556.298539
834.025662	2554.864331
834.342179	2548.779658
834.658653	2542.672300
834.975083	2536.506969
835.291469	2538.583925
835.607811	2527.498427
835.924110	2524.138498
836.240366	2525.053468
836.556578	2519.694721
836.872746	2520.347551
837.188871	2517.680780
837.504952	2518.424350
837.820990	2517.101048
838.136984	2518.565503
838.452935	2512.332116
838.768842	2516.221366
839.084706	2517.998373
839.400526	2521.817047
839.716303	2526.472552
840.032037	2527.264014
840.347727	2529.028417
840.663373	2522.684125
840.978977	2520.516429
841.294537	2520.609691
841.610054	2515.192971
841.925527	2518.119361
842.240957	2516.753208
842.556344	2517.148938
842.871687	2511.500326
843.186987	2512.692558
843.502244	2511.643998
843.817458	2509.864471
844.132629	2511.782630
844.447756	2509.960253
844.762840	2505.700478
845.077881	2507.124604
845.392879	2506.600324
845.707833	2508.717609
846.022745	2504.765344
846.337613	2509.957733
846.652438	2507.769872
846.967221	2506.527227
847.281960	2505.934892
847.596656	2508.611744
847.911309	2508.904131
848.225919	2511.165089
848.540485	2508.689882
848.855009	2507.548061
849.169490	2508.997393
849.483928	2507.737104
849.798323	2506.905314
850.112675	2507.860612
850.426984	2509.531755
850.741251	2510.285407
851.055474	2507.129645
851.369654	2510.050994
851.683792	2507.550582
851.997887	2508.216014
852.311938	2507.669049
852.625947	2509.584687
852.939914	2508.694923
853.253837	2510.721467
853.567718	2507.968997
853.881555	2506.902793
854.195350	2506.350787
854.509103	2508.760458
854.822812	2508.606703
855.136479	2508.047135
855.450103	2507.895901
855.763685	2506.864985
856.077224	2506.628050
856.390720	2507.364059
856.704173	2506.141579
857.017584	2506.822135
857.330953	2509.062928
857.644278	2509.589728
857.957561	2512.289266
858.270802	2508.916734
858.584000	2506.711229
858.897155	2508.132835
859.210268	2508.697444
859.523339	2507.467403
859.836367	2505.897083
860.149352	2507.356497
860.462295	2509.357835
860.775195	2506.252484
861.088054	2505.700478
861.400869	2507.797598
861.713642	2502.695950
862.026373	2508.959584
862.339062	2507.250633
862.651708	2509.922444
862.964312	2508.400016
863.276873	2508.294152
863.589392	2508.682321
863.901869	2507.976559
864.214303	2509.042763
864.526696	2508.563853
864.839045	2508.198370
865.151353	2509.017557
865.463619	2508.604183
865.775842	2508.737773
866.088023	2510.124091
866.400162	2507.782475
866.712258	2507.719460
867.024313	2507.071672
867.336325	2508.846158
867.648296	2510.406395
867.960224	2509.730881
868.272110	2510.209790
868.583954	2507.416991
868.895755	2510.476971
869.207515	2508.727691
869.519233	2512.231293
869.830909	2510.217352
870.142542	2509.773730
870.454134	2508.321878
870.765684	2510.050994
871.077191	2511.076869
871.388657	2510.366066
871.700081	2511.860768
872.011463	2511.926303
872.322803	2509.410767
872.634101	2511.129801
872.945357	2512.069976
873.256571	2510.383710
873.567744	2510.398833
873.878874	2510.950840
874.189963	2511.618793
874.501010	2513.368073
874.812015	2509.468741
875.122979	2511.822959
875.433900	2511.578463
875.744780	2514.860255
876.055618	2509.022598
876.366415	2512.279184
876.677169	2512.231293
876.987882	2509.781292
877.298554	2508.062259
877.609183	2509.688031
877.919771	2509.579646
878.230317	2511.207939
878.540822	2516.836387
878.851285	2516.969978
879.161707	2516.198681
879.472087	2523.742768
879.782425	2527.692512
880.092722	2538.709953
880.402977	2554.599670
880.713191	2571.926116
881.023363	2587.735175
881.333494	2602.898965
881.643583	2604.315530
881.953631	2605.104470
882.263637	2597.227667
882.573602	2588.705597
882.883526	2580.680080
883.193408	2572.919223
883.503248	2568.349417
883.813048	2557.062274
884.122806	2554.173693
884.432522	2546.516180
884.742197	2539.279604
885.051831	2536.345652
885.361424	2532.660569
885.670975	2532.262318
885.980485	2525.466842
886.289954	2523.430216
886.599382	2519.916532
886.908768	2521.214629
887.218113	2519.281347
887.527417	2517.438805
887.836680	2517.406037
888.145901	2515.571057
888.455082	2512.581653
888.764221	2512.720285
889.073319	2514.925790
889.382376	2513.093330
889.691392	2513.937723
890.000366	2514.668691
890.309300	2513.816736
890.618193	2512.082579
890.927044	2514.933351
891.235855	2511.880933
891.544625	2511.202897
891.853353	2513.526869
892.162041	2512.725326
892.470687	2516.690193
892.779293	2516.044926
893.087858	2511.412105
893.396381	2515.702127
893.704864	2521.249917
894.013306	2524.695546
894.321707	2534.407329
894.630068	2537.789943
894.938387	2539.904707
895.246665	2536.544778
895.554903	2535.027391
895.863100	2532.085877
896.171256	2530.686957
896.479371	2527.117820
896.787446	2524.655217
897.095480	2522.414424
897.403473	2520.516429
897.711425	2518.880575
898.019336	2520.934845
898.327207	2514.676253
898.635038	2517.733712
898.942827	2518.210101
899.250576	2516.798578
899.558284	2513.340347
899.865952	2516.778414
900.173579	2508.841117
900.481165	2512.679956
900.788711	2511.210459
901.096216	2512.684997
901.403681	2512.737929
901.711105	2511.875892
902.018489	2510.550068
902.325832	2512.939575
902.633135	2514.698938
902.940397	2513.050480
903.247619	2514.093999
903.554800	2527.080012
903.861941	2532.479087
904.169041	2543.914945
904.476101	2545.850748
904.783121	2542.780685
905.090100	2537.593338
905.397039	2535.753317
905.703938	2530.238294
906.010796	2524.705628
906.317614	2521.078518
906.624391	2522.235463
906.931129	2520.236645
907.237826	2517.854700
907.544483	2515.593743
907.851099	2515.286232
908.157675	2513.516787
908.464211	2509.975377
908.770707	2503.343739
909.077163	2507.217865
909.383578	2504.072185
909.689954	2506.113853
909.996289	2502.368275
910.302584	2508.034532
910.608839	2506.396157
910.915054	2506.408760
911.221229	2506.877588
911.527363	2507.275839
911.833458	2506.572598
912.139513	2508.891528
912.445527	2506.643174
912.751502	2509.211642
913.057436	2510.252640
913.363331	2510.386231
913.669186	2511.066786
913.975000	2514.025944
914.280775	2512.417816
914.586510	2520.390400
914.892205	2519.883764
915.197859	2528.070598
915.503475	2532.312729
915.809050	2537.915972
916.114585	2541.522917
916.420081	2540.557536
916.725536	2540.418905
917.030952	2541.885880
917.336328	2538.427649
917.641665	2535.859181
917.946961	2528.715866
918.252218	2531.881711
918.557435	2529.981196
918.862612	2526.744775
919.167750	2523.165556
919.472848	2521.300329
919.777906	2517.572395
920.082925	2517.196829
920.387904	2513.725995
920.692843	2514.948475
920.997743	2514.860255
921.302603	2513.909997
921.607423	2512.329595
921.912204	2511.144924
922.216946	2509.536796
922.521647	2509.294821
922.826310	2508.475633
923.130932	2509.695593
923.435516	2508.485716
923.740059	2506.623009
924.044564	2503.792401
924.349028	2509.584687
924.653454	2503.994047
924.957840	2504.180570
925.262186	2502.625374
925.566493	2505.065293
925.870761	2502.827020
926.174989	2505.251815
926.479178	2505.526558
926.783328	2507.172495
927.087438	2504.230982
927.391509	2504.044459
927.695541	2503.046311
927.999533	2502.784171
928.303486	2502.305261
928.607400	2503.684017
928.911275	2503.797442
929.215110	2506.996055
929.518906	2503.177381
929.822663	2504.694768
930.126381	2505.098060
930.430060	2504.251146
930.733699	2504.848523
931.037299	2502.736280
931.340861	2504.694768
931.644383	2501.012205
931.947866	2503.676455
932.251309	2505.027484
932.554714	2501.407936
932.858080	2505.660149
933.161407	2504.230982
933.464694	2505.156033
933.767943	2501.619664
934.071153	2503.764675
934.374323	2503.857936
934.677455	2504.016733
934.980548	2502.877432
935.283602	2504.493122
935.586617	2504.334325
935.889593	2504.150323
936.192530	2503.903307
936.495428	2503.270642
936.798287	2504.351969
937.101108	2502.055724
937.403890	2504.099912
937.706632	2506.711229
938.009336	2506.769203
938.312002	2505.171157
938.614628	2506.388596
938.917216	2506.542351
939.219765	2503.368944
939.522275	2507.880777
939.824747	2507.858092
940.127179	2502.411125
940.429573	2499.497338
940.731929	2501.786022
941.034246	2499.068840
941.336524	2502.970693
941.638763	2504.621671
941.940964	2507.515293
942.243126	2506.996055
942.545250	2506.277690
942.847335	2504.021774
943.149381	2504.530930
943.451389	2503.331136
943.753359	2501.962462
944.055290	2502.683348
944.357182	2505.181239
944.659036	2503.633605
944.960851	2505.345077
945.262628	2504.596465
945.564367	2504.500683
945.866067	2503.429438
946.167729	2504.959428
946.469352	2505.690396
946.770937	2502.161588
947.072484	2503.618482
947.373992	2504.014212
947.675462	2502.685868
947.976893	2506.819614
948.278286	2504.014212
948.579641	2502.723677
948.880958	2504.795591
949.182236	2505.440859
949.483476	2504.394819
949.784678	2503.457165
950.085841	2504.109994
950.386967	2505.980262
950.688054	2504.407422
950.989103	2502.272493
951.290114	2504.851044
951.591087	2505.554285
951.892021	2503.003461
952.192917	2507.364059
952.493776	2505.755931
952.794596	2506.310458
953.095378	2503.603358
953.396122	2504.140241
953.696828	2504.757782
953.997496	2501.387771
954.298126	2503.850375
954.598718	2503.437000
954.899272	2504.999758
955.199788	2504.795591
955.500266	2504.115035
955.800706	2501.440703
956.101108	2499.204951
956.401472	2497.546412
956.701798	2498.894920
957.002087	2500.490446
957.302337	2502.239726
957.602550	2502.572442
957.902724	2501.183604
958.202861	2503.419356
958.502960	2501.067658
958.803022	2500.596310
959.103045	2498.990702
959.403031	2500.709736
959.702979	2503.361383
960.002889	2503.439521
960.302762	2500.155209
960.602596	2502.522031
960.902393	2501.055055
961.202153	2500.160250
961.501875	2501.241578
961.801559	2500.666886
962.101205	2499.073881
962.400814	2500.704695
962.700385	2501.329798
962.999918	2501.531444
963.299414	2499.782163
963.598873	2501.541526
963.898293	2499.555312
964.197677	2500.314005
964.497022	2501.947339
964.796331	2502.418687
965.095601	2499.134375
965.394835	2501.614623
965.694030	2500.979437
965.993189	2501.929695
966.292309	2500.858450
966.591393	2500.923985
966.890439	2500.921464
967.189447	2499.083964
967.488419	2499.651093
967.787353	2501.203769
968.086249	2500.911382
968.385108	2499.777122
968.683930	2503.741990
968.982714	2500.813079
969.281462	2499.149499
969.580172	2498.635301
969.878844	2502.675786
970.177480	2498.784015
970.476078	2500.503048
970.774639	2503.656290
971.073162	2499.230157
971.371649	2497.599344
971.670098	2494.640187
971.968510	2498.526916
972.266885	2498.448778
972.565223	2501.165960
972.863524	2499.741834
973.161788	2503.331136
973.460014	2502.096053
973.758204	2499.489777
974.056356	2501.211331
974.354471	2503.200066
974.652550	2499.714108
974.950591	2504.283914
975.248595	2503.555467
975.546563	2500.253511
975.844493	2501.654952
976.142386	2500.981958
976.440243	2502.073368
976.738062	2501.740652
977.035845	2497.223778
977.333590	2501.473471
977.631299	2498.463902
977.928971	2502.726197
978.226606	2498.216885
978.524204	2499.507421
978.821765	2501.120590
979.119290	2500.747544
979.416777	2502.146465
979.714228	2501.836434
980.011642	2502.829541
980.309020	2502.791732
980.606360	2502.451454
980.903664	2501.062617
981.200931	2500.031701
981.498162	2502.527072
981.795356	2499.673779
982.092513	2504.243585
982.389633	2501.216372
982.686717	2504.387257
982.983764	2503.840292
983.280775	2504.788029
983.577749	2505.168636
983.874686	2503.936074
984.171587	2504.974552
984.468451	2505.924809
984.765279	2503.507576
985.062070	2505.070334
985.358824	2502.673265
985.655543	2503.724346
985.952224	2500.142606
986.248869	2500.971876
986.545478	2496.616319
986.842050	2498.113542
987.138586	2497.044817
987.435086	2497.571617
987.731549	2496.704539
988.027975	2498.007677
988.324366	2500.440034
988.620719	2501.241577
988.917037	2499.399036
989.213318	2498.511793
989.509563	2496.888541
989.805772	2499.562873
990.101944	2498.899962
990.398080	2501.687720
990.694180	2498.930208
990.990244	2500.629077
991.286271	2496.777636
991.582262	2501.551608
991.878217	2499.651093
992.174136	2501.264263
992.470019	2498.358038
992.765865	2501.987668
993.061676	2499.202431
993.357450	2499.421721
993.653188	2500.850888
993.948890	2499.562873
994.244556	2498.000116
994.540186	2501.329798
994.835780	2499.928357
995.131337	2500.810559
995.426859	2498.390805
995.722345	2501.397853
996.017795	2501.130672
996.313208	2503.686537
996.608586	2499.499859
996.903928	2501.612102
997.199234	2500.389622
997.494504	2502.978255
997.789738	2501.173522
998.084936	2501.294510
998.380099	2500.719818
998.675225	2500.301402
998.970316	2500.082112
999.265371	2502.527072
999.560390	2500.387102
999.855373	2499.222595
1000.150320	2499.588079
1000.445232	2501.644870
1000.740108	2498.441217
1001.034948	2500.805518
1001.329752	2495.474498
1001.624521	2498.841988
1001.919254	2493.485762
1002.213951	2498.247132
1002.508613	2496.916267
1002.803239	2498.746206
1003.097829	2492.480052
1003.392384	2498.867194
1003.686903	2497.795949
1003.981386	2502.050683
1004.275834	2497.160763
1004.570246	2500.349293
1004.864623	2497.085146
1005.158964	2500.200579
1005.453270	2498.821824
1005.747540	2500.908861
1006.041775	2496.903665
1006.335974	2502.199397
1006.630138	2498.678151
1006.924266	2497.667399
1007.218359	2498.199241
1007.512416	2496.956597
1007.806438	2498.431134
1008.100425	2497.274189
1008.394376	2496.777636
1008.688292	2498.673110
1008.982172	2498.466422
1009.276017	2495.782008
1009.569827	2497.992554
1009.863602	2498.990702
1010.157341	2496.820486
1010.451045	2500.419869
1010.744714	2499.063799
1011.038347	2501.418018
1011.331945	2498.950373
1011.625508	2498.426093
1011.919036	2495.981133
1012.212528	2498.998264
1012.505986	2497.564056
1012.799408	2499.651093
1013.092795	2497.496000
1013.386147	2500.848368
1013.679464	2498.040445
1013.972745	2495.595485
1014.265992	2498.030363
1014.559204	2497.637153
1014.852380	2497.692605
1015.145521	2498.108500
1015.438628	2497.158243
1015.731699	2496.623881
1016.024736	2497.327122
1016.317737	2499.378871
1016.610703	2499.807369
1016.903635	2494.955259
1017.196531	2495.630773
1017.489393	2495.603047
1017.782219	2492.056595
1018.075011	2500.500528
1018.367768	2499.245281
1018.660490	2496.497852
1018.953177	2496.497852
1019.245829	2496.497852
