Dividing Wavelength (nm)	Counts (n)	Blue Motor Position (mm): 36.800000	Red Motor Position (mm): 0.000000	
326.493990	2236.177708
326.888308	2236.177708
327.282561	2236.177708
327.676750	2197.446523
328.070874	2192.574248
328.464933	2192.977540
328.858929	2197.227233
329.252859	2201.726463
329.646726	2212.234748
330.040528	2226.670092
330.434265	2236.553274
330.827938	2252.226222
331.221547	2271.871598
331.615091	2288.031017
332.008571	2306.375776
332.401986	2325.292705
332.795338	2344.897753
333.188625	2363.539940
333.581847	2382.829915
333.975006	2401.741803
334.368100	2423.466656
334.761129	2441.937444
335.154095	2459.382357
335.546996	2483.426140
335.939833	2525.113962
336.332606	2539.143493
336.725315	2552.084135
337.117960	2563.172152
337.510540	2575.422156
337.903056	2585.973291
338.295508	2595.498552
338.687896	2603.753441
339.080220	2611.819287
339.472480	2620.038888
339.864676	2622.017541
340.256807	2628.979375
340.648875	2635.709315
341.040879	2633.150930
341.432818	2637.403143
341.824694	2641.431025
342.216506	2641.920017
342.608253	2641.796508
342.999937	2644.576705
343.391557	2641.589821
343.783113	2642.441776
344.174605	2642.910603
344.566033	2641.955305
344.957397	2639.926240
345.348697	2637.393061
345.739934	2635.835344
346.131106	2635.059006
346.522215	2630.753861
346.913260	2631.651186
347.304241	2630.685805
347.695159	2629.022225
348.086012	2628.235805
348.476802	2624.737244
348.867528	2620.245576
349.258191	2616.769700
349.648789	2615.766511
350.039324	2613.500512
350.429796	2616.283229
350.820203	2616.013527
351.210548	2616.971346
351.600828	2609.155037
351.991045	2611.985645
352.381198	2610.012033
352.771288	2611.506736
353.161314	2610.095212
353.551276	2611.489092
353.941175	2611.274842
354.331010	2609.276025
354.720782	2609.737291
355.110490	2610.470778
355.500135	2606.770572
355.889717	2609.631426
356.279235	2610.049842
356.668689	2610.190994
357.058080	2608.827362
357.447408	2608.126642
357.836672	2606.939450
358.225873	2612.041098
358.615010	2609.512959
359.004084	2610.614451
359.393095	2612.058742
359.782043	2612.293156
360.170927	2611.605038
360.559748	2610.380038
360.948505	2612.232662
361.337199	2616.931017
361.725830	2615.350615
362.114398	2615.547220
362.502903	2614.493619
362.891344	2617.203239
363.279722	2616.305914
363.668037	2616.421861
364.056289	2617.669546
364.444478	2620.336317
364.832603	2619.386059
365.220665	2617.525873
365.608665	2619.562499
365.996601	2619.955709
366.384474	2622.025103
366.772284	2620.752212
367.160031	2621.788169
367.547715	2623.759260
367.935336	2620.525360
368.322893	2619.975874
368.710388	2617.878754
369.097820	2619.968312
369.485189	2621.652058
369.872495	2623.691204
370.259738	2623.688684
370.646918	2626.534415
371.034035	2624.467542
371.421090	2625.571555
371.808081	2626.882255
372.195010	2628.470218
372.581875	2626.932666
372.968678	2626.660444
373.355418	2630.721093
373.742096	2629.145733
374.128710	2628.550877
374.515262	2627.535084
374.901751	2627.482152
375.288177	2632.213275
375.674540	2631.439458
376.060841	2632.213275
376.447079	2631.189921
376.833254	2632.482977
377.219367	2631.953656
377.605417	2635.064047
377.991404	2633.017339
378.377329	2634.431383
378.763191	2634.673358
379.148991	2636.909110
379.534727	2634.244860
379.920402	2636.445324
380.306013	2636.573873
380.691563	2636.150416
381.077049	2637.244347
381.462474	2636.034470
381.847835	2640.478247
382.233134	2639.664100
382.618371	2640.233751
383.003545	2638.489512
383.388657	2640.203504
383.773706	2644.954791
384.158693	2642.121663
384.543618	2642.666107
384.928480	2644.785913
385.313280	2644.523773
385.698017	2644.617034
386.082692	2646.275574
386.467305	2645.688279
386.851856	2647.818167
387.236344	2646.401603
387.620770	2644.760707
388.005133	2645.189205
388.389435	2647.092241
388.773674	2645.836993
389.157851	2649.096099
389.541965	2650.293373
389.926018	2651.107520
390.310008	2651.871254
390.693936	2650.280770
391.077802	2654.066677
391.461606	2652.768580
391.845348	2655.079949
392.229027	2654.109527
392.612645	2655.142963
392.996200	2656.141112
393.379694	2660.310146
393.763125	2661.625887
394.146494	2659.647234
394.529801	2658.540701
394.913047	2661.951042
395.296230	2659.813592
395.679351	2662.500527
396.062410	2665.661331
396.445408	2669.031342
396.828343	2669.618637
397.211217	2675.176509
397.594028	2676.812363
397.976778	2682.967612
398.359466	2691.595547
398.742092	2699.111907
399.124656	2709.340408
399.507158	2725.162070
399.889598	2743.466499
400.271977	2768.011877
400.654294	2790.225722
401.036549	2818.922490
401.418742	2847.513394
401.800874	2893.778583
402.182944	2938.407918
402.564952	2997.185252
402.946898	3053.366391
403.328783	3086.252358
403.710606	3149.717964
404.092367	3259.854573
404.474067	3331.275120
404.855705	3383.030126
405.237282	3433.126592
405.618797	3567.007036
406.000250	3640.406236
406.381642	3778.007050
406.762972	3861.780945
407.144240	3955.412816
407.525447	4036.167059
407.906593	4136.052482
408.287677	4287.534114
408.668700	4331.336699
409.049661	4471.495900
409.430560	4574.418617
409.811399	4585.123507
410.192176	4810.256397
410.572891	4902.002877
410.953545	5110.348724
411.334138	5038.688722
411.714669	5225.929779
412.095139	5181.618036
412.475547	5418.184263
412.855894	5537.901584
413.236180	5741.614611
413.616405	5609.299446
413.996568	5836.700855
414.376670	5924.565646
414.756711	5917.765130
415.136691	6056.167488
415.516609	6280.551766
415.896466	6350.248239
416.276262	6569.850982
416.655997	6603.084789
417.035670	6824.830023
417.415283	7168.389699
417.794834	7260.010150
418.174324	7199.291972
418.553753	7182.116761
418.933121	7518.155035
419.312428	7649.131774
419.691674	7488.339131
420.070859	7974.578584
420.449983	7708.874488
420.829045	8087.036644
421.208047	7915.166065
421.586988	8222.797438
421.965867	8262.793952
422.344686	8401.597082
422.723444	8441.137372
423.102141	7862.332253
423.480777	8605.975542
423.859352	8153.204309
424.237866	8783.275443
424.616319	8663.172473
424.994712	9071.021984
425.373044	8665.226743
425.751314	9118.804561
426.129524	8983.419333
426.507673	9128.995253
426.885762	9289.500550
427.263789	9209.167243
427.641756	9122.172051
428.019662	9234.988033
428.397508	9469.502510
428.775292	9177.279425
429.153016	9550.476044
429.530679	9384.675014
429.908282	9438.988406
430.285824	9153.790168
430.663305	9834.560187
431.040726	9290.884347
431.418086	9279.788768
431.795385	9603.377912
432.172624	9681.916569
432.549802	9600.887582
432.926920	9691.461993
433.303977	9562.962982
433.680974	9770.900496
434.057910	9858.573723
434.434786	9920.680738
434.811601	9767.711966
435.188355	10325.394651
435.565050	10051.556654
435.941683	9990.016768
436.318257	10475.918464
436.694770	10606.411252
437.071222	10676.440441
437.447614	10527.620538
437.823946	10409.539071
438.200218	10561.330734
438.576429	10372.035407
438.952580	10610.542478
439.328670	10664.848307
439.704700	10453.835690
440.080670	10443.340007
440.456580	11004.995122
440.832429	10750.394168
441.208218	10360.045022
441.583947	10688.730774
441.959616	10825.948461
442.335224	10630.576023
442.710773	10781.140165
443.086261	10981.808335
443.461689	10274.365572
443.837057	10913.525906
444.212365	11195.858248
444.587612	10838.364823
444.962800	11069.511809
445.337927	10841.530667
445.712995	10427.107492
446.088002	11516.455468
446.462949	11166.377580
446.837837	11135.505554
447.212664	11123.973914
447.587431	11640.082204
447.962139	12350.506810
448.336786	14612.109577
448.711374	15178.959601
449.085901	13023.087474
449.460369	12639.886685
449.834776	12082.655182
450.209124	12950.051237
450.583412	13362.447868
450.957640	14309.960460
451.331808	13461.950163
451.705917	12454.873818
452.079965	11755.113773
452.453954	12652.446719
452.827883	12284.959207
453.201752	12581.341244
453.575562	12090.295051
453.949311	12513.192406
454.323001	12476.341572
454.696632	12698.706868
455.070202	12988.437103
455.443713	13225.888052
455.817164	13689.775029
456.190556	13684.209595
456.563888	14044.604204
456.937160	14213.293814
457.310373	13555.491293
457.683526	13638.380465
458.056619	13190.095859
458.429653	13345.965816
458.802628	12764.435952
459.175542	13134.431439
459.548398	14090.100617
459.921194	14419.262758
460.293930	14484.207943
460.666607	15365.860380
461.039224	16400.166518
461.411782	17110.248325
461.784280	16979.904251
462.156719	17029.289915
462.529099	16725.245323
462.901419	15646.128369
463.273680	15441.422235
463.645882	15304.149095
464.018024	15041.726791
464.390106	15262.105872
464.762130	15981.654966
465.134094	16738.536325
465.505999	18733.600686
465.877845	21996.351402
466.249631	24828.091026
466.621358	24497.724050
466.993026	23060.037384
467.364634	22501.719513
467.736184	21048.107843
468.107674	20249.142932
468.479105	20376.018692
468.850477	19846.392548
469.221790	19425.196583
469.593043	18747.599971
469.964238	18190.814611
470.335373	17843.635386
470.706449	18288.575187
471.077467	17838.296804
471.448425	19681.042702
471.819324	23706.893040
472.190164	25715.770162
472.560945	22166.298781
472.931667	19807.948709
473.302330	19160.878804
473.672934	18706.345688
474.043479	19021.468215
474.413965	18827.076282
474.784393	18447.051419
475.154761	19143.854827
475.525070	19132.580287
475.895321	18792.740983
476.265513	19390.498321
476.635645	19978.145624
477.005719	19755.419886
477.375734	19941.171282
477.745691	20422.475445
478.115588	20954.864141
478.485427	21477.281435
478.855207	22535.391901
479.224928	24293.234685
479.594591	26524.245211
479.964194	26548.525928
480.333739	26759.034430
480.703226	26336.411818
481.072653	26014.617324
481.442022	26584.918018
481.811333	27499.874838
482.180584	27421.361387
482.549777	26464.089122
482.918912	26119.753108
483.287988	26245.398827
483.657005	25908.995069
484.025964	25659.163046
484.394864	25566.993110
484.763706	25261.345431
485.132489	24695.579256
485.501213	24866.315575
485.869879	24771.773776
486.238487	24596.538227
486.607036	24740.400155
486.975527	24452.174704
487.343959	24771.693117
487.712333	24713.256062
488.080648	24358.676424
488.448905	24858.766447
488.817104	24605.982828
489.185244	25292.088908
489.553326	25250.045685
489.921350	26249.338488
490.289315	28541.112562
490.657222	30310.207202
491.025070	30816.170169
491.392861	30585.388667
491.760593	29736.171013
492.128267	28842.699591
492.495883	27797.378532
492.863440	26913.094612
493.230939	26044.024895
493.598380	25883.181841
493.965763	25487.670554
494.333088	25032.885380
494.700354	24971.912624
495.067563	24839.967984
495.434713	24597.927065
495.801805	24759.639718
496.168839	24558.197731
496.535815	24407.948661
496.902733	24625.348421
497.269593	24294.996568
497.636395	24475.618590
498.003139	24431.664770
498.369825	24185.555639
498.736453	24376.723754
499.103023	24245.878086
499.469535	24271.555203
499.835989	24479.182686
500.202385	24504.101109
500.568723	24006.140973
500.935003	24247.904630
501.301226	23879.252611
501.667390	24707.158786
502.033497	24954.460150
502.399546	24666.325440
502.765537	24244.572427
503.131470	24627.942095
503.497345	24757.739203
503.863163	23989.167408
504.228923	24575.065432
504.594625	24784.043944
504.960269	24318.390043
505.325856	24801.239320
505.691385	24210.834505
506.056856	24815.541073
506.422270	24788.223061
506.787625	24343.179917
507.152924	24766.997282
507.518164	24792.437465
507.883347	24611.470124
508.248472	24285.909888
508.613540	25068.934671
508.978550	24869.725915
509.343503	24857.730490
509.708398	25108.182575
510.073236	25267.173005
510.438016	25477.318544
510.802738	25157.686705
511.167403	25395.787963
511.532010	25111.124088
511.896561	25876.005758
512.261053	25839.533010
512.625488	25675.433370
512.989866	25577.962660
513.354186	25418.967189
513.718449	25524.496183
514.082655	25908.528762
514.446803	25641.198894
514.810894	26118.757480
515.174927	25590.260555
515.538904	25635.436855
515.902822	26118.177748
516.266684	25878.702775
516.630488	25782.573013
516.994235	25762.108449
517.357925	26068.817290
517.721558	26227.563224
518.085133	26339.189494
518.448651	26241.867498
518.812112	25985.539949
519.175516	26196.129110
519.538863	26352.026792
519.902152	26128.113862
520.265385	26413.707830
520.628560	26200.179677
520.991678	26209.437756
521.354739	26269.687106
521.717743	26340.008682
522.080690	26126.271320
522.443580	26459.441178
522.806413	26445.404085
523.169189	26550.698665
523.531908	26592.903205
523.894569	26200.766971
524.257174	26286.151514
524.619722	26459.242052
524.982213	26150.020196
525.344647	26204.056324
525.707025	26349.256678
526.069345	26328.711456
526.431608	26288.006659
526.793815	26468.943753
527.155964	25934.097494
527.518057	26106.774658
527.880093	26032.513420
528.242072	26258.979695
528.603995	25973.589894
528.965860	25764.833192
529.327669	25813.923948
529.689421	25797.835106
530.051117	25641.105633
530.412755	25822.569527
530.774337	25599.901762
531.135862	25484.345913
531.497331	25687.554824
531.858743	25248.855973
532.220098	25717.731171
532.581396	25406.336578
532.942638	25339.503481
533.303824	25442.879902
533.664953	25455.969258
534.026025	25117.980057
534.387040	25346.044378
534.747999	25411.856641
535.108902	25577.264461
535.469748	25066.585494
535.830537	25234.975156
536.191270	25361.898807
536.551947	25228.567849
536.912567	24867.079310
537.273131	25238.216617
537.633638	24949.219870
537.994089	25147.450643
538.354483	24674.053529
538.714821	25174.425857
539.075103	25230.077675
539.435328	24998.736604
539.795497	24568.874895
540.155609	24952.093328
540.515665	25262.005823
540.875665	24491.682227
541.235609	24797.720594
541.595496	24751.190744
541.955328	25102.586894
542.315102	25020.279975
542.674821	24550.925867
543.034483	24433.963536
543.394090	24620.766012
543.753640	24402.196705
544.113134	25040.230341
544.472571	24634.041891
544.831953	24937.416009
545.191278	24561.981117
545.550548	24470.474093
545.909761	24672.503374
546.268918	24911.217132
546.628019	24873.806729
546.987064	24551.671957
547.346053	24313.517767
547.704986	24427.130252
548.063863	24581.941566
548.422684	24605.256902
548.781449	24123.945177
549.140158	24538.020513
549.498811	24111.138126
549.857408	23868.051167
550.215949	24282.726400
550.574434	23970.177382
550.932864	24176.365615
551.291237	24335.678680
551.649555	24192.441855
552.007817	24246.515792
552.366022	24111.548980
552.724173	24137.256344
553.082267	24092.556433
553.440305	24582.024745
553.798288	23829.045239
554.156215	24334.667928
554.514086	24437.754483
554.871902	23824.750176
555.229661	24101.932979
555.587365	23953.108035
555.945014	23840.808771
556.302606	24066.788575
556.660143	24043.803434
557.017625	24289.950373
557.375050	23805.054388
557.732421	24204.727147
558.089735	24001.825746
558.446994	24072.013731
558.804197	24089.176339
559.161345	24021.995402
559.518437	23804.046157
559.875474	23986.145237
560.232455	24166.187526
560.589381	23985.326049
560.946251	23972.791220
561.303065	24274.053095
561.659825	24376.504464
562.016528	23983.576769
562.373177	23705.862124
562.729770	24076.520522
563.086307	23927.564508
563.442789	24107.442960
563.799216	23937.155304
564.155587	23941.006745
564.511904	23918.339197
564.868164	23869.293811
565.224370	23834.058666
565.580520	23762.678448
565.936615	23889.355083
566.292654	23574.537546
566.648638	23849.126675
567.004567	23690.761348
567.360441	23638.988698
567.716260	23350.589327
568.072023	23682.755995
568.427732	23454.895842
568.783385	23224.741963
569.138982	23471.718172
569.494525	23488.469926
569.850013	23253.378237
570.205445	23346.634542
570.560823	23153.439883
570.916145	22918.592690
571.271412	23108.908850
571.626625	22858.126570
571.981782	22969.707469
572.336884	22780.409622
572.691931	22906.067943
573.046923	22639.968117
573.401860	22529.239172
573.756743	22542.157129
574.111570	22447.448972
574.466342	22372.512220
574.821059	22448.351338
575.175722	22157.045743
575.530330	22143.013691
575.884882	22145.768682
576.239380	22062.367832
576.593823	21957.809260
576.948211	21939.419131
577.302544	21791.249537
577.656823	21643.319398
578.011047	21755.454824
578.365216	21618.252261
578.719330	21497.791369
579.073389	21396.522150
579.427394	21549.231303
579.781344	21307.507976
580.135239	21187.286539
580.489080	21155.585243
580.842866	20923.130077
581.196597	21121.355808
581.550273	21092.454873
581.903895	20980.866412
582.257463	21296.145215
582.610975	20823.327834
582.964434	21150.108029
583.317837	20840.119918
583.671186	20929.164339
584.024481	20902.700802
584.377721	20667.649442
584.730906	20732.077908
585.084037	20751.617421
585.437113	20661.186682
585.790135	20873.671317
586.143103	20328.941877
586.496016	20343.162972
586.848874	20580.629044
587.201679	20506.892087
587.554428	20185.667243
587.907124	20528.090139
588.259765	20284.178951
588.612352	20368.293123
588.964884	19933.299520
589.317362	20106.450552
589.669786	20161.550363
590.022155	20190.216884
590.374470	20402.532640
590.726731	20177.586273
591.078937	19962.996957
591.431090	20048.994001
591.783188	19809.786209
592.135232	19775.677762
592.487222	19875.941271
592.839157	19876.266426
593.191038	19769.217524
593.542866	19655.204268
593.894639	19365.169043
594.246358	19584.265151
594.598022	19486.025665
594.949633	19243.841073
595.301190	19213.319407
595.652692	19376.315034
596.004141	19611.328585
596.355535	18929.134441
596.706876	18954.607392
597.058162	18844.743005
597.409395	19087.587989
597.760573	19143.953130
598.111698	18915.230939
598.462768	18857.963431
598.813785	18824.611157
599.164748	18636.291294
599.515657	18675.839146
599.866511	18483.476277
600.217312	18827.862702
600.568060	18364.416826
600.918753	18661.174429
601.269392	18570.950378
601.619978	18346.649279
601.970510	18550.677378
602.320988	18495.849789
602.671412	18706.524649
603.021783	18626.329974
603.372100	18338.049070
603.722363	18490.864087
604.072572	18438.473896
604.422728	18577.639989
604.772830	18327.026588
605.122878	18285.157284
605.472872	18267.558616
605.822813	18254.665865
606.172701	18236.111898
606.522534	18427.897555
606.872314	18450.701215
607.222041	18286.692316
607.571714	18499.003030
607.921333	18322.348397
608.270899	18403.760511
608.620411	18572.515656
608.969870	18344.925204
609.319276	18348.305298
609.668627	18381.009783
610.017926	18513.196399
610.367171	18622.907030
610.716362	18677.868210
611.065500	18490.798552
611.414585	18630.415829
611.763616	18620.880486
612.112594	18564.059121
612.461518	18526.109315
612.810389	18715.046720
613.159207	18577.024968
613.507971	18494.299634
613.856682	18751.892513
614.205340	18681.810392
614.553945	18831.204987
614.902496	18576.483044
615.250994	18790.462381
615.599439	18742.374815
615.947830	18724.743379
616.296169	18801.409247
616.644454	18756.003574
616.992686	18717.973109
617.340864	18937.384289
617.688990	18683.965486
618.037063	18864.597590
618.385082	18722.547957
618.733048	18995.465943
619.080961	18877.903715
619.428821	18902.277694
619.776628	18785.196896
620.124382	18717.002687
620.472083	18772.352036
620.819731	18771.553013
621.167326	18471.942117
621.514868	18509.604577
621.862357	18282.979506
622.209793	18294.387637
622.557176	18117.223847
622.904506	17956.912634
623.251783	17860.460237
623.599007	17630.936503
623.946179	17566.034168
624.293297	17503.917070
624.640363	17243.488542
624.987376	17277.148326
625.334336	17069.785503
625.681243	16921.905776
626.028097	16934.543949
626.374899	16850.815424
626.721647	16712.430710
627.068343	16550.836524
627.414987	16480.683827
627.761577	16459.455528
628.108115	16488.948798
628.454600	16212.454113
628.801032	16316.964794
629.147412	16251.124804
629.493739	16267.637103
629.840014	16076.511838
630.186236	16176.772826
630.532405	15937.345745
630.878521	16132.292205
631.224585	16036.744696
631.570597	15855.873137
631.916556	15886.180554
632.262462	15857.055287
632.608316	15775.915396
632.954117	15724.636779
633.299866	15714.695623
633.645562	15629.691687
633.991206	15395.474638
634.336797	15268.248518
634.682336	15231.957252
635.027823	15108.736328
635.373257	14988.827443
635.718639	14892.201126
636.063968	14835.662065
636.409245	14592.247431
636.754470	14619.268016
637.099642	14466.798318
637.444762	14237.352721
637.789829	14280.852838
638.134845	14114.323362
638.479808	14151.592612
638.824719	14076.968412
639.169577	13936.700826
639.514383	13986.119258
639.859137	13805.293069
640.203839	13894.508889
640.548489	13736.892173
640.893086	13731.777923
641.237632	13599.813118
641.582125	13752.640738
641.926566	13582.186723
642.270955	13591.079319
642.615292	13551.022310
642.959576	13555.672775
643.303809	13589.183845
643.647990	13524.614226
643.992118	13587.807610
644.336195	13342.779807
644.680219	13563.650401
645.024192	13480.390704
645.368112	13725.461357
645.711981	13775.404068
646.055797	13959.721255
646.399562	13938.230817
646.743274	14201.179922
647.086935	14473.684534
647.430544	14446.033805
647.774101	14473.946674
648.117606	14617.342295
648.461059	14598.203555
648.804460	14584.446246
649.147810	14306.945850
649.491108	14214.879257
649.834354	14230.625301
650.177548	13915.860696
650.520690	13727.699629
650.863781	13639.628151
651.206820	13692.814844
651.549807	13526.396274
651.892742	13315.423985
652.235626	13260.354421
652.578458	13252.437288
652.921238	12954.986526
653.263967	13147.722441
653.606644	12980.832522
653.949269	12963.495994
654.291843	12759.064603
654.634365	12922.914706
654.976836	12766.699430
655.319255	12773.699072
655.661622	12723.262328
656.003938	12657.765137
656.346203	12579.476018
656.688416	12655.456288
657.030577	12610.874844
657.372687	12516.481759
657.714746	12501.035664
658.056753	12700.398175
658.398708	12504.962722
658.740612	12499.571208
659.082465	12611.394083
659.424266	12587.788880
659.766016	12604.346550
660.107715	12517.147191
660.449362	12589.470105
660.790958	12544.782797
661.132503	12485.589568
661.473996	12558.895507
661.815438	12578.213208
662.156829	12601.775562
662.498168	12570.777507
662.839456	12574.865882
663.180693	12591.307606
663.521879	12682.217253
663.863013	12657.291268
664.204097	12622.492183
664.545129	12751.691915
664.886110	12728.222823
665.227040	12822.270590
665.567918	12819.520640
665.908746	12851.978109
666.249522	12834.881036
666.590248	12888.962534
666.930922	12993.432886
667.271545	12976.499650
667.612118	13065.171026
667.952639	12961.802166
668.293109	12985.939211
668.633528	12927.030808
668.973896	12910.435329
669.314213	12989.508348
669.654480	12726.516393
669.994695	12804.974391
670.334859	12826.086743
670.674973	12769.930810
671.015035	12801.672435
671.355047	12744.936769
671.695008	12714.208416
672.034918	12735.131725
672.374777	12777.401800
672.714585	12687.563397
673.054342	12723.539592
673.394049	12671.782065
673.733705	12773.031119
674.073310	12675.542766
674.412864	12678.975792
674.752368	12547.696584
675.091820	12578.319073
675.431223	12557.622616
675.770574	12423.144796
676.109875	12340.701766
676.449125	12307.304121
676.788324	12250.129875
677.127473	12084.011253
677.466571	12076.870458
677.805619	11972.450518
678.144616	11895.807336
678.483562	11864.249713
678.822458	11733.711554
679.161303	11713.612474
679.500098	11701.191071
679.838842	11656.523927
680.177535	11690.947446
680.516179	11753.729976
680.854771	11690.655059
681.193314	11904.921742
681.531805	12063.773541
681.870247	12497.771517
682.208638	12912.436667
682.546978	13224.474008
682.885268	13257.733021
683.223508	12958.003657
683.561697	12801.427939
683.899836	12700.194008
684.237925	12494.724139
684.575963	12409.314390
684.913951	12332.419150
685.251889	12284.129937
685.589776	12383.470915
685.927614	12302.593163
686.265401	12274.322372
686.603137	12318.646717
686.940824	12467.441414
687.278460	12600.694234
687.616046	12640.012713
687.953582	12807.041264
688.291068	12737.450656
688.628504	12971.627375
688.965889	12974.203405
689.303224	12950.051237
689.640510	12827.200838
689.977745	12511.715348
690.314930	12299.258440
690.652065	12208.318545
690.989150	11906.507185
691.326185	11680.789521
691.663170	11482.228554
692.000105	11239.134033
692.336990	11113.649631
692.673825	10861.065138
693.010610	10750.797460
693.347345	10543.570749
693.684030	10345.735707
694.020665	10281.529051
694.357251	10089.524104
694.693786	10025.173775
695.030272	9866.831133
695.366707	9747.189429
695.703093	9684.167444
696.039429	9685.692393
696.375716	9593.293084
696.711952	9466.182910
697.048139	9511.102112
697.384276	9467.682654
697.720363	9488.348864
698.056400	9416.552751
698.392388	9369.052479
698.728326	9328.367847
699.064214	9271.591851
699.400053	9315.023912
699.735842	9128.944842
700.071581	9085.548069
700.407270	9016.169189
700.742910	8940.698075
701.078501	8836.525151
701.414042	8710.047642
701.749533	8652.439857
702.084974	8511.942899
702.420366	8630.019325
702.755709	8508.766972
703.091002	8369.800004
703.426246	8398.249756
703.761440	8359.004373
704.096584	8307.670304
704.431679	8242.452897
704.766725	8228.630053
705.101721	8176.665839
705.436668	8231.863953
705.771565	8116.252651
706.106413	8201.362452
706.441212	8236.728666
706.775961	8197.745424
707.110661	8241.505160
707.445311	8383.322900
707.779913	8277.367928
708.114465	8404.636898
708.448967	8439.617465
708.783421	8593.113037
709.117825	8771.542157
709.452180	8806.913413
709.786485	8897.732320
710.120742	9187.512967
710.454949	9179.217748
710.789107	9285.323954
711.123216	9501.980144
711.457275	9674.495990
711.791286	9823.903187
712.125247	9833.007511
712.459159	9810.513883
712.793023	10051.624709
713.126837	9626.063105
713.460602	9784.743504
713.794318	9609.870918
714.127985	9640.760589
714.461602	9305.526378
714.795171	9255.737423
715.128691	9007.581583
715.462162	8761.525385
715.795584	8704.923309
716.128957	8549.532263
716.462281	8385.097386
716.795556	8432.622864
717.128782	8225.638128
717.461960	7963.621636
717.795088	8034.142337
718.128167	7941.085158
718.461198	7778.893595
718.794180	7719.160963
719.127113	7707.246196
719.459997	7546.042698
719.792833	7322.827968
720.125619	7387.586630
720.458357	7242.756801
720.791046	7239.364104
721.123686	7231.366314
721.456278	7065.593011
721.788821	7087.045641
722.121315	6976.041954
722.453761	7052.725465
722.786158	6987.392112
723.118506	7000.108422
723.450805	6966.945192
723.783056	7026.279572
724.115259	6942.089782
724.447412	6942.288908
724.779518	6992.549212
725.111574	6991.104921
725.443582	7074.019299
725.775542	7048.989970
726.107453	7244.556493
726.439315	7154.007287
726.771129	7219.875003
727.102895	7391.548977
727.434612	7501.902355
727.766281	7542.408027
728.097901	7614.015096
728.429473	7617.596836
728.760996	7596.875173
729.092471	7568.601862
729.423897	7508.591967
729.755276	7514.674119
730.086606	7437.985566
730.417887	7541.475413
730.749120	7746.821774
731.080305	7934.907224
731.411442	8051.735964
731.742530	8039.773306
732.073570	8154.625914
732.404562	8235.707833
732.735506	8094.706760
733.066401	8227.662151
733.397249	8156.211357
733.728048	7919.062877
734.058798	7583.100220
734.389501	7354.062957
734.720156	7177.050402
735.050762	6948.000535
735.381320	6856.201124
735.711831	6797.622916
736.042293	6691.962852
736.372707	6709.400203
736.703073	6566.244037
737.033391	6612.552076
737.363661	6623.834178
737.693883	6657.604868
738.024056	6737.817188
738.354182	6777.896881
738.684260	6810.392159
739.014290	6933.129132
739.344272	7046.923097
739.674207	7072.567447
740.004093	7152.111813
740.333931	7161.483318
740.663722	7169.566809
740.993464	7245.715958
741.323159	7223.519758
741.652806	6980.757953
741.982405	7003.549010
742.311956	7051.545835
742.641460	6876.590071
742.970915	6685.079157
743.300323	6677.772004
743.629683	6631.801722
743.958996	6495.022615
744.288260	6404.586836
744.617477	6357.094126
744.946647	6350.588517
745.275768	6187.943249
745.604842	6139.424664
745.933869	6128.717253
746.262847	6084.080357
746.591778	6067.053860
746.920662	6033.444487
747.249498	6024.360328
747.578286	6076.173307
747.907027	6151.783053
748.235720	6208.866558
748.564365	6181.115007
748.892963	6220.120934
749.221514	6362.389858
749.550017	6181.195665
749.878473	6068.200722
750.206881	6130.118694
750.535242	6075.616259
750.863555	6000.067007
751.191821	6014.898082
751.520039	6016.435634
751.848210	5918.803607
752.176334	5945.894768
752.504411	5992.848075
752.832440	5918.569194
753.160421	5846.820972
753.488356	5894.772427
753.816243	5926.798877
754.144082	5778.508296
754.471875	5752.831179
754.799620	5791.726201
755.127318	5805.138191
755.454969	5761.862406
755.782572	5728.893260
756.110129	5767.579074
756.437638	5752.022073
756.765100	5692.657446
757.092515	5694.774730
757.419882	5750.111476
757.747203	5730.534155
758.074477	5789.273680
758.401703	5772.277430
758.728882	5722.730449
759.056014	5788.252846
759.383099	5911.529222
759.710138	5921.934164
760.037129	5906.687194
760.364073	5912.512247
760.690970	5998.731102
761.017820	5978.659748
761.344623	5928.412047
761.671379	6036.643099
761.998088	6157.451830
762.324751	6409.209574
762.651366	7031.953391
762.977935	8367.423100
763.304456	10016.351756
763.630931	10902.720193
763.957359	10472.760181
764.283740	9519.276343
764.610074	8671.999533
764.936362	7667.269846
765.262602	7076.214722
765.588796	6541.018103
765.914943	6206.542587
766.241044	6041.941352
766.567097	5832.665412
766.893104	5569.983487
767.219064	5395.932610
767.544978	5328.792002
767.870845	5256.033029
768.196665	5143.892562
768.522438	5075.398404
768.848165	5039.800296
769.173846	4970.156756
769.499479	4929.656126
769.825066	4881.172829
770.150607	4814.916944
770.476101	4790.936175
770.801548	4786.280669
771.126949	4707.293350
771.452303	4652.538858
771.777611	4611.178711
772.102872	4631.739057
772.428087	4594.646247
772.753256	4550.926840
773.078378	4507.051158
773.403453	4437.687402
773.728482	4424.172068
774.053465	4376.268504
774.378401	4365.457749
774.703291	4363.436247
775.028135	4288.517139
775.352932	4242.269593
775.677683	4230.490937
776.002388	4246.060541
776.327046	4260.291718
776.651658	4187.038712
776.976224	4126.151656
777.300743	4126.640648
777.625216	4146.971621
777.949643	4140.226557
778.274024	4098.362295
778.598359	4060.475503
778.922647	4085.464503
779.246889	4073.148964
779.571086	4067.581010
779.895236	4049.871436
780.219339	4038.564128
780.543397	4032.219836
780.867409	4085.885439
781.191374	4100.358592
781.515294	4034.546328
781.839167	4025.865462
782.162995	4049.906724
782.486776	4036.777039
782.810511	4047.522258
783.134201	4040.273079
783.457844	3993.097962
783.781441	3937.960341
784.104993	3948.196404
784.428498	3968.693736
784.751958	3957.290646
785.075372	3935.664096
785.398739	3899.082963
785.722061	3912.318512
786.045337	3960.587560
786.368568	3986.667970
786.691752	3901.699322
787.014891	3956.421047
787.337983	4082.772527
787.661030	4242.970314
787.984031	4406.643976
788.306987	4572.916353
788.629897	4660.821474
788.952760	4612.393629
789.275579	4545.265625
789.598351	4478.992096
789.921078	4333.290147
790.243759	4130.842449
790.566395	4119.134369
790.888984	4110.372844
791.211529	4007.581197
791.534027	3942.525106
791.856480	3929.370215
792.178888	3870.981051
792.501249	3823.354750
792.823566	3833.268179
793.145836	3860.460163
793.468062	3808.364879
793.790241	3764.978188
794.112375	3796.555976
794.434464	3858.967981
794.756507	3884.587125
795.078505	3859.635934
795.400457	3899.415679
795.722364	4038.952297
796.044226	4147.821055
796.366042	4219.980132
796.687812	4194.930638
797.009538	4199.805434
797.331218	4158.321779
797.652852	4131.472593
797.974442	4114.551961
798.295986	4110.471147
798.617484	4024.285060
798.938938	3943.709777
799.260346	3985.193432
799.581709	3981.359635
799.903026	3904.471956
800.224299	3868.909137
800.545526	3861.778424
800.866708	3820.481292
801.187845	3763.682612
801.508936	3798.479176
801.829983	3794.332827
802.150984	3713.969273
802.471940	3706.158005
802.792851	3718.718040
803.113717	3713.538254
803.434538	3718.034964
803.755314	3659.822240
804.076045	3636.275010
804.396731	3657.316786
804.717372	3680.702699
805.037967	3662.441119
805.358518	3653.823267
805.679024	3683.069521
805.999485	3695.939586
806.319901	3699.082746
806.640272	3712.840055
806.960598	3729.629618
807.280879	3701.179866
807.601115	3715.577401
807.921306	3732.172880
808.241453	3776.456896
808.561554	3743.845671
808.881611	3679.477698
809.201623	3721.190726
809.521590	3732.301429
809.841513	3700.355637
810.161390	3734.479208
810.481223	3707.677913
810.801011	3653.072135
811.120755	3650.337309
811.440453	3684.370138
811.760107	3685.093544
812.079716	3637.305926
812.399281	3614.562760
812.718801	3639.055206
813.038276	3608.412553
813.357707	3605.897017
813.677093	3620.937299
813.996434	3566.636511
814.315731	3579.284766
814.634983	3583.302565
814.954191	3598.952827
815.273354	3627.616828
815.592473	3620.544089
815.911547	3627.795789
816.230577	3671.714322
816.549562	3723.890264
816.868502	3761.852673
817.187399	3786.677835
817.506250	3784.956281
817.825058	3761.585492
818.143821	3856.331458
818.462539	3956.657981
818.781213	4000.513499
819.099843	4058.511974
819.418429	4316.561077
819.736970	4555.486564
820.055466	4808.335717
820.373919	5177.038148
820.692327	5590.805973
821.010691	6054.143465
821.329011	7482.004921
821.647286	10295.430033
821.965517	14941.755669
822.283704	18959.509914
822.601847	21034.952952
822.919945	19164.579011
823.237999	16551.325516
823.556010	14057.980906
823.873976	11937.394334
824.191897	9829.332510
824.509775	8490.747368
824.827609	7359.000767
825.145398	6820.479508
825.463144	6704.336364
825.780845	6814.382232
826.098502	7022.791094
826.416116	7930.128210
826.733685	9282.269015
827.051210	10388.237675
827.368692	10380.252488
827.686129	9084.635620
828.003522	7574.184940
828.320872	6555.072840
828.638177	5848.517320
828.955439	5279.129075
829.272656	4781.456285
829.589830	4504.376826
829.906960	4332.211340
830.224046	4136.130620
830.541088	4014.905993
830.858086	3969.424703
831.175041	3889.988721
831.491952	3873.894838
831.808819	3884.100654
832.125642	3962.281388
832.442421	4116.326447
832.759157	4397.950506
833.075849	4963.141990
833.392497	5844.355847
833.709101	6624.091277
834.025662	6951.224353
834.342179	6562.536268
834.658653	5880.884048
834.975083	5232.485799
835.291469	4654.565402
835.607811	4250.927775
835.924110	4104.870425
836.240366	3908.278027
836.556578	3700.648024
836.872746	3593.735233
837.188871	3550.945919
837.504952	3482.504694
837.820990	3397.399935
838.136984	3357.108513
838.452935	3380.501987
838.768842	3372.534444
839.084706	3399.761716
839.400526	3565.131726
839.716303	3913.528389
840.032037	4452.730205
840.347727	4700.681877
840.663373	4405.945776
840.978977	4020.927651
841.294537	3715.882391
841.610054	3483.850682
841.925527	3378.528376
842.240957	3309.663693
842.556344	3252.123963
842.871687	3195.128678
843.186987	3144.258395
843.502244	3107.213476
843.817458	3072.807601
844.132629	3043.329453
844.447756	3052.491751
844.762840	3034.570449
845.077881	3003.030470
845.392879	2983.632110
845.707833	2981.991214
846.022745	2978.066676
846.337613	2981.845021
846.652438	2972.569298
846.967221	2967.840695
847.281960	2952.024075
847.596656	2949.289249
847.911309	2950.751184
848.225919	2943.872529
848.540485	2936.504883
848.855009	2936.704008
849.169490	2927.440888
849.483928	2917.255237
849.798323	2916.758683
850.112675	2913.116450
850.426984	2926.099941
850.741251	2922.344282
851.055474	2913.308013
851.369654	2905.937847
851.683792	2914.830442
851.997887	2921.520053
852.311938	2925.802513
852.625947	2910.288362
852.939914	2914.543096
853.253837	2920.070721
853.567718	2906.744431
853.881555	2902.643453
854.195350	2919.899322
854.509103	2913.807088
854.822812	2906.512538
855.136479	2901.007598
855.450103	2906.159657
855.763685	2898.565159
856.077224	2893.705487
856.390720	2910.432035
856.704173	2915.710123
857.017584	2909.121335
857.330953	2907.477919
857.644278	2915.455545
857.957561	2927.075405
858.270802	2929.033893
858.584000	2927.496341
858.897155	2916.534352
859.210268	2916.491502
859.523339	2910.721902
859.836367	2911.543610
860.149352	2908.534041
860.462295	2901.935170
860.775195	2909.539751
861.088054	2910.918507
861.400869	2890.043088
861.713642	2889.163407
862.026373	2907.432549
862.339062	2908.932292
862.651708	2913.975966
862.964312	2913.915473
863.276873	2907.694689
863.589392	2917.885381
863.901869	2931.824172
864.214303	2957.776032
864.526696	2971.263639
864.839045	2966.393884
865.151353	2964.006898
865.463619	2963.979171
865.775842	2966.119141
866.088023	2985.688900
866.400162	2989.608398
866.712258	2959.742082
867.024313	2948.694393
867.336325	2962.187041
867.648296	2980.877119
867.960224	2973.499390
868.272110	2960.276444
868.583954	2964.843729
868.895755	2975.563743
869.207515	2964.546301
869.519233	2971.619040
869.830909	2982.618838
870.142542	2990.989674
870.454134	2990.611587
870.765684	2991.337513
871.077191	2992.123933
871.388657	3004.787312
871.700081	3013.826101
872.011463	3025.992925
872.322803	3026.033255
872.634101	3025.955117
872.945357	3043.026984
873.256571	3066.029769
873.567744	3061.255797
873.878874	3056.126423
874.189963	3079.744228
874.501010	3078.665421
874.812015	3067.474060
875.122979	3069.704770
875.433900	3066.909451
875.744780	3072.237950
876.055618	3080.628951
876.366415	3073.984710
876.677169	3086.519539
876.987882	3084.321596
877.298554	3077.884043
877.609183	3100.659976
877.919771	3125.369191
878.230317	3153.246772
878.540822	3205.079916
878.851285	3244.494177
879.161707	3285.675363
879.472087	3391.824419
879.782425	3633.890544
880.092722	4083.763113
880.402977	4618.102736
880.713191	5259.750880
881.023363	6440.868020
881.333494	7741.077379
881.643583	8274.010520
881.953631	7966.830331
882.263637	7312.944786
882.573602	6706.423402
882.883526	6124.165092
883.193408	5553.272062
883.503248	5100.543680
883.813048	4789.295279
884.122806	4476.194255
884.432522	4153.658712
884.742197	3916.858071
885.051831	3720.363977
885.361424	3589.021754
885.670975	3516.232534
885.980485	3427.205757
886.289954	3350.643233
886.599382	3301.297899
886.908768	3267.285234
887.218113	3224.702607
887.527417	3164.884276
887.836680	3113.928292
888.145901	3109.126593
888.455082	3097.388267
888.764221	3044.987993
889.073319	3017.218797
889.382376	3014.851975
889.691392	3019.371370
890.000366	3018.731143
890.309300	3006.307220
890.618193	3020.062008
890.927044	3033.403422
891.235855	3033.121117
891.544625	3021.007224
891.853353	3032.102804
892.162041	3052.713561
892.470687	3092.440374
892.779293	3140.694299
893.087858	3192.136753
893.396381	3265.598968
893.704864	3392.010942
894.013306	3636.872387
894.321707	3946.043832
894.630068	4146.948936
894.938387	4143.604130
895.246665	4097.722068
895.554903	3971.247080
895.863100	3769.535391
896.171256	3597.001901
896.479371	3457.165334
896.787446	3330.705470
897.095480	3227.951631
897.403473	3161.564676
897.711425	3130.458236
898.019336	3119.576905
898.327207	3086.020465
898.635038	3052.408572
898.942827	3038.668907
899.250576	3027.994263
899.558284	2994.349603
899.865952	2975.490646
900.173579	2952.588684
900.481165	2944.684155
900.788711	2932.161929
901.096216	2906.719225
901.403681	2898.134140
901.711105	2903.518093
902.018489	2899.338976
902.325832	2897.541805
902.633135	2911.846079
902.940397	2947.151800
903.247619	3034.562887
903.554800	3232.844071
903.861941	3590.024944
904.169041	4030.571379
904.476101	4325.897294
904.783121	4262.663581
905.090100	4010.245446
905.397039	3731.424268
905.703938	3481.015033
906.010796	3296.710449
906.317614	3180.211904
906.624391	3087.613469
906.931129	3013.616893
907.237826	2952.341668
907.544483	2905.423649
907.851099	2872.847713
908.157675	2852.068077
908.464211	2832.150478
908.770707	2816.311172
909.077163	2803.423462
909.383578	2791.226391
909.689954	2781.388579
909.996289	2779.326747
910.302584	2780.345060
910.608839	2779.551078
910.915054	2772.914399
911.221229	2766.912906
911.527363	2768.326949
911.833458	2777.232148
912.139513	2781.108795
912.445527	2785.240021
912.751502	2793.076494
913.057436	2802.047227
913.363331	2815.151707
913.669186	2839.366889
913.975000	2874.707898
914.280775	2937.230809
914.586510	3008.031294
914.892205	3090.444077
915.197859	3220.495764
915.503475	3422.943462
915.809050	3642.699961
916.114585	3789.258906
916.420081	3805.196514
916.725536	3741.856936
917.030952	3618.633492
917.336328	3488.274295
917.641665	3353.078110
917.946961	3251.476175
918.252218	3178.626461
918.557435	3099.540839
918.862612	3041.534803
919.167750	2991.541680
919.472848	2952.553396
919.777906	2922.762698
920.082925	2897.904768
920.387904	2863.488811
920.692843	2849.736543
920.997743	2837.945284
921.302603	2825.307111
921.607423	2813.094916
921.912204	2801.346507
922.216946	2788.373098
922.521647	2781.630554
922.826310	2772.085130
923.130932	2763.996598
923.435516	2756.621390
923.740059	2747.068404
924.044564	2740.073803
924.349028	2736.635736
924.653454	2730.283882
924.957840	2722.661657
925.262186	2718.268292
925.566493	2715.162941
925.870761	2707.520552
926.174989	2704.420242
926.479178	2698.743903
926.783328	2696.193079
927.087438	2696.697194
927.391509	2691.240145
927.695541	2691.396421
927.999533	2689.329548
928.303486	2684.805112
928.607400	2685.442818
928.911275	2681.155317
929.215110	2679.607683
929.518906	2679.073321
929.822663	2680.681449
930.126381	2678.561643
930.430060	2680.424350
930.733699	2683.731347
931.037299	2684.805112
931.340861	2681.488033
931.644383	2683.996007
931.947866	2683.081038
932.251309	2681.004082
932.554714	2680.570543
932.858080	2679.816891
933.161407	2675.426046
933.464694	2675.274811
933.767943	2671.524193
934.071153	2675.191632
934.374323	2672.837413
934.677455	2675.312620
934.980548	2674.415294
935.283602	2671.705674
935.586617	2673.260870
935.889593	2673.016374
936.192530	2671.113339
936.495428	2672.088802
936.798287	2676.088957
937.101108	2679.494257
937.403890	2682.518949
937.706632	2685.168076
938.009336	2692.979343
938.312002	2703.754810
938.614628	2710.351160
938.917216	2716.062787
939.219765	2715.178064
939.522275	2715.535986
939.824747	2714.558002
940.127179	2709.773947
940.429573	2707.699513
940.731929	2705.836806
941.034246	2703.674151
941.336524	2699.847916
941.638763	2697.788604
941.940964	2698.028059
942.243126	2693.463294
942.545250	2694.988243
942.847335	2690.496575
943.149381	2686.115812
943.451389	2681.125070
943.753359	2678.372600
944.055290	2677.997034
944.357182	2678.879236
944.659036	2673.611230
944.960851	2676.391427
945.262628	2674.536282
945.564367	2673.979235
945.866067	2673.782630
946.167729	2677.636592
946.469352	2676.497291
946.770937	2675.103412
947.072484	2675.695747
947.373992	2673.717095
947.675462	2671.569563
947.976893	2666.818276
948.278286	2665.068995
948.579641	2668.257525
948.880958	2664.776608
949.182236	2667.967659
949.483476	2665.550425
949.784678	2665.316012
950.085841	2666.452792
950.386967	2667.849192
950.688054	2669.953873
950.989103	2668.416321
951.290114	2666.470436
951.591087	2669.434634
951.892021	2674.445541
952.192917	2675.582322
952.493776	2679.970646
952.794596	2679.111129
953.095378	2677.424863
953.396122	2678.450738
953.696828	2675.496622
953.997496	2674.309430
954.298126	2670.072340
954.598718	2667.869356
954.899272	2667.211486
955.199788	2664.552277
955.500266	2663.286947
955.800706	2660.126144
956.101108	2658.457522
956.401472	2654.333858
956.701798	2654.875782
957.002087	2652.569454
957.302337	2651.742705
957.602550	2652.450987
957.902724	2648.463434
958.202861	2646.656181
958.502960	2646.938485
958.803022	2645.897487
959.103045	2643.419760
959.403031	2644.425470
959.702979	2641.541930
960.002889	2639.853144
960.302762	2642.779533
960.602596	2641.998155
960.902393	2642.834986
961.202153	2640.722743
961.501875	2641.171405
961.801559	2640.672331
962.101205	2640.672331
962.400814	2640.493370
962.700385	2637.410705
962.999918	2637.420787
963.299414	2638.028246
963.598873	2636.513379
963.898293	2633.367699
964.197677	2637.067906
964.497022	2637.458596
964.796331	2639.089409
965.095601	2638.355921
965.394835	2636.170581
965.694030	2639.059162
965.993189	2637.539254
966.292309	2637.299799
966.591393	2636.984727
966.890439	2640.442959
967.189447	2639.036477
967.488419	2636.727628
967.787353	2637.854326
968.086249	2636.740231
968.385108	2639.623771
968.683930	2636.836013
968.982714	2636.193266
969.281462	2637.153606
969.580172	2638.212248
969.878844	2637.461116
970.177480	2637.314923
970.476078	2639.522948
970.774639	2638.179481
971.073162	2637.040180
971.371649	2639.452372
971.670098	2636.117649
971.968510	2636.772999
972.266885	2635.989099
972.565223	2639.437248
972.863524	2636.533544
973.161788	2638.028246
973.460014	2636.629326
973.758204	2635.699233
974.056356	2637.319964
974.354471	2638.008081
974.652550	2637.750982
974.950591	2638.028246
975.248595	2637.703092
975.546563	2639.318781
975.844493	2637.693009
976.142386	2636.911630
976.440243	2638.567649
976.738062	2635.777371
977.035845	2638.192083
977.333590	2635.190076
977.631299	2635.053965
977.928971	2630.726135
978.226606	2631.860394
978.524204	2631.023563
978.821765	2630.665641
979.119290	2637.297279
979.416777	2634.282669
979.714228	2632.024232
980.011642	2634.844757
980.309020	2635.764768
980.606360	2636.561270
980.903664	2638.018164
981.200931	2636.226033
981.498162	2637.438431
981.795356	2639.117135
982.092513	2638.877680
982.389633	2641.587301
982.686717	2644.115439
982.983764	2646.948568
983.280775	2652.045174
983.577749	2653.920483
983.874686	2650.124495
984.171587	2649.698517
984.468451	2647.901346
984.765279	2645.040491
985.062070	2642.560243
985.358824	2638.343318
985.655543	2638.592855
985.952224	2638.970942
986.248869	2636.999851
986.545478	2638.018164
986.842050	2634.582617
987.138586	2634.764099
987.435086	2634.383492
987.731549	2631.832668
988.027975	2632.339304
988.324366	2633.034983
988.620719	2634.441465
988.917037	2631.744448
989.213318	2635.038842
989.509563	2632.480456
989.805772	2632.084726
990.101944	2630.050620
990.398080	2632.782925
990.694180	2631.429376
990.990244	2632.344345
991.286271	2631.746968
991.582262	2632.702267
991.878217	2632.056999
992.174136	2630.700929
992.470019	2633.579428
992.765865	2626.610032
993.061676	2627.645990
993.357450	2628.550877
993.653188	2627.688839
993.948890	2630.862246
994.244556	2630.799231
994.540186	2630.736217
994.835780	2632.286372
995.131337	2634.932977
995.426859	2632.344345
995.722345	2635.154788
996.017795	2634.184366
996.313208	2637.488842
996.608586	2636.793163
996.903928	2635.721918
997.199234	2636.110087
997.494504	2638.287865
997.789738	2636.309212
998.084936	2635.326188
998.380099	2633.186218
998.675225	2636.273924
998.970316	2634.043214
999.265371	2632.654376
999.560390	2631.734365
999.855373	2633.032462
1000.150320	2631.210085
1000.445232	2631.200003
1000.740108	2633.483646
1001.034948	2632.392236
1001.329752	2632.351907
1001.624521	2629.606998
1001.919254	2629.949797
1002.213951	2628.482821
1002.508613	2632.367030
1002.803239	2628.807976
1003.097829	2626.794035
1003.392384	2630.554735
1003.686903	2630.375774
1003.981386	2628.475259
1004.275834	2629.528861
1004.570246	2631.625981
1004.864623	2629.743110
1005.158964	2627.393932
1005.453270	2628.132461
1005.747540	2629.554066
1006.041775	2630.839561
1006.335974	2628.566000
1006.630138	2628.934004
1006.924266	2629.496093
1007.218359	2631.993985
1007.512416	2626.927625
1007.806438	2625.783283
1008.100425	2626.804117
1008.394376	2625.642131
1008.688292	2627.996350
1008.982172	2628.878552
1009.276017	2628.631535
1009.569827	2629.259159
1009.863602	2629.891824
1010.157341	2628.508027
1010.451045	2629.614560
1010.744714	2628.762605
1011.038347	2628.911319
1011.331945	2627.673716
1011.625508	2629.327214
1011.919036	2626.562142
1012.212528	2629.191103
1012.505986	2627.794704
1012.799408	2627.293109
1013.092795	2631.991464
1013.386147	2628.157667
1013.679464	2629.057513
1013.972745	2629.092801
1014.265992	2629.977523
1014.559204	2630.300157
1014.852380	2628.003912
1015.145521	2630.373254
1015.438628	2629.332256
1015.731699	2627.958541
1016.024736	2629.392749
1016.317737	2626.547018
1016.610703	2628.238325
1016.903635	2631.212606
1017.196531	2626.708335
1017.489393	2628.220681
1017.782219	2628.180352
1018.075011	2627.645990
1018.367768	2626.819240
1018.660490	2625.901750
1018.953177	2625.901750
1019.245829	2625.901750
