Dividing Wavelength (nm)	Counts (n)	Blue Motor Position (mm): 0.000000	Red Motor Position (mm): 25.700000	
326.493990	2125.403394
326.888308	2125.403394
327.282561	2125.403394
327.676750	2096.184866
328.070874	2092.018352
328.464933	2095.877356
328.858929	2102.229209
329.252859	2111.683893
329.646726	2122.542539
330.040528	2135.674745
330.434265	2154.327014
330.827938	2173.359890
331.221547	2188.042251
331.615091	2206.260981
332.008571	2228.207644
332.401986	2244.268760
332.795338	2265.524785
333.188625	2286.886675
333.581847	2302.332770
333.975006	2321.547128
334.368100	2340.509428
334.761129	2357.399814
335.154095	2374.988400
335.546996	2393.098745
335.939833	2410.899059
336.332606	2424.900864
336.725315	2436.341763
337.117960	2445.166303
337.510540	2456.660133
337.903056	2465.814869
338.295508	2470.954325
338.687896	2480.945892
339.080220	2491.393683
339.472480	2497.243942
339.864676	2500.094715
340.256807	2503.845333
340.648875	2507.177536
341.040879	2512.256499
341.432818	2511.810357
341.824694	2517.133815
342.216506	2512.223731
342.608253	2516.806140
342.999937	2511.548217
343.391557	2513.960409
343.783113	2508.977228
344.174605	2512.470748
344.566033	2509.478823
344.957397	2509.153668
345.348697	2504.354490
345.739934	2507.180057
346.131106	2502.731238
346.522215	2502.461537
346.913260	2501.665034
347.304241	2497.838799
347.695159	2494.609940
348.086012	2494.942656
348.476802	2493.170690
348.867528	2493.727738
349.258191	2490.171204
349.648789	2491.350834
350.039324	2490.587099
350.429796	2488.681543
350.820203	2489.490648
351.210548	2485.137612
351.600828	2483.126191
351.991045	2484.474700
352.381198	2482.516212
352.771288	2481.351705
353.161314	2483.741212
353.551276	2483.600060
353.941175	2483.836994
354.331010	2479.612507
354.720782	2484.401603
355.110490	2482.206181
355.500135	2481.563433
355.889717	2483.476551
356.279235	2484.494864
356.668689	2484.469659
357.058080	2483.206850
357.447408	2482.148207
357.836672	2480.638382
358.225873	2481.941520
358.615010	2480.414050
359.004084	2486.002169
359.393095	2486.781028
359.782043	2488.752119
360.170927	2484.961171
360.559748	2488.379073
360.948505	2488.989053
361.337199	2488.747078
361.725830	2488.835298
362.114398	2493.067347
362.502903	2489.866214
362.891344	2492.321256
363.279722	2491.469301
363.668037	2497.133037
364.056289	2492.406955
364.444478	2494.839312
364.832603	2492.900988
365.220665	2496.427276
365.608665	2495.182111
365.996601	2497.420383
366.384474	2497.261587
366.772284	2500.860970
367.160031	2499.943480
367.547715	2505.710560
367.935336	2506.038235
368.322893	2506.849861
368.710388	2512.407733
369.097820	2517.869823
369.485189	2520.682787
369.872495	2527.195958
370.259738	2532.910106
370.646918	2541.422094
371.034035	2546.342260
371.421090	2557.863818
371.808081	2568.467885
372.195010	2580.019689
372.581875	2590.906060
372.968678	2601.464757
373.355418	2613.760131
373.742096	2635.507669
374.128710	2647.679535
374.515262	2663.849036
374.901751	2676.426715
375.288177	2691.661082
375.674540	2714.704196
376.060841	2730.147771
376.447079	2753.810947
376.833254	2771.268463
377.219367	2781.771707
377.605417	2822.592450
377.991404	2829.645024
378.377329	2856.501771
378.763191	2867.481404
379.148991	2911.709968
379.534727	2933.502876
379.920402	2961.077987
380.306013	2974.910913
380.691563	3026.030734
381.077049	3048.821791
381.462474	3062.442988
381.847835	3099.447578
382.233134	3125.633852
382.618371	3123.632514
383.003545	3191.378060
383.388657	3201.520861
383.773706	3230.515057
384.158693	3247.334867
384.543618	3275.436779
384.928480	3311.904486
385.313280	3358.031044
385.698017	3356.009541
386.082692	3407.799835
386.467305	3411.066503
386.851856	3447.514045
387.236344	3468.669248
387.620770	3501.030935
388.005133	3527.958258
388.389435	3552.811146
388.773674	3562.805234
389.157851	3605.481122
389.541965	3622.132053
389.926018	3587.060746
390.310008	3657.662105
390.693936	3674.839837
391.077802	3718.304665
391.461606	3707.869477
391.845348	3769.056482
392.229027	3767.007253
392.612645	3779.080816
392.996200	3863.119371
393.379694	3900.497007
393.763125	3962.031851
394.146494	3932.220988
394.529801	3994.300277
394.913047	4042.881876
395.296230	4009.378368
395.679351	4063.671595
396.062410	4084.040377
396.445408	4070.895568
396.828343	4103.998305
397.211217	4127.963950
397.594028	4045.863719
397.976778	4112.790077
398.359466	4137.015342
398.742092	4165.823016
399.124656	4089.053804
399.507158	4173.170498
399.889598	4193.259496
400.271977	4251.837703
400.654294	4225.611100
401.036549	4235.622832
401.418742	4206.338769
401.800874	4308.134789
402.182944	4328.417871
402.564952	4392.460690
402.946898	4378.708422
403.328783	4379.215058
403.710606	4288.537303
404.092367	4482.089885
404.474067	4450.207107
404.855705	4452.825987
405.237282	4382.721181
405.618797	4492.711596
406.000250	4527.432543
406.381642	4607.135706
406.762972	4567.398811
407.144240	4580.997323
407.525447	4579.633691
407.906593	4638.653000
408.287677	4682.992468
408.668700	4611.143423
409.049661	4660.660157
409.430560	4703.252866
409.811399	4631.915497
410.192176	4790.240496
410.572891	4732.153801
410.953545	4834.090972
411.334138	4714.282910
411.714669	4781.617602
412.095139	4678.881407
412.475547	4818.740659
412.855894	4799.906908
413.236180	4807.433351
413.616405	4758.836628
413.996568	4850.061348
414.376670	4789.053304
414.756711	4745.442282
415.136691	4777.685502
415.516609	4856.231720
415.896466	4889.931834
416.276262	4926.782668
416.655997	4905.761057
417.035670	5089.052369
417.415283	5180.443448
417.794834	5122.301300
418.174324	5076.681378
418.553753	4984.014888
418.933121	5170.277961
419.312428	5240.027365
419.691674	5177.726266
420.070859	5302.507426
420.449983	5215.953335
420.829045	5324.703627
421.208047	5237.804217
421.586988	5306.512623
421.965867	5315.790867
422.344686	5449.331032
422.723444	5302.094052
423.102141	5123.808605
423.480777	5424.367238
423.859352	5194.319223
424.237866	5449.618378
424.616319	5442.959013
424.994712	5548.087236
425.373044	5426.358494
425.751314	5570.086831
426.129524	5370.565524
426.507673	5566.578188
426.885762	5650.069778
427.263789	5583.077885
427.641756	5458.059790
428.019662	5582.664510
428.397508	5592.146920
428.775292	5540.346544
429.153016	5640.337831
429.530679	5560.811108
429.908282	5649.550539
430.285824	5519.050190
430.663305	5786.191014
431.040726	5526.619482
431.418086	5529.097209
431.795385	5631.160410
432.172624	5642.271113
432.549802	5638.333972
432.926920	5650.392412
433.303977	5654.526158
433.680974	5694.109298
434.057910	5712.529674
434.434786	5714.049582
434.811601	5687.747362
435.188355	5916.666158
435.565050	5786.798473
435.941683	5775.032420
436.318257	5983.174101
436.694770	5962.833045
437.071222	5988.159802
437.447614	5924.179998
437.823946	5834.208005
438.200218	5983.746272
438.576429	5843.950034
438.952580	5940.662050
439.328670	5980.262834
439.704700	5878.736517
440.080670	5860.406881
440.456580	6120.664010
440.832429	6000.172872
441.208218	5837.721689
441.583947	5981.661755
441.959616	5975.899716
442.335224	5899.586729
442.710773	6023.586511
443.086261	6038.697369
443.461689	5825.451520
443.837057	5954.615964
444.212365	6094.056800
444.587612	5975.078008
444.962800	6107.723368
445.337927	6075.424696
445.712995	5688.319533
446.088002	6214.719338
446.462949	6039.173758
446.837837	5957.005471
447.212664	6098.984528
447.587431	6205.761208
447.962139	6667.276322
448.336786	7471.181564
448.711374	7212.640948
449.085901	6366.614345
449.460369	6270.081290
449.834776	6179.096024
450.209124	6485.973744
450.583412	6577.294246
450.957640	6673.698752
451.331808	6436.555313
451.705917	6024.592221
452.079965	5924.603455
452.453954	6065.080248
452.827883	5929.758035
453.201752	5968.562316
453.575562	5771.254075
453.949311	5883.316405
454.323001	5760.523979
454.696632	5778.352020
455.070202	5832.627603
455.443713	5904.567389
455.817164	5931.227531
456.190556	5932.220638
456.563888	5934.002686
456.937160	5920.472229
457.310373	5632.403054
457.683526	5597.525832
458.056619	5470.546728
458.429653	5407.035751
458.802628	5315.916895
459.175542	5338.244166
459.548398	5499.243496
459.921194	5541.256472
460.293930	5485.642463
460.666607	5715.839192
461.039224	5831.541234
461.411782	5835.760680
461.784280	5777.542915
462.156719	5645.878059
462.529099	5512.128685
462.901419	5234.608125
463.273680	5110.590699
463.645882	5058.543306
464.018024	4919.150361
464.390106	4937.326242
464.762130	5050.752203
465.134094	5187.012071
465.505999	5567.152880
465.877845	6007.169993
466.249631	6192.208066
466.621358	5923.559936
466.993026	5568.801337
467.364634	5374.598447
467.736184	5152.099560
468.107674	4953.089930
468.479105	4873.893403
468.850477	4736.781580
469.221790	4583.951439
469.593043	4410.767640
469.964238	4296.898057
470.335373	4237.404880
470.706449	4190.776727
471.077467	4129.872027
471.448425	4403.294129
471.819324	4600.398204
472.190164	4540.075757
472.560945	4179.242567
472.931667	3931.583282
473.302330	3850.574460
473.672934	3731.487283
474.043479	3745.526896
474.413965	3684.216383
474.784393	3611.414560
475.154761	3586.912032
475.525070	3554.678894
475.895321	3488.465859
476.265513	3465.909216
476.635645	3453.853296
477.005719	3405.624578
477.375734	3384.071124
477.745691	3370.949001
478.115588	3343.638550
478.485427	3327.537104
478.855207	3353.662884
479.224928	3402.892272
479.594591	3428.337496
479.964194	3353.458718
480.333739	3297.116262
480.703226	3240.002509
481.072653	3218.136504
481.442022	3200.762167
481.811333	3182.888757
482.180584	3136.184987
482.549777	3076.974114
482.918912	3038.608413
483.287988	3012.643950
483.657005	2986.021617
484.025964	2944.532920
484.394864	2923.511309
484.763706	2901.630181
485.132489	2868.285468
485.501213	2849.764269
485.869879	2832.677278
486.238487	2807.554688
486.607036	2799.083029
486.975527	2778.638630
487.343959	2768.263935
487.712333	2758.768922
488.080648	2745.626634
488.448905	2734.732700
488.817104	2724.544528
489.185244	2719.362222
489.553326	2714.013558
489.921350	2715.863661
490.289315	2728.728686
490.657222	2727.811196
491.025070	2716.554299
491.392861	2708.886704
491.760593	2695.172245
492.128267	2684.684125
492.495883	2675.063083
492.863440	2665.321053
493.230939	2654.686739
493.598380	2649.499392
493.965763	2644.841365
494.333088	2638.676034
494.700354	2633.047586
495.067563	2635.961373
495.434713	2627.877883
495.801805	2631.779736
496.168839	2626.988119
496.535815	2624.865793
496.902733	2624.878396
497.269593	2623.078704
497.636395	2621.818416
498.003139	2618.899588
498.369825	2618.077880
498.736453	2619.030658
499.103023	2613.823146
499.469535	2613.561006
499.835989	2612.454472
500.202385	2611.610079
500.568723	2610.211159
500.935003	2609.737291
501.301226	2605.996754
501.667390	2611.226952
502.033497	2612.555296
502.399546	2605.842999
502.765537	2604.146651
503.131470	2605.492639
503.497345	2608.872733
503.863163	2603.133379
504.228923	2603.589603
504.594625	2604.010540
504.960269	2602.117587
505.325856	2600.980806
505.691385	2600.562391
506.056856	2603.040118
506.422270	2603.468616
506.787625	2598.886207
507.152924	2601.437031
507.518164	2601.527772
507.883347	2600.022987
508.248472	2598.130034
508.613540	2599.165991
508.978550	2597.636001
509.343503	2598.898810
509.708398	2597.507451
510.073236	2598.624067
510.438016	2598.732452
510.802738	2595.753130
511.167403	2599.113059
511.532010	2594.329004
511.896561	2599.854108
512.261053	2600.728749
512.625488	2594.215578
512.989866	2594.724734
513.354186	2594.341607
513.718449	2589.963365
514.082655	2594.449992
514.446803	2597.134406
514.810894	2594.260948
515.174927	2598.069540
515.538904	2596.118613
515.902822	2592.551997
516.266684	2594.480238
516.630488	2595.561566
516.994235	2596.247163
517.357925	2596.423603
517.721558	2594.570979
518.085133	2596.108531
518.448651	2598.745055
518.812112	2595.876638
519.175516	2596.436206
519.538863	2593.938314
519.902152	2597.910744
520.265385	2595.743047
520.628560	2595.763212
520.991678	2597.976279
521.354739	2597.363778
521.717743	2595.743047
522.080690	2593.731627
522.443580	2596.728593
522.806413	2597.023501
523.169189	2596.789087
523.531908	2596.257245
523.894569	2597.479725
524.257174	2597.136927
524.619722	2595.546443
524.982213	2596.673140
525.344647	2597.668768
525.707025	2598.918974
526.069345	2598.924016
526.431608	2598.813110
526.793815	2596.133737
527.155964	2597.373861
527.518057	2597.083994
527.880093	2596.216916
528.242072	2595.158274
528.603995	2596.012749
528.965860	2595.589292
529.327669	2598.072061
529.689421	2592.660382
530.051117	2600.232195
530.412755	2598.004005
530.774337	2597.530137
531.135862	2594.543253
531.497331	2594.951586
531.858743	2587.737695
532.220098	2593.376226
532.581396	2590.522933
532.942638	2591.944538
533.303824	2594.800352
533.664953	2595.780856
534.026025	2593.766915
534.387040	2594.016452
534.747999	2594.573500
535.108902	2596.327821
535.469748	2593.441761
535.830537	2595.672471
536.191270	2593.978644
536.551947	2593.882862
536.912567	2594.331524
537.273131	2594.399580
537.633638	2594.419745
537.994089	2594.051740
538.354483	2594.765064
538.714821	2592.947728
539.075103	2592.904878
539.435328	2592.773808
539.795497	2591.775659
540.155609	2596.801690
540.515665	2596.675661
540.875665	2595.324632
541.235609	2593.802203
541.595496	2594.545773
541.955328	2593.852615
542.315102	2593.903026
542.674821	2594.104672
543.034483	2596.224478
543.394090	2590.729620
543.753640	2596.486618
544.113134	2597.015939
544.472571	2593.202306
544.831953	2594.127358
545.191278	2593.993767
545.550548	2591.901688
545.909761	2595.556525
546.268918	2593.514858
546.628019	2595.508634
546.987064	2593.398911
547.346053	2593.754312
547.704986	2597.215064
548.063863	2597.807400
548.422684	2594.686926
548.781449	2593.592995
549.140158	2594.344127
549.498811	2593.711462
549.857408	2595.221288
550.215949	2592.836822
550.574434	2589.406317
550.932864	2591.175762
551.291237	2590.802717
551.649555	2594.124837
552.007817	2593.204827
552.366022	2592.788931
552.724173	2596.819334
553.082267	2594.523088
553.440305	2595.322111
553.798288	2594.402101
554.156215	2594.510485
554.514086	2596.937801
554.871902	2595.720362
555.229661	2593.686257
555.587365	2594.598706
555.945014	2593.343458
556.302606	2594.949066
556.660143	2593.797162
557.017625	2594.344127
557.375050	2596.433686
557.732421	2596.042996
558.089735	2595.059971
558.446994	2597.424272
558.804197	2596.242122
559.161345	2596.418562
559.518437	2594.722214
559.875474	2595.722883
560.232455	2596.421083
560.589381	2595.526278
560.946251	2596.559714
561.303065	2595.218767
561.659825	2595.223809
562.016528	2594.583582
562.373177	2594.175249
562.729770	2594.155084
563.086307	2597.139447
563.442789	2597.494848
563.799216	2596.055599
564.155587	2595.536360
564.511904	2594.026535
564.868164	2594.704570
565.224370	2594.114755
565.580520	2596.751278
565.936615	2593.719024
566.292654	2591.695001
566.648638	2595.254056
567.004567	2591.538725
567.360441	2592.040320
567.716260	2594.132399
568.072023	2593.257759
568.427732	2591.226174
568.783385	2591.576534
569.138982	2592.259610
569.494525	2591.102665
569.850013	2590.578385
570.205445	2595.130547
570.560823	2591.218612
570.916145	2592.483942
571.271412	2593.892944
571.626625	2593.255238
571.981782	2594.853284
572.336884	2592.841863
572.691931	2592.060485
573.046923	2591.400093
573.401860	2590.933787
573.756743	2590.747264
574.111570	2591.929415
574.466342	2590.553180
574.821059	2591.397573
575.175722	2589.819692
575.530330	2594.215578
575.884882	2590.583427
576.239380	2589.517223
576.593823	2591.783221
576.948211	2590.366657
577.302544	2589.466811
577.656823	2588.456060
578.011047	2591.664754
578.365216	2587.452870
578.719330	2590.618715
579.073389	2587.853642
579.427394	2586.545462
579.781344	2588.219125
580.135239	2588.932449
580.489080	2591.470670
580.842866	2589.353385
581.196597	2590.172572
581.550273	2588.267016
581.903895	2589.338262
582.257463	2588.811461
582.610975	2584.680235
582.964434	2585.539752
583.317837	2591.160639
583.671186	2589.340782
584.024481	2588.400607
584.377721	2590.001173
584.730906	2588.067891
585.084037	2588.355237
585.437113	2589.494537
585.790135	2588.332551
586.143103	2587.843559
586.496016	2585.365832
586.848874	2581.831983
587.201679	2584.004721
587.554428	2581.337950
587.907124	2585.728795
588.259765	2584.463466
588.612352	2585.385997
588.964884	2586.777355
589.317362	2583.982036
589.669786	2583.858527
590.022155	2585.280133
590.374470	2585.464135
590.726731	2588.715679
591.078937	2585.370873
591.431090	2584.163517
591.783188	2584.506316
592.135232	2585.819536
592.487222	2582.751994
592.839157	2584.629824
593.191038	2580.680080
593.542866	2585.938003
593.894639	2584.682756
594.246358	2585.265009
594.598022	2586.074114
594.949633	2582.872982
595.301190	2582.154617
595.652692	2581.892477
596.004141	2583.162848
596.355535	2584.503795
596.706876	2581.902560
597.058162	2583.452714
597.409395	2582.356263
597.760573	2582.210070
598.111698	2581.206880
598.462768	2583.669484
598.813785	2581.302662
599.164748	2581.564802
599.515657	2579.639082
599.866511	2580.158320
600.217312	2581.958012
600.568060	2579.661767
600.918753	2586.739547
601.269392	2581.670667
601.619978	2581.950451
601.970510	2582.303331
602.320988	2582.240317
602.671412	2581.998342
603.021783	2580.188567
603.372100	2582.978846
603.722363	2580.407858
604.072572	2579.185378
604.422728	2583.117478
604.772830	2576.838721
605.122878	2577.345357
605.472872	2577.733525
605.822813	2578.214956
606.172701	2579.782754
606.522534	2580.864082
606.872314	2581.388362
607.222041	2579.737384
607.571714	2583.515729
607.921333	2581.620255
608.270899	2579.409709
608.620411	2584.294587
608.969870	2586.616038
609.319276	2583.873651
609.668627	2584.155955
610.017926	2587.074783
610.367171	2588.211564
610.716362	2588.216605
611.065500	2586.356419
611.414585	2583.729978
611.763616	2586.505133
612.112594	2584.642427
612.461518	2586.036306
612.810389	2583.742581
613.159207	2581.005234
613.507971	2582.920873
613.856682	2582.656212
614.205340	2582.719227
614.553945	2582.363825
614.902496	2582.411716
615.250994	2581.252251
615.599439	2582.199988
615.947830	2582.366346
616.296169	2584.597056
616.644454	2583.636717
616.992686	2583.281315
617.340864	2581.738722
617.688990	2582.270564
618.037063	2584.198805
618.385082	2580.377611
618.733048	2582.575554
619.080961	2581.937848
619.428821	2584.022365
619.776628	2581.433732
620.124382	2582.202508
620.472083	2579.815522
620.819731	2585.378435
621.167326	2580.748135
621.514868	2582.888105
621.862357	2578.877867
622.209793	2579.833166
622.557176	2579.571026
622.904506	2578.177147
623.251783	2573.879563
623.599007	2575.752352
623.946179	2574.953329
624.293297	2573.503997
624.640363	2577.403330
624.987376	2578.963567
625.334336	2573.599779
625.681243	2578.121694
626.028097	2575.822928
626.374899	2575.598597
626.721647	2575.165057
627.068343	2578.046077
627.414987	2575.744790
627.761577	2574.081209
628.108115	2574.378637
628.454600	2574.928123
628.801032	2576.082547
629.147412	2575.734708
629.493739	2576.067424
629.840014	2574.479461
630.186236	2574.764286
630.532405	2571.936198
630.878521	2576.069945
631.224585	2574.822259
631.570597	2571.817731
631.916556	2573.763617
632.262462	2573.052814
632.608316	2572.916703
632.954117	2571.744635
633.299866	2572.513411
633.645562	2573.025088
633.991206	2574.136662
634.336797	2571.096846
634.682336	2571.422001
635.027823	2571.784964
635.373257	2569.350087
635.718639	2570.990982
636.063968	2568.563667
636.409245	2568.351938
636.754470	2571.497618
637.099642	2569.168605
637.444762	2570.065930
637.789829	2571.409398
638.134845	2569.660117
638.479808	2568.102401
638.824719	2568.122566
639.169577	2567.109294
639.514383	2567.401681
639.859137	2568.044428
640.203839	2569.017370
640.548489	2569.050138
640.893086	2567.081567
641.237632	2565.712894
641.582125	2565.975034
641.926566	2561.818603
642.270955	2567.953687
642.615292	2565.980075
642.959576	2566.595096
643.303809	2566.262380
643.647990	2567.222720
643.992118	2566.769016
644.336195	2564.387071
644.680219	2565.670044
645.024192	2567.862946
645.368112	2567.779767
645.711981	2567.522668
646.055797	2566.958059
646.399562	2567.414283
646.743274	2568.936712
647.086935	2570.287741
647.430544	2565.778429
647.774101	2566.776578
648.117606	2567.615930
648.461059	2568.573749
648.804460	2569.972669
649.147810	2569.581980
649.491108	2567.641135
649.834354	2568.278841
650.177548	2564.036710
650.520690	2568.752710
650.863781	2566.645507
651.206820	2572.639439
651.549807	2564.951680
651.892742	2567.066444
652.235626	2564.858418
652.578458	2567.046279
652.921238	2564.566032
653.263967	2564.956721
653.606644	2565.218861
653.949269	2564.477811
654.291843	2561.271638
654.634365	2563.721638
654.976836	2565.264231
655.319255	2564.210630
655.661622	2564.374468
656.003938	2563.343552
656.346203	2564.893707
656.688416	2564.152657
657.030577	2564.223233
657.372687	2561.012018
657.714746	2561.415310
658.056753	2563.131823
658.398708	2559.005639
658.740612	2560.001267
659.082465	2560.124775
659.424266	2557.984805
659.766016	2558.700649
660.107715	2561.180897
660.449362	2563.986299
660.790958	2563.741803
661.132503	2559.134188
661.473996	2562.773901
661.815438	2561.309446
662.156829	2563.013356
662.498168	2561.924467
662.839456	2560.593602
663.180693	2564.986968
663.521879	2563.018397
663.863013	2562.794066
664.204097	2562.907492
664.545129	2562.259704
664.886110	2562.791545
665.227040	2561.627039
665.567918	2562.915054
665.908746	2564.510579
666.249522	2565.823799
666.590248	2563.247770
666.930922	2563.424210
667.271545	2561.017059
667.612118	2565.818758
667.952639	2562.718449
668.293109	2564.404715
668.633528	2561.606874
668.973896	2559.754250
669.314213	2562.789025
669.654480	2560.807851
669.994695	2564.417317
670.334859	2563.068809
670.674973	2562.960424
671.015035	2562.741134
671.355047	2563.504869
671.695008	2562.088304
672.034918	2560.197872
672.374777	2563.570404
672.714585	2560.911195
673.054342	2561.193500
673.394049	2562.237018
673.733705	2561.301884
674.073310	2563.961093
674.412864	2562.960424
674.752368	2561.760629
675.091820	2560.775084
675.431223	2560.049158
675.770574	2560.462532
676.109875	2558.680484
676.449125	2557.916750
676.788324	2554.844166
677.127473	2555.922973
677.466571	2556.888354
677.805619	2561.397666
678.144616	2557.689898
678.483562	2559.119065
678.822458	2560.747358
679.161303	2558.955227
679.500098	2557.667212
679.838842	2557.216029
680.177535	2558.327604
680.516179	2560.011349
680.854771	2562.103428
681.193314	2562.814231
681.531805	2560.659137
681.870247	2564.281206
682.208638	2560.785166
682.546978	2563.663665
682.885268	2564.694581
683.223508	2562.597461
683.561697	2561.261555
683.899836	2562.499158
684.237925	2561.690053
684.575963	2560.931360
684.913951	2559.187120
685.251889	2562.025290
685.589776	2559.890361
685.927614	2561.145609
686.265401	2560.215516
686.603137	2558.410783
686.940824	2561.475804
687.278460	2564.185424
687.616046	2562.310115
687.953582	2563.668706
688.291068	2562.083263
688.628504	2561.858932
688.965889	2561.745506
689.303224	2561.561504
689.640510	2563.877914
689.977745	2560.028993
690.314930	2561.677450
690.652065	2564.104766
690.989150	2560.928839
691.326185	2558.297357
691.663170	2558.320042
692.000105	2555.010524
692.336990	2557.674774
692.673825	2559.502193
693.010610	2559.411452
693.347345	2554.319886
693.684030	2549.487940
694.020665	2555.479352
694.357251	2549.061963
694.693786	2554.944989
695.030272	2552.989022
695.366707	2553.389793
695.703093	2554.705535
696.039429	2555.040771
696.375716	2553.588919
696.711952	2555.025648
697.048139	2553.493137
697.384276	2552.595812
697.720363	2553.903991
698.056400	2553.893909
698.392388	2553.916594
698.728326	2553.457849
699.064214	2553.972047
699.400053	2552.653785
699.735842	2552.439536
700.071581	2552.641182
700.407270	2555.038251
700.742910	2553.311656
701.078501	2551.224618
701.414042	2551.862324
701.749533	2550.844011
702.084974	2554.274516
702.420366	2550.657488
702.755709	2549.263609
703.091002	2552.031203
703.426246	2549.588763
703.761440	2551.310318
704.096584	2548.275543
704.431679	2551.227138
704.766725	2550.914587
705.101721	2549.303938
705.436668	2551.133877
705.771565	2549.366953
706.106413	2551.038095
706.441212	2550.730585
706.775961	2551.315359
707.110661	2551.660678
707.445311	2551.620348
707.779913	2548.918290
708.114465	2551.232180
708.448967	2553.939279
708.783421	2551.983312
709.117825	2549.908877
709.452180	2548.499874
709.786485	2551.937941
710.120742	2553.906512
710.454949	2554.483724
710.789107	2553.999773
711.123216	2549.760163
711.457275	2551.045657
711.791286	2551.832077
712.125247	2554.324927
712.459159	2553.974567
712.793023	2554.592109
713.126837	2553.445246
713.460602	2554.645041
713.794318	2554.740823
714.127985	2551.537169
714.461602	2551.693445
714.795171	2554.829043
715.128691	2550.675132
715.462162	2551.176727
715.795584	2550.637323
716.128957	2549.956768
716.462281	2551.360729
716.795556	2548.575492
717.128782	2551.937941
717.461960	2549.104813
717.795088	2547.083310
718.128167	2550.788558
718.461198	2546.238917
718.794180	2547.466438
719.127113	2549.482899
719.459997	2549.399720
719.792833	2547.733619
720.125619	2550.307128
720.458357	2548.310831
720.791046	2547.133722
721.123686	2546.248999
721.456278	2548.845193
721.788821	2547.574823
722.121315	2548.900646
722.453761	2547.965512
722.786158	2545.674308
723.118506	2548.764535
723.450805	2545.790254
723.783056	2546.687579
724.115259	2547.874771
724.447412	2548.237734
724.779518	2546.415357
725.111574	2546.402754
725.443582	2548.998948
725.775542	2546.632127
726.107453	2548.419216
726.439315	2547.002652
726.771129	2556.086811
727.102895	2549.815615
727.434612	2546.586756
727.766281	2549.402241
728.097901	2547.849565
728.429473	2545.182795
728.760996	2546.070038
729.092471	2545.971736
729.423897	2548.293187
729.755276	2550.775955
730.086606	2551.257385
730.417887	2547.143804
730.749120	2551.658157
731.080305	2549.240924
731.411442	2549.359391
731.742530	2553.644372
732.073570	2550.264278
732.404562	2549.508105
732.735506	2551.907694
733.066401	2549.941644
733.397249	2550.279402
733.728048	2551.857283
734.058798	2549.782848
734.389501	2548.565409
734.720156	2548.557848
735.050762	2546.236396
735.381320	2549.891233
735.711831	2547.816798
736.042293	2544.129194
736.372707	2544.535007
736.703073	2543.680531
737.033391	2547.852086
737.363661	2547.741181
737.693883	2547.148845
738.024056	2550.309648
738.354182	2545.949050
738.684260	2545.880995
739.014290	2547.274874
739.344272	2546.705223
739.674207	2547.181612
740.004093	2549.248486
740.333931	2549.261088
740.663722	2548.414175
740.993464	2547.355532
741.323159	2551.703527
741.652806	2547.708413
741.982405	2548.396531
742.311956	2548.174720
742.641460	2548.666232
742.970915	2548.767055
743.300323	2546.392672
743.629683	2545.603731
743.958996	2548.199926
744.288260	2544.529966
744.617477	2545.087013
744.946647	2540.610468
745.275768	2542.074924
745.604842	2539.715664
745.933869	2540.451672
746.262847	2541.321271
746.591778	2543.302445
746.920662	2543.514173
747.249498	2544.872764
747.578286	2545.530635
747.907027	2545.956612
748.235720	2546.697662
748.564365	2546.979966
748.892963	2543.352856
749.221514	2547.494164
749.550017	2546.760676
749.878473	2544.618186
750.206881	2546.299411
750.535242	2542.972249
750.863555	2543.914945
751.191821	2542.316899
751.520039	2544.222455
751.848210	2543.093237
752.176334	2544.887888
752.504411	2544.623227
752.832440	2543.249512
753.160421	2543.471323
753.488356	2544.363607
753.816243	2543.925027
754.144082	2544.686241
754.471875	2543.365459
754.799620	2542.677342
755.127318	2541.827907
755.454969	2542.924358
755.782572	2543.481406
756.110129	2541.737166
756.437638	2541.210366
756.765100	2543.002496
757.092515	2543.161292
757.419882	2544.628268
757.747203	2542.296734
758.074477	2545.502908
758.401703	2545.172713
758.728882	2542.052238
759.056014	2544.315717
759.383099	2545.495347
759.710138	2544.106509
760.037129	2541.936292
760.364073	2544.058618
760.690970	2544.721529
761.017820	2545.182795
761.344623	2544.204811
761.671379	2546.337219
761.998088	2545.008875
762.324751	2544.199770
762.651366	2546.501057
762.977935	2553.472972
763.304456	2555.809547
763.630931	2562.670558
763.957359	2556.313663
764.283740	2556.885834
764.610074	2550.496171
764.936362	2546.685059
765.262602	2546.274205
765.588796	2546.720347
765.914943	2544.812270
766.241044	2546.279246
766.567097	2543.146169
766.893104	2544.424101
767.219064	2543.357897
767.544978	2542.601724
767.870845	2542.944523
768.196665	2542.727753
768.522438	2538.760365
768.848165	2540.980993
769.173846	2544.167003
769.499479	2542.455531
769.825066	2541.157434
770.150607	2540.822197
770.476101	2541.679193
770.801548	2540.718853
771.126949	2540.300438
771.452303	2541.389327
771.777611	2539.456044
772.102872	2538.039480
772.428087	2539.899666
772.753256	2542.339584
773.078378	2541.686755
773.403453	2537.439583
773.728482	2540.660880
774.053465	2541.643905
774.378401	2538.556198
774.703291	2539.153575
775.028135	2540.159285
775.352932	2537.908410
775.677683	2537.212731
776.002388	2539.256919
776.327046	2540.537372
776.651658	2537.737011
776.976224	2536.733821
777.300743	2539.387989
777.625216	2541.109543
777.949643	2539.934954
778.274024	2539.836651
778.598359	2536.650642
778.922647	2534.165353
779.246889	2537.235416
779.571086	2535.244160
779.895236	2537.737011
780.219339	2537.598379
780.543397	2537.369007
780.867409	2540.272711
781.191374	2540.759182
781.515294	2538.838503
781.839167	2537.152237
782.162995	2535.788605
782.486776	2539.161137
782.810511	2540.096271
783.134201	2537.656352
783.457844	2534.961856
783.781441	2540.847403
784.104993	2538.344470
784.428498	2540.555016
784.751958	2537.253060
785.075372	2540.050900
785.398739	2538.074768
785.722061	2540.996117
786.045337	2537.921013
786.368568	2537.782381
786.691752	2538.215920
787.014891	2538.646939
787.337983	2538.120138
787.661030	2539.962680
787.984031	2541.038967
788.306987	2542.853782
788.629897	2540.602907
788.952760	2540.524769
789.275579	2541.170037
789.598351	2542.682383
789.921078	2536.905220
790.243759	2533.837678
790.566395	2537.338760
790.888984	2536.471681
791.211529	2535.420601
791.534027	2536.983358
791.856480	2540.010571
792.178888	2538.354552
792.501249	2539.249357
792.823566	2538.530992
793.145836	2536.559901
793.468062	2536.426311
793.790241	2532.905065
794.112375	2538.518390
794.434464	2536.098636
794.756507	2538.344470
795.078505	2534.271217
795.400457	2536.275076
795.722364	2535.755837
796.044226	2535.554191
796.366042	2534.520755
796.687812	2535.697864
797.009538	2539.642567
797.331218	2539.700540
797.652852	2537.737011
797.974442	2540.388658
798.295986	2537.046373
798.617484	2538.021836
798.938938	2534.924047
799.260346	2540.902855
799.581709	2535.768440
799.903026	2541.046528
800.224299	2537.968904
800.545526	2536.396064
800.866708	2538.936805
801.187845	2537.331198
801.508936	2538.004192
801.829983	2536.789274
802.150984	2535.223996
802.471940	2539.188863
802.792851	2535.183666
803.113717	2539.745911
803.434538	2534.767771
803.755314	2537.875642
804.076045	2537.056455
804.396731	2535.924716
804.717372	2536.721218
805.037967	2536.229706
805.358518	2537.240457
805.679024	2536.227185
805.999485	2536.199459
806.319901	2536.885056
806.640272	2536.819521
806.960598	2535.718029
807.280879	2536.980838
807.601115	2535.960004
807.921306	2539.307330
808.241453	2537.885725
808.561554	2535.912113
808.881611	2537.454706
809.201623	2538.709953
809.521590	2535.942360
809.841513	2536.811959
810.161390	2535.448327
810.481223	2539.587114
810.801011	2539.022505
811.120755	2536.091074
811.440453	2536.620395
811.760107	2537.374048
812.079716	2536.411187
812.399281	2535.564273
812.718801	2533.991433
813.038276	2531.072605
813.357707	2537.023687
813.677093	2536.610313
813.996434	2535.783564
814.315731	2537.933616
814.634983	2536.247350
814.954191	2536.678368
815.273354	2536.217103
815.592473	2536.706095
815.911547	2534.361958
816.230577	2537.805066
816.549562	2536.365817
816.868502	2537.336239
817.187399	2536.229706
817.506250	2537.419418
817.825058	2538.072248
818.143821	2537.018646
818.462539	2539.201466
818.781213	2540.514687
819.099843	2537.880684
819.418429	2541.480067
819.736970	2544.875285
820.055466	2543.882177
820.373919	2545.260933
820.692327	2548.149514
821.010691	2554.859290
821.329011	2565.828841
821.647286	2587.972109
821.965517	2609.313834
822.283704	2621.921759
822.601847	2630.640435
822.919945	2622.098200
823.237999	2603.413163
823.556010	2589.048395
823.873976	2580.002045
824.191897	2569.050138
824.509775	2564.389591
824.827609	2562.186607
825.145398	2555.630586
825.463144	2553.472972
825.780845	2556.119578
826.098502	2558.950186
826.416116	2561.924467
826.733685	2571.391754
827.051210	2574.141703
827.368692	2572.909141
827.686129	2564.961762
828.003522	2556.875751
828.320872	2547.385779
828.638177	2547.080789
828.955439	2540.681045
829.272656	2539.798843
829.589830	2538.422608
829.906960	2541.008720
830.224046	2541.429656
830.541088	2542.911755
830.858086	2539.166178
831.175041	2538.097453
831.491952	2537.381609
831.808819	2540.766744
832.125642	2539.067875
832.442421	2539.463606
832.759157	2545.205480
833.075849	2548.648588
833.392497	2551.214536
833.709101	2555.328117
834.025662	2556.296019
834.342179	2554.781152
834.658653	2549.813095
834.975083	2545.465100
835.291469	2547.451314
835.607811	2539.793802
835.924110	2539.519059
836.240366	2537.762217
836.556578	2536.998482
836.872746	2535.196269
837.188871	2536.474202
837.504952	2537.956301
837.820990	2533.041176
838.136984	2535.352545
838.452935	2536.945550
838.768842	2535.949922
839.084706	2536.605272
839.400526	2539.516538
839.716303	2539.347659
840.032037	2546.072559
840.347727	2540.620551
840.663373	2540.655839
840.978977	2540.625592
841.294537	2539.816487
841.610054	2539.501415
841.925527	2535.118131
842.240957	2537.086702
842.556344	2535.561753
842.871687	2533.787267
843.186987	2532.600075
843.502244	2531.639735
843.817458	2530.616381
844.132629	2532.547143
844.447756	2534.430014
844.762840	2531.680064
845.077881	2531.160826
845.392879	2533.772143
845.707833	2532.771474
846.022745	2528.993129
846.337613	2534.666948
846.652438	2531.445651
846.967221	2532.978162
847.281960	2532.433717
847.596656	2531.548994
847.911309	2529.204858
848.225919	2533.530168
848.540485	2531.309540
848.855009	2530.591175
849.169490	2530.818027
849.483928	2531.594365
849.798323	2531.440610
850.112675	2533.951104
850.426984	2531.707791
850.741251	2531.047400
851.055474	2532.043028
851.369654	2531.296937
851.683792	2533.956145
851.997887	2534.238450
852.311938	2535.294572
852.625947	2532.889941
852.939914	2533.371372
853.253837	2532.214427
853.567718	2530.502955
853.881555	2531.322143
854.195350	2531.269210
854.509103	2535.153419
854.822812	2527.334590
855.136479	2533.026053
855.450103	2532.521937
855.763685	2530.865918
856.077224	2531.254087
856.390720	2531.801052
856.704173	2530.485311
857.017584	2531.236443
857.330953	2530.571011
857.644278	2532.171577
857.957561	2535.783564
858.270802	2534.437576
858.584000	2532.731145
858.897155	2531.831299
859.210268	2530.724766
859.523339	2532.481608
859.836367	2532.297606
860.149352	2530.008922
860.462295	2533.283151
860.775195	2528.418438
861.088054	2528.841895
861.400869	2530.359282
861.713642	2526.333921
862.026373	2531.019673
862.339062	2533.048738
862.651708	2532.612678
862.964312	2533.615868
863.276873	2533.275590
863.589392	2533.247863
863.901869	2531.977492
864.214303	2533.331042
864.526696	2531.312060
864.839045	2532.428676
865.151353	2535.034952
865.463619	2532.428676
865.775842	2533.850281
866.088023	2533.867925
866.400162	2532.027904
866.712258	2532.143851
867.024313	2532.897503
867.336325	2533.164684
867.648296	2531.377595
867.960224	2533.051258
868.272110	2535.594520
868.583954	2529.865249
868.895755	2535.140817
869.207515	2533.510003
869.519233	2532.995806
869.830909	2530.381967
870.142542	2533.154602
870.454134	2533.739376
870.765684	2533.744417
871.077191	2532.030425
871.388657	2532.383305
871.700081	2530.530681
872.011463	2532.216947
872.322803	2530.359282
872.634101	2534.177956
872.945357	2534.099818
873.256571	2533.116793
873.567744	2532.905065
873.878874	2533.878007
874.189963	2534.543440
874.501010	2536.506969
874.812015	2533.207534
875.122979	2535.498738
875.433900	2534.873635
875.744780	2536.050745
876.055618	2533.923378
876.366415	2536.068389
876.677169	2534.626619
876.987882	2531.564118
877.298554	2531.317101
877.609183	2533.593182
877.919771	2531.062523
878.230317	2531.027235
878.540822	2538.142824
878.851285	2537.832793
879.161707	2537.704243
879.472087	2538.818338
879.782425	2545.255892
880.092722	2547.713454
880.402977	2552.323589
880.713191	2562.741134
881.023363	2574.406364
881.333494	2586.295925
881.643583	2587.770463
881.953631	2586.023703
882.263637	2583.682087
882.573602	2581.232086
882.883526	2573.274625
883.193408	2567.636094
883.503248	2559.971020
883.813048	2555.733930
884.122806	2551.511964
884.432522	2550.813764
884.742197	2547.196736
885.051831	2544.096426
885.361424	2542.241282
885.670975	2540.605427
885.980485	2538.304141
886.289954	2538.180632
886.599382	2537.613503
886.908768	2542.231199
887.218113	2536.446475
887.527417	2540.043339
887.836680	2535.690302
888.145901	2534.530837
888.455082	2537.666435
888.764221	2536.811959
889.073319	2535.793646
889.382376	2534.979500
889.691392	2536.174253
890.000366	2531.521268
890.309300	2534.815662
890.618193	2533.459592
890.927044	2531.922040
891.235855	2535.223996
891.544625	2534.976979
891.853353	2535.912113
892.162041	2534.044366
892.470687	2538.783050
892.779293	2535.135775
893.087858	2535.087884
893.396381	2534.230888
893.704864	2538.956970
894.013306	2536.769109
894.321707	2548.015923
894.630068	2549.218239
894.938387	2551.978270
895.246665	2552.958775
895.554903	2547.438711
895.863100	2548.825029
896.171256	2544.940820
896.479371	2542.679862
896.787446	2543.148689
897.095480	2538.904038
897.403473	2540.426466
897.711425	2534.936650
898.019336	2536.930426
898.327207	2533.371372
898.635038	2537.900848
898.942827	2536.164171
899.250576	2534.908923
899.558284	2537.852957
899.865952	2533.986392
900.173579	2535.045035
900.481165	2534.172915
900.788711	2535.299613
901.096216	2534.583769
901.403681	2534.306506
901.711105	2532.509334
902.018489	2532.733666
902.325832	2537.484953
902.633135	2536.111239
902.940397	2536.645601
903.247619	2536.471681
903.554800	2542.042156
903.861941	2545.361756
904.169041	2553.949362
904.476101	2560.124775
904.783121	2557.289126
905.090100	2555.786862
905.397039	2550.420554
905.703938	2545.439894
906.010796	2539.082999
906.317614	2541.228010
906.624391	2539.158616
906.931129	2538.730118
907.237826	2534.046886
907.544483	2535.339942
907.851099	2532.935312
908.157675	2532.789118
908.464211	2533.600744
908.770707	2528.289888
909.077163	2530.152595
909.383578	2527.344672
909.689954	2530.346679
909.996289	2527.619415
910.302584	2530.450023
910.608839	2531.985054
910.915054	2531.853984
911.221229	2532.847092
911.527363	2530.558408
911.833458	2531.811134
912.139513	2533.653676
912.445527	2534.094777
912.751502	2532.244674
913.057436	2531.624612
913.363331	2534.379602
913.669186	2533.890610
913.975000	2535.551671
914.280775	2534.659386
914.586510	2539.065355
914.892205	2539.902186
915.197859	2543.892260
915.503475	2546.168341
915.809050	2552.321069
916.114585	2556.757284
916.420081	2557.523540
916.725536	2553.432643
917.030952	2554.196378
917.336328	2550.632282
917.641665	2546.942158
917.946961	2545.230686
918.252218	2544.441745
918.557435	2541.142310
918.862612	2536.829603
919.167750	2538.026877
919.472848	2539.461085
919.777906	2536.287679
920.082925	2535.586959
920.387904	2533.399098
920.692843	2534.803059
920.997743	2532.698378
921.302603	2533.777184
921.607423	2531.874149
921.912204	2529.577903
922.216946	2531.944725
922.521647	2530.802904
922.826310	2531.974972
923.130932	2533.767102
923.435516	2530.807945
923.740059	2530.598737
924.044564	2530.583613
924.349028	2531.327184
924.653454	2524.067922
924.957840	2529.409025
925.262186	2527.359796
925.566493	2529.154446
925.870761	2525.544980
926.174989	2529.663603
926.479178	2529.517409
926.783328	2529.771988
927.087438	2530.323994
927.391509	2532.315250
927.695541	2529.005732
927.999533	2530.568490
928.303486	2529.741741
928.607400	2527.705115
928.911275	2531.695188
929.215110	2527.102697
929.518906	2528.841895
929.822663	2528.811648
930.126381	2527.926925
930.430060	2530.381967
930.733699	2529.129241
931.037299	2529.383819
931.340861	2527.798376
931.644383	2525.698735
931.947866	2527.216123
932.251309	2529.111597
932.554714	2528.206709
932.858080	2528.219312
933.161407	2530.986906
933.464694	2530.303829
933.767943	2527.629497
934.071153	2529.489683
934.374323	2530.150074
934.677455	2532.476567
934.980548	2527.354754
935.283602	2527.785773
935.586617	2526.593540
935.889593	2528.226874
936.192530	2529.179652
936.495428	2528.194107
936.798287	2530.318953
937.101108	2530.076978
937.403890	2530.931453
937.706632	2531.778367
938.009336	2527.949611
938.312002	2528.216792
938.614628	2530.074457
938.917216	2529.356093
939.219765	2529.058664
939.522275	2532.186700
939.824747	2532.232071
940.127179	2528.567152
940.429573	2524.428365
940.731929	2527.271575
941.034246	2525.524816
941.336524	2530.565969
941.638763	2528.277286
941.940964	2529.898017
942.243126	2528.204189
942.545250	2531.491021
942.847335	2529.603109
943.149381	2529.356093
943.451389	2529.988757
943.753359	2527.679909
944.055290	2526.742254
944.357182	2528.564631
944.659036	2527.906761
944.960851	2530.974303
945.262628	2528.678057
945.564367	2529.696370
945.866067	2527.558921
946.167729	2530.810465
946.469352	2529.436751
946.770937	2530.480270
947.072484	2525.416431
947.373992	2529.948428
947.675462	2527.027079
947.976893	2528.836854
948.278286	2527.132944
948.579641	2529.038500
948.880958	2525.585309
949.182236	2530.969262
949.483476	2528.574714
949.784678	2532.158974
950.085841	2525.688653
950.386967	2528.539426
950.688054	2528.156298
950.989103	2527.944569
951.290114	2528.814168
951.591087	2528.297450
951.892021	2527.576565
952.192917	2529.393901
952.493776	2529.804755
952.794596	2527.357275
953.095378	2529.169570
953.396122	2527.269055
953.696828	2528.083201
953.997496	2529.799714
954.298126	2529.293078
954.598718	2528.640249
954.899272	2527.344672
955.199788	2531.107893
955.500266	2527.599250
955.800706	2526.565814
956.101108	2524.700587
956.401472	2524.791328
956.701798	2523.876358
957.002087	2523.152953
957.302337	2528.138654
957.602550	2524.935001
957.902724	2526.795186
958.202861	2528.617563
958.502960	2525.250073
958.803022	2528.501617
959.103045	2526.631349
959.403031	2528.907430
959.702979	2525.182017
960.002889	2527.816020
960.302762	2527.619415
960.602596	2526.817872
960.902393	2525.565145
961.202153	2527.188396
961.501875	2527.342152
961.801559	2527.337110
962.101205	2529.028418
962.400814	2525.534898
962.700385	2527.563962
962.999918	2526.318797
963.299414	2527.586647
963.598873	2526.520443
963.898293	2526.732172
964.197677	2526.253262
964.497022	2525.691174
964.796331	2526.938859
965.095601	2522.474918
965.394835	2528.418438
965.694030	2527.367357
965.993189	2527.460619
966.292309	2529.688809
966.591393	2525.567665
966.890439	2527.364837
967.189447	2527.682429
967.488419	2525.030783
967.787353	2524.909795
968.086249	2526.611184
968.385108	2527.722759
968.683930	2526.157480
968.982714	2523.523477
969.281462	2525.134126
969.580172	2524.627490
969.878844	2527.710156
970.177480	2527.997502
970.476078	2526.454908
970.774639	2528.781401
971.073162	2524.723272
971.371649	2522.946265
971.670098	2522.807634
971.968510	2524.004908
972.266885	2523.379805
972.565223	2524.882068
972.863524	2527.286699
973.161788	2526.923736
973.460014	2525.058509
973.758204	2525.819723
974.056356	2525.363499
974.354471	2525.900382
974.652550	2526.134795
974.950591	2524.705628
975.248595	2527.374919
975.546563	2527.163191
975.844493	2527.571524
976.142386	2525.645803
976.440243	2527.773170
976.738062	2526.777542
977.035845	2525.817202
977.333590	2528.539426
977.631299	2526.568334
977.928971	2527.765608
978.226606	2527.185876
978.524204	2526.558252
978.821765	2528.506658
979.119290	2526.517923
979.416777	2526.288550
979.714228	2525.335772
980.011642	2525.340813
980.309020	2529.908099
980.606360	2525.076153
980.903664	2526.817872
981.200931	2523.518436
981.498162	2525.645803
981.795356	2528.932636
982.092513	2528.647810
982.389633	2524.148581
982.686717	2527.100176
982.983764	2528.037831
983.280775	2526.906092
983.577749	2527.165711
983.874686	2529.993798
984.171587	2526.598581
984.468451	2527.374919
984.765279	2525.953314
985.062070	2527.972296
985.358824	2526.802748
985.655543	2525.035824
985.952224	2527.642100
986.248869	2526.454908
986.545478	2523.236132
986.842050	2523.536080
987.138586	2521.401152
987.435086	2522.643796
987.731549	2524.380474
988.027975	2523.717562
988.324366	2524.945083
988.620719	2527.793335
988.917037	2524.877027
989.213318	2526.719569
989.509563	2526.066740
989.805772	2524.357788
990.101944	2526.167563
990.398080	2523.576410
990.694180	2523.152953
990.990244	2524.425844
991.286271	2525.938190
991.582262	2527.122861
991.878217	2524.728313
992.174136	2523.173117
992.470019	2521.693539
992.765865	2526.354085
993.061676	2526.505320
993.357450	2525.005577
993.653188	2523.664630
993.948890	2525.560104
994.244556	2522.096831
994.540186	2527.954652
994.835780	2523.881399
995.131337	2526.464991
995.426859	2526.948942
995.722345	2523.505833
996.017795	2525.408869
996.313208	2527.937008
996.608586	2528.312574
996.903928	2524.967768
997.199234	2525.265196
997.494504	2526.064219
997.789738	2526.220495
998.084936	2526.094466
998.380099	2526.268386
998.675225	2524.647655
998.970316	2525.492048
999.265371	2525.544980
999.560390	2524.115813
999.855373	2525.653365
1000.150320	2524.960206
1000.445232	2524.864424
1000.740108	2526.323838
1001.034948	2526.933818
1001.329752	2525.068591
1001.624521	2526.825433
1001.919254	2520.413086
1002.213951	2525.378622
1002.508613	2523.286543
1002.803239	2524.206554
1003.097829	2521.254958
1003.392384	2526.926256
1003.686903	2523.773015
1003.981386	2525.693694
1004.275834	2524.592202
1004.570246	2525.781914
1004.864623	2525.761750
1005.158964	2524.866945
1005.453270	2526.235618
1005.747540	2523.730165
1006.041775	2523.306708
1006.335974	2524.352747
1006.630138	2525.774353
1006.924266	2525.328211
1007.218359	2527.856349
1007.512416	2524.244363
1007.806438	2527.127902
1008.100425	2525.423992
1008.394376	2524.516585
1008.688292	2524.652696
1008.982172	2523.929290
1009.276017	2525.257634
1009.569827	2523.732685
1009.863602	2528.093283
1010.157341	2526.258303
1010.451045	2524.687984
1010.744714	2524.574558
1011.038347	2525.116482
1011.331945	2521.864938
1011.625508	2523.815864
1011.919036	2527.019518
1012.212528	2524.831657
1012.505986	2522.918539
1012.799408	2523.568848
1013.092795	2522.762263
1013.386147	2523.793179
1013.679464	2523.319311
1013.972745	2525.328211
1014.265992	2523.929290
1014.559204	2524.990453
1014.852380	2523.652027
1015.145521	2525.487007
1015.438628	2525.146729
1015.731699	2525.895340
1016.024736	2527.047244
1016.317737	2522.961389
1016.610703	2524.919877
1016.903635	2520.468538
1017.196531	2519.462828
1017.489393	2521.970802
1017.782219	2519.044412
1018.075011	2524.980371
1018.367768	2524.693025
1018.660490	2524.758560
1018.953177	2524.758560
1019.245829	2524.758560
