Dividing Wavelength (nm)	Counts (n)	Blue Motor Position (mm): 35.500000	Red Motor Position (mm): 0.000000	
326.493990	2228.031204
326.888308	2228.031204
327.282561	2228.031204
327.676750	2190.948476
328.070874	2186.043433
328.464933	2185.725841
328.858929	2190.499813
329.252859	2196.506348
329.646726	2202.505321
330.040528	2218.122816
330.434265	2230.329970
330.827938	2247.444687
331.221547	2265.895310
331.615091	2280.945675
332.008571	2301.107770
332.401986	2320.523774
332.795338	2335.518686
333.188625	2357.210771
333.581847	2377.365304
333.975006	2395.901627
334.368100	2413.699420
334.761129	2431.590475
335.154095	2451.079576
335.546996	2477.210397
335.939833	2514.593073
336.332606	2532.216947
336.725315	2543.025181
337.117960	2555.365926
337.510540	2569.546692
337.903056	2577.589853
338.295508	2590.364136
338.687896	2596.363109
339.080220	2603.309819
339.472480	2609.444904
339.864676	2614.954885
340.256807	2621.326903
340.648875	2622.897223
341.040879	2629.170939
341.432818	2629.019704
341.824694	2633.009777
342.216506	2635.190076
342.608253	2634.683440
342.999937	2634.030611
343.391557	2633.677730
343.783113	2636.349542
344.174605	2634.191928
344.566033	2633.710498
344.957397	2631.930970
345.348697	2631.913326
345.739934	2629.304529
346.131106	2626.819240
346.522215	2625.959724
346.913260	2626.095835
347.304241	2623.358488
347.695159	2620.527880
348.086012	2619.907818
348.476802	2616.868003
348.867528	2611.796602
349.258191	2611.284925
349.648789	2608.832403
350.039324	2606.594131
350.429796	2607.425922
350.820203	2608.222424
351.210548	2606.752927
351.600828	2605.719491
351.991045	2603.962649
352.381198	2601.212699
352.771288	2600.101125
353.161314	2604.111363
353.551276	2606.626899
353.941175	2603.024994
354.331010	2602.646908
354.720782	2602.893924
355.110490	2602.162957
355.500135	2598.949221
355.889717	2599.972576
356.279235	2599.387802
356.668689	2603.037597
357.058080	2599.649942
357.447408	2603.786208
357.836672	2600.481732
358.225873	2603.176229
358.615010	2598.981989
359.004084	2603.783688
359.393095	2603.826538
359.782043	2604.348297
360.170927	2605.275869
360.559748	2606.155551
360.948505	2607.002465
361.337199	2604.439038
361.725830	2606.455499
362.114398	2604.507093
362.502903	2607.224275
362.891344	2609.056735
363.279722	2607.327619
363.668037	2605.560695
364.056289	2609.691920
364.444478	2610.685027
364.832603	2611.058073
365.220665	2612.038577
365.608665	2611.705861
365.996601	2611.884822
366.384474	2611.741149
366.772284	2613.815584
367.160031	2613.540841
367.547715	2614.256685
367.935336	2613.656788
368.322893	2611.204266
368.710388	2611.105964
369.097820	2614.407920
369.485189	2614.390276
369.872495	2616.807509
370.259738	2617.132663
370.646918	2618.466048
371.034035	2615.146449
371.421090	2616.878085
371.808081	2617.198198
372.195010	2618.818929
372.581875	2620.512757
372.968678	2620.658950
373.355418	2615.474124
373.742096	2620.096862
374.128710	2619.839763
374.515262	2623.159363
374.901751	2621.919239
375.288177	2621.115175
375.674540	2621.553755
376.060841	2619.368415
376.447079	2621.750360
376.833254	2625.405197
377.219367	2621.994856
377.605417	2626.269755
377.991404	2623.144239
378.377329	2625.387553
378.763191	2625.450567
379.148991	2625.032151
379.534727	2628.011473
379.920402	2624.573406
380.306013	2625.284209
380.691563	2627.124230
381.077049	2626.375619
381.462474	2627.945938
381.847835	2630.290075
382.233134	2628.762605
382.618371	2630.532050
383.003545	2629.412914
383.388657	2629.357461
383.773706	2631.709160
384.158693	2633.329891
384.543618	2633.040024
384.928480	2632.969448
385.313280	2632.324180
385.698017	2632.369551
386.082692	2634.423821
386.467305	2636.228554
386.851856	2635.666465
387.236344	2635.608492
387.620770	2634.726290
388.005133	2634.781743
388.389435	2637.360293
388.773674	2634.728811
389.157851	2640.163175
389.541965	2640.085037
389.926018	2640.016981
390.310008	2640.102681
390.693936	2640.548823
391.077802	2640.455562
391.461606	2644.140645
391.845348	2641.231899
392.229027	2644.531334
392.612645	2644.881695
392.996200	2644.944709
393.379694	2647.407313
393.763125	2647.157776
394.146494	2648.617190
394.529801	2649.431336
394.913047	2648.755821
395.296230	2649.196922
395.679351	2648.808753
396.062410	2649.927890
396.445408	2650.459731
396.828343	2650.318579
397.211217	2652.466111
397.594028	2653.716317
397.976778	2654.714465
398.359466	2656.793941
398.742092	2654.686739
399.124656	2655.518529
399.507158	2658.759991
399.889598	2658.870897
400.271977	2661.126813
400.654294	2663.551608
401.036549	2666.407422
401.418742	2670.271466
401.800874	2675.337826
402.182944	2679.466531
402.564952	2688.444826
402.946898	2692.739889
403.328783	2702.870087
403.710606	2716.360215
404.092367	2736.013153
404.474067	2756.293715
404.855705	2773.690737
405.237282	2795.801238
405.618797	2835.843123
406.000250	2870.523741
406.381642	2923.102975
406.762972	2967.124851
407.144240	3017.637213
407.525447	3066.334759
407.906593	3128.056126
408.287677	3211.598128
408.668700	3265.606529
409.049661	3353.720858
409.430560	3428.438319
409.811399	3468.303764
410.192176	3603.315946
410.572891	3682.625899
410.953545	3822.722085
411.334138	3830.056964
411.714669	3964.325576
412.095139	3980.850478
412.475547	4144.630005
412.855894	4255.830297
413.236180	4418.588990
413.616405	4384.654463
413.996568	4563.756577
414.376670	4665.943286
414.756711	4708.969534
415.136691	4841.544318
415.516609	5033.826529
415.896466	5124.007730
416.276262	5319.417977
416.655997	5395.771293
417.035670	5604.462459
417.415283	5903.738119
417.794834	6030.530700
418.174324	6041.946393
418.553753	6085.965748
418.933121	6396.233644
419.312428	6548.267282
419.691674	6484.310163
420.070859	6918.514827
420.449983	6772.187774
420.829045	7129.376210
421.208047	7042.698610
421.586988	7353.168152
421.965867	7445.038140
422.344686	7619.882999
422.723444	7714.502937
423.102141	7249.796772
423.480777	7955.021428
423.859352	7590.944256
424.237866	8208.616672
424.616319	8144.339440
424.994712	8558.366885
425.373044	8234.061896
425.751314	8687.002007
426.129524	8601.975386
426.507673	8782.836863
426.885762	8959.688101
427.263789	8907.247498
427.641756	8857.214046
428.019662	8994.393925
428.397508	9235.260256
428.775292	8978.484043
429.153016	9361.578968
429.530679	9222.720385
429.908282	9287.698338
430.285824	9028.585551
430.663305	9706.098984
431.040726	9181.428294
431.418086	9181.511473
431.795385	9506.902831
432.172624	9594.903733
432.549802	9530.903764
432.926920	9628.893712
433.303977	9506.688582
433.680974	9715.606600
434.057910	9801.956524
434.434786	9867.834322
434.811601	9730.662006
435.188355	10291.873499
435.565050	10010.133493
435.941683	9951.051170
436.318257	10454.125556
436.694770	10560.123377
437.071222	10645.001285
437.447614	10502.601291
437.823946	10386.725329
438.200218	10545.332632
438.576429	10345.970121
438.952580	10589.359549
439.328670	10648.462037
439.704700	10431.944479
440.080670	10421.118601
440.456580	10992.714871
440.832429	10734.688453
441.208218	10342.925264
441.583947	10679.205513
441.959616	10810.764505
442.335224	10611.210430
442.710773	10769.303536
443.086261	10961.235386
443.461689	10258.579198
443.837057	10891.778368
444.212365	11183.104128
444.587612	10821.857564
444.962800	11054.721063
445.337927	10832.754018
445.712995	10403.101517
446.088002	11500.689259
446.462949	11141.832202
446.837837	11121.896959
447.212664	11118.456372
447.587431	11620.547733
447.962139	12328.986124
448.336786	14587.801134
448.711374	15155.233411
449.085901	13013.035413
449.460369	12626.285652
449.834776	12073.240828
450.209124	12929.586673
450.583412	13332.218589
450.957640	14294.582420
451.331808	13455.537815
451.705917	12435.757763
452.079965	11741.023748
452.453954	12642.903815
452.827883	12273.409923
453.201752	12567.064697
453.575562	12078.599574
453.949311	12491.507883
454.323001	12457.510341
454.696632	12679.273220
455.070202	12967.992703
455.443713	13213.002862
455.817164	13671.848686
456.190556	13668.453468
456.563888	14029.321946
456.937160	14207.695613
457.310373	13539.415053
457.683526	13614.228297
458.056619	13164.007888
458.429653	13325.017301
458.802628	12758.167277
459.175542	13117.851084
459.548398	14072.126383
459.921194	14408.179781
460.293930	14460.552328
460.666607	15351.024264
461.039224	16375.923609
461.411782	17079.068788
461.784280	16962.638299
462.156719	17007.378539
462.529099	16710.053806
462.901419	15628.832170
463.273680	15423.964719
463.645882	15284.168482
464.018024	15026.870510
464.390106	15246.866464
464.762130	15963.539580
465.134094	16721.973614
465.505999	18704.964412
465.877845	21954.265329
466.249631	24812.571834
466.621358	24495.548792
466.993026	23053.274676
467.364634	22498.165500
467.736184	21037.687778
468.107674	20222.364322
468.479105	20358.861125
468.850477	19827.520989
469.221790	19414.552186
469.593043	18732.872240
469.964238	18165.079520
470.335373	17841.122371
470.706449	18268.796219
471.077467	17823.299372
471.448425	19651.418361
471.819324	23675.471528
472.190164	25700.606372
472.560945	22155.914004
472.931667	19786.191089
473.302330	19151.156939
473.672934	18679.418365
474.043479	19005.694445
474.413965	18813.540783
474.784393	18436.197815
475.154761	19129.885790
475.525070	19123.428072
475.895321	18793.484553
476.265513	19368.435711
476.635645	19955.241142
477.005719	19738.181660
477.375734	19925.011863
477.745691	20399.704553
478.115588	20928.183834
478.485427	21445.885128
478.855207	22508.406604
479.224928	24266.083030
479.594591	26495.626580
479.964194	26532.800049
480.333739	26734.433600
480.703226	26299.140047
481.072653	25968.198380
481.442022	26549.304786
481.811333	27467.639180
482.180584	27380.679276
482.549777	26437.968383
482.918912	26090.395949
483.287988	26203.743772
483.657005	25875.282352
484.025964	25618.463290
484.394864	25532.035228
484.763706	25224.827313
485.132489	24658.259594
485.501213	24836.945813
485.869879	24746.842749
486.238487	24555.911568
486.607036	24703.365318
486.975527	24416.695063
487.343959	24728.785336
487.712333	24671.611090
488.080648	24342.552293
488.448905	24824.864687
488.817104	24572.189454
489.185244	25253.324956
489.553326	25219.826488
489.921350	26195.473760
490.289315	28491.996600
490.657222	30265.189698
491.025070	30774.903284
491.392861	30555.262731
491.760593	29695.887153
492.128267	28798.317272
492.495883	27756.784641
492.863440	26884.861630
493.230939	26011.325451
493.598380	25849.065832
493.965763	25456.307015
494.333088	25006.137018
494.700354	24939.823160
495.067563	24812.647451
495.434713	24564.431118
495.801805	24718.042637
496.168839	24523.471743
496.535815	24356.521330
496.902733	24574.662140
497.269593	24255.907461
497.636395	24431.788278
498.003139	24404.712241
498.369825	24150.391070
498.736453	24345.692932
499.103023	24220.455547
499.469535	24232.057762
499.835989	24448.169507
500.202385	24467.875378
500.568723	23990.631864
500.935003	24219.449837
501.301226	23846.653989
501.667390	24682.759602
502.033497	24911.408696
502.399546	24646.117975
502.765537	24207.368712
503.131470	24590.486322
503.497345	24716.182452
503.863163	23960.447955
504.228923	24542.076121
504.594625	24750.006073
504.960269	24285.688078
505.325856	24771.504074
505.691385	24176.806716
506.056856	24785.218533
506.422270	24758.946560
506.787625	24310.709845
507.152924	24735.240534
507.518164	24780.305928
507.883347	24579.098355
508.248472	24261.682103
508.613540	25048.192844
508.978550	24835.670401
509.343503	24833.474978
509.708398	25077.323151
510.073236	25228.106583
510.438016	25446.814523
510.802738	25117.619615
511.167403	25373.329623
511.532010	25088.978299
511.896561	25848.985173
512.261053	25815.683311
512.625488	25655.417469
512.989866	25547.856890
513.354186	25389.453753
513.718449	25493.286399
514.082655	25877.530707
514.446803	25615.141170
514.810894	26078.009834
515.174927	25570.113584
515.538904	25592.178714
515.902822	26084.989311
516.266684	25840.911766
516.630488	25744.930717
516.994235	25716.249072
517.357925	26032.906630
517.721558	26191.453439
518.085133	26309.154299
518.448651	26208.487498
518.812112	25951.454187
519.175516	26157.218964
519.538863	26317.666288
519.902152	26093.082884
520.265385	26369.975821
520.628560	26164.551322
520.991678	26170.590624
521.354739	26242.331285
521.717743	26307.107591
522.080690	26095.989109
522.443580	26435.039473
522.806413	26423.666630
523.169189	26527.587496
523.531908	26570.313795
523.894569	26170.154564
524.257174	26259.514057
524.619722	26440.186491
524.982213	26123.213860
525.344647	26175.140266
525.707025	26328.784552
526.069345	26297.027804
526.431608	26260.502124
526.793815	26445.358715
527.155964	25912.065132
527.518057	26079.791882
527.880093	26000.590314
528.242072	26235.026653
528.603995	25950.105678
528.965860	25742.193370
529.327669	25795.168336
529.689421	25778.109071
530.051117	25601.724139
530.412755	25780.667457
530.774337	25581.846869
531.135862	25456.662417
531.497331	25661.645814
531.858743	25222.019390
532.220098	25698.985641
532.581396	25374.375662
532.942638	25309.972401
533.303824	25411.362608
533.664953	25420.640852
534.026025	25074.043881
534.387040	25313.710417
534.747999	25379.499995
535.108902	25539.544027
535.469748	25032.877818
535.830537	25208.105806
536.191270	25333.774209
536.551947	25203.881319
536.912567	24843.590053
537.273131	25213.540169
537.633638	24909.387193
537.994089	25123.308557
538.354483	24648.205012
538.714821	25146.061805
539.075103	25194.272879
539.435328	24979.824715
539.795497	24546.154415
540.155609	24935.356697
540.515665	25235.537244
540.875665	24462.395643
541.235609	24772.391317
541.595496	24726.045469
541.955328	25080.988070
542.315102	25000.700133
542.674821	24551.568614
543.034483	24410.290277
543.394090	24583.262348
543.753640	24377.810123
544.113134	25015.657237
544.472571	24617.146464
544.831953	24918.020169
545.191278	24541.962695
545.550548	24448.703870
545.909761	24651.237267
546.268918	24887.652258
546.628019	24847.179355
546.987064	24542.691142
547.346053	24295.863647
547.704986	24408.046964
548.063863	24564.693258
548.422684	24586.947432
548.781449	24108.839360
549.140158	24514.647203
549.498811	24092.417801
549.857408	23834.527494
550.215949	24253.132306
550.574434	23947.338434
550.932864	24156.632019
551.291237	24324.666279
551.649555	24180.821995
552.007817	24234.414502
552.366022	24092.256484
552.724173	24130.975066
553.082267	24089.594755
553.440305	24563.110336
553.798288	23817.652231
554.156215	24319.315094
554.514086	24429.585294
554.871902	23807.948010
555.229661	24086.479322
555.587365	23943.250059
555.945014	23829.254447
556.302606	24050.666965
556.660143	24008.207847
557.017625	24267.865078
557.375050	23791.163488
557.732421	24185.911040
558.089735	23992.575228
558.446994	24051.224012
558.804197	24088.745320
559.161345	24020.049517
559.518437	23786.202993
559.875474	23977.953362
560.232455	24154.287882
560.589381	23976.660306
560.946251	23961.665394
561.303065	24285.199086
561.659825	24366.996848
562.016528	23957.730773
562.373177	23706.162073
562.729770	24065.828235
563.086307	23917.396501
563.442789	24095.661783
563.799216	23929.039046
564.155587	23937.858545
564.511904	23920.111163
564.868164	23860.738973
565.224370	23823.515093
565.580520	23748.036417
565.936615	23878.254462
566.292654	23562.910124
566.648638	23850.467622
567.004567	23670.868955
567.360441	23626.216934
567.716260	23353.203166
568.072023	23663.677749
568.427732	23437.148459
568.783385	23214.180745
569.138982	23454.364000
569.494525	23498.113653
569.850013	23241.284509
570.205445	23339.796217
570.560823	23146.921671
570.916145	22921.914810
571.271412	23089.412188
571.626625	22839.459177
571.981782	22965.672025
572.336884	22763.060491
572.691931	22896.227611
573.046923	22632.330768
573.401860	22510.037417
573.756743	22531.903422
574.111570	22432.769132
574.466342	22354.180064
574.821059	22449.500721
575.175722	22146.005616
575.530330	22130.231845
575.884882	22147.061737
576.239380	22054.644785
576.593823	21940.208072
576.948211	21923.751225
577.302544	21771.783122
577.656823	21637.446454
578.011047	21749.289493
578.365216	21609.979727
578.719330	21486.358032
579.073389	21385.537476
579.427394	21538.816279
579.781344	21289.362343
580.135239	21169.849188
580.489080	21149.666928
580.842866	20914.940723
581.196597	21111.664190
581.550273	21083.496743
581.903895	20970.436265
582.257463	21290.173968
582.610975	20817.096968
582.964434	21129.131788
583.317837	20823.519398
583.671186	20920.218811
584.024481	20894.836602
584.377721	20663.359420
584.730906	20740.075699
585.084037	20748.363356
585.437113	20657.206692
585.790135	20860.594564
586.143103	20318.524332
586.496016	20338.903197
586.848874	20575.880277
587.201679	20508.112046
587.554428	20186.627583
587.907124	20521.017400
588.259765	20288.474014
588.612352	20360.454129
588.964884	19936.755231
589.317362	20096.741289
589.669786	20158.140022
590.022155	20184.777479
590.374470	20396.246322
590.726731	20174.985038
591.078937	19954.979002
591.431090	20036.968328
591.783188	19791.078487
592.135232	19770.112329
592.487222	19859.759167
592.839157	19885.605163
593.191038	19762.863149
593.542866	19647.382918
593.894639	19359.855667
594.246358	19574.780220
594.598022	19487.588423
594.949633	19228.891531
595.301190	19203.143838
595.652692	19366.232727
596.004141	19605.979921
596.355535	18937.520401
596.706876	18949.906516
597.058162	18845.821812
597.409395	19076.096679
597.760573	19137.255957
598.111698	18920.377957
598.462768	18862.291262
598.813785	18825.299275
599.164748	18632.991858
599.515657	18678.616821
599.866511	18467.029512
600.217312	18830.431169
600.568060	18353.757306
600.918753	18666.308844
601.269392	18564.101971
601.619978	18359.844499
601.970510	18551.887255
602.320988	18494.733173
602.671412	18708.422643
603.021783	18623.133882
603.372100	18340.347837
603.722363	18480.754053
604.072572	18413.237880
604.422728	18566.375531
604.772830	18333.655705
605.122878	18280.065719
605.472872	18269.474255
605.822813	18250.627901
606.172701	18231.106033
606.522534	18414.901461
606.872314	18444.341799
607.222041	18280.211912
607.571714	18482.684815
607.921333	18323.225558
608.270899	18395.878667
608.620411	18577.294670
608.969870	18348.065843
609.319276	18341.424123
609.668627	18374.983084
610.017926	18511.154732
610.367171	18623.522051
610.716362	18671.672632
611.065500	18492.131938
611.414585	18623.358213
611.763616	18612.915463
612.112594	18546.019352
612.461518	18511.416872
612.810389	18708.841059
613.159207	18562.246826
613.507971	18475.596953
613.856682	18748.872862
614.205340	18680.630762
614.553945	18822.481270
614.902496	18572.240913
615.250994	18796.325243
615.599439	18735.531448
615.947830	18723.533502
616.296169	18787.369633
616.644454	18743.829188
616.992686	18718.046206
617.340864	18935.350184
617.688990	18683.839457
618.037063	18859.430407
618.385082	18707.885761
618.733048	18993.381426
619.080961	18871.042705
619.428821	18898.567405
619.776628	18785.625394
620.124382	18706.010451
620.472083	18752.898223
620.819731	18777.627603
621.167326	18467.745356
621.514868	18512.720010
621.862357	18270.863092
622.209793	18282.407335
622.557176	18115.174618
622.904506	17946.169935
623.251783	17866.378552
623.599007	17613.915047
623.946179	17550.436838
624.293297	17499.458169
624.640363	17249.399294
624.987376	17265.157941
625.334336	17057.711940
625.681243	16905.292653
626.028097	16918.094664
626.374899	16843.760330
626.721647	16711.130092
627.068343	16538.321859
627.414987	16479.128631
627.761577	16445.297447
628.108115	16478.503528
628.454600	16212.842282
628.801032	16309.987837
629.147412	16238.592496
629.493739	16259.372132
629.840014	16066.273254
630.186236	16167.832340
630.532405	15926.711431
630.878521	16129.244827
631.224585	16026.712799
631.570597	15844.419635
631.916556	15880.486570
632.262462	15858.295411
632.608316	15775.156702
632.954117	15720.752570
633.299866	15708.736979
633.645562	15620.962929
633.991206	15380.691455
634.336797	15245.792698
634.682336	15220.496188
635.027823	15100.100832
635.373257	14973.167098
635.718639	14888.024530
636.063968	14832.261807
636.409245	14585.973715
636.754470	14614.922541
637.099642	14463.786228
637.444762	14227.678747
637.789829	14269.981589
638.134845	14104.936733
638.479808	14137.782371
638.824719	14072.610334
639.169577	13927.155402
639.514383	13976.621724
639.859137	13798.684116
640.203839	13888.593095
640.548489	13729.582500
640.893086	13717.203947
641.237632	13590.068567
641.582125	13745.189912
641.926566	13566.531420
642.270955	13574.670363
642.615292	13533.708467
642.959576	13551.100448
643.303809	13584.651848
643.647990	13514.690714
643.992118	13576.706989
644.336195	13344.229138
644.680219	13556.244946
645.024192	13473.073469
645.368112	13719.303587
645.711981	13764.290844
646.055797	13947.398155
646.399562	13919.618877
646.743274	14190.853118
647.086935	14467.672958
647.430544	14426.819447
647.774101	14469.883504
648.117606	14610.778713
648.461059	14580.388117
648.804460	14563.734665
649.147810	14293.173418
649.491108	14202.898955
649.834354	14216.212643
650.177548	13893.299012
650.520690	13708.485271
650.863781	13630.019712
651.206820	13680.766487
651.549807	13504.421884
651.892742	13297.691727
652.235626	13244.588212
652.578458	13252.964089
652.921238	12938.335595
653.263967	13141.872182
653.606644	12973.074186
653.949269	12944.866410
654.291843	12736.021488
654.634365	12898.817990
654.976836	12750.519847
655.319255	12764.158689
655.661622	12717.654044
656.003938	12638.273515
656.346203	12568.403123
656.688416	12645.429433
657.030577	12595.698451
657.372687	12507.127898
657.714746	12493.541988
658.056753	12681.408148
658.398708	12495.268584
658.740612	12495.883604
659.082465	12604.318824
659.424266	12567.541086
659.766016	12589.472626
660.107715	12502.348884
660.449362	12578.377046
660.790958	12540.250799
661.132503	12473.558855
661.473996	12549.022407
661.815438	12565.244840
662.156829	12581.197572
662.498168	12564.859192
662.839456	12561.665621
663.180693	12572.289853
663.521879	12675.784741
663.863013	12637.081282
664.204097	12611.358795
664.545129	12750.471956
664.886110	12708.814381
665.227040	12803.152014
665.567918	12808.241058
665.908746	12836.025378
666.249522	12823.745127
666.590248	12877.486348
666.930922	12978.367398
667.271545	12962.308802
667.612118	13046.947255
667.952639	12953.791773
668.293109	12966.447590
668.633528	12920.512596
668.973896	12896.753638
669.314213	12964.158906
669.654480	12707.206253
669.994695	12780.083694
670.334859	12814.633242
670.674973	12745.120771
671.015035	12783.715845
671.355047	12729.110067
671.695008	12694.931043
672.034918	12709.784803
672.374777	12749.302408
672.714585	12656.141885
673.054342	12704.531921
673.394049	12652.885300
673.733705	12745.009866
674.073310	12651.814055
674.412864	12663.358297
674.752368	12523.675486
675.091820	12562.018502
675.431223	12544.946634
675.770574	12408.916139
676.109875	12329.117194
676.449125	12286.549691
676.788324	12233.156310
677.127473	12067.514077
677.466571	12052.786346
677.805619	11952.837909
678.144616	11869.099303
678.483562	11849.738751
678.822458	11721.569935
679.161303	11700.185361
679.500098	11684.847650
679.838842	11638.590022
680.177535	11661.794454
680.516179	11719.457692
680.854771	11670.603870
681.193314	11886.418187
681.531805	12047.054554
681.870247	12465.087196
682.208638	12886.104200
682.546978	13191.824975
682.885268	13237.439856
683.223508	12929.886621
683.561697	12770.578598
683.899836	12678.388497
684.237925	12469.677166
684.575963	12392.000547
684.913951	12313.280409
685.251889	12261.512800
685.589776	12357.657687
685.927614	12274.892023
686.265401	12252.171542
686.603137	12296.261474
686.940824	12452.627984
687.278460	12578.704721
687.616046	12620.677368
687.953582	12778.934311
688.291068	12716.398797
688.628504	12947.840691
688.965889	12960.793936
689.303224	12925.823451
689.640510	12819.689519
689.977745	12493.254643
690.314930	12275.827157
690.652065	12184.166377
690.989150	11889.513455
691.326185	11664.123467
691.663170	11458.817435
692.000105	11220.774151
692.336990	11106.218971
692.673825	10853.090033
693.010610	10734.791796
693.347345	10517.878508
693.684030	10323.814250
694.020665	10268.694273
694.357251	10072.023738
694.693786	10002.942287
695.030272	9842.598306
695.366707	9735.443540
695.703093	9666.679681
696.039429	9658.908742
696.375716	9572.032018
696.711952	9449.637843
697.048139	9492.704421
697.384276	9446.514849
697.720363	9465.940935
698.056400	9398.969206
698.392388	9346.866361
698.728326	9310.784302
699.064214	9247.651412
699.400053	9292.706724
699.735842	9101.757899
700.071581	9065.176766
700.407270	8996.226384
700.742910	8909.289166
701.078501	8820.481679
701.414042	8695.745889
701.749533	8628.045713
702.084974	8491.427923
702.420366	8607.233309
702.755709	8482.540369
703.091002	8351.924073
703.426246	8383.595122
703.761440	8330.453799
704.096584	8288.513919
704.431679	8220.264258
704.766725	8209.239254
705.101721	8162.399373
705.436668	8208.979635
705.771565	8095.316739
706.106413	8182.402672
706.441212	8220.460863
706.775961	8182.904267
707.110661	8221.295174
707.445311	8355.233590
707.779913	8256.381605
708.114465	8379.589925
708.448967	8419.722551
708.783421	8571.834327
709.117825	8750.331502
709.452180	8789.496227
709.786485	8870.530254
710.120742	9162.193772
710.454949	9152.744129
710.789107	9266.147405
711.123216	9477.681782
711.457275	9650.379110
711.791286	9806.120517
712.125247	9801.344024
712.459159	9791.412951
712.793023	10030.305670
713.126837	9608.129200
713.460602	9760.309032
713.794318	9587.667156
714.127985	9616.396692
714.461602	9289.641703
714.795171	9239.968693
715.128691	8984.659457
715.462162	8742.396726
715.795584	8681.887757
716.128957	8527.119293
716.462281	8364.927729
716.795556	8418.994104
717.128782	8208.407464
717.461960	7941.773275
717.795088	8010.103595
718.128167	7919.025069
718.461198	7754.481807
718.794180	7694.683640
719.127113	7690.804472
719.459997	7529.033845
719.792833	7294.269831
720.125619	7366.764144
720.458357	7220.210240
720.791046	7215.403500
721.123686	7203.042591
721.456278	7049.831843
721.788821	7064.163843
722.121315	6961.505787
722.453761	7031.991200
722.786158	6972.765204
723.118506	6983.207954
723.450805	6947.143539
723.783056	7010.977150
724.115259	6930.661487
724.447412	6923.717297
724.779518	6968.412167
725.111574	6973.259237
725.443582	7056.153450
725.775542	7034.897425
726.107453	7228.560912
726.439315	7131.012064
726.771129	7199.748197
727.102895	7370.363528
727.434612	7479.106258
727.766281	7515.460539
728.097901	7594.883918
728.429473	7589.704132
728.760996	7575.883809
729.092471	7548.432205
729.423897	7491.638566
729.755276	7489.380129
730.086606	7420.969151
730.417887	7527.597117
730.749120	7725.401911
731.080305	7913.628513
731.411442	8026.991461
731.742530	8026.116820
732.073570	8134.247050
732.404562	8218.184782
732.735506	8068.941422
733.066401	8206.930406
733.397249	8136.752503
733.728048	7902.101915
734.058798	7569.882315
734.389501	7332.877508
734.720156	7154.498800
735.050762	6928.219048
735.381320	6838.695717
735.711831	6781.425689
736.042293	6672.340161
736.372707	6692.144334
736.703073	6551.256687
737.033391	6595.132369
737.363661	6606.147290
737.693883	6636.265664
738.024056	6722.560135
738.354182	6763.330467
738.684260	6799.016795
739.014290	6918.076246
739.344272	7024.366454
739.674207	7052.778397
740.004093	7125.822196
740.333931	7135.365100
740.663722	7144.850031
740.993464	7226.602423
741.323159	7209.240689
741.652806	6956.658717
741.982405	6980.183262
742.311956	7029.994903
742.641460	6861.098605
742.970915	6666.106774
743.300323	6663.089643
743.629683	6610.389421
743.958996	6473.194419
744.288260	6388.732407
744.617477	6337.531928
744.946647	6336.327092
745.275768	6170.773079
745.604842	6127.265401
745.933869	6109.331496
746.262847	6067.749539
746.591778	6052.016098
746.920662	6013.370612
747.249498	6008.556310
747.578286	6052.058947
747.907027	6132.014168
748.235720	6189.500966
748.564365	6163.997769
748.892963	6197.155958
749.221514	6338.451939
749.550017	6171.851886
749.878473	6052.787394
750.206881	6107.209171
750.535242	6053.155398
750.863555	5976.113965
751.191821	5999.328478
751.520039	5995.628271
751.848210	5903.478500
752.176334	5931.325833
752.504411	5974.962061
752.832440	5894.369135
753.160421	5832.194064
753.488356	5880.054778
753.816243	5909.149798
754.144082	5758.457106
754.471875	5733.642027
754.799620	5779.317401
755.127318	5791.847189
755.454969	5740.808027
755.782572	5708.113623
756.110129	5754.063741
756.437638	5735.204784
756.765100	5677.075239
757.092515	5678.159087
757.419882	5726.675152
757.747203	5707.173448
758.074477	5771.019662
758.401703	5751.356641
758.728882	5708.307708
759.056014	5768.257109
759.383099	5893.781840
759.710138	5905.648716
760.037129	5892.115739
760.364073	5896.998096
760.690970	5980.887938
761.017820	5958.956398
761.344623	5913.374285
761.671379	6021.413773
761.998088	6139.018851
762.324751	6391.999075
762.651366	7007.251737
762.977935	8339.845468
763.304456	9984.635337
763.630931	10865.342557
763.957359	10438.823133
764.283740	9497.599381
764.610074	8643.995924
764.936362	7651.828791
765.262602	7053.952986
765.588796	6516.291243
765.914943	6183.519637
766.241044	6022.152302
766.567097	5818.164533
766.893104	5552.331887
767.219064	5377.245053
767.544978	5319.511238
767.870845	5239.165328
768.196665	5132.897805
768.522438	5059.743101
768.848165	5024.442421
769.173846	4957.362308
769.499479	4913.700874
769.825066	4867.773442
770.150607	4801.820026
770.476101	4778.234988
770.801548	4770.711066
771.126949	4696.936300
771.452303	4644.455368
771.777611	4602.177731
772.102872	4620.033498
772.428087	4583.323816
772.753256	4539.841343
773.078378	4497.916587
773.403453	4425.802881
773.728482	4412.398453
774.053465	4364.081514
774.378401	4354.480637
774.703291	4352.212117
775.028135	4276.355355
775.352932	4230.392635
775.677683	4220.149010
776.002388	4237.251125
776.327046	4245.803442
776.651658	4171.590096
776.976224	4109.946867
777.300743	4116.301241
777.625216	4138.862925
777.949643	4130.882778
778.274024	4089.406685
778.598359	4045.261301
778.922647	4070.895568
779.246889	4064.833581
779.571086	4056.190522
779.895236	4037.129920
780.219339	4027.796223
780.543397	4017.562681
780.867409	4072.417997
781.191374	4087.269236
781.515294	4022.926469
781.839167	4016.740973
782.162995	4039.048079
782.486776	4023.203732
782.810511	4033.790155
783.134201	4025.356305
783.457844	3984.588494
783.781441	3930.887602
784.104993	3935.064198
784.428498	3954.366777
784.751958	3948.882001
785.075372	3927.739402
785.398739	3893.424268
785.722061	3902.299219
786.045337	3947.341929
786.368568	3977.170436
786.691752	3888.488978
787.014891	3944.218934
787.337983	4068.921957
787.661030	4231.234508
787.984031	4397.443870
788.306987	4561.611566
788.629897	4649.602386
788.952760	4601.290488
789.275579	4535.795817
789.598351	4468.660251
789.921078	4323.515349
790.243759	4123.326089
790.566395	4108.152216
790.888984	4103.708439
791.211529	3993.087879
791.534027	3934.121503
791.856480	3923.860234
792.178888	3860.198023
792.501249	3812.927123
792.823566	3822.674194
793.145836	3848.404243
793.468062	3795.184782
793.790241	3756.020058
794.112375	3786.246816
794.434464	3848.404243
794.756507	3874.794684
795.078505	3852.565716
795.400457	3887.079976
795.722364	4031.015000
796.044226	4133.703304
796.366042	4204.614695
796.687812	4185.236499
797.009538	4186.131304
797.331218	4147.153103
797.652852	4124.299032
797.974442	4101.006380
798.295986	4099.708283
798.617484	4016.846837
798.938938	3931.237963
799.260346	3973.225733
799.581709	3964.842294
799.903026	3891.584247
800.224299	3859.222559
800.545526	3851.847351
800.866708	3811.107267
801.187845	3749.292638
801.508936	3789.752939
801.829983	3784.681538
802.150984	3709.868294
802.471940	3696.158877
802.792851	3703.352603
803.113717	3703.511399
803.434538	3707.554405
803.755314	3647.746156
804.076045	3624.685397
804.396731	3645.321361
804.717372	3673.135927
805.037967	3654.483658
805.358518	3646.516114
805.679024	3675.843027
805.999485	3686.749563
806.319901	3691.314328
806.640272	3703.927295
806.960598	3715.592525
807.280879	3691.800799
807.601115	3704.539795
807.921306	3722.851786
808.241453	3761.393928
808.561554	3737.140937
808.881611	3668.659382
809.201623	3710.619426
809.521590	3721.944378
809.841513	3690.376673
810.161390	3723.376066
810.481223	3697.366233
810.801011	3646.001916
811.120755	3637.905823
811.440453	3674.411339
811.760107	3673.536699
812.079716	3625.522229
812.399281	3600.059361
812.718801	3626.812764
813.038276	3596.971654
813.357707	3594.138526
813.677093	3609.955146
813.996434	3557.554872
814.315731	3570.656831
814.634983	3573.530289
814.954191	3585.984459
815.273354	3616.680045
815.592473	3613.373048
815.911547	3619.281280
816.230577	3664.162673
816.549562	3710.674879
816.868502	3757.363525
817.187399	3775.862039
817.506250	3773.593520
817.825058	3747.011516
818.143821	3843.428624
818.462539	3944.171043
818.781213	3989.538907
819.099843	4047.786919
819.418429	4303.426351
819.736970	4543.080284
820.055466	4795.354746
820.373919	5163.842928
820.692327	5572.985495
821.010691	6040.144180
821.329011	7465.011192
821.647286	10268.858111
821.965517	14907.092695
822.283704	18951.217216
822.601847	21062.447405
822.919945	19180.289767
823.237999	16557.120322
823.556010	14036.964335
823.873976	11920.055286
824.191897	9815.754162
824.509775	8476.553999
824.827609	7339.892274
825.145398	6807.286808
825.463144	6693.069385
825.780845	6802.112064
826.098502	7008.786768
826.416116	7911.357474
826.733685	9256.614583
827.051210	10363.407472
827.368692	10367.679850
827.686129	9078.808046
828.003522	7561.390491
828.320872	6544.035234
828.638177	5831.947047
828.955439	5271.849649
829.272656	4772.644348
829.589830	4491.108509
829.906960	4314.670645
830.224046	4126.232314
830.541088	4001.577182
830.858086	3953.333340
831.175041	3876.624622
831.491952	3862.060729
831.808819	3873.569683
832.125642	3952.861992
832.442421	4105.268676
832.759157	4384.407447
833.075849	4947.307726
833.392497	5832.733467
833.709101	6610.515450
834.025662	6934.888494
834.342179	6550.455143
834.658653	5876.896495
834.975083	5226.524635
835.291469	4647.888393
835.607811	4242.861929
835.924110	4095.740895
836.240366	3894.760173
836.556578	3690.797609
836.872746	3582.148141
837.188871	3538.814383
837.504952	3473.546564
837.820990	3394.755850
838.136984	3346.096112
838.452935	3371.354814
838.768842	3363.999770
839.084706	3390.957340
839.400526	3554.580591
839.716303	3903.675454
840.032037	4436.979119
840.347727	4693.241134
840.663373	4398.739447
840.978977	4013.398688
841.294537	3702.835885
841.610054	3476.853561
841.925527	3371.863970
842.240957	3300.196407
842.556344	3245.348653
842.871687	3185.840352
843.186987	3135.975779
843.502244	3098.577979
843.817458	3063.771332
844.132629	3032.133051
844.447756	3042.001109
844.762840	3026.943183
845.077881	2993.961434
845.392879	2976.335039
845.707833	2975.208342
846.022745	2973.358238
846.337613	2972.566777
846.652438	2962.272741
846.967221	2959.250569
847.281960	2946.468723
847.596656	2942.498815
847.911309	2938.985131
848.225919	2938.397836
848.540485	2932.787032
848.855009	2928.827206
849.169490	2921.416709
849.483928	2910.323650
849.798323	2909.854823
850.112675	2906.764596
850.426984	2918.825556
850.741251	2912.680390
851.055474	2906.487332
851.369654	2898.839902
851.683792	2902.381313
851.997887	2914.038981
852.311938	2913.373548
852.625947	2903.545819
852.939914	2906.300810
853.253837	2911.173085
853.567718	2895.074160
853.881555	2894.426372
854.195350	2911.261305
854.509103	2906.953639
854.822812	2897.720766
855.136479	2893.894530
855.450103	2896.130282
855.763685	2889.473438
856.077224	2890.569889
856.390720	2901.002557
856.704173	2908.899524
857.017584	2900.001888
857.330953	2900.687485
857.644278	2911.994793
857.957561	2918.762542
858.270802	2919.727923
858.584000	2919.987542
858.897155	2907.495563
859.210268	2906.240316
859.523339	2903.860891
859.836367	2903.981879
860.149352	2898.736558
860.462295	2892.944273
860.775195	2901.136148
861.088054	2899.089439
861.400869	2883.381204
861.713642	2883.527397
862.026373	2899.969120
862.339062	2901.894841
862.651708	2905.625295
862.964312	2910.966398
863.276873	2902.351066
863.589392	2914.767428
863.901869	2924.514498
864.214303	2947.504681
864.526696	2963.331383
864.839045	2957.914663
865.151353	2956.924077
865.463619	2956.145218
865.775842	2957.352575
866.088023	2976.052735
866.400162	2981.222438
866.712258	2951.454425
867.024313	2943.713733
867.336325	2953.090279
867.648296	2974.333701
867.960224	2965.277268
868.272110	2952.437450
868.583954	2954.116154
868.895755	2971.303968
869.207515	2958.912812
869.519233	2962.265179
869.830909	2973.244812
870.142542	2981.930720
870.454134	2984.002634
870.765684	2985.630927
871.077191	2983.284270
871.388657	2992.219715
871.700081	3006.123218
872.011463	3017.143180
872.322803	3016.886081
872.634101	3018.589991
872.945357	3034.928371
873.256571	3061.127247
873.567744	3052.932852
873.878874	3046.565874
874.189963	3068.149574
874.501010	3071.612847
874.812015	3059.393090
875.122979	3058.304201
875.433900	3057.885785
875.744780	3067.600089
876.055618	3071.023032
876.366415	3068.063875
876.677169	3076.212900
876.987882	3073.914134
877.298554	3069.528330
877.609183	3089.960127
877.919771	3117.492388
878.230317	3142.741007
878.540822	3196.726724
878.851285	3237.572673
879.161707	3281.937347
879.472087	3385.124725
879.782425	3620.163482
880.092722	4069.239549
880.402977	4607.657465
880.713191	5256.585035
881.023363	6441.062105
881.333494	7740.568223
881.643583	8277.773741
881.953631	7967.876370
882.263637	7313.902605
882.573602	6713.133178
882.883526	6129.407892
883.193408	5548.435075
883.503248	5090.383234
883.813048	4780.140544
884.122806	4465.345692
884.432522	4148.002537
884.742197	3908.691402
885.051831	3715.688307
885.361424	3582.576639
885.670975	3508.965711
885.980485	3421.678132
886.289954	3343.232737
886.599382	3297.441416
886.908768	3259.201743
887.218113	3213.919579
887.527417	3158.361022
887.836680	3104.755913
888.145901	3102.003443
888.455082	3088.528439
888.764221	3037.925337
889.073319	3008.598424
889.382376	3008.563136
889.691392	3010.834176
890.000366	3012.497757
890.309300	2998.445540
890.618193	3010.892149
890.927044	3026.988553
891.235855	3025.723224
891.544625	3014.171420
891.853353	3025.193903
892.162041	3043.636964
892.470687	3084.004003
892.779293	3137.760347
893.087858	3182.394723
893.396381	3257.666712
893.704864	3384.610528
894.013306	3628.186479
894.321707	3936.102676
894.630068	4139.719921
894.938387	4136.183552
895.246665	4090.838373
895.554903	3962.321717
895.863100	3759.931993
896.171256	3588.663832
896.479371	3449.424643
896.787446	3324.189778
897.095480	3223.308728
897.403473	3154.978408
897.711425	3121.958851
898.019336	3107.861264
898.327207	3078.438569
898.635038	3044.337684
898.942827	3028.314377
899.250576	3019.336082
899.558284	2988.680825
899.865952	2967.167701
900.173579	2945.692386
900.481165	2936.497321
900.788711	2922.974426
901.096216	2901.846950
901.403681	2886.741133
901.711105	2894.741444
902.018489	2892.041906
902.325832	2891.096690
902.633135	2902.908113
902.940397	2938.760799
903.247619	3022.791793
903.554800	3225.279819
903.861941	3583.582349
904.169041	4017.499667
904.476101	4315.625943
904.783121	4262.663581
905.090100	4007.757637
905.397039	3728.147518
905.703938	3474.708550
906.010796	3291.082000
906.317614	3176.806604
906.624391	3080.460072
906.931129	3005.029287
907.237826	2944.540482
907.544483	2898.585324
907.851099	2869.533154
908.157675	2846.295955
908.464211	2827.550425
908.770707	2813.478044
909.077163	2799.181332
909.383578	2784.133487
909.689954	2774.431787
909.996289	2771.041611
910.302584	2771.490273
910.608839	2775.641664
910.915054	2764.767895
911.221229	2759.058788
911.527363	2761.667585
911.833458	2768.321908
912.139513	2773.443721
912.445527	2775.868516
912.751502	2784.667850
913.057436	2793.812503
913.363331	2808.794812
913.669186	2830.005467
913.975000	2868.048534
914.280775	2927.826537
914.586510	3000.283041
914.892205	3083.595670
915.197859	3215.358828
915.503475	3414.123963
915.809050	3629.998773
916.114585	3779.879839
916.420081	3797.574289
916.725536	3731.845205
917.030952	3610.983541
917.336328	3480.205928
917.641665	3347.147193
917.946961	3246.850917
918.252218	3175.004392
918.557435	3095.238215
918.862612	3033.985675
919.167750	2982.543220
919.472848	2945.291614
919.777906	2915.372366
920.082925	2891.341186
920.387904	2861.825230
920.692843	2840.997703
920.997743	2830.970848
921.302603	2815.945689
921.607423	2806.191056
921.912204	2793.575568
922.216946	2783.742798
922.521647	2774.068824
922.826310	2764.546084
923.130932	2758.206833
923.435516	2749.893970
923.740059	2740.010788
924.044564	2734.687330
924.349028	2731.576938
924.653454	2721.199723
924.957840	2714.989021
925.262186	2712.970039
925.566493	2707.696992
925.870761	2701.609799
926.174989	2697.115610
926.479178	2693.871628
926.783328	2689.105217
927.087438	2686.355267
927.391509	2685.299146
927.695541	2683.287725
927.999533	2681.631706
928.303486	2676.956036
928.607400	2676.953515
928.911275	2676.479647
929.215110	2675.995696
929.518906	2675.554595
929.822663	2671.204079
930.126381	2675.363031
930.430060	2674.639626
930.733699	2672.787002
931.037299	2676.381344
931.340861	2675.504184
931.644383	2676.164575
931.947866	2674.851354
932.251309	2672.620644
932.554714	2672.265242
932.858080	2673.641477
933.161407	2671.304902
933.464694	2668.350786
933.767943	2663.405414
934.071153	2667.075374
934.374323	2665.595796
934.677455	2665.827689
934.980548	2666.503203
935.283602	2666.737617
935.586617	2666.079747
935.889593	2664.685867
936.192530	2665.068995
936.495428	2665.613440
936.798287	2665.593275
937.101108	2669.399346
937.403890	2672.587876
937.706632	2679.978208
938.009336	2687.285360
938.312002	2694.264838
938.614628	2706.693802
938.917216	2711.687065
939.219765	2708.367466
939.522275	2710.179760
939.824747	2706.020808
940.127179	2702.998637
940.429573	2702.388657
940.731929	2699.845395
941.034246	2695.305836
941.336524	2692.664271
941.638763	2691.020855
941.940964	2688.712007
942.243126	2686.163703
942.545250	2688.485155
942.847335	2683.249917
943.149381	2678.896880
943.451389	2675.778927
943.753359	2671.907320
944.055290	2670.836075
944.357182	2671.879594
944.659036	2668.161743
944.960851	2667.718122
945.262628	2667.483708
945.564367	2668.749037
945.866067	2668.335663
946.167729	2668.693585
946.469352	2669.779953
946.770937	2670.268945
947.072484	2666.833399
947.373992	2664.451454
947.675462	2663.009684
947.976893	2660.383243
948.278286	2660.068171
948.579641	2656.990546
948.880958	2659.105310
949.182236	2660.968017
949.483476	2658.117244
949.784678	2656.917449
950.085841	2657.567758
950.386967	2658.649086
950.688054	2659.541370
950.989103	2663.163439
951.290114	2662.233346
951.591087	2664.716114
951.892021	2665.792401
952.192917	2668.844819
952.493776	2672.187104
952.794596	2670.813390
953.095378	2669.480005
953.396122	2672.151816
953.696828	2667.314829
953.997496	2666.775426
954.298126	2663.216371
954.598718	2662.240908
954.899272	2661.187307
955.199788	2656.824188
955.500266	2653.640699
955.800706	2654.316214
956.101108	2648.942344
956.401472	2650.603404
956.701798	2649.214566
957.002087	2644.027219
957.302337	2642.101498
957.602550	2642.522435
957.902724	2641.569657
958.202861	2640.352218
958.502960	2638.058493
958.803022	2641.032774
959.103045	2638.681075
959.403031	2634.265025
959.702979	2634.930457
960.002889	2635.369037
960.302762	2635.348873
960.602596	2636.783081
960.902393	2631.993985
961.202153	2633.632360
961.501875	2632.956845
961.801559	2630.327883
962.101205	2630.499283
962.400814	2631.668830
962.700385	2632.941722
962.999918	2629.463326
963.299414	2629.244035
963.598873	2632.586320
963.898293	2626.695732
964.197677	2629.972482
964.497022	2631.147071
964.796331	2631.593213
965.095601	2629.685136
965.394835	2630.285034
965.694030	2628.313942
965.993189	2630.647997
966.292309	2631.555404
966.591393	2631.562966
966.890439	2629.743110
967.189447	2633.516413
967.488419	2629.836371
967.787353	2629.906947
968.086249	2629.561628
968.385108	2628.384519
968.683930	2628.172790
968.982714	2629.730507
969.281462	2631.464664
969.580172	2629.165897
969.878844	2629.012142
970.177480	2629.735548
970.476078	2630.721093
970.774639	2631.348717
971.073162	2632.114972
971.371649	2630.325363
971.670098	2630.247225
971.968510	2629.606998
972.266885	2627.956021
972.565223	2632.954325
972.863524	2630.469036
973.161788	2628.147584
973.460014	2631.010960
973.758204	2628.533233
974.056356	2629.604478
974.354471	2630.768984
974.652550	2629.937194
974.950591	2632.485497
975.248595	2630.433748
975.546563	2631.570528
975.844493	2631.205044
976.142386	2628.795373
976.440243	2628.939046
976.738062	2630.257307
977.035845	2628.792852
977.333590	2629.745630
977.631299	2628.255969
977.928971	2625.339662
978.226606	2624.311266
978.524204	2625.183386
978.821765	2625.014507
979.119290	2627.812348
979.416777	2627.116668
979.714228	2628.780249
980.011642	2626.010135
980.309020	2628.926443
980.606360	2629.133130
980.903664	2626.602471
981.200931	2628.707152
981.498162	2628.697070
981.795356	2634.943060
982.092513	2633.806280
982.389633	2634.144037
982.686717	2637.370375
982.983764	2640.884060
983.280775	2646.217600
983.577749	2647.031747
983.874686	2644.503608
984.171587	2641.962867
984.468451	2641.478916
984.765279	2636.805766
985.062070	2637.695530
985.358824	2632.740076
985.655543	2633.264356
985.952224	2630.153964
986.248869	2629.672533
986.545478	2628.671864
986.842050	2629.203706
987.138586	2625.407717
987.435086	2628.122379
987.731549	2626.458798
988.027975	2625.324538
988.324366	2623.973509
988.620719	2623.857562
988.917037	2623.091307
989.213318	2626.741102
989.509563	2626.088273
989.805772	2625.422841
990.101944	2626.151287
990.398080	2626.557100
990.694180	2624.540639
990.990244	2625.006946
991.286271	2622.146091
991.582262	2626.327728
991.878217	2624.104579
992.174136	2623.595422
992.470019	2624.701956
992.765865	2620.202726
993.061676	2620.290946
993.357450	2621.150463
993.653188	2619.630555
993.948890	2623.784466
994.244556	2624.286061
994.540186	2626.100876
994.835780	2625.896709
995.131337	2624.313787
995.426859	2625.281688
995.722345	2627.872842
996.017795	2627.376288
996.313208	2629.352420
996.608586	2629.097842
996.903928	2628.558438
997.199234	2627.620784
997.494504	2630.423665
997.789738	2628.997019
998.084936	2628.203037
998.380099	2628.427368
998.675225	2627.063736
998.970316	2625.712707
999.265371	2625.261524
999.560390	2624.089456
999.855373	2624.583489
1000.150320	2622.708179
1000.445232	2624.228087
1000.740108	2622.937552
1001.034948	2625.788324
1001.329752	2623.401338
1001.624521	2624.578447
1001.919254	2624.906122
1002.213951	2622.332613
1002.508613	2620.782459
1002.803239	2624.563324
1003.097829	2623.078704
1003.392384	2623.247583
1003.686903	2622.103241
1003.981386	2621.626852
1004.275834	2622.640124
1004.570246	2623.177007
1004.864623	2624.212964
1005.158964	2619.985956
1005.453270	2621.974692
1005.747540	2625.327059
1006.041775	2622.191461
1006.335974	2622.362860
1006.630138	2621.946965
1006.924266	2623.807151
1007.218359	2624.296143
1007.512416	2619.812037
1007.806438	2619.549897
1008.100425	2619.522170
1008.394376	2618.334978
1008.688292	2621.495782
1008.982172	2621.974692
1009.276017	2622.821605
1009.569827	2620.028806
1009.863602	2623.396297
1010.157341	2623.003087
1010.451045	2621.289095
1010.744714	2619.940586
1011.038347	2620.422016
1011.331945	2621.909157
1011.625508	2622.078035
1011.919036	2621.568879
1012.212528	2621.455453
1012.505986	2622.723303
1012.799408	2621.329424
1013.092795	2622.254476
1013.386147	2622.214146
1013.679464	2620.500154
1013.972745	2618.937396
1014.265992	2620.853035
1014.559204	2619.857407
1014.852380	2620.870679
1015.145521	2620.623662
1015.438628	2621.931842
1015.731699	2620.250617
1016.024736	2618.899588
1016.317737	2620.043930
1016.610703	2619.998559
1016.903635	2621.122737
1017.196531	2620.883282
1017.489393	2620.482510
1017.782219	2621.122737
1018.075011	2621.117695
1018.367768	2621.145422
1018.660490	2619.665843
1018.953177	2619.665843
1019.245829	2619.665843
