Dividing Wavelength (nm)	Counts (n)	Blue Motor Position (mm): 0.000000	Red Motor Position (mm): 38.000000	
326.493990	2127.606378
326.888308	2127.606378
327.282561	2127.606378
327.676750	2092.940883
328.070874	2093.122365
328.464933	2096.555391
328.858929	2105.357245
329.252859	2111.325972
329.646726	2126.041100
330.040528	2136.710702
330.434265	2153.228042
330.827938	2171.194715
331.221547	2190.381346
331.615091	2206.654191
332.008571	2227.524568
332.401986	2248.094996
332.795338	2267.503438
333.188625	2286.269133
333.581847	2304.538275
333.975006	2323.021666
334.368100	2342.508246
334.761129	2358.423168
335.154095	2375.386651
335.546996	2396.032697
335.939833	2416.368711
336.332606	2430.241967
336.725315	2441.932402
337.117960	2454.923456
337.510540	2463.253963
337.903056	2471.496249
338.295508	2476.814667
338.687896	2487.796820
339.080220	2497.317039
339.472480	2502.998420
339.864676	2510.582836
340.256807	2508.881446
340.648875	2516.009638
341.040879	2516.586850
341.432818	2518.346212
341.824694	2520.839063
342.216506	2517.998373
342.608253	2520.687828
342.999937	2523.082377
343.391557	2521.917870
343.783113	2521.365864
344.174605	2520.155987
344.566033	2518.260513
344.957397	2516.329751
345.348697	2513.846983
345.739934	2508.871364
346.131106	2510.688700
346.522215	2510.658453
346.913260	2508.742814
347.304241	2506.474295
347.695159	2504.893893
348.086012	2503.815087
348.476802	2501.213851
348.867528	2498.562204
349.258191	2498.476505
349.648789	2498.431134
350.039324	2494.113386
350.429796	2493.858808
350.820203	2496.071874
351.210548	2490.977788
351.600828	2490.274547
351.991045	2489.722541
352.381198	2491.698673
352.771288	2490.579537
353.161314	2491.043323
353.551276	2490.088025
353.941175	2489.737664
354.331010	2489.964516
354.720782	2489.382263
355.110490	2489.949393
355.500135	2489.243631
355.889717	2490.385453
356.279235	2492.918633
356.668689	2490.861842
357.058080	2487.569968
357.447408	2490.733292
357.836672	2487.764053
358.225873	2490.047695
358.615010	2487.191882
359.004084	2493.097593
359.393095	2493.304281
359.782043	2495.567759
360.170927	2492.472490
360.559748	2497.254025
360.948505	2494.040289
361.337199	2497.662358
361.725830	2497.347286
362.114398	2497.400218
362.502903	2500.311485
362.891344	2499.807369
363.279722	2501.919613
363.668037	2501.339880
364.056289	2502.514469
364.444478	2501.521362
364.832603	2504.435148
365.220665	2503.028667
365.608665	2504.609068
365.996601	2505.566888
366.384474	2504.982114
366.772284	2507.033863
367.160031	2509.120901
367.547715	2508.568895
367.935336	2513.852024
368.322893	2515.921417
368.710388	2518.323527
369.097820	2529.119158
369.485189	2528.652852
369.872495	2534.997144
370.259738	2540.335726
370.646918	2549.485420
371.034035	2555.055895
371.421090	2566.274983
371.808081	2576.737898
372.195010	2585.446491
372.581875	2599.334870
372.968678	2612.104112
373.355418	2622.433437
373.742096	2640.838689
374.128710	2654.638848
374.515262	2669.827844
374.901751	2681.901408
375.288177	2697.702905
375.674540	2720.186451
376.060841	2739.940212
376.447079	2757.362440
376.833254	2778.653753
377.219367	2791.654889
377.605417	2833.110817
377.991404	2837.491580
378.377329	2862.808255
378.763191	2875.307796
379.148991	2915.947058
379.534727	2941.951850
379.920402	2969.090901
380.306013	2982.795278
380.691563	3031.923843
381.077049	3054.223387
381.462474	3071.290213
381.847835	3111.964763
382.233134	3133.051910
382.618371	3132.504944
383.003545	3204.043959
383.388657	3208.066799
383.773706	3238.051582
384.158693	3258.614449
384.543618	3284.120167
384.928480	3317.212821
385.313280	3365.413814
385.698017	3362.326107
386.082692	3417.504057
386.467305	3420.198553
386.851856	3453.434881
387.236344	3474.330463
387.620770	3506.913961
388.005133	3531.971016
388.389435	3561.774318
388.773674	3570.676996
389.157851	3615.084520
389.541965	3627.027013
389.926018	3596.396962
390.310008	3667.008404
390.693936	3682.663708
391.077802	3724.328844
391.461606	3714.778378
391.845348	3777.182822
392.229027	3773.389353
392.612645	3791.245120
392.996200	3867.036348
393.379694	3906.354827
393.763125	3971.529385
394.146494	3940.067544
394.529801	4003.949045
394.913047	4050.851941
395.296230	4014.215355
395.679351	4071.107297
396.062410	4095.496399
396.445408	4078.147268
396.828343	4107.753965
397.211217	4136.057523
397.594028	4052.069379
397.976778	4119.514977
398.359466	4145.618071
398.742092	4174.740817
399.124656	4095.072942
399.507158	4174.904654
399.889598	4201.564797
400.271977	4262.968571
400.654294	4233.329107
401.036549	4241.911671
401.418742	4212.786405
401.800874	4315.903207
402.182944	4338.031352
402.564952	4398.507554
402.946898	4389.017582
403.328783	4385.350142
403.710606	4295.514260
404.092367	4489.918797
404.474067	4454.792037
404.855705	4461.834528
405.237282	4391.986821
405.618797	4503.625694
406.000250	4536.352865
406.381642	4614.873877
406.762972	4574.370726
407.144240	4589.481585
407.525447	4589.151389
407.906593	4645.909741
408.287677	4691.509498
408.668700	4617.117190
409.049661	4669.159542
409.430560	4713.405749
409.811399	4639.482269
410.192176	4799.521260
410.572891	4740.287702
410.953545	4842.416438
411.334138	4723.447728
411.714669	4790.384169
412.095139	4684.661090
412.475547	4826.821629
412.855894	4808.403773
413.236180	4813.225637
413.616405	4765.506074
413.996568	4856.491340
414.376670	4798.976815
414.756711	4754.309672
415.136691	4789.743942
415.516609	4861.159448
415.896466	4897.836363
416.276262	4934.402372
416.655997	4913.476543
417.035670	5097.823977
417.415283	5184.730949
417.794834	5129.502588
418.174324	5088.366773
418.553753	4991.853882
418.933121	5180.871946
419.312428	5246.709415
419.691674	5188.342936
420.070859	5309.890196
420.449983	5222.653029
420.829045	5336.474721
421.208047	5241.814454
421.586988	5315.881607
421.965867	5326.815870
422.344686	5457.659018
422.723444	5316.126103
423.102141	5134.223628
423.480777	5430.766983
423.859352	5202.359864
424.237866	5463.421057
424.616319	5449.237771
424.994712	5564.546603
425.373044	5439.954486
425.751314	5577.310805
426.129524	5383.430548
426.507673	5578.591258
426.885762	5660.053783
427.263789	5590.478298
427.641756	5475.933201
428.019662	5598.090441
428.397508	5602.304845
428.775292	5549.266866
429.153016	5647.561804
429.530679	5572.718313
429.908282	5657.956663
430.285824	5526.990007
430.663305	5803.787162
431.040726	5540.840577
431.418086	5535.746491
431.795385	5648.474253
432.172624	5660.104195
432.549802	5651.990458
432.926920	5666.755997
433.303977	5673.148180
433.680974	5711.471032
434.057910	5731.219752
434.434786	5733.846193
434.811601	5705.260330
435.188355	5942.444098
435.565050	5813.592206
435.941683	5795.088651
436.318257	6008.871383
436.694770	5990.055276
437.071222	6025.655904
437.447614	5960.047808
437.823946	5869.082707
438.200218	6023.813363
438.576429	5888.670110
438.952580	5987.975800
439.328670	6031.584301
439.704700	5942.703718
440.080670	5931.225010
440.456580	6202.040836
440.832429	6079.581127
441.208218	5923.938023
441.583947	6080.304533
441.959616	6082.288227
442.335224	6012.052351
442.710773	6153.870091
443.086261	6178.402866
443.461689	5975.864428
443.837057	6119.824658
444.212365	6278.852897
444.587612	6169.424571
444.962800	6327.462223
445.337927	6301.296114
445.712995	5913.802783
446.088002	6493.515310
446.462949	6324.003992
446.837837	6258.496718
447.212664	6424.862357
447.587431	6565.404685
447.962139	7112.490865
448.336786	8034.512862
448.711374	7776.141125
449.085901	6855.001329
449.460369	6774.108454
449.834776	6707.887857
450.209124	7094.330108
450.583412	7245.751246
450.957640	7388.693163
451.331808	7158.715725
451.705917	6712.611418
452.079965	6636.348843
452.453954	6843.613363
452.827883	6722.590382
453.201752	6815.188817
453.575562	6619.483663
453.949311	6819.148643
454.323001	6708.230656
454.696632	6782.723786
455.070202	6919.472646
455.443713	7075.408137
455.817164	7177.675505
456.190556	7258.855726
456.563888	7333.220307
456.937160	7384.854325
457.310373	7031.676128
457.683526	7057.096146
458.056619	6949.449867
458.429653	6937.958557
458.802628	6874.896243
459.175542	6978.683518
459.548398	7332.091088
459.921194	7494.403639
460.293930	7499.782550
460.666607	8033.204683
461.039224	8333.831372
461.411782	8459.741751
461.784280	8480.970050
462.156719	8370.256229
462.529099	8252.998990
462.901419	7840.589756
463.273680	7734.223930
463.645882	7745.430415
464.018024	7615.713965
464.390106	7780.479038
464.762130	8164.932553
465.134094	8629.585786
465.505999	9647.089757
465.877845	10877.353107
466.249631	11526.134483
466.621358	11145.439147
466.993026	10515.214258
467.364634	10254.125339
467.736184	9893.345082
468.107674	9562.685718
468.479105	9595.538918
468.850477	9358.801292
469.221790	9130.830233
469.593043	8808.042632
469.964238	8668.939553
470.335373	8672.859050
470.706449	8736.677537
471.077467	8716.202891
471.448425	10021.108085
471.819324	11094.868813
472.190164	11133.489092
472.560945	9873.989571
472.931667	9085.492616
473.302330	8952.922873
473.672934	8591.726720
474.043479	8957.679201
474.413965	8893.994305
474.784393	8777.523486
475.154761	8933.567362
475.525070	9020.776803
475.895321	8844.631326
476.265513	9023.234366
476.635645	9193.022948
477.005719	9193.587557
477.375734	9303.923292
477.745691	9544.953460
478.115588	9674.669910
478.485427	9916.854503
478.855207	10459.121339
479.224928	11273.429002
479.594591	11897.302038
479.964194	11710.499562
480.333739	11644.261321
480.703226	11565.790720
481.072653	11660.256902
481.442022	11891.960935
481.811333	12086.050400
482.180584	11892.288610
482.549777	11600.221801
482.918912	11428.003382
483.287988	11444.835795
483.657005	11458.111674
484.025964	11138.137036
484.394864	11270.270720
484.763706	11239.312994
485.132489	11002.966057
485.501213	10962.233534
485.869879	11035.476459
486.238487	10883.034487
486.607036	10988.422329
486.975527	10769.321180
487.343959	10953.688779
487.712333	11003.865903
488.080648	10935.399472
488.448905	10977.167953
488.817104	10917.768037
489.185244	11185.450786
489.553326	11337.265134
489.921350	11873.754808
490.289315	12935.502467
490.657222	13273.925207
491.025070	13193.360007
491.392861	13064.477867
491.760593	12687.475177
492.128267	12335.552227
492.495883	12014.118175
492.863440	11671.468428
493.230939	11337.174393
493.598380	11269.058322
493.965763	11137.741306
494.333088	11042.211440
494.700354	10956.176588
495.067563	11014.076761
495.434713	10845.213230
495.801805	10971.176541
496.168839	10898.145346
496.535815	10833.588329
496.902733	10838.783238
497.269593	10765.000911
497.636395	10866.985974
498.003139	10854.347801
498.369825	10723.194622
498.736453	10878.119362
499.103023	10804.223608
499.469535	10833.084214
499.835989	10821.590383
500.202385	10786.153592
500.568723	10627.689962
500.935003	10860.916424
501.301226	10662.083234
501.667390	10923.073851
502.033497	11018.888542
502.399546	10875.795390
502.765537	10791.998810
503.131470	10867.003618
503.497345	11036.623321
503.863163	10643.839299
504.228923	10960.249840
504.594625	11027.579491
504.960269	10768.794379
505.325856	10990.554737
505.691385	10787.277770
506.056856	10938.681264
506.422270	10961.368977
506.787625	10849.876298
507.152924	10972.146963
507.518164	10944.523961
507.883347	10866.920439
508.248472	10788.374221
508.613540	11026.150324
508.978550	10901.631303
509.343503	10883.747810
509.708398	10998.262661
510.073236	11105.296439
510.438016	11114.118459
510.802738	11060.810777
511.167403	11117.972421
511.532010	11015.687409
511.896561	11245.876576
512.261053	11320.223513
512.625488	11184.858450
512.989866	11158.795685
513.354186	11156.932978
513.718449	11059.197608
514.082655	11246.778943
514.446803	11140.811368
514.810894	11269.043199
515.174927	11138.270627
515.538904	11157.734522
515.902822	11317.425673
516.266684	11194.313134
516.630488	11138.510082
516.994235	11201.370749
517.357925	11253.397978
517.721558	11346.956752
518.085133	11354.667197
518.448651	11365.356963
518.812112	11249.181053
519.175516	11268.866758
519.538863	11380.019159
519.902152	11309.687502
520.265385	11465.176851
520.628560	11374.007583
520.991678	11344.481545
521.354739	11418.715056
521.717743	11349.003460
522.080690	11316.271248
522.443580	11457.579832
522.806413	11415.377813
523.169189	11440.850763
523.531908	11497.576347
523.894569	11316.031794
524.257174	11321.428349
524.619722	11437.745412
524.982213	11387.807742
525.344647	11441.259096
525.707025	11389.932588
526.069345	11487.615027
526.431608	11396.657488
526.793815	11512.586382
527.155964	11295.733588
527.518057	11351.879439
527.880093	11300.192488
528.242072	11361.482837
528.603995	11275.521081
528.965860	11200.848990
529.327669	11243.504713
529.689421	11195.656602
530.051117	11168.585605
530.412755	11264.395255
530.774337	11156.645632
531.135862	11136.259206
531.497331	11153.240333
531.858743	11013.746565
532.220098	11170.286995
532.581396	11046.536750
532.942638	11026.233503
533.303824	10985.004426
533.664953	10993.972639
534.026025	10908.152036
534.387040	11007.382108
534.747999	11010.336224
535.108902	11066.139277
535.469748	10822.064252
535.830537	10925.672566
536.191270	10902.319421
536.551947	10920.157544
536.912567	10918.486401
537.273131	10846.274393
537.633638	10814.583179
537.994089	10808.753085
538.354483	10748.702860
538.714821	10899.773638
539.075103	10896.108719
539.435328	10869.340193
539.795497	10693.600528
540.155609	10842.024700
540.515665	10925.362535
540.875665	10665.181023
541.235609	10730.247196
541.595496	10718.345032
541.955328	10873.428568
542.315102	10750.961297
542.674821	10696.824346
543.034483	10694.271002
543.394090	10693.703872
543.753640	10618.235278
544.113134	10838.584113
544.472571	10681.784064
544.831953	10821.318161
545.191278	10627.626948
545.550548	10648.870370
545.909761	10780.847778
546.268918	10754.152348
546.628019	10828.020375
546.987064	10689.365959
547.346053	10606.670871
547.704986	10693.955930
548.063863	10677.317601
548.422684	10659.842442
548.781449	10576.020656
549.140158	10665.191106
549.498811	10537.627228
549.857408	10393.893850
550.215949	10602.655592
550.574434	10447.710688
550.932864	10538.285099
551.291237	10594.297359
551.649555	10533.362412
552.007817	10533.904336
552.366022	10490.487399
552.724173	10470.234563
553.082267	10449.036511
553.440305	10572.428834
553.798288	10371.856446
554.156215	10510.445327
554.514086	10470.519388
554.871902	10322.866513
555.229661	10343.885604
555.587365	10310.954266
555.945014	10193.928921
556.302606	10303.390015
556.660143	10190.810967
557.017625	10314.152878
557.375050	10213.475995
557.732421	10324.393982
558.089735	10233.895188
558.446994	10222.408919
558.804197	10229.532070
559.161345	10224.261543
559.518437	10073.931815
559.875474	10131.907605
560.232455	10140.958997
560.589381	10080.450027
560.946251	10049.343587
561.303065	10142.965376
561.659825	10060.005628
562.016528	9985.837652
562.373177	9861.205205
562.729770	9941.220920
563.086307	9839.752575
563.442789	9909.978369
563.799216	9774.434345
564.155587	9809.964397
564.511904	9739.673068
564.868164	9713.721208
565.224370	9711.485457
565.580520	9608.713974
565.936615	9610.559036
566.292654	9458.767373
566.648638	9556.265809
567.004567	9486.453390
567.360441	9461.454308
567.716260	9358.733237
568.072023	9426.541797
568.427732	9344.176905
568.783385	9254.061239
569.138982	9278.672152
569.494525	9269.797201
569.850013	9149.570723
570.205445	9181.453500
570.560823	9077.106657
570.916145	8974.551943
571.271412	9014.918983
571.626625	8943.642108
571.981782	8897.717197
572.336884	8846.796502
572.691931	8830.894182
573.046923	8748.186492
573.401860	8691.211371
573.756743	8603.152495
574.111570	8611.853527
574.466342	8584.943848
574.821059	8567.554388
575.175722	8457.800907
575.530330	8433.578162
575.884882	8403.873163
576.239380	8303.667628
576.593823	8275.701827
576.948211	8250.480934
577.302544	8143.376579
577.656823	8111.098071
578.011047	8088.218795
578.365216	8031.412552
578.719330	7950.973381
579.073389	7916.910305
579.427394	7862.763271
579.781344	7812.752504
580.135239	7739.905311
580.489080	7720.277578
580.842866	7606.884384
581.196597	7581.108965
581.550273	7583.868996
581.903895	7524.678288
582.257463	7549.490848
582.610975	7414.783655
582.964434	7413.173007
583.317837	7320.259500
583.671186	7288.570807
584.024481	7250.928511
584.377721	7165.322157
584.730906	7121.204499
585.084037	7111.165041
585.437113	7042.028137
585.790135	7027.804521
586.143103	6928.728204
586.496016	6885.190279
586.848874	6887.592389
587.201679	6857.539550
587.554428	6748.302788
587.907124	6750.825885
588.259765	6699.101126
588.612352	6667.170458
588.964884	6564.535086
589.317362	6540.372835
589.669786	6510.090624
590.022155	6516.407190
590.374470	6490.455330
590.726731	6430.994920
591.078937	6309.871117
591.431090	6338.961095
591.783188	6236.376135
592.135232	6198.832142
592.487222	6178.176014
592.839157	6173.419685
593.191038	6106.337051
593.542866	6047.199275
593.894639	5961.852541
594.246358	5963.148117
594.598022	5942.106341
594.949633	5859.209607
595.301190	5816.664789
595.652692	5806.153983
596.004141	5828.521583
596.355535	5689.713412
596.706876	5651.355272
597.058162	5582.561166
597.409395	5598.334937
597.760573	5601.866265
598.111698	5531.118712
598.462768	5495.175285
598.813785	5451.836485
599.164748	5404.164814
599.515657	5383.281834
599.866511	5299.172703
600.217312	5342.768601
600.568060	5250.762503
600.918753	5268.106592
601.269392	5234.514864
601.619978	5163.905942
601.970510	5167.046581
602.320988	5143.474146
602.671412	5135.408300
603.021783	5083.895269
603.372100	5048.168612
603.722363	5013.969424
604.072572	4986.749714
604.422728	4963.701558
604.772830	4909.859515
605.122878	4880.328436
605.472872	4861.482082
605.822813	4843.719576
606.172701	4802.815654
606.522534	4806.891427
606.872314	4784.193632
607.222041	4744.083691
607.571714	4746.374896
607.921333	4703.840160
608.270899	4683.859547
608.620411	4694.713151
608.969870	4641.854132
609.319276	4611.423207
609.668627	4594.840332
610.017926	4589.458900
610.367171	4581.753496
610.716362	4549.648908
611.065500	4523.117315
611.414585	4502.080580
611.763616	4486.296727
612.112594	4452.284063
612.461518	4435.020631
612.810389	4432.608439
613.159207	4385.143455
613.507971	4348.932847
613.856682	4363.279971
614.205340	4327.023992
614.553945	4334.358871
614.902496	4278.389461
615.250994	4272.582051
615.599439	4247.799739
615.947830	4226.636975
616.296169	4209.469326
616.644454	4187.696582
616.992686	4169.790404
617.340864	4167.206813
617.688990	4118.025316
618.037063	4131.248262
618.385082	4096.993622
618.733048	4099.436061
619.080961	4067.124785
619.428821	4054.811767
619.776628	4035.327707
620.124382	4002.134230
620.472083	3979.073472
620.819731	3967.617449
621.167326	3920.742280
621.514868	3907.244591
621.862357	3862.658106
622.209793	3841.732276
622.557176	3809.804128
622.904506	3777.802884
623.251783	3749.920262
623.599007	3715.592525
623.946179	3698.465204
624.293297	3672.190711
624.640363	3640.743993
624.987376	3621.239769
625.334336	3597.506016
625.681243	3566.674319
626.028097	3549.723440
626.374899	3530.972868
626.721647	3506.949249
627.068343	3489.398472
627.414987	3470.027838
627.761577	3441.968776
628.108115	3441.323508
628.454600	3406.365627
628.801032	3398.587127
629.147412	3387.975498
629.493739	3371.102756
629.840014	3349.433356
630.186236	3351.454859
630.532405	3316.713747
630.878521	3316.381031
631.224585	3295.868576
631.570597	3274.758744
631.916556	3271.774381
632.262462	3260.111672
632.608316	3243.029722
632.954117	3229.655541
633.299866	3220.551217
633.645562	3204.033876
633.991206	3185.127029
634.336797	3163.543329
634.682336	3148.787871
635.027823	3128.779532
635.373257	3119.506329
635.718639	3098.769543
636.063968	3090.612956
636.409245	3070.498752
636.754470	3056.388562
637.099642	3041.423897
637.444762	3028.354706
637.789829	3019.416740
638.134845	3006.846623
638.479808	2996.403873
638.824719	2988.514467
639.169577	2974.379072
639.514383	2968.183494
639.859137	2956.026751
640.203839	2951.187243
640.548489	2938.922116
640.893086	2929.432144
641.237632	2917.913108
641.582125	2915.243817
641.926566	2901.599934
642.270955	2900.826117
642.615292	2894.547359
642.959576	2891.920918
643.303809	2885.944630
643.647990	2877.929196
643.992118	2875.320399
644.336195	2863.728265
644.680219	2861.729448
645.024192	2852.814167
645.368112	2856.791638
645.711981	2853.938345
646.055797	2857.184848
646.399562	2852.476410
646.743274	2857.177286
647.086935	2859.287009
647.430544	2854.676874
647.774101	2852.902387
648.117606	2845.774196
648.461059	2841.559791
648.804460	2831.361537
649.147810	2823.157059
649.491108	2810.801191
649.834354	2806.140644
650.177548	2795.433234
650.520690	2785.474434
650.863781	2779.994700
651.206820	2779.498146
651.549807	2770.295520
651.892742	2760.777822
652.235626	2756.954106
652.578458	2755.834970
652.921238	2743.244688
653.263967	2746.261819
653.606644	2737.694378
653.949269	2737.835530
654.291843	2731.536609
654.634365	2728.902606
654.976836	2722.084445
655.319255	2722.601163
655.661622	2716.604711
656.003938	2711.727395
656.346203	2707.936447
656.688416	2705.746066
657.030577	2700.866229
657.372687	2697.607123
657.714746	2695.073943
658.056753	2691.925742
658.398708	2687.567665
658.740612	2685.775535
659.082465	2684.227900
659.424266	2680.971315
659.766016	2674.337157
660.107715	2677.429904
660.449362	2679.327899
660.790958	2675.975532
661.132503	2674.072496
661.473996	2673.712053
661.815438	2670.894048
662.156829	2666.745179
662.498168	2665.018584
662.839456	2662.321566
663.180693	2663.113027
663.521879	2661.691422
663.863013	2659.385094
664.204097	2655.463077
664.545129	2658.092038
664.886110	2655.276554
665.227040	2655.881492
665.567918	2655.541214
665.908746	2650.374032
666.249522	2652.304794
666.590248	2649.837149
666.930922	2652.214053
667.271545	2650.356388
667.612118	2646.880512
667.952639	2647.321613
668.293109	2646.257930
668.633528	2644.412867
668.973896	2639.825417
669.314213	2636.669655
669.654480	2636.163019
669.994695	2634.534726
670.334859	2635.658904
670.674973	2632.392236
671.015035	2629.531381
671.355047	2629.982564
671.695008	2629.327214
672.034918	2628.104735
672.374777	2628.150105
672.714585	2627.590537
673.054342	2626.189096
673.394049	2622.889661
673.733705	2624.815382
674.073310	2624.906122
674.412864	2625.105248
674.752368	2620.490072
675.091820	2619.718775
675.431223	2614.738115
675.770574	2616.988990
676.109875	2611.017744
676.449125	2611.347939
676.788324	2606.926847
677.127473	2608.088833
677.466571	2604.186980
677.805619	2609.071858
678.144616	2608.071189
678.483562	2607.801488
678.822458	2606.926847
679.161303	2604.633122
679.500098	2606.266456
679.838842	2604.554984
680.177535	2601.989037
680.516179	2599.723038
680.854771	2602.311671
681.193314	2600.844695
681.531805	2605.038935
681.870247	2606.939450
682.208638	2609.109667
682.546978	2608.136724
682.885268	2607.418360
683.223508	2604.610437
683.561697	2604.849892
683.899836	2602.291506
684.237925	2601.240426
684.575963	2601.890735
684.913951	2601.807556
685.251889	2601.585745
685.589776	2600.814448
685.927614	2603.110694
686.265401	2599.236567
686.603137	2598.760178
686.940824	2599.372678
687.278460	2600.844695
687.616046	2601.782350
687.953582	2601.850405
688.291068	2602.278903
688.628504	2601.759665
688.965889	2601.263111
689.303224	2601.099273
689.640510	2598.475353
689.977745	2596.630291
690.314930	2596.652976
690.652065	2593.146853
690.989150	2592.534353
691.326185	2592.161308
691.663170	2588.312387
692.000105	2589.423961
692.336990	2585.970771
692.673825	2583.835842
693.010610	2584.440781
693.347345	2581.743763
693.684030	2578.938361
694.020665	2581.083372
694.357251	2575.129769
694.693786	2577.516756
695.030272	2578.835018
695.366707	2578.678742
695.703093	2576.667321
696.039429	2579.273598
696.375716	2575.855696
696.711952	2577.158834
697.048139	2578.532548
697.384276	2578.580439
697.720363	2575.525500
698.056400	2577.960377
698.392388	2574.897876
698.728326	2574.648339
699.064214	2575.192784
699.400053	2574.224882
699.735842	2572.450396
700.071581	2574.386199
700.407270	2572.780592
700.742910	2574.918041
701.078501	2571.197669
701.414042	2569.410580
701.749533	2570.963256
702.084974	2570.872515
702.420366	2570.968297
702.755709	2570.096177
703.091002	2569.740776
703.426246	2569.052658
703.761440	2569.405539
704.096584	2570.512073
704.431679	2569.486198
704.766725	2571.338822
705.101721	2567.489901
705.436668	2569.927299
705.771565	2564.724828
706.106413	2569.420663
706.441212	2565.700291
706.775961	2565.566701
707.110661	2565.836402
707.445311	2567.530230
707.779913	2568.626681
708.114465	2571.091805
708.448967	2568.394788
708.783421	2571.711867
709.117825	2566.832030
709.452180	2573.234296
709.786485	2572.258832
710.120742	2576.382496
710.454949	2572.720098
710.789107	2572.702454
711.123216	2569.415622
711.457275	2576.120356
711.791286	2574.466858
712.125247	2573.430901
712.459159	2577.917527
712.793023	2575.996848
713.126837	2572.485684
713.460602	2575.333936
713.794318	2573.879563
714.127985	2572.611713
714.461602	2572.425190
714.795171	2572.591548
715.128691	2572.561302
715.462162	2570.612896
715.795584	2569.458471
716.128957	2567.928481
716.462281	2571.311095
716.795556	2569.234140
717.128782	2567.552915
717.461960	2564.543346
717.795088	2567.126938
718.128167	2566.814386
718.461198	2564.923953
718.794180	2564.588717
719.127113	2560.155022
719.459997	2565.249108
719.792833	2562.920095
720.125619	2561.604354
720.458357	2564.598799
720.791046	2561.372461
721.123686	2562.373130
721.456278	2563.618295
721.788821	2562.584858
722.121315	2561.044786
722.453761	2556.842984
722.786158	2558.619991
723.118506	2560.525547
723.450805	2561.057388
723.783056	2560.344065
724.115259	2557.430278
724.447412	2561.327090
724.779518	2562.955383
725.111574	2559.671071
725.443582	2561.891699
725.775542	2560.838098
726.107453	2563.121741
726.439315	2561.934549
726.771129	2564.810527
727.102895	2563.779612
727.434612	2565.617112
727.766281	2566.879921
728.097901	2562.146278
728.429473	2561.397666
728.760996	2561.639642
729.092471	2559.663509
729.423897	2565.213820
729.755276	2566.012843
730.086606	2564.397153
730.417887	2563.290620
730.749120	2565.987637
731.080305	2567.217678
731.411442	2567.010991
731.742530	2567.053841
732.073570	2567.126938
732.404562	2566.983265
732.735506	2569.471074
733.066401	2565.680127
733.397249	2565.037379
733.728048	2565.168449
734.058798	2565.266752
734.389501	2563.207441
734.720156	2563.036041
735.050762	2560.641493
735.381320	2560.880948
735.711831	2560.417162
736.042293	2559.698798
736.372707	2556.825340
736.703073	2559.363561
737.033391	2556.275854
737.363661	2560.018911
737.693883	2558.504044
738.024056	2561.773232
738.354182	2560.278530
738.684260	2561.405228
739.014290	2561.780794
739.344272	2561.939590
739.674207	2562.325239
740.004093	2565.128120
740.333931	2561.914385
740.663722	2561.788356
740.993464	2559.930691
741.323159	2562.075702
741.652806	2559.650907
741.982405	2561.324570
742.311956	2561.069991
742.641460	2561.080074
742.970915	2560.782646
743.300323	2558.829198
743.629683	2559.310629
743.958996	2558.405742
744.288260	2557.911708
744.617477	2557.223591
744.946647	2554.133364
745.275768	2556.265772
745.604842	2551.612787
745.933869	2555.454146
746.262847	2551.819474
746.591778	2556.366595
746.920662	2555.801986
747.249498	2555.018086
747.578286	2557.145453
747.907027	2556.548076
748.235720	2555.749053
748.564365	2556.001111
748.892963	2558.854404
749.221514	2555.620504
749.550017	2555.761656
749.878473	2556.835422
750.206881	2556.200237
750.535242	2555.862479
750.863555	2554.907181
751.191821	2555.202088
751.520039	2556.742161
751.848210	2553.909032
752.176334	2556.694270
752.504411	2556.966492
752.832440	2555.562531
753.160421	2555.335679
753.488356	2557.105124
753.816243	2554.866852
754.144082	2555.804506
754.471875	2554.808878
754.799620	2555.408776
755.127318	2551.761501
755.454969	2557.110165
755.782572	2558.950186
756.110129	2556.704352
756.437638	2554.440874
756.765100	2558.136040
757.092515	2558.186451
757.419882	2554.196378
757.747203	2555.834753
758.074477	2553.024310
758.401703	2554.569423
758.728882	2554.486244
759.056014	2555.169321
759.383099	2552.593291
759.710138	2555.670916
760.037129	2555.834753
760.364073	2555.988508
760.690970	2557.803324
761.017820	2556.696790
761.344623	2555.194527
761.671379	2556.442212
761.998088	2554.738302
762.324751	2558.078067
762.651366	2559.628221
762.977935	2574.539954
763.304456	2580.483475
763.630931	2583.992118
763.957359	2581.436253
764.283740	2572.415108
764.610074	2567.704150
764.936362	2565.959911
765.262602	2562.257183
765.588796	2559.161915
765.914943	2556.159907
766.241044	2554.108158
766.567097	2556.248128
766.893104	2554.640000
767.219064	2553.253682
767.544978	2550.599515
767.870845	2552.361398
768.196665	2552.547921
768.522438	2549.424926
768.848165	2551.983312
769.173846	2550.705379
769.499479	2550.481048
769.825066	2550.279402
770.150607	2549.558517
770.476101	2550.649926
770.801548	2551.554813
771.126949	2549.402241
771.452303	2551.522046
771.777611	2549.054401
772.102872	2547.068187
772.428087	2547.950388
772.753256	2547.267312
773.078378	2549.518187
773.403453	2547.695810
773.728482	2544.366128
774.053465	2547.660522
774.378401	2547.877292
774.703291	2548.114226
775.028135	2545.782692
775.352932	2546.357384
775.677683	2545.883515
776.002388	2546.710265
776.327046	2547.559699
776.651658	2547.358053
776.976224	2544.633309
777.300743	2547.917621
777.625216	2548.255378
777.949643	2546.347302
778.274024	2549.709751
778.598359	2541.512835
778.922647	2543.367980
779.246889	2543.267157
779.571086	2540.900335
779.895236	2544.812270
780.219339	2544.098947
780.543397	2545.104657
780.867409	2545.124822
781.191374	2547.630275
781.515294	2546.140614
781.839167	2545.966694
782.162995	2544.903011
782.486776	2547.055584
782.810511	2549.908877
783.134201	2546.085162
783.457844	2548.709082
783.781441	2547.075748
784.104993	2546.816129
784.428498	2546.075079
784.751958	2543.962836
785.075372	2544.159441
785.398739	2545.170192
785.722061	2544.293031
786.045337	2542.168185
786.368568	2545.470141
786.691752	2545.694472
787.014891	2544.550130
787.337983	2549.729916
787.661030	2549.785368
787.984031	2547.854607
788.306987	2548.149514
788.629897	2550.715461
788.952760	2549.674463
789.275579	2548.141952
789.598351	2549.873589
789.921078	2548.187323
790.243759	2547.418547
790.566395	2546.624565
790.888984	2545.364277
791.211529	2545.712116
791.534027	2547.176571
791.856480	2543.471323
792.178888	2545.581046
792.501249	2544.504760
792.823566	2549.354350
793.145836	2541.311189
793.468062	2547.262271
793.790241	2544.729091
794.112375	2547.968033
794.434464	2545.828063
794.756507	2544.403937
795.078505	2546.682538
795.400457	2544.580377
795.722364	2542.221117
796.044226	2544.693803
796.366042	2542.901673
796.687812	2545.530635
797.009538	2549.074566
797.331218	2546.047353
797.652852	2548.366284
797.974442	2544.719009
798.295986	2544.298073
798.617484	2545.210521
798.938938	2545.568443
799.260346	2547.234545
799.581709	2545.661705
799.903026	2545.238248
800.224299	2544.391334
800.545526	2543.988042
800.866708	2545.190357
801.187845	2545.744884
801.508936	2542.397557
801.829983	2547.332847
802.150984	2543.700696
802.471940	2544.217414
802.792851	2543.272198
803.113717	2547.095913
803.434538	2541.386806
803.755314	2545.366797
804.076045	2541.916127
804.396731	2545.505429
804.717372	2543.370500
805.037967	2542.460572
805.358518	2543.085675
805.679024	2544.794626
805.999485	2539.997968
806.319901	2546.445604
806.640272	2541.812784
806.960598	2544.081303
807.280879	2545.525593
807.601115	2545.777651
807.921306	2544.408978
808.241453	2544.484595
808.561554	2544.217414
808.881611	2546.246478
809.201623	2544.131714
809.521590	2543.594832
809.841513	2545.583567
810.161390	2541.631302
810.481223	2543.073072
810.801011	2542.831097
811.120755	2541.490150
811.440453	2546.680018
811.760107	2543.322609
812.079716	2541.442259
812.399281	2540.222300
812.718801	2539.519059
813.038276	2539.453524
813.357707	2543.557023
813.677093	2541.142310
813.996434	2542.964687
814.315731	2543.622558
814.634983	2543.814122
814.954191	2543.085675
815.273354	2544.464431
815.592473	2544.459389
815.911547	2544.111550
816.230577	2542.500901
816.549562	2545.462579
816.868502	2544.686241
817.187399	2544.401416
817.506250	2543.229348
817.825058	2545.318906
818.143821	2545.823022
818.462539	2548.376366
818.781213	2545.281097
819.099843	2549.162786
819.418429	2549.845862
819.736970	2554.713096
820.055466	2555.464228
820.373919	2559.577810
820.692327	2563.456978
821.010691	2570.713719
821.329011	2589.348344
821.647286	2627.887965
821.965517	2666.830878
822.283704	2692.898685
822.601847	2701.302288
822.919945	2678.034843
823.237999	2658.157573
823.556010	2635.172432
823.873976	2615.501850
824.191897	2599.808738
824.509775	2591.616863
824.827609	2581.007755
825.145398	2576.034657
825.463144	2574.401323
825.780845	2576.173288
826.098502	2583.417426
826.416116	2592.340269
826.733685	2600.580035
827.051210	2609.921293
827.368692	2603.057762
827.686129	2591.458067
828.003522	2583.893815
828.320872	2569.932340
828.638177	2562.973027
828.955439	2555.580175
829.272656	2554.604712
829.589830	2547.501726
829.906960	2551.794268
830.224046	2550.624721
830.541088	2549.568599
830.858086	2548.295708
831.175041	2548.542724
831.491952	2548.968702
831.808819	2548.346119
832.125642	2547.380738
832.442421	2553.127653
832.759157	2556.081770
833.075849	2563.882955
833.392497	2573.496436
833.709101	2574.171950
834.025662	2576.490881
834.342179	2573.650191
834.658653	2567.225240
834.975083	2559.121585
835.291469	2561.198541
835.607811	2552.938610
835.924110	2548.578012
836.240366	2545.820501
836.556578	2547.405944
836.872746	2545.147507
837.188871	2543.597352
837.504952	2541.840510
837.820990	2542.163144
838.136984	2544.638350
838.452935	2544.804708
838.768842	2540.786909
839.084706	2543.264636
839.400526	2544.608103
839.716303	2550.705379
840.032037	2554.844166
840.347727	2555.766697
840.663373	2553.765359
840.978977	2547.940306
841.294537	2547.020296
841.610054	2542.500901
841.925527	2541.575849
842.240957	2541.800181
842.556344	2541.336395
842.871687	2541.601055
843.186987	2540.728936
843.502244	2539.599717
843.817458	2537.921013
844.132629	2539.627443
844.447756	2540.716333
844.762840	2533.714170
845.077881	2535.042514
845.392879	2533.759540
845.707833	2535.937319
846.022745	2531.705270
846.337613	2537.101825
846.652438	2536.302802
846.967221	2537.999151
847.281960	2538.475540
847.596656	2539.808925
847.911309	2536.575025
848.225919	2538.321785
848.540485	2536.217103
848.855009	2539.564429
849.169490	2538.218441
849.483928	2538.372196
849.798323	2537.696682
850.112675	2538.198276
850.426984	2537.074099
850.741251	2535.977648
851.055474	2537.875643
851.369654	2539.655170
851.683792	2538.273894
851.997887	2537.482433
852.311938	2536.885056
852.625947	2539.052752
852.939914	2534.646783
853.253837	2539.244316
853.567718	2535.244160
853.881555	2537.638708
854.195350	2539.428318
854.509103	2534.125024
854.822812	2535.103008
855.136479	2538.778009
855.450103	2539.508976
855.763685	2535.407998
856.077224	2537.240457
856.390720	2537.149716
856.704173	2535.839016
857.017584	2536.385982
857.330953	2537.416898
857.644278	2536.985879
857.957561	2536.501928
858.270802	2539.471168
858.584000	2535.607123
858.897155	2537.172402
859.210268	2534.921526
859.523339	2539.655170
859.836367	2534.412370
860.149352	2537.752134
860.462295	2540.118956
860.775195	2533.600744
861.088054	2530.031607
861.400869	2532.136289
861.713642	2532.181659
862.026373	2534.803059
862.339062	2537.923533
862.651708	2537.870601
862.964312	2536.093595
863.276873	2537.066537
863.589392	2539.594676
863.901869	2538.571322
864.214303	2536.718698
864.526696	2539.685417
864.839045	2539.229192
865.151353	2539.327495
865.463619	2540.149203
865.775842	2538.619213
866.088023	2539.156096
866.400162	2538.785571
866.712258	2537.941178
867.024313	2539.393030
867.336325	2539.138452
867.648296	2539.808925
867.960224	2539.468647
868.272110	2539.680376
868.583954	2538.389840
868.895755	2539.811446
869.207515	2539.007382
869.519233	2540.547454
869.830909	2539.844213
870.142542	2540.444110
870.454134	2539.990407
870.765684	2539.025026
871.077191	2537.928575
871.388657	2540.968390
871.700081	2540.260108
872.011463	2540.562578
872.322803	2538.659542
872.634101	2539.869419
872.945357	2537.303472
873.256571	2541.913607
873.567744	2537.573173
873.878874	2541.976621
874.189963	2539.874460
874.501010	2540.950746
874.812015	2538.231044
875.122979	2540.164326
875.433900	2538.152906
875.744780	2539.335057
876.055618	2541.651467
876.366415	2543.216745
876.677169	2542.266488
876.987882	2540.055942
877.298554	2536.917823
877.609183	2541.827907
877.919771	2537.530323
878.230317	2539.173740
878.540822	2545.525593
878.851285	2547.821839
879.161707	2545.742363
879.472087	2549.656819
879.782425	2554.032541
880.092722	2563.565363
880.402977	2574.151786
880.713191	2591.914291
881.023363	2612.640995
881.333494	2629.294447
881.643583	2630.902575
881.953631	2629.337297
882.263637	2625.115330
882.573602	2618.047633
882.883526	2607.592280
883.193408	2597.225147
883.503248	2588.004876
883.813048	2579.475244
884.122806	2574.303020
884.432522	2568.851012
884.742197	2560.966648
885.051831	2557.364743
885.361424	2555.514640
885.670975	2552.782334
885.980485	2550.360060
886.289954	2548.285625
886.599382	2546.932075
886.908768	2549.727395
887.218113	2546.861499
887.527417	2547.166489
887.836680	2544.875285
888.145901	2539.433359
888.455082	2544.824873
888.764221	2542.672300
889.073319	2542.097609
889.382376	2540.499563
889.691392	2538.636857
890.000366	2541.782537
890.309300	2540.970911
890.618193	2542.705068
890.927044	2543.700696
891.235855	2541.676673
891.544625	2538.853626
891.853353	2544.895449
892.162041	2543.889739
892.470687	2545.210521
892.779293	2543.930068
893.087858	2545.893598
893.396381	2548.053732
893.704864	2551.335523
894.013306	2552.005997
894.321707	2565.581824
894.630068	2569.135837
894.938387	2571.379151
895.246665	2573.289748
895.554903	2568.276321
895.863100	2561.271637
896.171256	2560.402038
896.479371	2558.428427
896.787446	2552.142108
897.095480	2549.298897
897.403473	2550.516336
897.711425	2546.122970
898.019336	2544.431663
898.327207	2545.117260
898.635038	2547.093392
898.942827	2542.616848
899.250576	2544.240099
899.558284	2543.264636
899.865952	2543.667928
900.173579	2538.871270
900.481165	2541.270860
900.788711	2542.952084
901.096216	2542.823535
901.403681	2540.237423
901.711105	2540.217258
902.018489	2541.709440
902.325832	2541.933771
902.633135	2541.306148
902.940397	2544.318237
903.247619	2545.714637
903.554800	2548.822508
903.861941	2565.233984
904.169041	2577.831828
904.476101	2584.014803
904.783121	2584.667632
905.090100	2576.392578
905.397039	2569.211455
905.703938	2561.243911
906.010796	2556.580844
906.317614	2551.683363
906.624391	2550.322251
906.931129	2544.829914
907.237826	2546.566592
907.544483	2541.830428
907.851099	2537.898328
908.157675	2536.920344
908.464211	2536.983358
908.770707	2534.424973
909.077163	2538.178112
909.383578	2535.085364
909.689954	2533.817514
909.996289	2530.412214
910.302584	2536.350693
910.608839	2538.105015
910.915054	2538.629295
911.221229	2537.409336
911.527363	2538.820859
911.833458	2536.670807
912.139513	2536.196938
912.445527	2533.625950
912.751502	2539.531662
913.057436	2538.165509
913.363331	2539.604758
913.669186	2540.161806
913.975000	2542.112732
914.280775	2543.546941
914.586510	2548.207487
914.892205	2552.232849
915.197859	2558.196534
915.503475	2563.467060
915.809050	2570.869994
916.114585	2576.647157
916.420081	2579.944071
916.725536	2577.267219
917.030952	2572.026939
917.336328	2571.590879
917.641665	2564.853377
917.946961	2562.841957
918.252218	2557.699980
918.557435	2554.970195
918.862612	2550.120605
919.167750	2549.732436
919.472848	2546.369987
919.777906	2544.156920
920.082925	2545.606252
920.387904	2540.499563
920.692843	2544.300593
920.997743	2541.855633
921.302603	2542.430325
921.607423	2540.386137
921.912204	2540.812115
922.216946	2537.051414
922.521647	2538.231044
922.826310	2536.254912
923.130932	2540.703730
923.435516	2539.022505
923.740059	2536.766589
924.044564	2537.671476
924.349028	2535.738193
924.653454	2532.786598
924.957840	2535.198790
925.262186	2532.647966
925.566493	2534.346835
925.870761	2528.499096
926.174989	2534.364479
926.479178	2535.675179
926.783328	2534.598893
927.087438	2534.785415
927.391509	2535.854140
927.695541	2534.253573
927.999533	2532.292565
928.303486	2533.348686
928.607400	2534.364479
928.911275	2532.101001
929.215110	2534.004036
929.518906	2531.249046
929.822663	2533.499921
930.126381	2534.248532
930.430060	2534.432534
930.733699	2532.481608
931.037299	2530.359282
931.340861	2534.830786
931.644383	2531.231402
931.947866	2532.877338
932.251309	2533.651156
932.554714	2532.151412
932.858080	2536.020498
933.161407	2530.515558
933.464694	2532.650487
933.767943	2533.777184
934.071153	2532.940353
934.374323	2533.898172
934.677455	2532.259797
934.980548	2532.116124
935.283602	2532.816845
935.586617	2533.018491
935.889593	2535.055117
936.192530	2533.280631
936.495428	2531.604447
936.798287	2534.230888
937.101108	2531.886752
937.403890	2535.332380
937.706632	2535.632329
938.009336	2534.228368
938.312002	2538.074768
938.614628	2535.400436
938.917216	2537.621064
939.219765	2538.646939
939.522275	2536.842206
939.824747	2532.463964
940.127179	2534.969417
940.429573	2534.188038
940.731929	2533.184849
941.034246	2529.688809
941.336524	2533.734335
941.638763	2536.398584
941.940964	2536.191897
942.243126	2531.911958
942.545250	2535.423121
942.847335	2535.206352
943.149381	2532.340456
943.451389	2535.218954
943.753359	2535.097967
944.055290	2532.894982
944.357182	2536.209541
944.659036	2530.434899
944.960851	2530.623943
945.262628	2533.381454
945.564367	2531.818696
945.866067	2533.000847
946.167729	2531.773326
946.469352	2533.356248
946.770937	2533.242822
947.072484	2533.383974
947.373992	2533.477236
947.675462	2530.616381
947.976893	2532.721063
948.278286	2531.982534
948.579641	2535.428162
948.880958	2530.162677
949.182236	2534.316588
949.483476	2532.819365
949.784678	2532.055630
950.085841	2534.417411
950.386967	2531.967410
950.688054	2532.700898
950.989103	2532.839530
951.290114	2533.946063
951.591087	2532.421114
951.892021	2531.344828
952.192917	2532.985723
952.493776	2531.916999
952.794596	2532.529499
953.095378	2533.205013
953.396122	2533.507483
953.696828	2533.141999
953.997496	2533.850281
954.298126	2533.421783
954.598718	2532.411032
954.899272	2534.240971
955.199788	2535.496218
955.500266	2533.842719
955.800706	2527.669827
956.101108	2526.548170
956.401472	2528.514220
956.701798	2526.550690
957.002087	2528.027748
957.302337	2530.008922
957.602550	2531.228881
957.902724	2531.831299
958.202861	2530.616381
958.502960	2528.816689
958.803022	2532.940353
959.103045	2531.082688
959.403031	2531.803573
959.702979	2531.004550
960.002889	2531.528830
960.302762	2528.115969
960.602596	2530.089580
960.902393	2528.118489
961.202153	2530.991947
961.501875	2526.069260
961.801559	2531.675023
962.101205	2528.768798
962.400814	2530.505476
962.700385	2529.524971
962.999918	2528.587317
963.299414	2529.081350
963.598873	2529.235105
963.898293	2530.394570
964.197677	2526.349044
964.497022	2527.647141
964.796331	2532.370702
965.095601	2531.211237
965.394835	2532.907585
965.694030	2531.246525
965.993189	2527.269055
966.292309	2529.736700
966.591393	2528.736031
966.890439	2529.356093
967.189447	2527.753006
967.488419	2529.633356
967.787353	2528.514220
968.086249	2528.342821
968.385108	2530.797862
968.683930	2529.761905
968.982714	2529.802235
969.281462	2529.083870
969.580172	2529.877852
969.878844	2527.415248
970.177480	2529.300640
970.476078	2528.786442
970.774639	2531.364992
971.073162	2529.741741
971.371649	2528.083201
971.670098	2523.795700
971.968510	2528.867101
972.266885	2525.053468
972.565223	2531.465815
972.863524	2527.740403
973.161788	2528.148736
973.460014	2529.867770
973.758204	2527.783253
974.056356	2530.477749
974.354471	2529.232584
974.652550	2528.037831
974.950591	2530.326515
975.248595	2526.417100
975.546563	2529.860208
975.844493	2529.041020
976.142386	2530.487832
976.440243	2530.147554
976.738062	2527.281658
977.035845	2527.475742
977.333590	2531.347348
977.631299	2528.302491
977.928971	2529.154446
978.226606	2529.930784
978.524204	2530.248377
978.821765	2529.842564
979.119290	2529.376257
979.416777	2527.379960
979.714228	2528.945238
980.011642	2527.382481
980.309020	2528.912471
980.606360	2530.271062
980.903664	2529.545136
981.200931	2529.058664
981.498162	2528.274765
981.795356	2531.019673
982.092513	2531.453212
982.389633	2527.765608
982.686717	2533.731814
982.983764	2530.366844
983.280775	2532.191742
983.577749	2530.999509
983.874686	2530.749972
984.171587	2530.964221
984.468451	2529.973634
984.765279	2528.794004
985.062070	2529.524971
985.358824	2531.765764
985.655543	2528.375588
985.952224	2526.485155
986.248869	2532.373223
986.545478	2524.375432
986.842050	2528.148736
987.138586	2522.527850
987.435086	2525.915505
987.731549	2525.502130
988.027975	2526.066740
988.324366	2529.502286
988.620719	2527.695032
988.917037	2526.888448
989.213318	2529.000691
989.509563	2529.194776
989.805772	2529.484642
990.101944	2529.484642
990.398080	2528.017666
990.694180	2529.068747
990.990244	2525.671009
991.286271	2526.802748
991.582262	2527.173273
991.878217	2527.571524
992.174136	2530.079498
992.470019	2527.664785
992.765865	2528.771319
993.061676	2529.638397
993.357450	2527.493386
993.653188	2528.698222
993.948890	2526.165042
994.244556	2529.731658
994.540186	2527.488345
994.835780	2524.340144
995.131337	2528.173942
995.426859	2525.320649
995.722345	2527.647141
996.017795	2526.149919
996.313208	2527.664785
996.608586	2530.195445
996.903928	2527.314425
997.199234	2527.692512
997.494504	2527.732841
997.789738	2527.659744
998.084936	2526.026410
998.380099	2526.661596
998.675225	2526.636390
998.970316	2527.228726
999.265371	2528.123530
999.560390	2529.618232
999.855373	2526.964065
1000.150320	2527.344672
1000.445232	2527.639580
1000.740108	2529.303160
1001.034948	2528.209230
1001.329752	2527.190917
1001.624521	2525.663447
1001.919254	2525.320649
1002.213951	2524.040196
1002.508613	2521.386028
1002.803239	2525.310567
1003.097829	2521.774197
1003.392384	2527.170752
1003.686903	2525.580268
1003.981386	2525.292923
1004.275834	2525.015659
1004.570246	2526.543129
1004.864623	2523.160514
1005.158964	2527.226205
1005.453270	2525.141688
1005.747540	2529.222502
1006.041775	2524.693025
1006.335974	2527.410207
1006.630138	2527.158149
1006.924266	2527.884076
1007.218359	2526.752337
1007.512416	2526.160001
1007.806438	2527.130423
1008.100425	2526.086904
1008.394376	2524.781245
1008.688292	2527.810979
1008.982172	2525.555063
1009.276017	2526.570855
1009.569827	2525.383663
1009.863602	2527.556401
1010.157341	2526.724610
1010.451045	2527.503468
1010.744714	2528.181504
1011.038347	2525.345855
1011.331945	2527.876514
1011.625508	2526.482635
1011.919036	2527.553880
1012.212528	2525.262676
1012.505986	2525.398787
1012.799408	2525.930628
1013.092795	2526.870804
1013.386147	2526.359127
1013.679464	2524.657737
1013.972745	2526.989271
1014.265992	2526.291071
1014.559204	2527.599250
1014.852380	2527.047244
1015.145521	2525.885258
1015.438628	2526.255783
1015.731699	2525.829805
1016.024736	2522.893333
1016.317737	2527.024559
1016.610703	2526.033972
1016.903635	2524.204033
1017.196531	2523.556245
1017.489393	2523.770494
1017.782219	2520.158507
1018.075011	2524.176307
1018.367768	2525.355937
1018.660490	2527.087573
1018.953177	2527.087573
1019.245829	2527.087573
