Dividing Wavelength (nm)	Counts (n)	Blue Motor Position (mm): 0.000000	Red Motor Position (mm): 9.000000	
326.493990	2145.252937
326.888308	2145.252937
327.282561	2145.252937
327.676750	2121.904833
328.070874	2123.545728
328.464933	2129.834568
328.858929	2138.462503
329.252859	2147.448359
329.646726	2161.863539
330.040528	2175.545230
330.434265	2195.175483
330.827938	2213.802547
331.221547	2235.388768
331.615091	2253.448701
332.008571	2273.908224
332.401986	2295.713735
332.795338	2316.836170
333.188625	2335.934581
333.581847	2351.383197
333.975006	2372.467823
334.368100	2390.517674
334.761129	2408.701116
335.154095	2427.088725
335.546996	2441.624892
335.939833	2454.195009
336.332606	2471.801239
336.725315	2480.837507
337.117960	2489.258755
337.510540	2497.501041
337.903056	2504.684686
338.295508	2510.446724
338.687896	2518.434433
339.080220	2530.828109
339.472480	2534.838347
339.864676	2537.878163
340.256807	2540.310520
340.648875	2542.269008
341.040879	2544.706406
341.432818	2545.681869
341.824694	2545.066848
342.216506	2545.218083
342.608253	2545.754966
342.999937	2544.076262
343.391557	2545.591128
343.783113	2545.989380
344.174605	2539.456044
344.566033	2537.941177
344.957397	2539.982845
345.348697	2535.960004
345.739934	2534.029242
346.131106	2531.581762
346.522215	2531.165867
346.913260	2531.803573
347.304241	2530.298788
347.695159	2526.510361
348.086012	2523.901564
348.476802	2521.272602
348.867528	2521.176820
349.258191	2521.353261
349.648789	2519.767818
350.039324	2518.966274
350.429796	2519.024248
350.820203	2517.343023
351.210548	2514.686335
351.600828	2513.284894
351.991045	2513.846983
352.381198	2514.620800
352.771288	2514.484689
353.161314	2513.466376
353.551276	2514.025944
353.941175	2512.533762
354.331010	2512.778258
354.720782	2513.577281
355.110490	2513.489061
355.500135	2514.908146
355.889717	2512.906807
356.279235	2516.375121
356.668689	2515.981911
357.058080	2517.257323
357.447408	2515.102230
357.836672	2513.163906
358.225873	2516.304545
358.615010	2511.172651
359.004084	2519.926614
359.393095	2520.909639
359.782043	2518.318486
360.170927	2516.904443
360.559748	2519.651871
360.948505	2517.905112
361.337199	2520.092972
361.725830	2522.787469
362.114398	2521.423837
362.502903	2519.755215
362.891344	2523.962058
363.279722	2526.293592
363.668037	2522.449712
364.056289	2523.261337
364.444478	2527.296781
364.832603	2526.442306
365.220665	2525.628159
365.608665	2525.038344
365.996601	2527.087573
366.384474	2524.317459
366.772284	2528.577234
367.160031	2528.131092
367.547715	2527.173273
367.935336	2526.023890
368.322893	2526.840557
368.710388	2527.541277
369.097820	2530.071936
369.485189	2532.327853
369.872495	2529.411545
370.259738	2527.856349
370.646918	2528.320135
371.034035	2530.447502
371.421090	2530.291227
371.808081	2528.632687
372.195010	2528.262162
372.581875	2531.788449
372.968678	2533.472195
373.355418	2535.599562
373.742096	2533.222658
374.128710	2533.290713
374.515262	2534.939170
374.901751	2537.681558
375.288177	2536.275076
375.674540	2540.610468
376.060841	2539.191384
376.447079	2543.012578
376.833254	2547.012734
377.219367	2544.144317
377.605417	2545.061807
377.991404	2546.657332
378.377329	2551.287632
378.763191	2552.742005
379.148991	2561.425393
379.534727	2561.816082
379.920402	2568.906465
380.306013	2565.196176
380.691563	2575.286045
381.077049	2576.357290
381.462474	2584.241655
381.847835	2588.171234
382.233134	2591.533684
382.618371	2598.593820
383.003545	2602.324274
383.388657	2606.379882
383.773706	2616.978908
384.158693	2620.628703
384.543618	2626.403345
384.928480	2633.839047
385.313280	2641.483957
385.698017	2647.611479
386.082692	2656.418375
386.467305	2662.533295
386.851856	2670.158040
387.236344	2681.387210
387.620770	2684.033816
388.005133	2690.869621
388.389435	2700.846064
388.773674	2704.074923
389.157851	2710.361242
389.541965	2721.850032
389.926018	2722.727192
390.310008	2730.787997
390.693936	2737.601117
391.077802	2742.675038
391.461606	2748.726943
391.845348	2753.301790
392.229027	2754.516708
392.612645	2765.919798
392.996200	2770.235026
393.379694	2776.044956
393.763125	2782.389248
394.146494	2783.321862
394.529801	2789.577933
394.913047	2795.720579
395.296230	2794.374591
395.679351	2790.530712
396.062410	2796.227215
396.445408	2791.077677
396.828343	2789.809827
397.211217	2786.787655
397.594028	2776.418001
397.976778	2777.527055
398.359466	2778.532765
398.742092	2768.742845
399.124656	2774.794750
399.507158	2773.012702
399.889598	2768.604213
400.271977	2767.359048
400.654294	2762.733789
401.036549	2762.126330
401.418742	2754.582243
401.800874	2756.873448
402.182944	2747.660739
402.564952	2751.567633
402.946898	2737.928792
403.328783	2733.951321
403.710606	2726.480331
404.092367	2730.117524
404.474067	2728.713562
404.855705	2712.740667
405.237282	2706.711447
405.618797	2706.809749
406.000250	2702.285313
406.381642	2699.903368
406.762972	2695.063861
407.144240	2681.659432
407.525447	2678.919565
407.906593	2668.575118
408.287677	2664.665703
408.668700	2658.790238
409.049661	2653.436533
409.430560	2649.358239
409.811399	2637.690489
410.192176	2634.489356
410.572891	2631.590692
410.953545	2628.780249
411.334138	2617.966974
411.714669	2616.961264
412.095139	2607.262084
412.475547	2603.803852
412.855894	2600.539705
413.236180	2598.545929
413.616405	2590.795155
413.996568	2587.452870
414.376670	2585.401120
414.756711	2580.523804
415.136691	2578.474575
415.516609	2578.411561
415.896466	2577.610017
416.276262	2575.694379
416.655997	2568.946794
417.035670	2564.762637
417.415283	2567.293296
417.794834	2564.472770
418.174324	2563.252811
418.553753	2566.751372
418.933121	2563.363716
419.312428	2561.821123
419.691674	2562.047975
420.070859	2560.018911
420.449983	2556.563200
420.829045	2560.117213
421.208047	2559.855073
421.586988	2557.236194
421.965867	2559.199723
422.344686	2559.792059
422.723444	2560.278530
423.102141	2558.125958
423.480777	2559.489590
423.859352	2556.522871
424.237866	2559.681153
424.616319	2557.379867
424.994712	2559.648386
425.373044	2556.956410
425.751314	2560.454971
426.129524	2560.157542
426.507673	2561.886658
426.885762	2560.565876
427.263789	2560.588561
427.641756	2559.998746
428.019662	2559.136709
428.397508	2557.082439
428.775292	2563.215002
429.153016	2561.662327
429.530679	2562.108469
429.908282	2563.293140
430.285824	2560.492779
430.663305	2560.192831
431.040726	2561.372461
431.418086	2559.025803
431.795385	2561.788356
432.172624	2558.864487
432.549802	2561.448078
432.926920	2562.360527
433.303977	2564.364385
433.680974	2560.903633
434.057910	2564.258521
434.434786	2559.948335
434.811601	2559.756771
435.188355	2562.650393
435.565050	2563.126782
435.941683	2562.965465
436.318257	2559.093859
436.694770	2558.367933
437.071222	2558.854404
437.447614	2559.640824
437.823946	2559.424055
438.200218	2558.806513
438.576429	2565.191135
438.952580	2560.719631
439.328670	2564.782801
439.704700	2561.843808
440.080670	2562.562173
440.456580	2562.496638
440.832429	2563.767009
441.208218	2563.252811
441.583947	2563.724159
441.959616	2565.826320
442.335224	2567.578121
442.710773	2564.818089
443.086261	2564.855898
443.461689	2562.806669
443.837057	2564.034190
444.212365	2562.335321
444.587612	2564.074519
444.962800	2564.868501
445.337927	2564.462688
445.712995	2563.464539
446.088002	2564.039231
446.462949	2563.101576
446.837837	2566.471588
447.212664	2562.998233
447.587431	2566.761454
447.962139	2564.177863
448.336786	2569.599624
448.711374	2567.205076
449.085901	2568.152812
449.460369	2566.587534
449.834776	2566.277503
450.209124	2568.430076
450.583412	2568.815724
450.957640	2568.523337
451.331808	2565.002091
451.705917	2565.213820
452.079965	2569.191290
452.453954	2568.936712
452.827883	2568.288924
453.201752	2566.726166
453.575562	2568.336815
453.949311	2567.056362
454.323001	2567.537792
454.696632	2569.254305
455.070202	2568.954356
455.443713	2568.435117
455.817164	2560.265927
456.190556	2565.120558
456.563888	2567.063923
456.937160	2564.349262
457.310373	2570.007957
457.683526	2567.986454
458.056619	2567.494942
458.429653	2569.269428
458.802628	2572.238668
459.175542	2570.945612
459.548398	2566.769016
459.921194	2568.848492
460.293930	2571.051476
460.666607	2568.026784
461.039224	2570.171795
461.411782	2571.669017
461.784280	2572.183215
462.156719	2573.743452
462.529099	2573.443503
462.901419	2571.729511
463.273680	2570.925447
463.645882	2568.866136
464.018024	2570.126424
464.390106	2568.213306
464.762130	2572.999882
465.134094	2570.600293
465.505999	2572.820921
465.877845	2573.872002
466.249631	2575.041549
466.621358	2574.867629
466.993026	2576.647157
467.364634	2578.083886
467.736184	2573.130952
468.107674	2574.040880
468.479105	2573.045252
468.850477	2574.751683
469.221790	2578.320820
469.593043	2574.665983
469.964238	2574.575242
470.335373	2571.379151
470.706449	2572.389902
471.077467	2573.604820
471.448425	2576.029615
471.819324	2576.105233
472.190164	2577.960377
472.560945	2575.591035
472.931667	2573.806467
473.302330	2573.524162
473.672934	2576.004410
474.043479	2574.875191
474.413965	2573.372927
474.784393	2567.636094
475.154761	2568.863615
475.525070	2570.431414
475.895321	2570.854871
476.265513	2568.437638
476.635645	2572.957032
477.005719	2572.589028
477.375734	2574.018195
477.745691	2573.703123
478.115588	2577.456262
478.485427	2573.393092
478.855207	2574.645819
479.224928	2575.447362
479.594591	2576.642116
479.964194	2576.034657
480.333739	2581.156469
480.703226	2574.088771
481.072653	2576.780747
481.442022	2575.107084
481.811333	2575.984245
482.180584	2576.745459
482.549777	2579.785275
482.918912	2575.081878
483.287988	2579.066911
483.657005	2575.104564
484.025964	2575.885942
484.394864	2576.662280
484.763706	2578.797209
485.132489	2575.212948
485.501213	2577.355439
485.869879	2576.584142
486.238487	2574.187074
486.607036	2576.372414
486.975527	2574.900397
487.343959	2576.879050
487.712333	2576.183371
488.080648	2574.106415
488.448905	2575.719584
488.817104	2574.091292
489.185244	2578.731674
489.553326	2576.286714
489.921350	2574.774368
490.289315	2579.744946
490.657222	2577.652867
491.025070	2576.896694
491.392861	2580.680080
491.760593	2577.670511
492.128267	2577.967939
492.495883	2578.454410
492.863440	2578.129256
493.230939	2576.828638
493.598380	2577.408371
493.965763	2573.690520
494.333088	2573.067937
494.700354	2575.041549
495.067563	2573.861919
495.434713	2572.057186
495.801805	2578.351067
496.168839	2575.563309
496.535815	2576.382496
496.902733	2575.344018
497.269593	2576.813515
497.636395	2575.739749
498.003139	2577.751169
498.369825	2576.175809
498.736453	2574.033318
499.103023	2576.246385
499.469535	2576.753021
499.835989	2576.112794
500.202385	2576.632033
500.568723	2576.289235
500.935003	2578.877867
501.301226	2576.185891
501.667390	2577.262177
502.033497	2576.611869
502.399546	2579.734863
502.765537	2573.405695
503.131470	2577.063052
503.497345	2575.573391
503.863163	2576.032136
504.228923	2575.517938
504.594625	2573.806467
504.960269	2573.773699
505.325856	2576.770665
505.691385	2575.633885
506.056856	2576.894173
506.422270	2574.050963
506.787625	2577.458782
507.152924	2577.015161
507.518164	2577.821746
507.883347	2576.042218
508.248472	2576.042218
508.613540	2575.449883
508.978550	2575.008782
509.343503	2575.739749
509.708398	2577.063052
510.073236	2577.715881
510.438016	2578.262847
510.802738	2576.080027
511.167403	2575.921231
511.532010	2577.287383
511.896561	2577.446180
512.261053	2575.790161
512.625488	2573.531724
512.989866	2571.734552
513.354186	2576.284194
513.718449	2572.634398
514.082655	2574.592887
514.446803	2575.170099
514.810894	2576.604307
515.174927	2581.176633
515.538904	2578.136818
515.902822	2578.509863
516.266684	2576.700089
516.630488	2576.193453
516.994235	2576.962229
517.357925	2574.234965
517.721558	2577.824266
518.085133	2578.111612
518.448651	2577.816704
518.812112	2577.632702
519.175516	2575.883422
519.538863	2577.443659
519.902152	2578.192270
520.265385	2576.836200
520.628560	2576.306879
520.991678	2577.098340
521.354739	2578.131777
521.717743	2578.903073
522.080690	2576.236303
522.443580	2577.269739
522.806413	2577.720922
523.169189	2577.627661
523.531908	2579.586149
523.894569	2576.639595
524.257174	2577.854513
524.619722	2576.561457
524.982213	2580.173444
525.344647	2578.162023
525.707025	2578.527507
526.069345	2578.051118
526.431608	2579.576067
526.793815	2575.374265
527.155964	2579.079513
527.518057	2575.833010
527.880093	2578.151941
528.242072	2578.847620
528.603995	2577.050449
528.965860	2577.007599
529.327669	2581.383321
529.689421	2577.158834
530.051117	2578.212435
530.412755	2577.310068
530.774337	2576.475758
531.135862	2578.625810
531.497331	2575.381827
531.858743	2574.731518
532.220098	2574.965932
532.581396	2571.951322
532.942638	2573.221693
533.303824	2577.486509
533.664953	2577.436097
534.026025	2580.259143
534.387040	2580.604462
534.747999	2577.579770
535.108902	2575.969122
535.469748	2578.290573
535.830537	2578.227558
536.191270	2576.543813
536.551947	2578.260326
536.912567	2576.432908
537.273131	2578.535069
537.633638	2577.514235
537.994089	2576.624472
538.354483	2578.968608
538.714821	2577.655387
539.075103	2578.025912
539.435328	2579.036664
539.795497	2576.004410
540.155609	2578.892991
540.515665	2577.146231
540.875665	2578.441807
541.235609	2574.602969
541.595496	2578.792168
541.955328	2577.017682
542.315102	2576.863926
542.674821	2577.378124
543.034483	2579.341653
543.394090	2578.333423
543.753640	2579.021540
544.113134	2575.777558
544.472571	2579.250913
544.831953	2577.783937
545.191278	2578.676221
545.550548	2574.920562
545.909761	2577.506673
546.268918	2577.108422
546.628019	2577.355439
546.987064	2578.041036
547.346053	2578.920717
547.704986	2578.855182
548.063863	2578.388875
548.422684	2575.621282
548.781449	2577.494071
549.140158	2577.667990
549.498811	2578.371231
549.857408	2578.033474
550.215949	2576.284194
550.574434	2574.393761
550.932864	2573.539285
551.291237	2572.856209
551.649555	2577.405850
552.007817	2576.841241
552.366022	2575.893504
552.724173	2575.835531
553.082267	2575.081878
553.440305	2578.192270
553.798288	2576.594225
554.156215	2577.577250
554.514086	2576.311920
554.871902	2581.867272
555.229661	2581.915162
555.587365	2578.799729
555.945014	2576.397620
556.302606	2576.994996
556.660143	2579.568505
557.017625	2578.187229
557.375050	2575.124728
557.732421	2579.230748
558.089735	2582.459607
558.446994	2580.324678
558.804197	2579.455079
559.161345	2579.003896
559.518437	2577.786458
559.875474	2577.869637
560.232455	2577.252095
560.589381	2577.821746
560.946251	2580.299473
561.303065	2577.441138
561.659825	2581.436253
562.016528	2578.141859
562.373177	2578.575398
562.729770	2580.672518
563.086307	2576.132959
563.442789	2577.010120
563.799216	2577.940213
564.155587	2577.471385
564.511904	2577.967939
564.868164	2579.966757
565.224370	2581.655543
565.580520	2578.474575
565.936615	2580.987590
566.292654	2577.065573
566.648638	2579.026581
567.004567	2578.557754
567.360441	2578.209914
567.716260	2580.120512
568.072023	2577.902404
568.427732	2574.688668
568.783385	2573.196487
569.138982	2576.198494
569.494525	2576.921900
569.850013	2576.412743
570.205445	2578.570357
570.560823	2576.067424
570.916145	2577.509194
571.271412	2577.710840
571.626625	2578.484657
571.981782	2578.159503
572.336884	2578.489698
572.691931	2576.014492
573.046923	2577.940213
573.401860	2578.305696
573.756743	2577.458782
574.111570	2575.906107
574.466342	2577.751169
574.821059	2578.827456
575.175722	2579.326530
575.530330	2577.915007
575.884882	2579.543300
576.239380	2578.088927
576.593823	2578.794688
576.948211	2576.634554
577.302544	2579.513053
577.656823	2577.264698
578.011047	2580.856520
578.365216	2578.033474
578.719330	2580.019689
579.073389	2578.295614
579.427394	2578.623289
579.781344	2578.267888
580.135239	2579.273598
580.489080	2578.172106
580.842866	2577.705799
581.196597	2580.508681
581.550273	2578.956005
581.903895	2575.245716
582.257463	2578.419122
582.610975	2576.425346
582.964434	2579.273598
583.317837	2580.317117
583.671186	2579.180337
584.024481	2577.710840
584.377721	2578.376273
584.730906	2579.326530
585.084037	2579.303845
585.437113	2580.538928
585.790135	2577.796540
586.143103	2577.720922
586.496016	2577.554564
586.848874	2576.392578
587.201679	2576.916858
587.554428	2573.844275
587.907124	2574.260170
588.259765	2574.429049
588.612352	2577.751169
588.964884	2574.234965
589.317362	2577.736046
589.669786	2578.156982
590.022155	2581.496747
590.374470	2580.349884
590.726731	2576.700089
591.078937	2577.080696
591.431090	2576.430387
591.783188	2578.701427
592.135232	2576.039698
592.487222	2578.434246
592.839157	2578.484657
593.191038	2579.518094
593.542866	2576.798391
593.894639	2576.821077
594.246358	2579.240830
594.598022	2577.242013
594.949633	2577.499112
595.301190	2578.207394
595.652692	2574.945767
596.004141	2579.681931
596.355535	2578.257805
596.706876	2577.536920
597.058162	2576.185891
597.409395	2576.793350
597.760573	2578.179668
598.111698	2578.275449
598.462768	2577.985583
598.813785	2576.629513
599.164748	2577.675552
599.515657	2577.037846
599.866511	2579.137487
600.217312	2580.312076
600.568060	2576.705130
600.918753	2575.888463
601.269392	2578.068762
601.619978	2579.578588
601.970510	2580.793506
602.320988	2577.431056
602.671412	2576.450552
603.021783	2577.400809
603.372100	2576.238823
603.722363	2579.008937
604.072572	2579.286201
604.422728	2577.718402
604.772830	2574.040880
605.122878	2573.814028
605.472872	2575.906107
605.822813	2571.974007
606.172701	2572.679769
606.522534	2577.206725
606.872314	2577.597414
607.222041	2578.056159
607.571714	2578.083886
607.921333	2577.219328
608.270899	2576.241344
608.620411	2579.162693
608.969870	2578.676221
609.319276	2576.715212
609.668627	2576.649677
610.017926	2577.030284
610.367171	2579.777713
610.716362	2576.246385
611.065500	2577.458783
611.414585	2577.685634
611.763616	2577.068093
612.112594	2579.334092
612.461518	2578.023392
612.810389	2573.945098
613.159207	2578.542631
613.507971	2576.947105
613.856682	2579.155131
614.205340	2577.204204
614.553945	2579.490367
614.902496	2578.199832
615.250994	2578.867785
615.599439	2577.874678
615.947830	2580.380131
616.296169	2578.207394
616.644454	2581.595049
616.992686	2576.140521
617.340864	2576.662280
617.688990	2576.445511
618.037063	2578.164544
618.385082	2579.397106
618.733048	2578.328382
619.080961	2576.957188
619.428821	2577.360480
619.776628	2579.235789
620.124382	2579.069431
620.472083	2578.073803
620.819731	2578.071283
621.167326	2578.749318
621.514868	2577.836869
621.862357	2576.717733
622.209793	2578.416602
622.557176	2579.303845
622.904506	2575.202866
623.251783	2574.494584
623.599007	2573.572053
623.946179	2575.258319
624.293297	2574.144224
624.640363	2577.259657
624.987376	2577.151272
625.334336	2579.263516
625.681243	2577.141190
626.028097	2577.322671
626.374899	2578.557754
626.721647	2577.690676
627.068343	2576.659760
627.414987	2578.167065
627.761577	2575.893504
628.108115	2578.935841
628.454600	2579.442477
628.801032	2578.093968
629.147412	2576.775706
629.493739	2576.425346
629.840014	2576.392578
630.186236	2577.864595
630.532405	2576.415264
630.878521	2578.600604
631.224585	2576.160685
631.570597	2574.229923
631.916556	2574.897876
632.262462	2576.596745
632.608316	2577.670511
632.954117	2576.823597
633.299866	2578.860223
633.645562	2577.879719
633.991206	2578.308217
634.336797	2575.016343
634.682336	2577.902404
635.027823	2575.396951
635.373257	2577.191601
635.718639	2575.649008
636.063968	2577.809143
636.409245	2576.813515
636.754470	2576.949626
637.099642	2576.253947
637.444762	2576.203535
637.789829	2577.748649
638.134845	2573.982907
638.479808	2575.601117
638.824719	2577.491550
639.169577	2575.109605
639.514383	2575.039029
639.859137	2578.235120
640.203839	2576.662280
640.548489	2574.880232
640.893086	2573.882084
641.237632	2576.158165
641.582125	2571.449727
641.926566	2570.718760
642.270955	2575.769996
642.615292	2574.252609
642.959576	2575.427197
643.303809	2576.382496
643.647990	2575.250757
643.992118	2574.804615
644.336195	2574.734039
644.680219	2574.691189
645.024192	2577.627661
645.368112	2576.374934
645.711981	2574.988617
646.055797	2576.238823
646.399562	2574.492063
646.743274	2574.171950
647.086935	2576.223700
647.430544	2577.055490
647.774101	2574.880232
648.117606	2578.038515
648.461059	2577.070614
648.804460	2579.104719
649.147810	2576.556416
649.491108	2577.373083
649.834354	2575.848134
650.177548	2575.979204
650.520690	2575.026426
650.863781	2574.983576
651.206820	2580.143197
651.549807	2577.226889
651.892742	2574.643298
652.235626	2575.591035
652.578458	2573.372927
652.921238	2575.553226
653.263967	2576.997517
653.606644	2575.946436
653.949269	2578.759400
654.291843	2575.878381
654.634365	2577.975501
654.976836	2575.018864
655.319255	2576.657239
655.661622	2573.635067
656.003938	2576.518607
656.346203	2574.855027
656.688416	2576.740418
657.030577	2575.772517
657.372687	2577.058011
657.714746	2574.529872
658.056753	2575.165057
658.398708	2570.658266
658.740612	2573.892166
659.082465	2570.638101
659.424266	2572.210941
659.766016	2571.663976
660.107715	2576.253947
660.449362	2577.504153
660.790958	2575.626323
661.132503	2571.580797
661.473996	2575.283525
661.815438	2577.788978
662.156829	2575.533062
662.498168	2574.174471
662.839456	2579.197981
663.180693	2576.493402
663.521879	2577.569688
663.863013	2573.572053
664.204097	2573.594738
664.545129	2574.804615
664.886110	2576.508525
665.227040	2575.462486
665.567918	2576.238823
665.908746	2573.360324
666.249522	2574.282856
666.590248	2572.828483
666.930922	2573.640108
667.271545	2575.631364
667.612118	2575.964080
667.952639	2576.236303
668.293109	2576.004410
668.633528	2575.540623
668.973896	2575.734708
669.314213	2575.621282
669.654480	2575.071796
669.994695	2574.300500
670.334859	2576.138000
670.674973	2576.450552
671.015035	2574.489543
671.355047	2573.927454
671.695008	2574.260170
672.034918	2575.351580
672.374777	2573.723288
672.714585	2575.598597
673.054342	2574.721436
673.394049	2574.726477
673.733705	2575.323854
674.073310	2576.435428
674.412864	2577.332754
674.752368	2577.710840
675.091820	2575.908628
675.431223	2572.707495
675.770574	2575.041549
676.109875	2568.961918
676.449125	2569.791187
676.788324	2571.603482
677.127473	2573.231775
677.466571	2573.672876
677.805619	2576.248906
678.144616	2573.400654
678.483562	2575.538103
678.822458	2572.785633
679.161303	2577.181519
679.500098	2574.532393
679.838842	2574.630695
680.177535	2573.607341
680.516179	2573.428380
680.854771	2575.303689
681.193314	2576.319482
681.531805	2575.540623
681.870247	2572.001733
682.208638	2574.827300
682.546978	2574.348391
682.885268	2575.401992
683.223508	2575.865778
683.561697	2573.090623
683.899836	2574.373596
684.237925	2576.720253
684.575963	2576.120356
684.913951	2575.893504
685.251889	2575.603638
685.589776	2574.313103
685.927614	2574.976014
686.265401	2573.604820
686.603137	2577.390727
686.940824	2572.362176
687.278460	2577.869637
687.616046	2574.834862
687.953582	2574.875191
688.291068	2576.425346
688.628504	2574.693710
688.965889	2572.021898
689.303224	2575.782599
689.640510	2574.053483
689.977745	2576.233782
690.314930	2577.292424
690.652065	2574.537434
690.989150	2574.902917
691.326185	2575.560788
691.663170	2575.674214
692.000105	2576.286714
692.336990	2577.443659
692.673825	2576.924420
693.010610	2574.121539
693.347345	2571.432083
693.684030	2570.552402
694.020665	2572.034501
694.357251	2569.287072
694.693786	2572.752865
695.030272	2573.801425
695.366707	2571.878225
695.703093	2575.165057
696.039429	2574.270253
696.375716	2574.663463
696.711952	2570.431414
697.048139	2568.815724
697.384276	2574.383679
697.720363	2574.600448
698.056400	2573.877043
698.392388	2573.176322
698.728326	2574.192115
699.064214	2575.976683
699.400053	2573.027608
699.735842	2572.014336
700.071581	2574.300500
700.407270	2576.405181
700.742910	2573.708164
701.078501	2573.065417
701.414042	2573.771178
701.749533	2573.193966
702.084974	2574.706312
702.420366	2573.778740
702.755709	2571.991651
703.091002	2571.495097
703.426246	2574.900397
703.761440	2570.678431
704.096584	2569.803790
704.431679	2570.141548
704.766725	2575.170099
705.101721	2574.023236
705.436668	2572.163050
705.771565	2571.570715
706.106413	2572.964594
706.441212	2574.691189
706.775961	2575.467527
707.110661	2574.648339
707.445311	2573.304872
707.779913	2574.492063
708.114465	2574.734039
708.448967	2574.567681
708.783421	2573.839234
709.117825	2572.284038
709.452180	2572.155489
709.786485	2571.444686
710.120742	2575.785119
710.454949	2572.087433
710.789107	2571.545509
711.123216	2571.444686
711.457275	2569.634912
711.791286	2571.301013
712.125247	2570.539799
712.459159	2571.900910
712.793023	2576.649677
713.126837	2574.411405
713.460602	2571.966445
713.794318	2572.069789
714.127985	2574.557598
714.461602	2574.275294
714.795171	2577.436097
715.128691	2573.325036
715.462162	2571.961404
715.795584	2575.739749
716.128957	2572.352094
716.462281	2571.961404
716.795556	2576.879050
717.128782	2571.905952
717.461960	2572.946950
717.795088	2572.246229
718.128167	2571.936198
718.461198	2571.351425
718.794180	2573.738411
719.127113	2570.743966
719.459997	2575.059193
719.792833	2571.797567
720.125619	2572.657083
720.458357	2573.957701
720.791046	2572.420149
721.123686	2568.051989
721.456278	2572.964594
721.788821	2571.043914
722.121315	2572.347053
722.453761	2570.658266
722.786158	2571.603482
723.118506	2571.510221
723.450805	2573.186405
723.783056	2570.988462
724.115259	2571.336301
724.447412	2571.338822
724.779518	2572.316806
725.111574	2571.104408
725.443582	2571.653894
725.775542	2571.308575
726.107453	2573.922413
726.439315	2572.246229
726.771129	2576.364852
727.102895	2571.537947
727.434612	2573.677917
727.766281	2573.294789
728.097901	2571.207752
728.429473	2568.883780
728.760996	2567.343707
729.092471	2569.708008
729.423897	2573.246898
729.755276	2569.019891
730.086606	2571.991651
730.417887	2573.141034
730.749120	2572.120201
731.080305	2571.023750
731.411442	2570.391085
731.742530	2573.486353
732.073570	2573.314954
732.404562	2572.536096
732.735506	2574.207238
733.066401	2573.347722
733.397249	2572.223544
733.728048	2571.217834
734.058798	2573.599779
734.389501	2568.568708
734.720156	2571.260684
735.050762	2573.478792
735.381320	2570.925447
735.711831	2572.823442
736.042293	2571.535427
736.372707	2570.532237
736.703073	2570.925447
737.033391	2574.197156
737.363661	2574.638257
737.693883	2573.317475
738.024056	2575.172619
738.354182	2569.188770
738.684260	2570.809501
739.014290	2571.820252
739.344272	2569.433266
739.674207	2572.130283
740.004093	2571.618606
740.333931	2572.896538
740.663722	2574.023236
740.993464	2571.074161
741.323159	2570.887638
741.652806	2571.280848
741.982405	2573.400654
742.311956	2573.337639
742.641460	2570.300344
742.970915	2572.858730
743.300323	2573.531724
743.629683	2573.967783
743.958996	2569.463513
744.288260	2569.909655
744.617477	2573.269584
744.946647	2569.624829
745.275768	2570.501990
745.604842	2566.461505
745.933869	2567.275652
746.262847	2563.451937
746.591778	2571.575756
746.920662	2570.746486
747.249498	2571.941240
747.578286	2570.373441
747.907027	2568.692216
748.235720	2571.956363
748.564365	2572.841086
748.892963	2571.648853
749.221514	2570.033163
749.550017	2570.882597
749.878473	2570.814542
750.206881	2569.730694
750.535242	2569.029973
750.863555	2570.628019
751.191821	2568.419994
751.520039	2572.316806
751.848210	2571.560632
752.176334	2570.600293
752.504411	2572.836044
752.832440	2569.836558
753.160421	2572.284038
753.488356	2568.510734
753.816243	2571.832855
754.144082	2571.001064
754.471875	2571.094326
754.799620	2569.917216
755.127318	2568.062072
755.454969	2569.506362
755.782572	2574.308061
756.110129	2571.979048
756.437638	2571.137176
756.765100	2571.837896
757.092515	2570.703636
757.419882	2571.477453
757.747203	2567.875549
758.074477	2568.402350
758.401703	2570.408729
758.728882	2572.621795
759.056014	2570.408729
759.383099	2570.880077
759.710138	2571.784964
760.037129	2571.053997
760.364073	2569.975190
760.690970	2570.640622
761.017820	2570.902762
761.344623	2571.580797
761.671379	2572.498287
761.998088	2567.308419
762.324751	2566.229612
762.651366	2569.713050
762.977935	2569.768502
763.304456	2567.857905
763.630931	2571.575756
763.957359	2571.613565
764.283740	2574.713874
764.610074	2573.556929
764.936362	2570.791857
765.262602	2570.199521
765.588796	2570.519634
765.914943	2568.667010
766.241044	2570.529717
766.567097	2573.713205
766.893104	2570.454099
767.219064	2571.653894
767.544978	2572.261353
767.870845	2569.985272
768.196665	2571.311095
768.522438	2569.271949
768.848165	2570.033163
769.173846	2569.481157
769.499479	2571.434604
769.825066	2567.205076
770.150607	2571.875705
770.476101	2569.380333
770.801548	2569.776064
771.126949	2570.565005
771.452303	2573.483833
771.777611	2571.215313
772.102872	2568.770354
772.428087	2570.426373
772.753256	2570.633060
773.078378	2568.062072
773.403453	2569.735735
773.728482	2570.486867
774.053465	2572.931826
774.378401	2573.367886
774.703291	2567.701629
775.028135	2571.230437
775.352932	2570.832186
775.677683	2571.174984
776.002388	2571.202711
776.327046	2572.062227
776.651658	2569.763461
776.976224	2570.312947
777.300743	2570.565005
777.625216	2568.389747
777.949643	2571.195149
778.274024	2571.356466
778.598359	2564.157698
778.922647	2566.398491
779.246889	2566.239695
779.571086	2564.563511
779.895236	2566.882442
780.219339	2569.483677
780.543397	2568.785477
780.867409	2568.120045
781.191374	2567.948646
781.515294	2569.014850
781.839167	2566.504355
782.162995	2570.774212
782.486776	2569.375292
782.810511	2569.667679
783.134201	2569.135837
783.457844	2568.130127
783.781441	2569.334963
784.104993	2566.660631
784.428498	2568.619119
784.751958	2569.100549
785.075372	2570.595252
785.398739	2568.876218
785.722061	2568.888821
786.045337	2568.692216
786.368568	2568.246074
786.691752	2571.797567
787.014891	2567.988975
787.337983	2569.342525
787.661030	2569.962587
787.984031	2568.571228
788.306987	2570.139027
788.629897	2568.470405
788.952760	2572.689851
789.275579	2569.090467
789.598351	2567.946125
789.921078	2569.589541
790.243759	2569.057700
790.566395	2567.873028
790.888984	2569.037535
791.211529	2566.390929
791.534027	2568.180539
791.856480	2569.024932
792.178888	2568.591393
792.501249	2569.007288
792.823566	2572.021898
793.145836	2571.253122
793.468062	2568.745148
793.790241	2568.982082
794.112375	2569.892011
794.434464	2569.307237
794.756507	2566.743810
795.078505	2569.534089
795.400457	2567.852864
795.722364	2566.527040
796.044226	2566.355641
796.366042	2563.719118
796.687812	2563.976217
797.009538	2567.454613
797.331218	2569.962587
797.652852	2569.035014
797.974442	2568.707339
798.295986	2569.571897
798.617484	2569.657597
798.938938	2570.073492
799.260346	2569.307237
799.581709	2569.042576
799.903026	2569.156002
800.224299	2570.605334
800.545526	2568.422514
800.866708	2569.773543
801.187845	2569.087947
801.508936	2569.201373
801.829983	2569.450910
802.150984	2568.094839
802.471940	2569.377813
802.792851	2566.637946
803.113717	2572.014336
803.434538	2567.409242
803.755314	2566.164077
804.076045	2569.687844
804.396731	2568.949315
804.717372	2570.159192
805.037967	2568.057031
805.358518	2566.524520
805.679024	2568.677093
805.999485	2569.420663
806.319901	2567.482339
806.640272	2568.961918
806.960598	2567.222720
807.280879	2567.804973
807.601115	2567.525189
807.921306	2569.670200
808.241453	2568.356979
808.561554	2568.520817
808.881611	2570.106260
809.201623	2567.933522
809.521590	2567.263049
809.841513	2569.259346
810.161390	2568.001578
810.481223	2569.100549
810.801011	2567.429407
811.120755	2567.996537
811.440453	2567.159705
811.760107	2568.299006
812.079716	2565.496124
812.399281	2563.764488
812.718801	2568.009140
813.038276	2562.980589
813.357707	2565.685168
813.677093	2568.329253
813.996434	2570.423852
814.315731	2565.417987
814.634983	2568.009140
814.954191	2566.428738
815.273354	2569.508883
815.592473	2568.515776
815.911547	2570.864953
816.230577	2568.235992
816.549562	2569.841599
816.868502	2566.874880
817.187399	2568.898903
817.506250	2568.122566
817.825058	2567.535271
818.143821	2566.390929
818.462539	2571.195149
818.781213	2568.964438
819.099843	2568.009140
819.418429	2567.961249
819.736970	2571.701785
820.055466	2568.835889
820.373919	2567.353790
820.692327	2568.455282
821.010691	2570.426373
821.329011	2572.979717
821.647286	2576.516087
821.965517	2573.889646
822.283704	2581.758887
822.601847	2581.022878
822.919945	2579.588670
823.237999	2577.912486
823.556010	2579.346695
823.873976	2575.417115
824.191897	2577.781416
824.509775	2573.070458
824.827609	2572.354614
825.145398	2568.389747
825.463144	2571.308575
825.780845	2571.651373
826.098502	2574.401323
826.416116	2570.854871
826.733685	2572.470561
827.051210	2573.478792
827.368692	2574.308061
827.686129	2573.614903
828.003522	2570.819583
828.320872	2568.866136
828.638177	2569.370251
828.955439	2568.266238
829.272656	2565.289437
829.589830	2565.821279
829.906960	2569.806311
830.224046	2568.901424
830.541088	2566.811866
830.858086	2567.134499
831.175041	2566.184242
831.491952	2568.220868
831.808819	2570.023081
832.125642	2567.303378
832.442421	2570.577607
832.759157	2567.250446
833.075849	2569.856723
833.392497	2568.104922
833.709101	2568.268759
834.025662	2569.350087
834.342179	2570.106260
834.658653	2569.017370
834.975083	2570.068451
835.291469	2572.679769
835.607811	2572.601631
835.924110	2569.433266
836.240366	2570.638101
836.556578	2568.104922
836.872746	2569.382854
837.188871	2569.529047
837.504952	2569.670200
837.820990	2569.092988
838.136984	2565.231464
838.452935	2566.549726
838.768842	2567.308419
839.084706	2568.150292
839.400526	2568.142730
839.716303	2568.553584
840.032037	2569.423183
840.347727	2568.843451
840.663373	2568.553584
840.978977	2569.317319
841.294537	2566.940415
841.610054	2565.627194
841.925527	2567.941084
842.240957	2567.497463
842.556344	2566.874880
842.871687	2569.118193
843.186987	2568.251115
843.502244	2567.252967
843.817458	2567.303378
844.132629	2567.731876
844.447756	2567.588203
844.762840	2564.412276
845.077881	2563.404046
845.392879	2561.748027
845.707833	2565.932184
846.022745	2562.922615
846.337613	2569.224058
846.652438	2565.367575
846.967221	2567.799932
847.281960	2566.385888
847.596656	2569.143399
847.911309	2564.999571
848.225919	2567.416804
848.540485	2565.405384
848.855009	2566.708522
849.169490	2564.563511
849.483928	2568.742627
849.798323	2566.363203
850.112675	2565.143244
850.426984	2564.596278
850.741251	2567.862946
851.055474	2566.194324
851.369654	2566.398491
851.683792	2565.581824
851.997887	2569.453430
852.311938	2568.157854
852.625947	2567.855384
852.939914	2566.055693
853.253837	2568.271280
853.567718	2568.800601
853.881555	2568.248594
854.195350	2566.128789
854.509103	2565.680127
854.822812	2566.695919
855.136479	2570.648184
855.450103	2565.672565
855.763685	2565.881773
856.077224	2564.339180
856.390720	2563.119220
856.704173	2569.428224
857.017584	2565.044941
857.330953	2564.755075
857.644278	2565.642318
857.957561	2567.230281
858.270802	2565.828841
858.584000	2566.781619
858.897155	2566.262380
859.210268	2564.228274
859.523339	2564.626525
859.836367	2564.313974
860.149352	2565.879252
860.462295	2566.842112
860.775195	2561.979920
861.088054	2561.939590
861.400869	2563.951011
861.713642	2560.865825
862.026373	2562.461350
862.339062	2566.887483
862.651708	2565.521330
862.964312	2568.319171
863.276873	2566.665672
863.589392	2566.287586
863.901869	2566.083419
864.214303	2566.595096
864.526696	2565.165929
864.839045	2565.420507
865.151353	2566.642987
865.463619	2567.827658
865.775842	2563.613253
866.088023	2565.869170
866.400162	2566.035528
866.712258	2566.645507
867.024313	2565.909499
867.336325	2566.257339
867.648296	2566.269942
867.960224	2568.102401
868.272110	2567.638615
868.583954	2566.970662
868.895755	2567.910837
869.207515	2565.859088
869.519233	2566.640466
869.830909	2563.068809
870.142542	2567.056362
870.454134	2567.706670
870.765684	2565.546536
871.077191	2564.530743
871.388657	2568.823286
871.700081	2562.904971
872.011463	2566.418656
872.322803	2566.592575
872.634101	2566.544684
872.945357	2567.426886
873.256571	2565.939746
873.567744	2562.506720
873.878874	2566.098542
874.189963	2566.320353
874.501010	2566.756413
874.812015	2565.181052
875.122979	2565.085270
875.433900	2567.389078
875.744780	2563.174673
876.055618	2563.966134
876.366415	2567.416804
876.677169	2565.400342
876.987882	2562.189128
877.298554	2560.797769
877.609183	2560.076884
877.919771	2560.220557
878.230317	2561.932029
878.540822	2566.234653
878.851285	2566.196845
879.161707	2565.914540
879.472087	2565.206258
879.782425	2566.360682
880.092722	2568.767833
880.402977	2567.827658
880.713191	2569.700447
881.023363	2570.305385
881.333494	2571.290931
881.643583	2572.107598
881.953631	2571.381672
882.263637	2572.352094
882.573602	2570.191959
882.883526	2570.454099
883.193408	2571.444686
883.503248	2569.836558
883.813048	2568.954356
884.122806	2569.501321
884.432522	2570.514593
884.742197	2566.882442
885.051831	2568.916547
885.361424	2566.020404
885.670975	2568.989644
885.980485	2568.785477
886.289954	2569.919737
886.599382	2566.902606
886.908768	2565.760785
887.218113	2568.296485
887.527417	2567.497462
887.836680	2563.073850
888.145901	2565.276834
888.455082	2567.038718
888.764221	2566.085939
889.073319	2565.738100
889.382376	2564.182904
889.691392	2566.138872
890.000366	2565.357493
890.309300	2566.660631
890.618193	2564.729869
890.927044	2565.536454
891.235855	2566.327915
891.544625	2569.118193
891.853353	2563.124262
892.162041	2565.395301
892.470687	2568.130127
892.779293	2567.096691
893.087858	2563.716597
893.396381	2562.957903
893.704864	2562.322718
894.013306	2561.647203
894.321707	2568.215827
894.630068	2568.407391
894.938387	2565.604509
895.246665	2568.805642
895.554903	2567.477298
895.863100	2569.287072
896.171256	2566.096022
896.479371	2566.469067
896.787446	2565.904458
897.095480	2565.854046
897.403473	2565.077709
897.711425	2565.980075
898.019336	2566.189283
898.327207	2568.525858
898.635038	2564.316494
898.942827	2565.523851
899.250576	2567.010991
899.558284	2566.043090
899.865952	2564.213151
900.173579	2566.481670
900.481165	2565.191135
900.788711	2566.574931
901.096216	2563.063768
901.403681	2566.027966
901.711105	2567.484860
902.018489	2566.779098
902.325832	2567.694068
902.633135	2564.750034
902.940397	2564.185424
903.247619	2565.841443
903.554800	2561.364899
903.861941	2568.785477
904.169041	2567.520148
904.476101	2566.088460
904.783121	2567.951166
905.090100	2566.461505
905.397039	2569.667679
905.703938	2565.886814
906.010796	2569.009809
906.317614	2568.591393
906.624391	2565.513768
906.931129	2563.376319
907.237826	2563.502348
907.544483	2566.428738
907.851099	2563.583007
908.157675	2566.264900
908.464211	2564.755075
908.770707	2562.509241
909.077163	2564.573593
909.383578	2563.005794
909.689954	2559.073694
909.996289	2561.579148
910.302584	2564.175342
910.608839	2565.455795
910.915054	2563.658624
911.221229	2565.034859
911.527363	2564.608881
911.833458	2562.000084
912.139513	2562.015208
912.445527	2565.233984
912.751502	2565.662482
913.057436	2564.049313
913.363331	2565.428069
913.669186	2564.785322
913.975000	2565.037379
914.280775	2565.470919
914.586510	2566.375806
914.892205	2564.571073
915.197859	2565.856567
915.503475	2563.567883
915.809050	2571.323698
916.114585	2565.538974
916.420081	2565.133161
916.725536	2565.528892
917.030952	2566.083419
917.336328	2567.247925
917.641665	2566.423697
917.946961	2567.321022
918.252218	2566.421176
918.557435	2566.209448
918.862612	2565.150805
919.167750	2563.134344
919.472848	2566.907647
919.777906	2565.007132
920.082925	2565.450754
920.387904	2563.794735
920.692843	2562.448747
920.997743	2564.719787
921.302603	2564.744992
921.607423	2564.003943
921.912204	2568.440158
922.216946	2565.503686
922.521647	2564.760116
922.826310	2565.937225
923.130932	2565.980075
923.435516	2564.215671
923.740059	2567.101732
924.044564	2564.135013
924.349028	2562.854560
924.653454	2563.555280
924.957840	2560.719631
925.262186	2562.814231
925.566493	2563.318346
925.870761	2560.598643
926.174989	2561.654765
926.479178	2565.763306
926.783328	2567.063923
927.087438	2564.553429
927.391509	2564.881104
927.695541	2564.661813
927.999533	2563.262893
928.303486	2564.598799
928.607400	2564.747513
928.911275	2562.738613
929.215110	2565.191135
929.518906	2562.506720
929.822663	2564.482853
930.126381	2561.753068
930.430060	2565.922102
930.733699	2566.355641
931.037299	2563.729200
931.340861	2561.599313
931.644383	2565.586865
931.947866	2562.554611
932.251309	2564.152657
932.554714	2562.690722
932.858080	2563.703994
933.161407	2559.776935
933.464694	2563.393963
933.767943	2562.418500
934.071153	2564.424879
934.374323	2560.515464
934.677455	2566.038048
934.980548	2563.235167
935.283602	2564.797925
935.586617	2563.739282
935.889593	2565.849005
936.192530	2563.489745
936.495428	2560.165104
936.798287	2563.114179
937.101108	2563.212482
937.403890	2565.521330
937.706632	2563.643500
938.009336	2562.773901
938.312002	2563.172152
938.614628	2562.756257
938.917216	2564.497976
939.219765	2563.167111
939.522275	2563.648542
939.824747	2566.673234
940.127179	2557.974723
940.429573	2561.072512
940.731929	2561.047306
941.034246	2558.919939
941.336524	2561.556463
941.638763	2564.298850
941.940964	2564.543346
942.243126	2563.028480
942.545250	2563.378840
942.847335	2563.479663
943.149381	2563.744323
943.451389	2563.207441
943.753359	2565.357493
944.055290	2565.133161
944.357182	2565.896896
944.659036	2562.680640
944.960851	2564.198027
945.262628	2564.313974
945.564367	2564.061916
945.866067	2566.098542
946.167729	2564.651731
946.469352	2564.462688
946.770937	2562.821792
947.072484	2563.144426
947.373992	2563.169632
947.675462	2561.120403
947.976893	2563.658624
948.278286	2561.274158
948.579641	2563.368758
948.880958	2562.584858
949.182236	2562.163922
949.483476	2564.228274
949.784678	2565.382698
950.085841	2562.040413
950.386967	2564.170301
950.688054	2561.664848
950.989103	2560.636452
951.290114	2563.038562
951.591087	2563.005794
951.892021	2561.349775
952.192917	2564.566032
952.493776	2565.811197
952.794596	2565.473439
953.095378	2561.301884
953.396122	2561.561504
953.696828	2565.327246
953.997496	2564.482852
954.298126	2563.686350
954.598718	2565.342369
954.899272	2564.445044
955.199788	2564.586196
955.500266	2563.961093
955.800706	2557.626883
956.101108	2560.843139
956.401472	2561.284240
956.701798	2559.860114
957.002087	2558.378015
957.302337	2562.910012
957.602550	2565.223902
957.902724	2562.657955
958.202861	2562.675599
958.502960	2563.272976
958.803022	2562.070660
959.103045	2562.587379
959.403031	2559.721483
959.702979	2562.894889
960.002889	2561.455640
960.302762	2565.775908
960.602596	2561.919426
960.902393	2562.476473
961.202153	2562.988150
961.501875	2566.065775
961.801559	2562.123592
962.101205	2561.354817
962.400814	2562.683161
962.700385	2561.291802
962.999918	2563.593089
963.299414	2560.613767
963.598873	2563.078891
963.898293	2561.921946
964.197677	2564.117369
964.497022	2561.223747
964.796331	2563.020918
965.095601	2563.285578
965.394835	2564.689540
965.694030	2563.025959
965.993189	2562.824313
966.292309	2563.086453
966.591393	2560.470094
966.890439	2564.258521
967.189447	2563.348593
967.488419	2562.809189
967.787353	2561.974878
968.086249	2564.336659
968.385108	2563.754406
968.683930	2560.850701
968.982714	2561.758109
969.281462	2560.921277
969.580172	2560.270968
969.878844	2566.464026
970.177480	2561.039744
970.476078	2565.758264
970.774639	2561.843808
971.073162	2563.149467
971.371649	2559.403890
971.670098	2558.103272
971.968510	2559.819785
972.266885	2560.089487
972.565223	2562.310115
972.863524	2560.991853
973.161788	2561.748027
973.460014	2562.607543
973.758204	2564.268603
974.056356	2561.465722
974.354471	2562.635270
974.652550	2562.131154
974.950591	2566.131310
975.248595	2561.627039
975.546563	2565.269273
975.844493	2563.547718
976.142386	2565.357493
976.440243	2564.482852
976.738062	2562.390774
977.035845	2563.988819
977.333590	2563.197358
977.631299	2561.866494
977.928971	2562.078222
978.226606	2562.161401
978.524204	2561.659806
978.821765	2564.883624
979.119290	2561.478325
979.416777	2558.730896
979.714228	2562.191648
980.011642	2559.766853
980.309020	2565.670044
980.606360	2562.201730
980.903664	2564.412276
981.200931	2562.983109
981.498162	2560.092008
981.795356	2563.003274
982.092513	2562.289951
982.389633	2562.385732
982.686717	2563.023438
982.983764	2563.643500
983.280775	2565.743141
983.577749	2564.054354
983.874686	2564.752554
984.171587	2564.475291
984.468451	2562.055537
984.765279	2563.192317
985.062070	2563.073850
985.358824	2560.147460
985.655543	2562.153839
985.952224	2562.887327
986.248869	2562.736093
986.545478	2559.527398
986.842050	2559.824826
987.138586	2558.188972
987.435086	2558.927501
987.731549	2559.913047
988.027975	2563.242729
988.324366	2561.634601
988.620719	2563.348593
988.917037	2562.736093
989.213318	2563.184755
989.509563	2564.170301
989.805772	2561.198541
990.101944	2560.152501
990.398080	2562.650393
990.694180	2564.034190
990.990244	2563.278017
991.286271	2562.763819
991.582262	2562.882286
991.878217	2563.499828
992.174136	2560.190310
992.470019	2563.986299
992.765865	2562.516802
993.061676	2561.001936
993.357450	2563.968655
993.653188	2560.326421
993.948890	2562.529405
994.244556	2564.669375
994.540186	2560.117213
994.835780	2563.643500
995.131337	2560.747357
995.426859	2563.046124
995.722345	2561.211144
996.017795	2562.801628
996.313208	2562.166442
996.608586	2563.983778
996.903928	2559.502192
997.199234	2560.666699
997.494504	2563.058727
997.789738	2560.374312
998.084936	2562.557132
998.380099	2561.374981
998.675225	2560.152501
998.970316	2560.129816
999.265371	2561.304405
999.560390	2561.203582
999.855373	2562.617626
1000.150320	2563.303223
1000.445232	2560.850701
1000.740108	2560.588561
1001.034948	2562.063099
1001.329752	2563.658624
1001.624521	2560.694425
1001.919254	2557.422717
1002.213951	2560.923798
1002.508613	2558.836760
1002.803239	2560.036555
1003.097829	2556.364074
1003.392384	2563.998902
1003.686903	2562.733572
1003.981386	2561.553942
1004.275834	2562.247101
1004.570246	2561.884138
1004.864623	2562.615105
1005.158964	2561.990002
1005.453270	2563.116700
1005.747540	2560.996895
1006.041775	2561.548901
1006.335974	2559.547563
1006.630138	2560.293654
1006.924266	2561.919426
1007.218359	2560.298695
1007.512416	2561.329611
1007.806438	2561.944632
1008.100425	2563.709035
1008.394376	2559.633262
1008.688292	2561.836247
1008.982172	2560.192831
1009.276017	2561.538819
1009.569827	2559.895402
1009.863602	2565.150805
1010.157341	2559.706359
1010.451045	2560.273489
1010.744714	2561.246432
1011.038347	2561.720300
1011.331945	2561.407749
1011.625508	2560.926318
1011.919036	2560.646534
1012.212528	2563.497307
1012.505986	2561.629559
1012.799408	2562.448747
1013.092795	2562.365568
1013.386147	2563.086453
1013.679464	2561.904302
1013.972745	2559.814744
1014.265992	2561.299364
1014.559204	2563.646021
1014.852380	2563.499828
1015.145521	2561.926988
1015.438628	2560.318859
1015.731699	2562.242060
1016.024736	2562.110990
1016.317737	2560.858263
1016.610703	2563.151988
1016.903635	2559.585372
1017.196531	2556.240566
1017.489393	2557.153015
1017.782219	2555.486913
1018.075011	2561.266596
1018.367768	2560.346586
1018.660490	2562.214333
1018.953177	2562.214333
1019.245829	2562.214333
