Dividing Wavelength (nm)	Counts (n)	Blue Motor Position (mm): 5.500000	Red Motor Position (mm): 0.000000	
326.493990	2157.427323
326.888308	2157.427323
327.282561	2157.427323
327.676750	2118.491972
328.070874	2115.414347
328.464933	2115.250510
328.858929	2118.439040
329.252859	2121.370471
329.646726	2130.981430
330.040528	2145.305869
330.434265	2155.239463
330.827938	2176.944151
331.221547	2190.063753
331.615091	2210.193081
332.008571	2227.930381
332.401986	2245.357649
332.795338	2265.486977
333.188625	2284.277878
333.581847	2302.153809
333.975006	2318.787096
334.368100	2337.051197
334.761129	2356.540298
335.154095	2372.518235
335.546996	2391.102448
335.939833	2405.936043
336.332606	2417.785276
336.725315	2432.205496
337.117960	2446.678649
337.510540	2458.477469
337.903056	2466.371916
338.295508	2477.487661
338.687896	2485.079638
339.080220	2495.681185
339.472480	2499.416680
339.864676	2508.379851
340.256807	2511.442352
340.648875	2516.049967
341.040879	2520.216481
341.432818	2523.745288
341.824694	2525.277799
342.216506	2524.682943
342.608253	2527.800897
342.999937	2526.749816
343.391557	2526.911133
343.783113	2522.999198
344.174605	2525.718900
344.566033	2524.728313
344.957397	2522.812675
345.348697	2520.695390
345.739934	2523.183200
346.131106	2514.976201
346.522215	2515.583660
346.913260	2513.612569
347.304241	2515.051818
347.695159	2512.601818
348.086012	2510.373628
348.476802	2506.839779
348.867528	2504.432628
349.258191	2500.566063
349.648789	2499.333501
350.039324	2494.284785
350.429796	2499.739314
350.820203	2498.209323
351.210548	2496.689416
351.600828	2494.882162
351.991045	2495.814775
352.381198	2493.785711
352.771288	2493.563900
353.161314	2493.001812
353.551276	2494.388129
353.941175	2490.957624
354.331010	2494.587254
354.720782	2490.514002
355.110490	2490.405617
355.500135	2490.755978
355.889717	2490.279588
356.279235	2491.265134
356.668689	2492.157418
357.058080	2488.984012
357.447408	2494.249497
357.836672	2491.164311
358.225873	2492.341420
358.615010	2492.391832
359.004084	2492.633807
359.393095	2493.994919
359.782043	2492.023828
360.170927	2495.822337
360.559748	2493.289157
360.948505	2494.146153
361.337199	2499.250322
361.725830	2499.197390
362.114398	2496.840650
362.502903	2496.258397
362.891344	2498.035404
363.279722	2498.937770
363.668037	2498.882318
364.056289	2501.349962
364.444478	2501.317195
364.832603	2502.511948
365.220665	2500.729900
365.608665	2500.296361
365.996601	2500.760147
366.384474	2503.789881
366.772284	2504.435148
367.160031	2502.113697
367.547715	2503.152175
367.935336	2501.798625
368.322893	2500.916423
368.710388	2499.759478
369.097820	2502.842144
369.485189	2502.000271
369.872495	2505.690396
370.259738	2501.954901
370.646918	2506.998575
371.034035	2504.775426
371.421090	2505.319871
371.808081	2505.897083
372.195010	2503.600838
372.581875	2507.432114
372.968678	2506.698627
373.355418	2506.517145
373.742096	2506.612927
374.128710	2508.894049
374.515262	2508.929337
374.901751	2508.342043
375.288177	2506.991013
375.674540	2509.539317
376.060841	2508.329440
376.447079	2505.982783
376.833254	2508.097547
377.219367	2509.788854
377.605417	2511.800274
377.991404	2509.562002
378.377329	2512.039729
378.763191	2508.785664
379.148991	2509.262053
379.534727	2508.944461
379.920402	2514.635923
380.306013	2511.293638
380.691563	2509.582167
381.077049	2511.699451
381.462474	2510.237517
381.847835	2511.893536
382.233134	2510.759276
382.618371	2512.014523
383.003545	2512.518639
383.388657	2512.606859
383.773706	2513.698269
384.158693	2513.514267
384.543618	2513.567199
384.928480	2511.351612
385.313280	2512.132990
385.698017	2512.614421
386.082692	2512.667353
386.467305	2511.782630
386.851856	2515.361849
387.236344	2516.206243
387.620770	2511.984276
388.005133	2511.008813
388.389435	2512.770696
388.773674	2510.030829
389.157851	2514.212466
389.541965	2513.617610
389.926018	2516.480986
390.310008	2517.726151
390.693936	2516.506191
391.077802	2517.156500
391.461606	2517.683301
391.845348	2515.150121
392.229027	2517.582478
392.612645	2516.254134
392.996200	2519.440143
393.379694	2515.306397
393.763125	2518.394103
394.146494	2517.668177
394.529801	2518.908301
394.913047	2516.546521
395.296230	2519.971985
395.679351	2517.552231
396.062410	2519.301511
396.445408	2519.641789
396.828343	2519.873682
397.211217	2520.161028
397.594028	2521.693539
397.976778	2518.137005
398.359466	2523.074815
398.742092	2521.907788
399.124656	2521.277643
399.507158	2520.859228
399.889598	2524.561955
400.271977	2521.207067
400.654294	2521.386028
401.036549	2521.653209
401.418742	2521.746471
401.800874	2520.644979
402.182944	2524.763601
402.564952	2521.900226
402.946898	2520.034999
403.328783	2521.693539
403.710606	2522.089269
404.092367	2522.220339
404.474067	2522.046419
404.855705	2522.545494
405.237282	2521.360822
405.618797	2521.975843
406.000250	2522.820237
406.381642	2523.397449
406.762972	2521.665812
407.144240	2520.564320
407.525447	2521.176820
407.906593	2521.229753
408.287677	2525.665968
408.668700	2522.623632
409.049661	2524.985412
409.430560	2525.653365
409.811399	2525.275278
410.192176	2524.998015
410.572891	2526.636390
410.953545	2530.167718
411.334138	2526.419620
411.714669	2526.505320
412.095139	2527.541277
412.475547	2526.109589
412.855894	2524.524147
413.236180	2527.193438
413.616405	2527.531195
413.996568	2525.597912
414.376670	2527.939528
414.756711	2528.063037
415.136691	2528.478932
415.516609	2530.107224
415.896466	2528.443644
416.276262	2528.710825
416.655997	2529.015815
417.035670	2527.916843
417.415283	2529.595547
417.794834	2528.171421
418.174324	2531.128058
418.553753	2529.109076
418.933121	2529.908099
419.312428	2530.011442
419.691674	2527.074970
420.070859	2528.698222
420.449983	2527.836185
420.829045	2530.495393
421.208047	2531.072605
421.586988	2528.310053
421.965867	2529.484642
422.344686	2529.393901
422.723444	2528.879703
423.102141	2529.819879
423.480777	2531.150743
423.859352	2529.172090
424.237866	2529.759385
424.616319	2531.748120
424.994712	2526.880886
425.373044	2531.120496
425.751314	2526.003725
426.129524	2527.495907
426.507673	2527.110258
426.885762	2529.083870
427.263789	2532.779036
427.641756	2529.603109
428.019662	2533.575538
428.397508	2528.814168
428.775292	2532.325332
429.153016	2534.750127
429.530679	2533.658717
429.908282	2531.249046
430.285824	2532.597554
430.663305	2533.169725
431.040726	2531.581762
431.418086	2532.436238
431.795385	2532.839530
432.172624	2533.215096
432.549802	2534.067051
432.926920	2534.225847
433.303977	2533.399098
433.680974	2533.361289
434.057910	2533.389016
434.434786	2532.952956
434.811601	2532.219468
435.188355	2534.354397
435.565050	2532.922709
435.941683	2533.726773
436.318257	2536.174253
436.694770	2535.526465
437.071222	2534.823224
437.447614	2534.994623
437.823946	2534.833306
438.200218	2534.044366
438.576429	2535.816331
438.952580	2532.524458
439.328670	2536.895138
439.704700	2534.787936
440.080670	2535.536547
440.456580	2534.949253
440.832429	2536.726259
441.208218	2535.085364
441.583947	2538.026877
441.959616	2535.861702
442.335224	2534.737524
442.710773	2535.914634
443.086261	2535.707946
443.461689	2536.892617
443.837057	2537.031249
444.212365	2537.444624
444.587612	2534.460261
444.962800	2533.036135
445.337927	2530.954138
445.712995	2530.941535
446.088002	2533.903213
446.462949	2536.514531
446.837837	2539.022505
447.212664	2537.570653
447.587431	2535.985210
447.962139	2536.254912
448.336786	2539.241795
448.711374	2537.374048
449.085901	2536.771630
449.460369	2538.485622
449.834776	2538.213400
450.209124	2538.813297
450.583412	2538.699871
450.957640	2537.162319
451.331808	2538.636857
451.705917	2536.287679
452.079965	2538.888914
452.453954	2537.800025
452.827883	2537.825231
453.201752	2537.900848
453.575562	2539.065355
453.949311	2537.570653
454.323001	2539.284645
454.696632	2540.988555
455.070202	2537.227854
455.443713	2537.472350
455.817164	2539.042670
456.190556	2537.903369
456.563888	2538.500746
456.937160	2537.749614
457.310373	2541.485109
457.683526	2538.931764
458.056619	2540.275232
458.429653	2538.417567
458.802628	2539.171219
459.175542	2537.285828
459.548398	2540.081147
459.921194	2537.825231
460.293930	2539.453524
460.666607	2541.427135
461.039224	2537.414377
461.411782	2541.003678
461.784280	2536.673327
462.156719	2540.890252
462.529099	2541.127187
462.901419	2541.742208
463.273680	2538.830941
463.645882	2537.245498
464.018024	2535.806249
464.390106	2535.740714
464.762130	2541.533000
465.134094	2542.669780
465.505999	2539.493853
465.877845	2540.088709
466.249631	2540.313040
466.621358	2540.244985
466.993026	2540.174409
467.364634	2544.976108
467.736184	2540.181970
468.107674	2539.345139
468.479105	2541.810263
468.850477	2541.548123
469.221790	2540.728936
469.593043	2541.333874
469.964238	2540.338246
470.335373	2542.034594
470.706449	2539.241795
471.077467	2542.437887
471.448425	2541.091899
471.819324	2544.219935
472.190164	2540.532331
472.560945	2542.011909
472.931667	2539.761034
473.302330	2544.131714
473.672934	2541.661549
474.043479	2544.887888
474.413965	2540.421425
474.784393	2541.643905
475.154761	2543.957795
475.525070	2543.746066
475.895321	2544.892929
476.265513	2540.492001
476.635645	2541.139790
477.005719	2542.783206
477.375734	2540.139121
477.745691	2543.567105
478.115588	2542.021992
478.485427	2541.895963
478.855207	2542.657177
479.224928	2542.170706
479.594591	2541.820345
479.964194	2541.464944
480.333739	2542.954605
480.703226	2544.257743
481.072653	2544.277908
481.442022	2545.651622
481.811333	2540.118956
482.180584	2542.647095
482.549777	2540.126518
482.918912	2537.915972
483.287988	2545.512991
483.657005	2544.650953
484.025964	2544.035933
484.394864	2544.797147
484.763706	2543.418391
485.132489	2543.037784
485.501213	2543.191539
485.869879	2543.904863
486.238487	2542.863864
486.607036	2541.137269
486.975527	2543.340253
487.343959	2546.485933
487.712333	2545.631458
488.080648	2544.116591
488.448905	2544.938299
488.817104	2545.543238
489.185244	2544.290511
489.553326	2542.853782
489.921350	2547.058104
490.289315	2543.340253
490.657222	2543.015099
491.025070	2544.734132
491.392861	2545.039122
491.760593	2544.857641
492.128267	2545.495347
492.495883	2545.147507
492.863440	2542.533669
493.230939	2545.722198
493.598380	2543.148689
493.965763	2544.948381
494.333088	2545.094575
494.700354	2542.039636
495.067563	2544.542568
495.434713	2547.322765
495.801805	2546.309493
496.168839	2541.986703
496.535815	2546.977446
496.902733	2546.359904
497.269593	2544.832435
497.636395	2545.790254
498.003139	2546.864020
498.369825	2547.443753
498.736453	2546.801005
499.103023	2548.288146
499.469535	2546.049873
499.835989	2546.460728
500.202385	2544.920655
500.568723	2542.936961
500.935003	2543.287321
501.301226	2540.711292
501.667390	2543.693134
502.033497	2546.105326
502.399546	2542.775644
502.765537	2546.543907
503.131470	2547.080789
503.497345	2547.269833
503.863163	2546.271684
504.228923	2543.549461
504.594625	2546.349822
504.960269	2546.095244
505.325856	2548.436860
505.691385	2546.490974
506.056856	2546.806047
506.422270	2547.572302
506.787625	2547.322765
507.152924	2544.540048
507.518164	2547.937786
507.883347	2544.625747
508.248472	2548.867878
508.613540	2548.134391
508.978550	2546.732950
509.343503	2546.291849
509.708398	2545.223124
510.073236	2543.725902
510.438016	2547.549617
510.802738	2546.032229
511.167403	2545.523073
511.532010	2549.213198
511.896561	2544.351005
512.261053	2546.344781
512.625488	2546.974925
512.989866	2547.874771
513.354186	2547.539534
513.718449	2546.226314
514.082655	2543.569626
514.446803	2545.180274
514.810894	2546.806047
515.174927	2546.143135
515.538904	2548.552806
515.902822	2547.905018
516.266684	2546.102806
516.630488	2545.334030
516.994235	2545.631458
517.357925	2546.972405
517.721558	2545.482744
518.085133	2547.519370
518.448651	2544.827394
518.812112	2541.187681
519.175516	2542.221117
519.538863	2541.906045
519.902152	2546.390151
520.265385	2549.432488
520.628560	2547.703372
520.991678	2546.685059
521.354739	2549.472817
521.717743	2547.161448
522.080690	2546.690100
522.443580	2544.224976
522.806413	2546.503577
523.169189	2546.788402
523.531908	2546.377548
523.894569	2545.989380
524.257174	2549.190512
524.619722	2549.036757
524.982213	2549.074566
525.344647	2549.545914
525.707025	2548.144473
526.069345	2547.095913
526.431608	2548.678835
526.793815	2546.347302
527.155964	2545.495347
527.518057	2546.269164
527.880093	2549.503064
528.242072	2545.144986
528.603995	2546.377548
528.965860	2546.269164
529.327669	2549.034237
529.689421	2547.715975
530.051117	2546.377548
530.412755	2549.341747
530.774337	2550.539021
531.135862	2544.983669
531.497331	2547.859648
531.858743	2547.063145
532.220098	2547.126160
532.581396	2545.780172
532.942638	2549.886192
533.303824	2548.648588
533.664953	2546.483413
534.026025	2546.092723
534.387040	2545.646581
534.747999	2551.335523
535.108902	2546.077600
535.469748	2548.257899
535.830537	2547.607590
536.191270	2545.306303
536.551947	2544.202291
536.912567	2546.138094
537.273131	2547.831921
537.633638	2544.237579
537.994089	2548.688918
538.354483	2548.283105
538.714821	2546.932075
539.075103	2548.507436
539.435328	2551.050698
539.795497	2548.280584
540.155609	2546.987528
540.515665	2548.381407
540.875665	2551.015410
541.235609	2548.605738
541.595496	2548.043650
541.955328	2547.292518
542.315102	2548.457024
542.674821	2545.150027
543.034483	2549.286294
543.394090	2546.876623
543.753640	2549.021634
544.113134	2548.953578
544.472571	2547.393341
544.831953	2549.515667
545.191278	2547.133722
545.550548	2548.681356
545.909761	2546.674977
546.268918	2550.110523
546.628019	2548.578012
546.987064	2547.264792
547.346053	2547.531973
547.704986	2548.759494
548.063863	2548.734288
548.422684	2548.825029
548.781449	2550.090358
549.140158	2547.748742
549.498811	2549.311500
549.857408	2547.655481
550.215949	2547.751263
550.574434	2549.150183
550.932864	2547.363094
551.291237	2549.959288
551.649555	2550.586912
552.007817	2548.076417
552.366022	2549.142621
552.724173	2547.889895
553.082267	2547.441232
553.440305	2547.751263
553.798288	2549.248486
554.156215	2548.804864
554.514086	2543.804039
554.871902	2545.197918
555.229661	2546.838814
555.587365	2543.070552
555.945014	2549.298897
556.302606	2549.046839
556.660143	2548.262940
557.017625	2548.401572
557.375050	2548.038609
557.732421	2549.477858
558.089735	2549.465255
558.446994	2547.703372
558.804197	2549.014072
559.161345	2548.479710
559.518437	2549.276212
559.875474	2550.554144
560.232455	2549.447611
560.589381	2549.558517
560.946251	2549.850903
561.303065	2546.710265
561.659825	2548.467107
562.016528	2548.351160
562.373177	2550.259237
562.729770	2549.787889
563.086307	2549.442570
563.442789	2550.034906
563.799216	2548.688917
564.155587	2548.086500
564.511904	2549.992056
564.868164	2548.888043
565.224370	2549.578681
565.580520	2550.909546
565.936615	2550.017262
566.292654	2548.078938
566.648638	2548.772097
567.004567	2546.506098
567.360441	2547.567261
567.716260	2543.345294
568.072023	2549.462735
568.427732	2547.370656
568.783385	2548.416695
569.138982	2549.397200
569.494525	2550.100441
569.850013	2550.337375
570.205445	2549.800492
570.560823	2550.662529
570.916145	2550.251675
571.271412	2546.843855
571.626625	2552.089176
571.981782	2547.037940
572.336884	2548.946016
572.691931	2545.946530
573.046923	2549.795451
573.401860	2543.080634
573.756743	2554.392983
574.111570	2548.946016
574.466342	2549.140101
574.821059	2550.654967
575.175722	2550.044988
575.530330	2548.633465
575.884882	2552.152190
576.239380	2548.116747
576.593823	2551.963147
576.948211	2549.321582
577.302544	2546.062476
577.656823	2549.765204
578.011047	2550.728064
578.365216	2550.523898
578.719330	2551.650595
579.073389	2550.050029
579.427394	2550.410472
579.781344	2551.204453
580.135239	2549.719833
580.489080	2551.552293
580.842866	2551.872406
581.196597	2551.517005
581.550273	2551.622869
581.903895	2549.929041
582.257463	2547.839483
582.610975	2548.159596
582.964434	2550.108002
583.317837	2551.506922
583.671186	2551.267468
584.024481	2551.456511
584.377721	2549.803012
584.730906	2548.361242
585.084037	2551.224618
585.437113	2549.750080
585.790135	2553.178065
586.143103	2549.825698
586.496016	2553.414999
586.848874	2548.658671
587.201679	2554.007335
587.554428	2549.808054
587.907124	2549.278732
588.259765	2549.984494
588.612352	2552.061449
588.964884	2551.385935
589.317362	2550.370142
589.669786	2549.757642
590.022155	2548.230172
590.374470	2544.265305
590.726731	2547.579864
591.078937	2546.853938
591.431090	2547.650440
591.783188	2548.547765
592.135232	2551.549772
592.487222	2552.595812
592.839157	2551.106151
593.191038	2548.920811
593.542866	2547.751263
593.894639	2550.438198
594.246358	2549.987015
594.598022	2550.513815
594.949633	2549.480379
595.301190	2550.231511
595.652692	2551.590102
596.004141	2552.502550
596.355535	2550.062632
596.706876	2551.937941
597.058162	2550.256716
597.409395	2546.604400
597.760573	2551.317879
598.111698	2549.770245
598.462768	2549.699669
598.813785	2549.286294
599.164748	2551.995914
599.515657	2549.724875
599.866511	2551.456511
600.217312	2548.565409
600.568060	2549.913918
600.918753	2549.994576
601.269392	2551.524567
601.619978	2550.740667
601.970510	2551.370811
602.320988	2549.155224
602.671412	2550.128167
603.021783	2548.915769
603.372100	2551.143959
603.722363	2551.335523
604.072572	2552.137067
604.422728	2548.983825
604.772830	2551.249824
605.122878	2547.738660
605.472872	2551.368291
605.822813	2547.105995
606.172701	2549.462735
606.522534	2547.799154
606.872314	2549.581202
607.222041	2550.778476
607.571714	2549.278732
607.921333	2547.756304
608.270899	2546.712785
608.620411	2546.680018
608.969870	2549.548434
609.319276	2554.292160
609.668627	2557.125288
610.017926	2565.261711
610.367171	2562.294992
610.716362	2562.806669
611.065500	2562.012687
611.414585	2558.977912
611.763616	2555.759136
612.112594	2557.213509
612.461518	2554.725699
612.810389	2554.662685
613.159207	2555.875082
613.507971	2552.694114
613.856682	2555.370967
614.205340	2552.820143
614.553945	2552.260575
614.902496	2551.297715
615.250994	2550.120605
615.599439	2550.738147
615.947830	2553.261244
616.296169	2549.682025
616.644454	2551.340564
616.992686	2550.105482
617.340864	2551.398538
617.688990	2548.883002
618.037063	2549.344267
618.385082	2549.528270
618.733048	2551.496840
619.080961	2551.983312
619.428821	2548.036088
619.776628	2552.855431
620.124382	2549.167827
620.472083	2548.835111
620.819731	2553.266285
621.167326	2550.138249
621.514868	2549.687066
621.862357	2549.185471
622.209793	2551.433826
622.557176	2550.415513
622.904506	2550.120605
623.251783	2549.311500
623.599007	2551.295194
623.946179	2552.074052
624.293297	2553.145297
624.640363	2550.143290
624.987376	2545.714637
625.334336	2547.030378
625.681243	2545.782692
626.028097	2545.318906
626.374899	2549.803012
626.721647	2547.479041
627.068343	2549.543393
627.414987	2548.764535
627.761577	2549.954247
628.108115	2549.072045
628.454600	2549.888712
628.801032	2550.639844
629.147412	2550.738147
629.493739	2552.253013
629.840014	2550.803682
630.186236	2552.152190
630.532405	2551.910215
630.878521	2551.574978
631.224585	2548.688918
631.570597	2550.448280
631.916556	2552.530277
632.262462	2547.111036
632.608316	2552.646223
632.954117	2549.019113
633.299866	2549.931562
633.645562	2553.120092
633.991206	2550.430636
634.336797	2550.947354
634.682336	2547.743701
635.027823	2550.783517
635.373257	2550.924669
635.718639	2550.498692
636.063968	2551.821995
636.409245	2546.977446
636.754470	2550.760832
637.099642	2546.866540
637.444762	2551.612787
637.789829	2548.653629
638.134845	2545.354194
638.479808	2549.780327
638.824719	2551.524567
639.169577	2551.438867
639.514383	2551.673281
639.859137	2549.976932
640.203839	2548.116747
640.548489	2548.194884
640.893086	2551.305276
641.237632	2549.094730
641.582125	2548.726726
641.926566	2546.475851
642.270955	2547.458876
642.615292	2543.514173
642.959576	2548.270502
643.303809	2542.543751
643.647990	2550.213867
643.992118	2548.620862
644.336195	2550.092879
644.680219	2548.635985
645.024192	2550.044988
645.368112	2551.070863
645.711981	2548.857796
646.055797	2549.833259
646.399562	2548.966181
646.743274	2547.103475
647.086935	2548.830070
647.430544	2551.121274
647.774101	2547.642878
648.117606	2552.457180
648.461059	2551.562375
648.804460	2553.954403
649.147810	2550.433157
649.491108	2547.965512
649.834354	2549.051881
650.177548	2552.487427
650.520690	2550.163455
650.863781	2549.669422
651.206820	2547.642878
651.549807	2549.334185
651.892742	2550.407951
652.235626	2547.950388
652.578458	2547.302600
652.921238	2549.064483
653.263967	2548.746891
653.606644	2550.097920
653.949269	2549.147663
654.291843	2549.220759
654.634365	2547.552137
654.976836	2547.196736
655.319255	2547.158927
655.661622	2549.873589
656.003938	2550.881819
656.346203	2546.932075
656.688416	2550.135729
657.030577	2551.179248
657.372687	2548.986346
657.714746	2549.127498
658.056753	2549.452652
658.398708	2547.065666
658.740612	2550.007179
659.082465	2549.308979
659.424266	2546.521221
659.766016	2544.209852
660.107715	2546.866540
660.449362	2544.156920
660.790958	2548.862837
661.132503	2548.734288
661.473996	2550.407951
661.815438	2548.661191
662.156829	2548.877961
662.498168	2549.019113
662.839456	2548.439380
663.180693	2550.816284
663.521879	2549.014072
663.863013	2549.765204
664.204097	2548.817467
664.545129	2548.898125
664.886110	2547.998279
665.227040	2546.997610
665.567918	2546.218752
665.908746	2547.249668
666.249522	2547.932744
666.590248	2547.907539
666.930922	2548.343598
667.271545	2550.823846
667.612118	2551.774104
667.952639	2548.580533
668.293109	2549.659340
668.633528	2548.870399
668.973896	2550.047508
669.314213	2546.473330
669.654480	2548.164637
669.994695	2548.865358
670.334859	2547.491643
670.674973	2548.885522
671.015035	2549.059442
671.355047	2547.315203
671.695008	2548.431819
672.034918	2546.916952
672.374777	2550.261757
672.714585	2547.214380
673.054342	2547.519370
673.394049	2549.621531
673.733705	2550.372663
674.073310	2549.956768
674.412864	2549.064483
674.752368	2552.540359
675.091820	2547.189174
675.431223	2548.993907
675.770574	2552.421892
676.109875	2549.624052
676.449125	2545.409647
676.788324	2547.138763
677.127473	2546.286808
677.466571	2544.358566
677.805619	2549.634134
678.144616	2547.375697
678.483562	2549.319062
678.822458	2548.247817
679.161303	2549.119936
679.500098	2550.692776
679.838842	2549.238403
680.177535	2551.451470
680.516179	2550.307128
680.854771	2549.185471
681.193314	2549.122457
681.531805	2548.512477
681.870247	2546.112888
682.208638	2550.581871
682.546978	2550.400389
682.885268	2549.195553
683.223508	2550.171017
683.561697	2546.251520
683.899836	2550.889381
684.237925	2550.395348
684.575963	2545.500388
684.913951	2548.880481
685.251889	2549.432488
685.589776	2547.300080
685.927614	2546.841335
686.265401	2548.000800
686.603137	2551.549772
686.940824	2549.656819
687.278460	2552.636141
687.616046	2551.093548
687.953582	2549.964329
688.291068	2548.184802
688.628504	2549.588763
688.965889	2549.659340
689.303224	2548.910728
689.640510	2548.819988
689.977745	2550.604556
690.314930	2550.191181
690.652065	2548.613300
690.989150	2549.976932
691.326185	2549.220759
691.663170	2548.124308
692.000105	2550.289484
692.336990	2548.245296
692.673825	2551.801830
693.010610	2546.347302
693.347345	2545.281097
693.684030	2546.100285
694.020665	2546.780841
694.357251	2543.824204
694.693786	2547.731098
695.030272	2548.567930
695.366707	2549.492982
695.703093	2548.373845
696.039429	2545.578526
696.375716	2548.971222
696.711952	2550.854093
697.048139	2548.184802
697.384276	2549.278733
697.720363	2548.716644
698.056400	2549.568599
698.392388	2550.337375
698.728326	2549.490461
699.064214	2546.659853
699.400053	2549.064483
699.735842	2546.546427
700.071581	2549.364432
700.407270	2549.205636
700.742910	2547.007693
701.078501	2548.893084
701.414042	2548.772097
701.749533	2548.157076
702.084974	2546.168341
702.420366	2548.199926
702.755709	2549.611449
703.091002	2549.969371
703.426246	2547.637837
703.761440	2548.436860
704.096584	2553.959444
704.431679	2547.219421
704.766725	2550.607077
705.101721	2548.474668
705.436668	2552.177396
705.771565	2550.123126
706.106413	2551.643034
706.441212	2547.441232
706.775961	2548.593136
707.110661	2545.923845
707.445311	2551.718651
707.779913	2550.808723
708.114465	2548.467107
708.448967	2550.463404
708.783421	2548.625903
709.117825	2549.130018
709.452180	2550.952396
709.786485	2550.423074
710.120742	2547.070707
710.454949	2544.159441
710.789107	2549.172868
711.123216	2544.356046
711.457275	2552.706717
711.791286	2549.901315
712.125247	2549.656819
712.459159	2550.309648
712.793023	2550.801161
713.126837	2549.366953
713.460602	2550.836449
713.794318	2549.369473
714.127985	2549.823177
714.461602	2550.478527
714.795171	2552.379042
715.128691	2548.371325
715.462162	2546.768238
715.795584	2550.299566
716.128957	2549.296377
716.462281	2551.169165
716.795556	2551.973229
717.128782	2547.892415
717.461960	2549.470296
717.795088	2549.177909
718.128167	2550.460883
718.461198	2547.655481
718.794180	2548.134391
719.127113	2544.797147
719.459997	2549.041798
719.792833	2549.203115
720.125619	2546.188505
720.458357	2550.196223
720.791046	2549.656819
721.123686	2548.837632
721.456278	2551.002807
721.788821	2549.674463
722.121315	2548.661191
722.453761	2549.281253
722.786158	2549.755122
723.118506	2548.885522
723.450805	2550.483568
723.783056	2549.039278
724.115259	2548.918290
724.447412	2546.037271
724.779518	2549.588763
725.111574	2550.801161
725.443582	2550.090358
725.775542	2546.261602
726.107453	2553.188147
726.439315	2549.031716
726.771129	2552.588250
727.102895	2548.489792
727.434612	2549.266130
727.766281	2544.240099
728.097901	2549.472817
728.429473	2549.485420
728.760996	2552.179917
729.092471	2549.803012
729.423897	2551.499361
729.755276	2550.120605
730.086606	2549.800492
730.417887	2547.761345
730.749120	2550.528939
731.080305	2549.654298
731.411442	2551.259906
731.742530	2554.453477
732.073570	2551.055739
732.404562	2551.890050
732.735506	2552.386604
733.066401	2552.119423
733.397249	2553.467931
733.728048	2554.030020
734.058798	2549.810574
734.389501	2550.445760
734.720156	2553.079762
735.050762	2548.469627
735.381320	2551.322920
735.711831	2549.228321
736.042293	2549.850903
736.372707	2549.707231
736.703073	2551.466593
737.033391	2548.280584
737.363661	2551.421223
737.693883	2549.208156
738.024056	2553.495658
738.354182	2550.652447
738.684260	2549.860986
739.014290	2551.537169
739.344272	2549.951727
739.674207	2549.815615
740.004093	2551.398538
740.333931	2551.151521
740.663722	2553.026830
740.993464	2554.201419
741.323159	2553.833415
741.652806	2550.856614
741.982405	2552.933569
742.311956	2550.995245
742.641460	2553.223435
742.970915	2551.196892
743.300323	2547.582384
743.629683	2547.131201
743.958996	2548.923331
744.288260	2544.963505
744.617477	2551.811912
744.946647	2551.489278
745.275768	2551.940462
745.604842	2551.022972
745.933869	2550.453321
746.262847	2548.759494
746.591778	2551.751418
746.920662	2550.349978
747.249498	2550.866696
747.578286	2549.760163
747.907027	2548.923331
748.235720	2552.532797
748.564365	2548.867878
748.892963	2551.945503
749.221514	2552.782334
749.550017	2550.269319
749.878473	2551.617828
750.206881	2551.486758
750.535242	2550.748229
750.863555	2551.547252
751.191821	2549.946685
751.520039	2552.696635
751.848210	2549.918959
752.176334	2550.415513
752.504411	2553.425082
752.832440	2548.794782
753.160421	2550.140770
753.488356	2551.655637
753.816243	2551.290153
754.144082	2551.048177
754.471875	2552.346275
754.799620	2549.709751
755.127318	2549.210677
755.454969	2551.587581
755.782572	2550.854093
756.110129	2551.103630
756.437638	2550.211346
756.765100	2552.159752
757.092515	2549.971891
757.419882	2549.840821
757.747203	2553.541028
758.074477	2552.099258
758.401703	2552.928528
758.728882	2552.172355
759.056014	2552.764690
759.383099	2552.452139
759.710138	2551.002807
760.037129	2546.438042
760.364073	2550.806202
760.690970	2549.064483
761.017820	2552.915925
761.344623	2552.663867
761.671379	2551.433826
761.998088	2552.973898
762.324751	2556.285936
762.651366	2551.375852
762.977935	2557.095042
763.304456	2562.516802
763.630931	2565.049982
763.957359	2564.722307
764.283740	2562.289951
764.610074	2560.444888
764.936362	2558.345248
765.262602	2557.548745
765.588796	2555.318035
765.914943	2552.777293
766.241044	2552.915925
766.567097	2552.253013
766.893104	2553.959444
767.219064	2552.038764
767.544978	2551.733774
767.870845	2553.367108
768.196665	2551.292673
768.522438	2552.605894
768.848165	2550.365101
769.173846	2551.476676
769.499479	2551.522046
769.825066	2552.005997
770.150607	2551.043136
770.476101	2549.513146
770.801548	2550.276881
771.126949	2550.314690
771.452303	2549.351829
771.777611	2552.983981
772.102872	2552.280740
772.428087	2548.971222
772.753256	2550.854093
773.078378	2548.845193
773.403453	2548.963660
773.728482	2548.192364
774.053465	2548.875440
774.378401	2550.037426
774.703291	2549.306459
775.028135	2550.271840
775.352932	2552.694114
775.677683	2548.399051
776.002388	2550.932231
776.327046	2546.158258
776.651658	2549.815615
776.976224	2543.738504
777.300743	2550.400389
777.625216	2549.097251
777.949643	2550.763352
778.274024	2550.352498
778.598359	2550.551624
778.922647	2551.680842
779.246889	2552.119423
779.571086	2547.620193
779.895236	2550.907025
780.219339	2548.164638
780.543397	2551.637992
780.867409	2548.681356
781.191374	2550.218908
781.515294	2548.847714
781.839167	2549.356870
782.162995	2546.458207
782.486776	2550.012220
782.810511	2546.185985
783.134201	2549.331665
783.457844	2549.021634
783.781441	2550.496171
784.104993	2549.674463
784.428498	2551.945503
784.751958	2550.070194
785.075372	2548.638506
785.398739	2549.465255
785.722061	2546.808567
786.045337	2547.804195
786.368568	2550.433157
786.691752	2551.758980
787.014891	2551.073383
787.337983	2549.586243
787.661030	2552.366439
787.984031	2550.599515
788.306987	2550.896943
788.629897	2551.058260
788.952760	2549.573640
789.275579	2552.351316
789.598351	2551.978270
789.921078	2550.954916
790.243759	2550.022303
790.566395	2550.226469
790.888984	2549.145142
791.211529	2548.822508
791.534027	2550.002138
791.856480	2546.385110
792.178888	2548.804864
792.501249	2543.559543
792.823566	2546.357384
793.145836	2542.805891
793.468062	2547.905018
793.790241	2546.720347
794.112375	2551.658157
794.434464	2547.738660
794.756507	2547.847045
795.078505	2548.807385
795.400457	2549.397200
795.722364	2552.227807
796.044226	2547.111036
796.366042	2551.254865
796.687812	2548.482230
797.009538	2550.470965
797.331218	2550.874258
797.652852	2549.606407
797.974442	2553.253682
798.295986	2549.276212
798.617484	2549.233362
798.938938	2550.518856
799.260346	2549.913918
799.581709	2548.525080
799.903026	2552.016079
800.224299	2549.649257
800.545526	2550.153373
800.866708	2547.481561
801.187845	2550.617159
801.508936	2548.595656
801.829983	2548.678835
802.150984	2547.857127
802.471940	2550.450801
802.792851	2549.921480
803.113717	2547.383259
803.434538	2550.710420
803.755314	2551.348126
804.076045	2545.568443
804.396731	2549.278732
804.717372	2549.619010
805.037967	2549.931562
805.358518	2550.309648
805.679024	2550.440718
805.999485	2547.781510
806.319901	2548.275543
806.640272	2549.233362
806.960598	2550.239072
807.280879	2548.270502
807.601115	2552.038764
807.921306	2546.606921
808.241453	2547.874771
808.561554	2547.390820
808.881611	2547.831921
809.201623	2545.094575
809.521590	2552.215205
809.841513	2548.643547
810.161390	2550.481048
810.481223	2550.024823
810.801011	2550.405430
811.120755	2549.150183
811.440453	2550.934752
811.760107	2548.474668
812.079716	2550.675132
812.399281	2549.596325
812.718801	2550.360060
813.038276	2548.220090
813.357707	2547.710934
813.677093	2549.349309
813.996434	2550.851572
814.315731	2550.012220
814.634983	2544.847558
814.954191	2550.407951
815.273354	2548.245296
815.592473	2548.716644
815.911547	2547.632796
816.230577	2552.913404
816.549562	2551.176727
816.868502	2550.133208
817.187399	2548.457024
817.506250	2548.648588
817.825058	2550.176058
818.143821	2551.801830
818.462539	2552.666388
818.781213	2552.613456
819.099843	2553.069680
819.418429	2552.978939
819.736970	2555.532284
820.055466	2554.866852
820.373919	2556.283416
820.692327	2560.727193
821.010691	2562.368088
821.329011	2570.199521
821.647286	2580.944740
821.965517	2597.409149
822.283704	2607.655294
822.601847	2617.858589
822.919945	2622.370422
823.237999	2614.811212
823.556010	2603.282093
823.873976	2596.395877
824.191897	2584.503795
824.509775	2576.042218
824.827609	2569.322360
825.145398	2564.104766
825.463144	2568.765313
825.780845	2568.551064
826.098502	2567.638615
826.416116	2573.705643
826.733685	2574.754203
827.051210	2582.565471
827.368692	2585.494382
827.686129	2580.856520
828.003522	2573.851837
828.320872	2566.902606
828.638177	2562.819272
828.955439	2560.321380
829.272656	2557.044630
829.589830	2555.121430
829.906960	2555.716286
830.224046	2554.113199
830.541088	2555.741492
830.858086	2554.541697
831.175041	2552.235369
831.491952	2551.456511
831.808819	2554.193857
832.125642	2554.647561
832.442421	2553.840977
832.759157	2554.413148
833.075849	2560.044117
833.392497	2566.078378
833.709101	2569.871846
834.025662	2568.956877
834.342179	2571.157340
834.658653	2565.556618
834.975083	2560.646534
835.291469	2562.700805
835.607811	2552.764690
835.924110	2556.540515
836.240366	2553.825853
836.556578	2552.265616
836.872746	2549.848383
837.188871	2550.977601
837.504952	2549.437529
837.820990	2547.804195
838.136984	2549.697148
838.452935	2547.879812
838.768842	2545.863351
839.084706	2547.242106
839.400526	2553.364588
839.716303	2549.273691
840.032037	2553.851059
840.347727	2552.736964
840.663373	2554.934907
840.978977	2550.249155
841.294537	2550.740667
841.610054	2550.032385
841.925527	2549.187992
842.240957	2550.740667
842.556344	2548.129349
842.871687	2548.411654
843.186987	2547.015254
843.502244	2547.698331
843.817458	2547.998279
844.132629	2547.925183
844.447756	2547.920142
844.762840	2545.870912
845.077881	2545.520552
845.392879	2548.081458
845.707833	2546.271684
846.022745	2551.942982
846.337613	2547.325285
846.652438	2547.564740
846.967221	2547.279915
847.281960	2545.659184
847.596656	2548.888043
847.911309	2546.324616
848.225919	2545.026519
848.540485	2545.518032
848.855009	2548.356201
849.169490	2545.399565
849.483928	2546.309493
849.798323	2545.097095
850.112675	2547.380738
850.426984	2545.341591
850.741251	2544.305634
851.055474	2545.820501
851.369654	2545.127342
851.683792	2545.908721
851.997887	2544.925696
852.311938	2544.764379
852.625947	2547.176571
852.939914	2546.054915
853.253837	2546.306972
853.567718	2543.410829
853.881555	2544.567774
854.195350	2544.242620
854.509103	2542.538710
854.822812	2545.291180
855.136479	2544.832435
855.450103	2546.178423
855.763685	2544.885367
856.077224	2544.608103
856.390720	2545.883515
856.704173	2542.543751
857.017584	2543.776313
857.330953	2545.999462
857.644278	2545.888557
857.957561	2545.533155
858.270802	2545.008875
858.584000	2546.538865
858.897155	2545.160110
859.210268	2544.557692
859.523339	2546.561551
859.836367	2545.928886
860.149352	2547.768907
860.462295	2542.863864
860.775195	2545.878474
861.088054	2543.632640
861.400869	2544.885367
861.713642	2544.277908
862.026373	2545.228165
862.339062	2546.312013
862.651708	2542.387475
862.964312	2545.608773
863.276873	2546.112888
863.589392	2544.776982
863.901869	2543.383103
864.214303	2544.466951
864.526696	2547.983156
864.839045	2544.570295
865.151353	2546.062476
865.463619	2546.024668
865.775842	2545.853268
866.088023	2547.978115
866.400162	2549.646737
866.712258	2544.560212
867.024313	2546.216232
867.336325	2546.606921
867.648296	2549.775286
867.960224	2545.150027
868.272110	2545.253371
868.583954	2546.561551
868.895755	2547.680687
869.207515	2546.866540
869.519233	2545.631458
869.830909	2545.402085
870.142542	2546.722868
870.454134	2545.515511
870.765684	2545.386962
871.077191	2546.743032
871.388657	2544.366128
871.700081	2541.394368
872.011463	2543.536858
872.322803	2542.614327
872.634101	2548.260419
872.945357	2545.737322
873.256571	2548.305790
873.567744	2545.245809
873.878874	2548.341078
874.189963	2546.906870
874.501010	2548.114226
874.812015	2545.018957
875.122979	2547.554658
875.433900	2547.176571
875.744780	2543.705737
876.055618	2545.404606
876.366415	2548.799823
876.677169	2543.735984
876.987882	2545.144986
877.298554	2547.879812
877.609183	2549.044319
877.919771	2549.855945
878.230317	2547.421067
878.540822	2551.615307
878.851285	2550.647406
879.161707	2550.397869
879.472087	2549.825698
879.782425	2555.232335
880.092722	2557.911708
880.402977	2562.141237
880.713191	2565.954869
881.023363	2569.856722
881.333494	2573.630026
881.643583	2575.364183
881.953631	2574.842424
882.263637	2573.388051
882.573602	2575.890984
882.883526	2574.731518
883.193408	2571.598441
883.503248	2563.204920
883.813048	2565.823799
884.122806	2561.342214
884.432522	2561.017059
884.742197	2557.546225
885.051831	2556.626214
885.361424	2555.113868
885.670975	2550.798640
885.980485	2553.795606
886.289954	2551.453990
886.599382	2550.952396
886.908768	2549.061963
887.218113	2545.807898
887.527417	2546.357384
887.836680	2542.105171
888.145901	2547.224462
888.455082	2547.584905
888.764221	2548.721685
889.073319	2547.935265
889.382376	2548.260419
889.691392	2548.535162
890.000366	2546.816129
890.309300	2547.897456
890.618193	2547.335368
890.927044	2545.679349
891.235855	2546.785882
891.544625	2546.377548
891.853353	2547.116078
892.162041	2546.312013
892.470687	2549.107333
892.779293	2545.578526
893.087858	2549.624052
893.396381	2550.423074
893.704864	2551.363250
894.013306	2552.578168
894.321707	2553.523384
894.630068	2556.812737
894.938387	2553.344423
895.246665	2553.306614
895.554903	2555.600339
895.863100	2553.712427
896.171256	2552.371480
896.479371	2550.874258
896.787446	2552.835267
897.095480	2551.847200
897.403473	2550.002138
897.711425	2545.341591
898.019336	2548.552806
898.327207	2545.918803
898.635038	2548.126829
898.942827	2543.972918
899.250576	2549.747560
899.558284	2545.495347
899.865952	2546.669935
900.173579	2546.695141
900.481165	2545.568443
900.788711	2544.976108
901.096216	2545.273536
901.403681	2546.982487
901.711105	2546.881664
902.018489	2544.391334
902.325832	2543.178936
902.633135	2542.324461
902.940397	2545.210521
903.247619	2542.639533
903.554800	2548.545245
903.861941	2553.203271
904.169041	2553.026830
904.476101	2555.368446
904.783121	2557.773077
905.090100	2555.426420
905.397039	2554.662685
905.703938	2550.907025
906.010796	2549.097251
906.317614	2549.271171
906.624391	2549.775286
906.931129	2545.049204
907.237826	2544.827394
907.544483	2544.532486
907.851099	2543.231868
908.157675	2544.550130
908.464211	2545.429812
908.770707	2544.582898
909.077163	2540.880170
909.383578	2544.411498
909.689954	2544.287990
909.996289	2542.677342
910.302584	2542.430325
910.608839	2544.242620
910.915054	2548.184802
911.221229	2542.987373
911.527363	2541.525438
911.833458	2543.473844
912.139513	2542.949564
912.445527	2544.043494
912.751502	2544.625748
913.057436	2543.551982
913.363331	2542.962167
913.669186	2545.414688
913.975000	2542.468134
914.280775	2544.446787
914.586510	2544.076262
914.892205	2545.031560
915.197859	2545.757487
915.503475	2549.245965
915.809050	2548.368804
916.114585	2552.941131
916.420081	2551.179248
916.725536	2552.772252
917.030952	2551.181768
917.336328	2550.844011
917.641665	2547.151366
917.946961	2545.240768
918.252218	2545.192877
918.557435	2541.843031
918.862612	2545.664225
919.167750	2544.519883
919.472848	2546.536345
919.777906	2543.511652
920.082925	2543.239430
920.387904	2543.572146
920.692843	2544.562733
920.997743	2543.012578
921.302603	2546.299411
921.607423	2541.162475
921.912204	2545.102137
922.216946	2543.284801
922.521647	2543.206663
922.826310	2542.652136
923.130932	2540.214738
923.435516	2542.442928
923.740059	2542.773123
924.044564	2545.316386
924.349028	2544.093906
924.653454	2542.876467
924.957840	2544.673638
925.262186	2539.703061
925.566493	2543.408309
925.870761	2542.508463
926.174989	2541.840510
926.479178	2543.499050
926.783328	2544.098947
927.087438	2540.393699
927.391509	2544.071221
927.695541	2541.976621
927.999533	2540.691127
928.303486	2543.678011
928.607400	2541.732125
928.911275	2541.724563
929.215110	2545.689431
929.518906	2540.761703
929.822663	2541.412012
930.126381	2538.702392
930.430060	2539.733308
930.733699	2543.196580
931.037299	2542.619368
931.340861	2544.403937
931.644383	2539.584594
931.947866	2541.316230
932.251309	2542.952084
932.554714	2542.049718
932.858080	2537.701723
933.161407	2537.968904
933.464694	2539.735828
933.767943	2537.510159
934.071153	2540.355890
934.374323	2540.625592
934.677455	2539.869419
934.980548	2539.652649
935.283602	2539.181301
935.586617	2539.849254
935.889593	2542.546272
936.192530	2542.523586
936.495428	2544.114070
936.798287	2542.425284
937.101108	2541.185160
937.403890	2539.889583
937.706632	2540.832279
938.009336	2538.833462
938.312002	2542.079965
938.614628	2540.134079
938.917216	2542.062321
939.219765	2540.242464
939.522275	2542.994934
939.824747	2542.150541
940.127179	2541.457382
940.429573	2543.912424
940.731929	2542.276570
941.034246	2541.706919
941.336524	2541.109543
941.638763	2539.987886
941.940964	2541.278421
942.243126	2540.050900
942.545250	2542.339584
942.847335	2542.052238
943.149381	2538.115097
943.451389	2538.669624
943.753359	2542.478216
944.055290	2540.217258
944.357182	2542.137938
944.659036	2541.434697
944.960851	2540.184491
945.262628	2541.061652
945.564367	2542.498381
945.866067	2541.404450
946.167729	2540.456713
946.469352	2540.769265
946.770937	2541.669111
947.072484	2537.772299
947.373992	2538.059645
947.675462	2539.670293
947.976893	2537.182484
948.278286	2538.427649
948.579641	2538.110056
948.880958	2536.028060
949.182236	2541.843031
949.483476	2541.409491
949.784678	2539.617361
950.085841	2541.548123
950.386967	2539.745911
950.688054	2539.496373
950.989103	2542.465613
951.290114	2540.595345
951.591087	2540.239944
951.892021	2541.742207
952.192917	2540.902855
952.493776	2540.287835
952.794596	2540.842362
953.095378	2541.790098
953.396122	2542.246323
953.696828	2541.157434
953.997496	2541.288504
954.298126	2541.207845
954.598718	2541.709440
954.899272	2539.370345
955.199788	2543.758669
955.500266	2541.114584
955.800706	2538.485622
956.101108	2542.145500
956.401472	2542.868905
956.701798	2542.447969
957.002087	2539.526620
957.302337	2537.978986
957.602550	2541.578370
957.902724	2541.364121
958.202861	2538.137782
958.502960	2538.929244
958.803022	2541.487629
959.103045	2540.310520
959.403031	2537.915972
959.702979	2540.403781
960.002889	2538.470499
960.302762	2540.461754
960.602596	2540.587783
960.902393	2539.995448
961.202153	2538.299099
961.501875	2538.909079
961.801559	2538.588966
962.101205	2541.013761
962.400814	2541.016281
962.700385	2541.447300
962.999918	2539.284645
963.299414	2534.913965
963.598873	2538.823379
963.898293	2535.060158
964.197677	2539.584594
964.497022	2539.055272
964.796331	2541.782537
965.095601	2538.939326
965.394835	2541.167516
965.694030	2540.978473
965.993189	2540.192053
966.292309	2539.375386
966.591393	2537.978986
966.890439	2539.405633
967.189447	2537.820190
967.488419	2540.471837
967.787353	2539.082999
968.086249	2540.066024
968.385108	2540.328164
968.683930	2539.065355
968.982714	2541.870757
969.281462	2538.866229
969.580172	2540.161806
969.878844	2541.202804
970.177480	2539.614841
970.476078	2538.094933
970.774639	2539.700540
971.073162	2536.385982
971.371649	2539.236754
971.670098	2539.239275
971.968510	2540.297917
972.266885	2540.567619
972.565223	2538.964532
972.863524	2539.251878
973.161788	2541.275901
973.460014	2540.570139
973.758204	2542.064841
974.056356	2537.673996
974.354471	2541.049049
974.652550	2536.640560
974.950591	2540.340767
975.248595	2540.003009
975.546563	2538.397402
975.844493	2540.827238
976.142386	2540.194573
976.440243	2538.530993
976.738062	2541.096940
977.035845	2538.992258
977.333590	2540.000489
977.631299	2538.208359
977.928971	2537.421939
978.226606	2538.228523
978.524204	2536.048224
978.821765	2536.174253
979.119290	2539.448482
979.416777	2539.740869
979.714228	2538.556198
980.011642	2539.871939
980.309020	2541.482588
980.606360	2539.181301
980.903664	2537.948739
981.200931	2539.082999
981.498162	2539.103163
981.795356	2538.571322
982.092513	2539.846734
982.389633	2540.401261
982.686717	2542.148020
982.983764	2539.640046
983.280775	2543.032743
983.577749	2539.796322
983.874686	2540.189532
984.171587	2537.006043
984.468451	2538.168029
984.765279	2541.127187
985.062070	2536.716177
985.358824	2540.955788
985.655543	2538.805735
985.952224	2540.411343
986.248869	2538.142824
986.545478	2542.158103
986.842050	2539.534182
987.138586	2540.701209
987.435086	2538.137783
987.731549	2540.328164
988.027975	2540.068544
988.324366	2538.863709
988.620719	2538.636857
988.917037	2537.966383
989.213318	2537.084181
989.509563	2538.992258
989.805772	2537.520241
990.101944	2539.307330
990.398080	2538.573842
990.694180	2537.457227
990.990244	2537.777340
991.286271	2538.503266
991.582262	2540.285314
991.878217	2539.335057
992.174136	2540.865047
992.470019	2537.646270
992.765865	2537.570653
993.061676	2533.699047
993.357450	2537.898328
993.653188	2535.415559
993.948890	2538.223482
994.244556	2536.731301
994.540186	2539.135931
994.835780	2539.854295
995.131337	2535.435724
995.426859	2538.594007
995.722345	2537.449665
996.017795	2539.130890
996.313208	2541.812784
996.608586	2540.212217
996.903928	2539.314892
997.199234	2537.689120
997.494504	2539.831610
997.789738	2539.395550
998.084936	2543.131045
998.380099	2538.785571
998.675225	2540.759183
998.970316	2540.915458
999.265371	2538.906558
999.560390	2538.767927
999.855373	2538.704912
1000.150320	2539.619882
1000.445232	2538.828421
1000.740108	2538.601569
1001.034948	2537.091743
1001.329752	2538.183153
1001.624521	2540.791950
1001.919254	2537.159799
1002.213951	2539.501415
1002.508613	2538.896476
1002.803239	2535.718029
1003.097829	2538.437731
1003.392384	2540.592824
1003.686903	2539.133410
1003.981386	2536.847247
1004.275834	2538.740200
1004.570246	2539.645087
1004.864623	2538.833462
1005.158964	2540.497043
1005.453270	2537.880684
1005.747540	2538.110056
1006.041775	2539.965201
1006.335974	2537.759696
1006.630138	2540.214738
1006.924266	2539.798843
1007.218359	2540.194573
1007.512416	2532.748789
1007.806438	2534.868594
1008.100425	2535.738193
1008.394376	2533.812473
1008.688292	2538.273894
1008.982172	2538.830941
1009.276017	2538.377237
1009.569827	2537.474871
1009.863602	2537.426980
1010.157341	2537.855478
1010.451045	2536.363296
1010.744714	2538.828421
1011.038347	2539.483771
1011.331945	2537.837834
1011.625508	2539.216589
1011.919036	2537.358924
1012.212528	2539.004861
1012.505986	2538.687268
1012.799408	2538.115097
1013.092795	2538.929244
1013.386147	2539.067875
1013.679464	2539.380427
1013.972745	2539.425797
1014.265992	2539.037628
1014.559204	2539.103163
1014.852380	2538.241126
1015.145521	2537.754655
1015.438628	2539.614841
1015.731699	2537.850437
1016.024736	2537.709284
1016.317737	2538.803215
1016.610703	2537.663914
1016.903635	2538.662062
1017.196531	2537.994110
1017.489393	2539.869419
1017.782219	2541.555685
1018.075011	2537.449665
1018.367768	2538.349511
1018.660490	2539.473688
1018.953177	2539.473688
1019.245829	2539.473688
