Dividing Wavelength (nm)	Counts (n)	Blue Motor Position (mm): 0.000000	Red Motor Position (mm): 39.400000	
326.493990	2130.149640
326.888308	2130.149640
327.282561	2130.149640
327.676750	2095.892479
328.070874	2096.802407
328.464933	2097.417428
328.858929	2103.136617
329.252859	2113.465941
329.646726	2124.362395
330.040528	2139.879067
330.434265	2155.322642
330.827938	2172.666732
331.221547	2191.114834
331.615091	2211.002186
332.008571	2225.987016
332.401986	2247.416961
332.795338	2268.156268
333.188625	2285.719648
333.581847	2307.734367
333.975006	2324.387818
334.368100	2341.379027
334.761129	2360.888293
335.154095	2376.331868
335.546996	2397.971020
335.939833	2415.075655
336.332606	2431.991247
336.725315	2444.137907
337.117960	2452.551593
337.510540	2463.042234
337.903056	2473.127063
338.295508	2479.355408
338.687896	2487.937973
339.080220	2497.095228
339.472480	2504.208297
339.864676	2508.541168
340.256807	2512.652229
340.648875	2514.885460
341.040879	2521.078518
341.432818	2521.068436
341.824694	2524.922398
342.216506	2524.856863
342.608253	2522.868127
342.999937	2523.284023
343.391557	2525.527336
343.783113	2522.059022
344.174605	2521.746471
344.566033	2520.017355
344.957397	2518.172293
345.348697	2516.992663
345.739934	2512.253978
346.131106	2514.530059
346.522215	2511.293638
346.913260	2509.234327
347.304241	2509.136024
347.695159	2503.409274
348.086012	2505.110663
348.476802	2501.657473
348.867528	2502.746362
349.258191	2497.841319
349.648789	2499.983810
350.039324	2494.930053
350.429796	2497.725373
350.820203	2493.901658
351.210548	2496.328973
351.600828	2491.444095
351.991045	2492.603560
352.381198	2491.955772
352.771288	2492.739672
353.161314	2490.763539
353.551276	2492.296050
353.941175	2491.071050
354.331010	2492.734630
354.720782	2493.256390
355.110490	2492.359064
355.500135	2489.372181
355.889717	2491.741523
356.279235	2489.483086
356.668689	2494.428458
357.058080	2494.133551
357.447408	2492.626246
357.836672	2488.605925
358.225873	2491.247490
358.615010	2487.504433
359.004084	2493.485762
359.393095	2493.846205
359.782043	2495.434168
360.170927	2494.206647
360.559748	2498.736124
360.948505	2498.942811
361.337199	2499.056237
361.725830	2500.084633
362.114398	2499.714108
362.502903	2498.652945
362.891344	2499.625888
363.279722	2502.516989
363.668037	2503.121928
364.056289	2502.998420
364.444478	2502.103615
364.832603	2503.036228
365.220665	2505.282062
365.608665	2505.052690
365.996601	2508.490757
366.384474	2508.064779
366.772284	2511.913700
367.160031	2510.131652
367.547715	2510.963443
367.935336	2513.184071
368.322893	2519.019207
368.710388	2518.691532
369.097820	2527.604292
369.485189	2531.163346
369.872495	2536.890097
370.259738	2541.565767
370.646918	2549.109854
371.034035	2557.669733
371.421090	2569.254305
371.808081	2580.909452
372.195010	2588.519074
372.581875	2600.539705
372.968678	2612.588063
373.355418	2622.327572
373.742096	2643.586118
374.128710	2657.847542
374.515262	2668.736435
374.901751	2688.492717
375.288177	2699.058975
375.674540	2720.224259
376.060841	2739.887280
376.447079	2761.992740
376.833254	2780.554268
377.219367	2795.647483
377.605417	2833.756085
377.991404	2838.774554
378.377329	2861.913450
378.763191	2879.776779
379.148991	2917.915628
379.534727	2942.990327
379.920402	2971.424956
380.306013	2985.255361
380.691563	3034.721683
381.077049	3057.792524
381.462474	3070.183680
381.847835	3111.901749
382.233134	3134.781025
382.618371	3135.239770
383.003545	3201.788042
383.388657	3207.555122
383.773706	3241.960997
384.158693	3256.860128
384.543618	3285.274591
384.928480	3319.342709
385.313280	3365.194524
385.698017	3365.403732
386.082692	3419.810384
386.467305	3423.059408
386.851856	3456.078966
387.236344	3479.827842
387.620770	3511.037625
388.005133	3535.618291
388.389435	3565.643403
388.773674	3578.140424
389.157851	3616.914459
389.541965	3632.259731
389.926018	3597.533743
390.310008	3670.146523
390.693936	3686.565561
391.077802	3728.170203
391.461606	3717.460272
391.845348	3782.473513
392.229027	3781.162813
392.612645	3790.194040
392.996200	3872.513562
393.379694	3908.739293
393.763125	3975.030466
394.146494	3942.933440
394.529801	4003.505424
394.913047	4049.405129
395.296230	4018.545706
395.679351	4074.888162
396.062410	4097.585957
396.445408	4077.486877
396.828343	4114.478864
397.211217	4132.213643
397.594028	4054.516859
397.976778	4119.169658
398.359466	4148.920027
398.742092	4180.656611
399.124656	4102.241463
399.507158	4181.460675
399.889598	4203.215774
400.271977	4266.454529
400.654294	4240.416969
401.036549	4248.387033
401.418742	4216.053073
401.800874	4318.358249
402.182944	4335.752750
402.564952	4403.710025
402.946898	4393.075711
403.328783	4390.827356
403.710606	4301.591371
404.092367	4497.803161
404.474067	4460.012151
404.855705	4467.762925
405.237282	4394.547728
405.618797	4504.417155
406.000250	4538.215571
406.381642	4620.230103
406.762972	4578.975820
407.144240	4590.000824
407.525447	4590.429322
407.906593	4655.072038
408.287677	4693.732647
408.668700	4621.082058
409.049661	4672.176673
409.430560	4713.062951
409.811399	4640.523268
410.192176	4803.095438
410.572891	4742.135285
410.953545	4849.564794
411.334138	4731.584150
411.714669	4793.406340
412.095139	4687.688303
412.475547	4825.984797
412.855894	4809.568280
413.236180	4819.065813
413.616405	4771.575624
413.996568	4862.881002
414.376670	4801.172238
414.756711	4755.189353
415.136691	4789.156648
415.516609	4869.878124
415.896466	4904.893978
416.276262	4938.798258
416.655997	4921.507101
417.035670	5097.783648
417.415283	5190.830745
417.794834	5141.586234
418.174324	5089.465744
418.553753	4993.610724
418.933121	5179.967058
419.312428	5249.585393
419.691674	5186.397050
420.070859	5314.568387
420.449983	5228.422629
420.829045	5342.453529
421.208047	5245.587758
421.586988	5323.322350
421.965867	5331.972970
422.344686	5463.232014
422.723444	5320.421166
423.102141	5138.299401
423.480777	5440.486327
423.859352	5205.162745
424.237866	5461.780161
424.616319	5459.998113
424.994712	5569.398714
425.373044	5443.105207
425.751314	5585.941260
426.129524	5386.903903
426.507673	5584.070992
426.885762	5666.589639
427.263789	5594.266726
427.641756	5480.210620
428.019662	5601.752839
428.397508	5608.200475
428.775292	5547.966248
429.153016	5652.527341
429.530679	5576.889868
429.908282	5660.555378
430.285824	5538.761101
430.663305	5810.360826
431.040726	5545.120517
431.418086	5538.909815
431.795385	5651.108256
432.172624	5660.749462
432.549802	5653.089429
432.926920	5666.919835
433.303977	5678.721176
433.680974	5720.300613
434.057910	5732.946347
434.434786	5742.343058
434.811601	5709.741916
435.188355	5943.041475
435.565050	5822.275593
435.941683	5801.513601
436.318257	6017.436303
436.694770	5996.870916
437.071222	6029.741759
437.447614	5959.672242
437.823946	5878.257607
438.200218	6029.698910
438.576429	5894.210338
438.952580	5996.543241
439.328670	6038.709972
439.704700	5944.016938
440.080670	5933.370021
440.456580	6204.279108
440.832429	6086.374082
441.208218	5933.133087
441.583947	6086.316108
441.959616	6090.880873
442.335224	6024.327560
442.710773	6156.748589
443.086261	6185.750348
443.461689	5981.812989
443.837057	6129.201204
444.212365	6283.629391
444.587612	6174.463204
444.962800	6327.489950
445.337927	6313.510830
445.712995	5915.725983
446.088002	6497.119735
446.462949	6325.329815
446.837837	6258.287510
447.212664	6436.540190
447.587431	6570.667649
447.962139	7112.543797
448.336786	8041.429325
448.711374	7779.808564
449.085901	6855.757502
449.460369	6777.347395
449.834776	6712.215688
450.209124	7100.787826
450.583412	7259.211127
450.957640	7398.127683
451.331808	7162.259656
451.705917	6719.054013
452.079965	6641.541231
452.453954	6855.898655
452.827883	6730.880560
453.201752	6820.595454
453.575562	6625.102029
453.949311	6828.752041
454.323001	6713.077725
454.696632	6785.834178
455.070202	6927.740138
455.443713	7081.550783
455.817164	7182.338572
456.190556	7265.177332
456.563888	7335.042684
456.937160	7386.782566
457.310373	7039.608383
457.683526	7066.157620
458.056619	6953.886082
458.429653	6942.435102
458.802628	6878.931687
459.175542	6983.099569
459.548398	7342.501071
459.921194	7500.740369
460.293930	7503.081985
460.666607	8034.706947
461.039224	8344.621962
461.411782	8471.182649
461.784280	8484.526584
462.156719	8380.038588
462.529099	8257.984692
462.901419	7844.579829
463.273680	7738.997903
463.645882	7757.443485
464.018024	7619.222608
464.390106	7787.324924
464.762130	8171.007144
465.134094	8637.689440
465.505999	9660.804216
465.877845	10889.340970
466.249631	11536.380628
466.621358	11153.139510
466.993026	10519.831955
467.364634	10262.886864
467.736184	9902.454447
468.107674	9578.693902
468.479105	9601.111914
468.850477	9366.670533
469.221790	9140.446234
469.593043	8811.692427
469.964238	8673.095984
470.335373	8685.472017
470.706449	8742.139627
471.077467	8722.075835
471.448425	10037.685919
471.819324	11111.625608
472.190164	11137.993363
472.560945	9885.680007
472.931667	9092.756919
473.302330	8961.697001
473.672934	8604.901776
474.043479	8960.083832
474.413965	8902.513855
474.784393	8779.136656
475.154761	8936.773536
475.525070	9029.898771
475.895321	8853.218932
476.265513	9034.987816
476.635645	9196.518988
477.005719	9201.406387
477.375734	9309.796236
477.745691	9549.311537
478.115588	9687.910501
478.485427	9928.849928
478.855207	10463.655857
479.224928	11285.918461
479.594591	11909.599933
479.964194	11719.934081
480.333739	11664.942654
480.703226	11578.562483
481.072653	11673.384066
481.442022	11909.443657
481.811333	12092.777819
482.180584	11907.119685
482.549777	11613.558173
482.918912	11433.374732
483.287988	11460.604524
483.657005	11473.933335
484.025964	11154.735035
484.394864	11280.577359
484.763706	11252.838410
485.132489	11012.511482
485.501213	10975.680812
485.869879	11047.630681
486.238487	10885.194621
486.607036	10996.732671
486.975527	10777.689495
487.343959	10967.471293
487.712333	11020.965497
488.080648	10943.470360
488.448905	10989.160858
488.817104	10924.644171
489.185244	11195.384379
489.553326	11351.750889
489.921350	11883.312836
490.289315	12946.814816
490.657222	13294.137713
491.025070	13202.509701
491.392861	13073.269640
491.760593	12695.455323
492.128267	12351.764578
492.495883	12019.343331
492.863440	11682.077536
493.230939	11342.160094
493.598380	11278.606267
493.965763	11146.386884
494.333088	11056.372041
494.700354	10970.967333
495.067563	11035.118537
495.434713	10857.939623
495.801805	10989.740590
496.168839	10909.997098
496.535815	10850.713129
496.902733	10847.317912
497.269593	10776.023394
497.636395	10875.261028
498.003139	10866.824657
498.369825	10733.823895
498.736453	10887.369879
499.103023	10818.600979
499.469535	10845.924033
499.835989	10834.830974
500.202385	10796.089707
500.568723	10646.163271
500.935003	10874.162056
501.301226	10674.252580
501.667390	10935.250758
502.033497	11030.556293
502.399546	10893.021013
502.765537	10798.270006
503.131470	10871.379339
503.497345	11042.211440
503.863163	10658.123408
504.228923	10970.836263
504.594625	11032.038392
504.960269	10782.473550
505.325856	11002.540080
505.691385	10798.718668
506.056856	10950.417070
506.422270	10978.246760
506.787625	10863.429440
507.152924	10981.967131
507.518164	10960.355705
507.883347	10880.765968
508.248472	10797.019799
508.613540	11036.956037
508.978550	10919.406412
509.343503	10886.691844
509.708398	11013.179435
510.073236	11120.314037
510.438016	11127.180088
510.802738	11076.042624
511.167403	11130.361056
511.532010	11022.308965
511.896561	11258.199677
512.261053	11328.637199
512.625488	11197.047960
512.989866	11178.632625
513.354186	11166.322127
513.718449	11066.441746
514.082655	11260.039698
514.446803	11163.035295
514.810894	11282.770261
515.174927	11151.246557
515.538904	11172.064002
515.902822	11328.213742
516.266684	11207.389887
516.630488	11149.000723
516.994235	11204.957530
517.357925	11273.723910
517.721558	11362.133146
518.085133	11378.617719
518.448651	11387.532999
518.812112	11267.765266
519.175516	11282.767740
519.538863	11397.751418
519.902152	11318.081023
520.265385	11477.343676
520.628560	11385.030066
520.991678	11369.684794
521.354739	11422.558936
521.717743	11357.119718
522.080690	11337.446615
522.443580	11474.019035
522.806413	11421.749831
523.169189	11455.311313
523.531908	11518.063596
523.894569	11332.667601
524.257174	11338.502737
524.619722	11456.652260
524.982213	11399.682180
525.344647	11458.025974
525.707025	11404.211657
526.069345	11498.703044
526.431608	11409.608212
526.793815	11530.311079
527.155964	11315.366361
527.518057	11364.600790
527.880093	11318.469192
528.242072	11391.452496
528.603995	11291.612444
528.965860	11211.216123
529.327669	11261.622620
529.689421	11212.728469
530.051117	11176.676657
530.412755	11282.929057
530.774337	11179.960969
531.135862	11156.570015
531.497331	11178.078098
531.858743	11032.439163
532.220098	11201.685822
532.581396	11070.756974
532.942638	11053.307020
533.303824	11015.659683
533.664953	11030.097547
534.026025	10944.382809
534.387040	11039.544670
534.747999	11041.634228
535.108902	11098.503485
535.469748	10849.697337
535.830537	10965.656478
536.191270	10943.442633
536.551947	10963.599687
536.912567	10960.701024
537.273131	10886.467513
537.633638	10858.584891
537.994089	10852.013747
538.354483	10797.715479
538.714821	10943.447675
539.075103	10944.791142
539.435328	10916.386761
539.795497	10744.677499
540.155609	10900.751622
540.515665	10992.614048
540.875665	10728.717206
541.235609	10791.787082
541.595496	10783.156626
541.955328	10944.592017
542.315102	10827.249078
542.674821	10774.405183
543.034483	10784.588314
543.394090	10785.979672
543.753640	10708.522344
544.113134	10925.511249
544.472571	10788.167533
544.831953	10930.426374
545.191278	10737.597198
545.550548	10758.212997
545.909761	10896.605273
546.268918	10875.102231
546.628019	10952.148706
546.987064	10815.236009
547.346053	10739.661551
547.704986	10836.436581
548.063863	10820.806484
548.422684	10813.738786
548.781449	10732.188040
549.140158	10824.037863
549.498811	10699.619666
549.857408	10560.060363
550.215949	10785.934302
550.574434	10637.489965
550.932864	10731.036137
551.291237	10793.884202
551.649555	10743.016439
552.007817	10752.264436
552.366022	10716.328570
552.724173	10702.377177
553.082267	10692.030209
553.440305	10818.971504
553.798288	10620.561771
554.156215	10775.252097
554.514086	10749.733776
554.871902	10597.871537
555.229661	10635.382763
555.587365	10614.862746
555.945014	10509.585810
556.302606	10632.032916
556.660143	10522.458396
557.017625	10673.060347
557.375050	10565.010776
557.732421	10704.756602
558.089735	10611.172622
558.446994	10607.129616
558.804197	10639.753443
559.161345	10644.633280
559.518437	10489.859775
559.875474	10578.246325
560.232455	10602.264903
560.589381	10552.453262
560.946251	10542.335666
561.303065	10648.520010
561.659825	10581.772613
562.016528	10505.293267
562.373177	10383.347756
562.729770	10501.827474
563.086307	10409.476056
563.442789	10499.397638
563.799216	10374.286282
564.155587	10415.202807
564.511904	10367.435354
564.868164	10353.914979
565.224370	10365.534839
565.580520	10290.114136
565.936615	10287.772520
566.292654	10152.707406
566.648638	10275.109142
567.004567	10227.253468
567.360441	10206.176404
567.716260	10116.970666
568.072023	10205.480725
568.427732	10147.769596
568.783385	10057.195184
569.138982	10113.081416
569.494525	10130.743098
569.850013	10001.039251
570.205445	10069.006608
570.560823	9964.805958
570.916145	9876.613492
571.271412	9942.040107
571.626625	9881.301765
571.981782	9842.646197
572.336884	9814.879522
572.691931	9813.493205
573.046923	9758.587477
573.401860	9709.842040
573.756743	9634.166759
574.111570	9666.462912
574.466342	9648.720571
574.821059	9663.891923
575.175722	9555.923011
575.530330	9552.142145
575.884882	9538.770485
576.239380	9453.917783
576.593823	9432.379453
576.948211	9431.782077
577.302544	9311.790012
577.656823	9310.166761
578.011047	9306.307757
578.365216	9262.875696
578.719330	9186.655971
579.073389	9178.151544
579.427394	9126.391497
579.781344	9090.621990
580.135239	9027.514306
580.489080	9026.125468
580.842866	8919.421885
581.196597	8911.655987
581.550273	8943.044732
581.903895	8891.307370
582.257463	8940.690513
582.610975	8807.851068
582.964434	8825.716917
583.317837	8735.245850
583.671186	8712.111995
584.024481	8692.176752
584.377721	8602.991178
584.730906	8570.460613
585.084037	8577.278773
585.437113	8511.791664
585.790135	8509.896190
586.143103	8403.653873
586.496016	8369.613482
586.848874	8403.351404
587.201679	8377.434832
587.554428	8255.489320
587.907124	8282.537631
588.259765	8243.382989
588.612352	8224.584527
588.964884	8100.864529
589.317362	8095.021832
589.669786	8074.315292
590.022155	8109.167309
590.374470	8096.879497
590.726731	8031.420114
591.078937	7881.423102
591.431090	7958.159546
591.783188	7830.262952
592.135232	7804.578273
592.487222	7801.472923
592.839157	7821.309863
593.191038	7744.649037
593.542866	7677.163110
593.894639	7569.098416
594.246358	7598.846264
594.598022	7589.603309
594.949633	7488.780232
595.301190	7450.192720
595.652692	7454.150026
596.004141	7526.692229
596.355535	7324.748647
596.706876	7286.937473
597.058162	7214.445681
597.409395	7260.983092
597.760573	7293.586755
598.111698	7201.164761
598.462768	7170.784247
598.813785	7129.845037
599.164748	7076.774290
599.515657	7055.397277
599.866511	6955.695857
600.217312	7043.099382
600.568060	6909.672643
600.918753	6975.031202
601.269392	6923.651762
601.619978	6838.025244
601.970510	6867.389965
602.320988	6846.754002
602.671412	6862.626074
603.021783	6795.490508
603.372100	6760.804849
603.722363	6730.724284
604.072572	6698.443255
604.422728	6685.731986
604.772830	6611.455625
605.122878	6596.148162
605.472872	6573.422640
605.822813	6570.239151
606.172701	6510.496437
606.522534	6541.698659
606.872314	6528.894128
607.222041	6475.478062
607.571714	6496.280383
607.921333	6443.638134
608.270899	6428.696154
608.620411	6469.108564
608.969870	6383.182097
609.319276	6353.252766
609.668627	6345.479307
610.017926	6351.904258
610.367171	6353.028435
610.716362	6315.600388
611.065500	6287.828672
611.414585	6272.450632
611.763616	6254.453713
612.112594	6213.030552
612.461518	6201.360280
612.810389	6220.723352
613.159207	6155.226161
613.507971	6098.394713
613.856682	6150.220295
614.205340	6096.010247
614.553945	6125.261542
614.902496	6033.371390
615.250994	6044.834974
615.599439	6010.371126
615.947830	5995.696327
616.296169	5951.767712
616.644454	5935.663746
616.992686	5913.104583
617.340864	5920.578093
617.688990	5842.835939
618.037063	5875.482452
618.385082	5822.048742
618.733048	5837.275547
619.080961	5789.432476
619.428821	5780.673471
619.776628	5749.302371
620.124382	5702.205391
620.472083	5669.508467
620.819731	5661.717364
621.167326	5572.093210
621.514868	5561.600049
621.862357	5483.729345
622.209793	5473.092511
622.557176	5412.379374
622.904506	5374.064084
623.251783	5324.948122
623.599007	5272.973826
623.946179	5259.902114
624.293297	5212.227923
624.640363	5152.707019
624.987376	5118.102018
625.334336	5080.989044
625.681243	5024.548285
626.028097	5003.067929
626.374899	4978.361234
626.721647	4944.235143
627.068343	4894.932658
627.414987	4865.323441
627.761577	4820.946164
628.108115	4824.427081
628.454600	4754.649950
628.801032	4750.622068
629.147412	4725.202049
629.493739	4695.265157
629.840014	4652.992562
630.186236	4656.355011
630.532405	4590.948561
630.878521	4596.695476
631.224585	4556.272984
631.570597	4508.782794
631.916556	4506.010160
632.262462	4487.892253
632.608316	4454.330771
632.954117	4424.446811
633.299866	4407.276641
633.645562	4384.286459
633.991206	4337.791897
634.336797	4300.363850
634.682336	4263.573509
635.027823	4228.010690
635.373257	4211.931929
635.718639	4164.638345
636.063968	4156.592663
636.409245	4099.088221
636.754470	4081.398812
637.099642	4052.039132
637.444762	4014.721991
637.789829	4001.541894
638.134845	3969.525526
638.479808	3944.468471
638.824719	3935.462450
639.169577	3894.850914
639.514383	3887.289183
639.859137	3851.197042
640.203839	3845.051876
640.548489	3819.770489
640.893086	3802.897748
641.237632	3781.634161
641.582125	3773.255763
641.926566	3746.872884
642.270955	3744.848861
642.615292	3734.310329
642.959576	3720.890777
643.303809	3709.732183
643.647990	3697.353630
643.992118	3683.795447
644.336195	3660.185203
644.680219	3652.820077
645.024192	3639.907161
645.368112	3656.046415
645.711981	3646.790857
646.055797	3663.769463
646.399562	3642.536123
646.743274	3662.418434
647.086935	3673.138447
647.430544	3664.074453
647.774101	3648.194818
648.117606	3647.050476
648.461059	3631.516161
648.804460	3606.204527
649.147810	3571.465936
649.491108	3547.759910
649.834354	3527.295346
650.177548	3496.198989
650.520690	3461.563741
650.863781	3444.827110
651.206820	3437.628343
651.549807	3408.286307
651.892742	3382.314282
652.235626	3372.219372
652.578458	3360.710417
652.921238	3327.428720
653.263967	3327.408555
653.606644	3309.918272
653.949269	3298.547949
654.291843	3278.932820
654.634365	3278.940381
654.976836	3259.471445
655.319255	3254.153028
655.661622	3237.434041
656.003938	3225.680591
656.346203	3216.798078
656.688416	3211.036039
657.030577	3193.074408
657.372687	3182.460258
657.714746	3170.091787
658.056753	3171.997344
658.398708	3148.462717
658.740612	3144.921306
659.082465	3143.797129
659.424266	3133.709780
659.766016	3124.607977
660.107715	3118.480454
660.449362	3115.480968
660.790958	3105.693568
661.132503	3095.457505
661.473996	3097.244594
661.815438	3087.742019
662.156829	3081.364959
662.498168	3072.520255
662.839456	3065.744944
663.180693	3061.344017
663.521879	3053.860424
663.863013	3049.499826
664.204097	3044.234341
664.545129	3045.134187
664.886110	3036.047507
665.227040	3033.181611
665.567918	3029.773791
665.908746	3026.713810
666.249522	3020.361957
666.590248	3014.060514
666.930922	3010.100688
667.271545	3009.616737
667.612118	3002.531395
667.952639	2991.632421
668.293109	2987.286946
668.633528	2978.343939
668.973896	2970.794811
669.314213	2963.074284
669.654480	2955.207564
669.994695	2948.911163
670.334859	2938.415480
670.674973	2935.174018
671.015035	2931.761157
671.355047	2923.135743
671.695008	2919.559044
672.034918	2913.247520
672.374777	2907.659401
672.714585	2904.422980
673.054342	2900.896693
673.394049	2892.394787
673.733705	2894.504510
674.073310	2886.413458
674.412864	2879.751573
674.752368	2868.514841
675.091820	2866.788246
675.431223	2855.347347
675.770574	2852.000021
676.109875	2838.502332
676.449125	2835.822958
676.788324	2827.910867
677.127473	2818.798982
677.466571	2809.697178
677.805619	2808.898156
678.144616	2803.970428
678.483562	2801.631332
678.822458	2792.572379
679.161303	2791.612039
679.500098	2790.311421
679.838842	2783.029475
680.177535	2779.452776
680.516179	2778.477313
680.854771	2773.819287
681.193314	2776.871705
681.531805	2787.259003
681.870247	2798.289047
682.208638	2806.075109
682.546978	2801.555715
682.885268	2795.329890
683.223508	2785.010648
683.561697	2778.547889
683.899836	2770.199738
684.237925	2769.849378
684.575963	2765.831578
684.913951	2761.405445
685.251889	2763.094232
685.589776	2758.325300
685.927614	2755.303128
686.265401	2757.407810
686.603137	2755.850094
686.940824	2759.726741
687.278460	2763.560538
687.616046	2759.699015
687.953582	2766.113883
688.291068	2764.135230
688.628504	2763.656320
688.965889	2761.660023
689.303224	2755.817326
689.640510	2747.212077
689.977745	2737.084398
690.314930	2726.215671
690.652065	2720.738457
690.989150	2712.750749
691.326185	2705.985520
691.663170	2698.779191
692.000105	2694.443799
692.336990	2687.310566
692.673825	2683.144052
693.010610	2676.792198
693.347345	2669.802639
693.684030	2666.089829
694.020665	2663.362565
694.357251	2655.994918
694.693786	2653.423930
695.030272	2657.749240
695.366707	2651.490647
695.703093	2648.213897
696.039429	2649.096099
696.375716	2646.714154
696.711952	2645.027888
697.048139	2643.394554
697.384276	2642.683752
697.720363	2642.305665
698.056400	2643.477733
698.392388	2640.309368
698.728326	2637.934985
699.064214	2636.820890
699.400053	2630.864766
699.735842	2629.433079
700.071581	2628.918881
700.407270	2627.461987
700.742910	2622.806482
701.078501	2619.721296
701.414042	2620.467387
701.749533	2615.416150
702.084974	2613.109823
702.420366	2611.950357
702.755709	2613.603856
703.091002	2608.734101
703.426246	2608.779471
703.761440	2609.404574
704.096584	2605.969028
704.431679	2605.681682
704.766725	2604.519696
705.101721	2603.599686
705.436668	2605.724532
705.771565	2602.551126
706.106413	2600.312853
706.441212	2602.200766
706.775961	2600.713625
707.110661	2599.952411
707.445311	2604.897783
707.779913	2603.503904
708.114465	2600.461568
708.448967	2602.054572
708.783421	2603.879470
709.117825	2603.821497
709.452180	2604.439038
709.786485	2604.675972
710.120742	2609.328957
710.454949	2604.668410
710.789107	2606.589090
711.123216	2610.954729
711.457275	2611.698299
711.791286	2611.920110
712.125247	2612.784668
712.459159	2613.182919
712.793023	2614.148300
713.126837	2608.482043
713.460602	2608.650922
713.794318	2606.407608
714.127985	2602.876280
714.461602	2601.742021
714.795171	2601.709253
715.128691	2597.018459
715.462162	2594.969230
715.795584	2592.090732
716.128957	2594.815475
716.462281	2591.805906
716.795556	2591.929415
717.128782	2586.066553
717.461960	2585.111254
717.795088	2585.736357
718.128167	2583.261151
718.461198	2583.286356
718.794180	2584.612180
719.127113	2579.530697
719.459997	2581.892477
719.792833	2578.663618
720.125619	2578.736715
720.458357	2577.126066
720.791046	2577.955336
721.123686	2575.865778
721.456278	2575.611200
721.788821	2576.274111
722.121315	2575.616241
722.453761	2573.468709
722.786158	2571.167422
723.118506	2575.102043
723.450805	2575.364183
723.783056	2574.696230
724.115259	2573.327557
724.447412	2574.061045
724.779518	2576.105233
725.111574	2575.417115
725.443582	2576.889132
725.775542	2576.180850
726.107453	2576.412743
726.439315	2577.138669
726.771129	2581.022878
727.102895	2581.136304
727.434612	2577.857034
727.766281	2577.756211
728.097901	2576.707651
728.429473	2576.364852
728.760996	2574.786971
729.092471	2574.701271
729.423897	2578.088927
729.755276	2575.787640
730.086606	2578.182188
730.417887	2580.430543
730.749120	2580.702765
731.080305	2580.506160
731.411442	2579.462641
731.742530	2579.999524
732.073570	2580.175964
732.404562	2580.523804
732.735506	2578.993814
733.066401	2580.017168
733.397249	2581.002714
733.728048	2574.040880
734.058798	2573.995510
734.389501	2570.711198
734.720156	2573.188925
735.050762	2570.675910
735.381320	2570.562484
735.711831	2569.385375
736.042293	2569.970148
736.372707	2567.535271
736.703073	2567.389078
737.033391	2569.241702
737.363661	2569.977710
737.693883	2565.985116
738.024056	2571.512742
738.354182	2571.290931
738.684260	2570.459140
739.014290	2570.910324
739.344272	2575.149934
739.674207	2570.577607
740.004093	2571.127093
740.333931	2570.920406
740.663722	2571.542988
740.993464	2572.165571
741.323159	2569.564336
741.652806	2569.392936
741.982405	2570.630540
742.311956	2569.085426
742.641460	2565.677606
742.970915	2568.672051
743.300323	2568.871177
743.629683	2564.992009
743.958996	2566.002760
744.288260	2567.482339
744.617477	2563.096535
744.946647	2559.149312
745.275768	2563.303223
745.604842	2560.505382
745.933869	2560.011349
746.262847	2557.934394
746.591778	2563.726679
746.920662	2561.120403
747.249498	2563.073850
747.578286	2559.484548
747.907027	2563.454457
748.235720	2565.811197
748.564365	2561.506051
748.892963	2564.558470
749.221514	2563.540157
749.550017	2564.066957
749.878473	2563.270455
750.206881	2560.772563
750.535242	2562.577296
750.863555	2560.588561
751.191821	2559.834909
751.520039	2561.075032
751.848210	2562.665517
752.176334	2560.409600
752.504411	2561.763150
752.832440	2561.803479
753.160421	2560.059240
753.488356	2561.238870
753.816243	2562.287430
754.144082	2558.693087
754.471875	2561.629559
754.799620	2556.043961
755.127318	2556.938766
755.454969	2559.842470
755.782572	2557.957079
756.110129	2560.855742
756.437638	2559.905485
756.765100	2559.025803
757.092515	2559.108983
757.419882	2557.715103
757.747203	2560.313818
758.074477	2560.155022
758.401703	2559.056050
758.728882	2560.286092
759.056014	2560.870866
759.383099	2559.575289
759.710138	2561.281720
760.037129	2562.751216
760.364073	2561.165773
760.690970	2564.858418
761.017820	2559.101421
761.344623	2561.793397
761.671379	2564.150136
761.998088	2559.033365
762.324751	2563.698953
762.651366	2569.287072
762.977935	2584.193764
763.304456	2587.679722
763.630931	2592.047882
763.957359	2584.982705
764.283740	2580.705286
764.610074	2574.111456
764.936362	2569.786146
765.262602	2566.222051
765.588796	2564.808007
765.914943	2564.704663
766.241044	2559.615618
766.567097	2558.375495
766.893104	2557.541184
767.219064	2556.293498
767.544978	2561.311967
767.870845	2555.812068
768.196665	2555.043292
768.522438	2556.215360
768.848165	2555.146636
769.173846	2554.400545
769.499479	2554.519012
769.825066	2554.403065
770.150607	2553.404917
770.476101	2550.652447
770.801548	2552.880637
771.126949	2550.730585
771.452303	2551.748898
771.777611	2552.074052
772.102872	2550.095399
772.428087	2550.677653
772.753256	2551.925338
773.078378	2550.228990
773.403453	2549.107333
773.728482	2551.670760
774.053465	2551.796789
774.378401	2550.980122
774.703291	2547.378217
775.028135	2550.329813
775.352932	2550.692776
775.677683	2550.440718
776.002388	2550.037426
776.327046	2549.132539
776.651658	2552.111861
776.976224	2547.161448
777.300743	2550.412992
777.625216	2548.953578
777.949643	2548.454504
778.274024	2548.693959
778.598359	2545.891077
778.922647	2543.539379
779.246889	2544.739173
779.571086	2545.260933
779.895236	2546.833773
780.219339	2545.729760
780.543397	2548.083979
780.867409	2548.512477
781.191374	2547.007693
781.515294	2548.346119
781.839167	2548.351160
782.162995	2548.509957
782.486776	2549.306459
782.810511	2547.337888
783.134201	2548.822508
783.457844	2546.264123
783.781441	2549.061963
784.104993	2547.927703
784.428498	2548.570450
784.751958	2550.352498
785.075372	2548.663712
785.398739	2547.688248
785.722061	2548.552806
786.045337	2547.874771
786.368568	2547.579864
786.691752	2546.402754
787.014891	2548.129349
787.337983	2551.149001
787.661030	2547.814277
787.984031	2553.036913
788.306987	2550.559186
788.629897	2553.929197
788.952760	2552.825184
789.275579	2550.223949
789.598351	2553.397355
789.921078	2551.660678
790.243759	2549.568599
790.566395	2550.730585
790.888984	2548.126829
791.211529	2547.887374
791.534027	2548.401572
791.856480	2549.624052
792.178888	2548.141952
792.501249	2546.085162
792.823566	2547.884853
793.145836	2546.380069
793.468062	2546.193546
793.790241	2545.739842
794.112375	2547.100954
794.434464	2546.070038
794.756507	2548.691438
795.078505	2546.748073
795.400457	2546.281767
795.722364	2543.856972
796.044226	2547.763866
796.366042	2546.017106
796.687812	2545.432332
797.009538	2549.613969
797.331218	2549.946685
797.652852	2547.738660
797.974442	2548.721685
798.295986	2547.806716
798.617484	2548.807385
798.938938	2547.889895
799.260346	2549.082128
799.581709	2547.635316
799.903026	2549.689587
800.224299	2545.724719
800.545526	2548.215049
800.866708	2547.806716
801.187845	2547.410985
801.508936	2547.373176
801.829983	2547.741181
802.150984	2546.947199
802.471940	2547.410985
802.792851	2546.553989
803.113717	2547.625234
803.434538	2545.749925
803.755314	2544.903011
804.076045	2545.379400
804.396731	2542.881508
804.717372	2545.770089
805.037967	2547.839483
805.358518	2546.359904
805.679024	2546.553989
805.999485	2546.070038
806.319901	2545.313865
806.640272	2546.349822
806.960598	2545.419729
807.280879	2548.590615
807.601115	2548.338557
807.921306	2547.282436
808.241453	2546.843855
808.561554	2544.451828
808.881611	2546.553989
809.201623	2545.651622
809.521590	2546.677497
809.841513	2546.496016
810.161390	2546.233876
810.481223	2546.531304
810.801011	2546.581715
811.120755	2544.928217
811.440453	2543.398227
811.760107	2544.996272
812.079716	2543.494008
812.399281	2540.176929
812.718801	2543.627599
813.038276	2542.732794
813.357707	2546.264122
813.677093	2542.770603
813.996434	2545.702034
814.315731	2545.752445
814.634983	2544.903011
814.954191	2544.903011
815.273354	2546.259081
815.592473	2544.824873
815.911547	2548.068856
816.230577	2547.675646
816.549562	2547.262271
816.868502	2546.475851
817.187399	2547.191695
817.506250	2547.405944
817.825058	2547.869730
818.143821	2549.291335
818.462539	2548.517518
818.781213	2549.737478
819.099843	2551.607746
819.418429	2553.762839
819.736970	2558.695608
820.055466	2559.368602
820.373919	2561.246432
820.692327	2566.708522
821.010691	2579.502970
821.329011	2594.780187
821.647286	2634.980868
821.965517	2678.014678
822.283704	2705.030222
822.601847	2710.560367
822.919945	2693.579241
823.237999	2665.273162
823.556010	2642.892959
823.873976	2618.798765
824.191897	2608.096395
824.509775	2593.061154
824.827609	2589.522264
825.145398	2581.592529
825.463144	2581.305183
825.780845	2580.296952
826.098502	2585.428847
826.416116	2596.816813
826.733685	2608.282918
827.051210	2614.410440
827.368692	2609.752414
827.686129	2596.715990
828.003522	2584.070256
828.320872	2571.124573
828.638177	2567.772205
828.955439	2559.724003
829.272656	2557.064795
829.589830	2551.320400
829.906960	2554.103117
830.224046	2554.087993
830.541088	2550.980122
830.858086	2551.751418
831.175041	2553.344423
831.491952	2551.358208
831.808819	2550.433157
832.125642	2551.325441
832.442421	2554.534135
832.759157	2557.382387
833.075849	2566.375806
833.392497	2575.031467
833.709101	2580.357446
834.025662	2581.433732
834.342179	2575.127249
834.658653	2570.179356
834.975083	2562.481514
835.291469	2563.540157
835.607811	2554.340051
835.924110	2553.236038
836.240366	2552.235369
836.556578	2549.601366
836.872746	2549.835780
837.188871	2546.657333
837.504952	2546.198588
837.820990	2544.227496
838.136984	2543.057949
838.452935	2543.176416
838.768842	2544.333361
839.084706	2546.107847
839.400526	2548.182282
839.716303	2551.673281
840.032037	2559.103941
840.347727	2558.355330
840.663373	2557.551266
840.978977	2550.249155
841.294537	2546.896787
841.610054	2547.269833
841.925527	2543.269677
842.240957	2544.403937
842.556344	2547.461397
842.871687	2540.862526
843.186987	2543.557023
843.502244	2541.316230
843.817458	2540.129038
844.132629	2540.335726
844.447756	2540.640715
844.762840	2536.811959
845.077881	2538.165509
845.392879	2534.508152
845.707833	2539.380427
846.022745	2535.221475
846.337613	2540.509645
846.652438	2541.336395
846.967221	2541.517876
847.281960	2539.571991
847.596656	2539.279604
847.911309	2541.318751
848.225919	2540.202135
848.540485	2538.999820
848.855009	2539.645087
849.169490	2537.341280
849.483928	2540.247505
849.798323	2540.663401
850.112675	2539.990407
850.426984	2538.165509
850.741251	2539.413194
851.055474	2539.612320
851.369654	2540.096271
851.683792	2539.430838
851.997887	2540.930582
852.311938	2538.778009
852.625947	2539.851775
852.939914	2538.604089
853.253837	2541.480067
853.567718	2539.335057
853.881555	2540.272711
854.195350	2538.261291
854.509103	2539.047711
854.822812	2539.433359
855.136479	2538.634336
855.450103	2539.055273
855.763685	2538.241126
856.077224	2540.754141
856.390720	2538.848585
856.704173	2542.077444
857.017584	2542.306817
857.330953	2538.261291
857.644278	2538.115097
857.957561	2544.038453
858.270802	2540.413863
858.584000	2541.565767
858.897155	2541.086857
859.210268	2539.468647
859.523339	2538.536034
859.836367	2537.996630
860.149352	2538.992258
860.462295	2537.936136
860.775195	2539.582073
861.088054	2535.859181
861.400869	2537.802546
861.713642	2535.365148
862.026373	2537.742052
862.339062	2535.965045
862.651708	2539.221631
862.964312	2541.338915
863.276873	2539.219110
863.589392	2542.581560
863.901869	2539.753472
864.214303	2537.416897
864.526696	2542.269008
864.839045	2541.207845
865.151353	2541.522917
865.463619	2540.255067
865.775842	2540.305479
866.088023	2539.912269
866.400162	2541.391847
866.712258	2538.720036
867.024313	2541.263298
867.336325	2542.596683
867.648296	2541.429656
867.960224	2541.656508
868.272110	2537.946219
868.583954	2541.964018
868.895755	2541.414532
869.207515	2541.051569
869.519233	2542.465613
869.830909	2540.935623
870.142542	2539.443441
870.454134	2540.330684
870.765684	2538.651980
871.077191	2542.155582
871.388657	2543.539379
871.700081	2540.597866
872.011463	2542.871426
872.322803	2540.053421
872.634101	2541.517876
872.945357	2540.456713
873.256571	2542.306817
873.567744	2542.170706
873.878874	2542.934440
874.189963	2542.631971
874.501010	2545.649102
874.812015	2544.396375
875.122979	2543.148689
875.433900	2546.306972
875.744780	2543.841848
876.055618	2546.664894
876.366415	2543.647764
876.677169	2542.863864
876.987882	2539.864378
877.298554	2540.597866
877.609183	2541.391847
877.919771	2540.066024
878.230317	2543.678011
878.540822	2545.681869
878.851285	2546.317055
879.161707	2550.171017
879.472087	2552.278219
879.782425	2557.851215
880.092722	2564.440003
880.402977	2578.048597
880.713191	2596.080805
881.023363	2617.465379
881.333494	2635.716877
881.643583	2639.875829
881.953631	2636.969604
882.263637	2630.547174
882.573602	2627.066257
882.883526	2609.581015
883.193408	2601.056424
883.503248	2591.999991
883.813048	2585.138980
884.122806	2576.241344
884.432522	2573.065417
884.742197	2566.416135
885.051831	2558.894733
885.361424	2558.632593
885.670975	2556.031358
885.980485	2553.157900
886.289954	2552.898281
886.599382	2551.075904
886.908768	2552.116902
887.218113	2546.755635
887.527417	2548.457024
887.836680	2546.798485
888.145901	2545.991900
888.455082	2543.562064
888.764221	2545.056766
889.073319	2543.950233
889.382376	2544.214893
889.691392	2543.594832
890.000366	2545.520552
890.309300	2542.611807
890.618193	2544.918134
890.927044	2542.463092
891.235855	2545.671787
891.544625	2544.320758
891.853353	2547.153886
892.162041	2545.490305
892.470687	2546.407795
892.779293	2547.597508
893.087858	2546.788403
893.396381	2547.899977
893.704864	2552.777293
894.013306	2554.304763
894.321707	2564.558470
894.630068	2574.053483
894.938387	2574.267732
895.246665	2575.918710
895.554903	2572.130283
895.863100	2566.441341
896.171256	2560.263407
896.479371	2559.620660
896.787446	2555.993549
897.095480	2553.057077
897.403473	2551.204453
897.711425	2551.295194
898.019336	2548.908208
898.327207	2547.726057
898.635038	2546.082641
898.942827	2546.700182
899.250576	2546.231355
899.558284	2549.200595
899.865952	2546.455686
900.173579	2542.677342
900.481165	2543.461241
900.788711	2542.137938
901.096216	2546.929555
901.403681	2541.354039
901.711105	2543.700696
902.018489	2542.513504
902.325832	2547.544576
902.633135	2543.032743
902.940397	2550.226469
903.247619	2548.557848
903.554800	2556.280895
903.861941	2566.065775
904.169041	2580.125553
904.476101	2590.185175
904.783121	2588.052767
905.090100	2581.484144
905.397039	2574.991138
905.703938	2567.293296
906.010796	2560.212995
906.317614	2555.469269
906.624391	2551.617828
906.931129	2548.918290
907.237826	2548.351160
907.544483	2545.916283
907.851099	2544.479554
908.157675	2542.521066
908.464211	2542.722712
908.770707	2538.498225
909.077163	2539.718184
909.383578	2535.360107
909.689954	2537.424459
909.996289	2535.256763
910.302584	2543.231868
910.608839	2541.608617
910.915054	2536.683410
911.221229	2539.498894
911.527363	2538.006713
911.833458	2543.380583
912.139513	2540.978473
912.445527	2539.224151
912.751502	2541.868236
913.057436	2540.683565
913.363331	2542.316899
913.669186	2539.503935
913.975000	2547.330327
914.280775	2545.616334
914.586510	2552.837787
914.892205	2553.805689
915.197859	2558.544373
915.503475	2567.305899
915.809050	2575.520459
916.114585	2581.421129
916.420081	2584.438260
916.725536	2581.705955
917.030952	2577.846951
917.336328	2572.959553
917.641665	2568.830848
917.946961	2564.815569
918.252218	2559.008159
918.557435	2556.442212
918.862612	2553.442726
919.167750	2553.765359
919.472848	2548.893084
919.777906	2549.440049
920.082925	2545.442414
920.387904	2545.490305
920.692843	2544.751776
920.997743	2542.962167
921.302603	2544.734132
921.607423	2541.666590
921.912204	2540.441590
922.216946	2541.054090
922.521647	2542.795809
922.826310	2539.521579
923.130932	2540.502084
923.435516	2537.207690
923.740059	2540.328164
924.044564	2540.701209
924.349028	2537.132072
924.653454	2535.145858
924.957840	2535.869263
925.262186	2533.872966
925.566493	2535.332380
925.870761	2535.206352
926.174989	2538.349511
926.479178	2538.498225
926.783328	2535.660055
927.087438	2536.108718
927.391509	2540.444110
927.695541	2534.188038
927.999533	2534.863553
928.303486	2537.590817
928.607400	2536.542257
928.911275	2536.098636
929.215110	2535.851619
929.518906	2537.744572
929.822663	2536.207021
930.126381	2535.344983
930.430060	2535.781043
930.733699	2536.958153
931.037299	2535.680220
931.340861	2537.237937
931.644383	2536.474202
931.947866	2533.762061
932.251309	2536.607792
932.554714	2535.990251
932.858080	2536.627957
933.161407	2534.223327
933.464694	2533.336083
933.767943	2536.222144
934.071153	2535.952442
934.374323	2534.863553
934.677455	2534.480425
934.980548	2535.448327
935.283602	2534.959335
935.586617	2535.881866
935.889593	2537.111908
936.192530	2534.336753
936.495428	2532.884900
936.798287	2536.212062
937.101108	2534.649304
937.403890	2536.154088
937.706632	2538.319264
938.009336	2538.926723
938.312002	2537.691640
938.614628	2536.877494
938.917216	2540.464275
939.219765	2537.338760
939.522275	2539.080478
939.824747	2538.795653
940.127179	2534.412370
940.429573	2532.940353
940.731929	2535.534027
941.034246	2535.342463
941.336524	2535.556712
941.638763	2538.140303
941.940964	2538.256250
942.243126	2538.362114
942.545250	2536.436393
942.847335	2535.360107
943.149381	2536.025539
943.451389	2536.852288
943.753359	2539.939995
944.055290	2534.588810
944.357182	2536.557381
944.659036	2535.566794
944.960851	2536.622916
945.262628	2534.344314
945.564367	2536.587628
945.866067	2535.690302
946.167729	2535.891948
946.469352	2537.807587
946.770937	2537.260622
947.072484	2535.665097
947.373992	2539.390509
947.675462	2534.946732
947.976893	2536.532175
948.278286	2535.407998
948.579641	2536.002854
948.880958	2536.348173
949.182236	2533.048738
949.483476	2536.348173
949.784678	2538.243647
950.085841	2533.202493
950.386967	2536.494366
950.688054	2534.278779
950.989103	2534.563604
951.290114	2536.055786
951.591087	2534.200641
951.892021	2532.842050
952.192917	2537.673996
952.493776	2536.154088
952.794596	2535.876825
953.095378	2538.286497
953.396122	2536.151568
953.696828	2535.438245
953.997496	2534.495549
954.298126	2536.426311
954.598718	2534.964376
954.899272	2533.401618
955.199788	2533.353728
955.500266	2537.230375
955.800706	2532.095960
956.101108	2526.885927
956.401472	2530.729807
956.701798	2528.020187
957.002087	2530.654190
957.302337	2532.794159
957.602550	2532.716022
957.902724	2534.293903
958.202861	2534.084695
958.502960	2532.728624
958.803022	2533.099149
959.103045	2533.741896
959.403031	2531.178470
959.702979	2534.936650
960.002889	2530.823068
960.302762	2530.981865
960.602596	2534.551002
960.902393	2533.202493
961.202153	2530.689478
961.501875	2533.552853
961.801559	2533.358769
962.101205	2532.607637
962.400814	2532.342976
962.700385	2530.634025
962.999918	2531.559077
963.299414	2531.150743
963.598873	2533.061341
963.898293	2531.100332
964.197677	2530.016484
964.497022	2529.913140
964.796331	2532.786598
965.095601	2532.653007
965.394835	2532.146371
965.694030	2529.524971
965.993189	2533.298275
966.292309	2530.782739
966.591393	2529.787111
966.890439	2530.467667
967.189447	2533.121834
967.488419	2527.972296
967.787353	2529.600588
968.086249	2529.862728
968.385108	2532.055630
968.683930	2529.850126
968.982714	2531.112935
969.281462	2530.540764
969.580172	2529.479601
969.878844	2531.886752
970.177480	2529.275434
970.476078	2530.634025
970.774639	2533.159643
971.073162	2529.376257
971.371649	2530.248377
971.670098	2531.959848
971.968510	2527.674868
972.266885	2527.074970
972.565223	2530.235774
972.863524	2532.012781
973.161788	2530.578572
973.460014	2529.204858
973.758204	2531.178470
974.056356	2530.598737
974.354471	2530.654190
974.652550	2531.206196
974.950591	2531.949766
975.248595	2530.923891
975.546563	2529.782070
975.844493	2529.421628
976.142386	2532.027904
976.440243	2529.628315
976.738062	2531.057482
977.035845	2529.373737
977.333590	2530.162677
977.631299	2529.923222
977.928971	2531.619571
978.226606	2532.831968
978.524204	2532.683254
978.821765	2529.835002
979.119290	2530.145033
979.416777	2528.846936
979.714228	2530.301309
980.011642	2533.867925
980.309020	2533.066382
980.606360	2532.983203
980.903664	2532.209386
981.200931	2532.229550
981.498162	2530.845753
981.795356	2529.290557
982.092513	2534.215765
982.389633	2529.598068
982.686717	2532.292565
982.983764	2531.392719
983.280775	2535.173584
983.577749	2534.377082
983.874686	2533.230219
984.171587	2531.188552
984.468451	2534.941691
984.765279	2528.831812
985.062070	2531.221319
985.358824	2531.143182
985.655543	2532.453882
985.952224	2529.605630
986.248869	2531.160826
986.545478	2524.440967
986.842050	2529.162008
987.138586	2527.115300
987.435086	2526.475073
987.731549	2526.172604
988.027975	2531.627132
988.324366	2532.322812
988.620719	2530.442461
988.917037	2528.287368
989.213318	2529.698891
989.509563	2528.763757
989.805772	2530.553367
990.101944	2529.073788
990.398080	2528.902389
990.694180	2526.033972
990.990244	2527.906761
991.286271	2528.287368
991.582262	2530.893644
991.878217	2526.961544
992.174136	2529.441792
992.470019	2526.689322
992.765865	2528.756195
993.061676	2528.751154
993.357450	2526.999353
993.653188	2529.063706
993.948890	2530.046731
994.244556	2525.774353
994.540186	2528.667975
994.835780	2530.205527
995.131337	2532.882380
995.426859	2528.070598
995.722345	2527.697553
996.017795	2531.390198
996.313208	2531.997657
996.608586	2529.504807
996.903928	2531.337266
997.199234	2529.033459
997.494504	2529.235105
997.789738	2527.347193
998.084936	2530.381967
998.380099	2530.434899
998.675225	2529.313243
998.970316	2529.464477
999.265371	2531.606968
999.560390	2528.662934
999.855373	2529.794673
1000.150320	2532.211906
1000.445232	2529.242667
1000.740108	2528.239477
1001.034948	2528.226874
1001.329752	2529.497245
1001.624521	2526.621267
1001.919254	2524.773684
1002.213951	2526.230577
1002.508613	2524.418282
1002.803239	2525.975999
1003.097829	2525.192099
1003.392384	2526.074301
1003.686903	2528.471370
1003.981386	2531.231402
1004.275834	2528.499096
1004.570246	2529.759385
1004.864623	2527.054806
1005.158964	2528.299971
1005.453270	2528.496576
1005.747540	2526.321318
1006.041775	2527.659744
1006.335974	2528.771319
1006.630138	2525.497089
1006.924266	2529.882893
1007.218359	2527.964734
1007.512416	2530.082019
1007.806438	2529.870290
1008.100425	2528.970444
1008.394376	2530.376926
1008.688292	2525.759229
1008.982172	2527.957172
1009.276017	2528.806607
1009.569827	2528.153777
1009.863602	2531.327184
1010.157341	2527.846267
1010.451045	2528.728469
1010.744714	2529.968593
1011.038347	2527.173273
1011.331945	2529.018335
1011.625508	2528.085722
1011.919036	2528.534384
1012.212528	2526.528005
1012.505986	2526.777542
1012.799408	2528.373068
1013.092795	2526.407018
1013.386147	2528.163860
1013.679464	2528.355423
1013.972745	2526.805269
1014.265992	2526.356606
1014.559204	2527.873993
1014.852380	2528.030269
1015.145521	2527.354754
1015.438628	2527.664785
1015.731699	2525.338293
1016.024736	2526.434744
1016.317737	2528.907430
1016.610703	2529.083870
1016.903635	2524.710669
1017.196531	2523.911646
1017.489393	2524.808972
1017.782219	2522.691687
1018.075011	2523.594054
1018.367768	2528.647810
1018.660490	2527.044723
1018.953177	2527.044723
1019.245829	2527.044723
