Dividing Wavelength (nm)	Counts (n)	Blue Motor Position (mm): 0.000000	Red Motor Position (mm): 24.000000	
326.493990	2143.523821
326.888308	2143.523821
327.282561	2143.523821
327.676750	2118.844853
328.070874	2119.855604
328.464933	2123.155039
328.858929	2134.865639
329.252859	2147.826446
329.646726	2158.894299
330.040528	2175.814932
330.434265	2193.784125
330.827938	2214.634337
331.221547	2231.494476
331.615091	2251.951479
332.008571	2271.392688
332.401986	2293.619136
332.795338	2311.726960
333.188625	2334.427276
333.581847	2352.164576
333.975006	2371.207535
334.368100	2386.588095
334.761129	2405.469737
335.154095	2423.504465
335.546996	2442.396189
335.939833	2453.050667
336.332606	2467.213789
336.725315	2478.410192
337.117960	2488.162304
337.510540	2497.105311
337.903056	2506.040756
338.295508	2512.372445
338.687896	2516.266737
339.080220	2526.820392
339.472480	2532.423635
339.864676	2535.639891
340.256807	2538.546116
340.648875	2541.739687
341.040879	2543.244471
341.432818	2545.286139
341.824694	2545.490305
342.216506	2545.079451
342.608253	2543.146169
342.999937	2543.418391
343.391557	2546.463248
343.783113	2542.223638
344.174605	2539.796322
344.566033	2536.585107
344.957397	2535.627288
345.348697	2536.622916
345.739934	2535.352545
346.131106	2532.405991
346.522215	2534.011598
346.913260	2527.848787
347.304241	2528.365506
347.695159	2524.967768
348.086012	2521.905267
348.476802	2522.048940
348.867528	2523.072294
349.258191	2521.232273
349.648789	2519.606501
350.039324	2518.847807
350.429796	2518.772190
350.820203	2515.697086
351.210548	2516.546521
351.600828	2513.514267
351.991045	2514.262878
352.381198	2514.240193
352.771288	2512.059894
353.161314	2513.279853
353.551276	2513.274812
353.941175	2512.180881
354.331010	2513.657939
354.720782	2514.416633
355.110490	2513.594925
355.500135	2511.283556
355.889717	2513.975532
356.279235	2516.352436
356.668689	2517.774042
357.058080	2514.204905
357.447408	2514.769514
357.836672	2511.908659
358.225873	2514.323372
358.615010	2512.616941
359.004084	2517.930317
359.393095	2517.161541
359.782043	2520.050123
360.170927	2518.802437
360.559748	2520.720596
360.948505	2522.293436
361.337199	2520.090452
361.725830	2521.902747
362.114398	2522.500123
362.502903	2519.417458
362.891344	2522.295957
363.279722	2521.370905
363.668037	2524.572038
364.056289	2524.433406
364.444478	2526.941380
364.832603	2526.747295
365.220665	2526.457429
365.608665	2526.528005
365.996601	2528.708304
366.384474	2527.596730
366.772284	2527.163191
367.160031	2528.284847
367.547715	2526.628828
367.935336	2527.695032
368.322893	2527.929446
368.710388	2524.998015
369.097820	2533.865405
369.485189	2525.572707
369.872495	2529.366175
370.259738	2527.218643
370.646918	2529.035979
371.034035	2529.104035
371.421090	2529.403983
371.808081	2531.516227
372.195010	2531.130579
372.581875	2532.408511
372.968678	2532.549663
373.355418	2534.104859
373.742096	2537.522762
374.128710	2534.616537
374.515262	2538.251208
374.901751	2537.389171
375.288177	2540.222300
375.674540	2539.481250
376.060841	2540.272711
376.447079	2542.977290
376.833254	2544.575336
377.219367	2541.797660
377.605417	2547.194215
377.991404	2548.537683
378.377329	2549.082128
378.763191	2550.176058
379.148991	2561.359858
379.534727	2560.835578
379.920402	2565.607030
380.306013	2569.334963
380.691563	2577.415933
381.077049	2576.982393
381.462474	2585.295256
381.847835	2587.478076
382.233134	2599.483584
382.618371	2596.910075
383.003545	2604.237392
383.388657	2615.322889
383.773706	2620.991667
384.158693	2624.772532
384.543618	2630.378295
384.928480	2638.295427
385.313280	2645.675676
385.698017	2652.627427
386.082692	2661.141936
386.467305	2664.123779
386.851856	2677.316478
387.236344	2686.498940
387.620770	2693.793490
388.005133	2702.973431
388.389435	2712.760831
388.773674	2720.695607
389.157851	2728.534602
389.541965	2739.516755
389.926018	2743.461458
390.310008	2756.502923
390.693936	2761.939807
391.077802	2773.567229
391.461606	2782.048970
391.845348	2791.453243
392.229027	2802.805921
392.612645	2816.767397
392.996200	2823.966164
393.379694	2834.567711
393.763125	2850.961543
394.146494	2862.278934
394.529801	2870.256560
394.913047	2891.240363
395.296230	2892.576268
395.679351	2895.386712
396.062410	2914.076789
396.445408	2911.283990
396.828343	2923.876793
397.211217	2931.564552
397.594028	2922.949220
397.976778	2940.225254
398.359466	2950.743622
398.742092	2949.095165
399.124656	2965.630149
399.507158	2977.759165
399.889598	2984.945330
400.271977	3000.235150
400.654294	3002.748165
401.036549	3018.264837
401.418742	3021.397914
401.800874	3046.260884
402.182944	3051.763304
402.564952	3081.183478
402.946898	3071.491859
403.328783	3079.514856
403.710606	3095.757453
404.092367	3120.096144
404.474067	3141.526089
404.855705	3134.145840
405.237282	3136.986530
405.618797	3168.662620
406.000250	3187.975281
406.381642	3221.080538
406.762972	3223.175137
407.144240	3216.510732
407.525447	3237.058475
407.906593	3238.774988
408.287677	3254.515991
408.668700	3278.390896
409.049661	3273.357303
409.430560	3291.835653
409.811399	3294.474697
410.192176	3316.713747
410.572891	3321.273471
410.953545	3360.702856
411.334138	3330.655058
411.714669	3381.258160
412.095139	3324.817402
412.475547	3376.642984
412.855894	3369.925647
413.236180	3397.919174
413.616405	3381.684138
413.996568	3404.775143
414.376670	3403.343455
414.756711	3401.954618
415.136691	3430.961417
415.516609	3449.956484
415.896466	3456.489820
416.276262	3485.254644
416.655997	3516.839993
417.035670	3521.195550
417.415283	3586.725509
417.794834	3605.791153
418.174324	3591.864965
418.553753	3588.724326
418.933121	3635.934732
419.312428	3625.686066
419.691674	3623.644399
420.070859	3660.049092
420.449983	3639.282058
420.829045	3690.454811
421.208047	3671.547963
421.586988	3717.679562
421.965867	3752.312289
422.344686	3756.002414
422.723444	3793.795944
423.102141	3702.914023
423.480777	3799.192499
423.859352	3771.254425
424.237866	3863.832695
424.616319	3851.083617
424.994712	3915.058379
425.373044	3901.200247
425.751314	3964.098724
426.129524	3899.231677
426.507673	4000.717666
426.885762	3974.423007
427.263789	3999.467459
427.641756	4000.432840
428.019662	4032.751678
428.397508	4035.224364
428.775292	4073.801793
429.153016	4077.743976
429.530679	4090.704782
429.908282	4100.305660
430.285824	4073.763985
430.663305	4146.172598
431.040726	4103.705918
431.418086	4098.558900
431.795385	4174.007329
432.172624	4205.086043
432.549802	4168.610774
432.926920	4189.806305
433.303977	4186.854710
433.680974	4221.873085
434.057910	4246.267228
434.434786	4247.401488
434.811601	4245.584152
435.188355	4349.396633
435.565050	4317.891942
435.941683	4317.266839
436.318257	4403.410076
436.694770	4406.659100
437.071222	4464.244200
437.447614	4397.554776
437.823946	4402.855549
438.200218	4414.102363
438.576429	4397.597626
438.952580	4421.404475
439.328670	4425.384466
439.704700	4467.997339
440.080670	4430.334879
440.456580	4483.498887
440.832429	4520.891646
441.208218	4419.897170
441.583947	4468.773677
441.959616	4482.404957
442.335224	4506.287423
442.710773	4519.437273
443.086261	4570.756219
443.461689	4521.070607
443.837057	4527.293911
444.212365	4599.183286
444.587612	4599.596660
444.962800	4558.612079
445.337927	4597.353347
445.712995	4482.793126
446.088002	4663.483203
446.462949	4675.738248
446.837837	4684.671172
447.212664	4666.517977
447.587431	4872.360892
447.962139	5136.406448
448.336786	5439.326862
448.711374	5419.482360
449.085901	5077.664403
449.460369	5011.584958
449.834776	4935.960089
450.209124	5137.603722
450.583412	5130.825891
450.957640	5230.232403
451.331808	5086.962811
451.705917	4941.830513
452.079965	4917.481739
452.453954	4936.625521
452.827883	4888.674066
453.201752	4876.885327
453.575562	4884.615937
453.949311	4984.677800
454.323001	4970.063495
454.696632	4944.247746
455.070202	5053.902924
455.443713	5054.371752
455.817164	5100.727682
456.190556	5134.831087
456.563888	5086.488943
456.937160	5132.207167
457.310373	4978.358713
457.683526	4996.963092
458.056619	4968.808247
458.429653	4924.395682
458.802628	4929.963636
459.175542	4919.616668
459.548398	4991.253985
459.921194	5098.539821
460.293930	5104.311942
460.666607	5237.597529
461.039224	5346.408314
461.411782	5398.732971
461.784280	5303.485410
462.156719	5270.188589
462.529099	5206.475966
462.901419	5074.702725
463.273680	4950.045073
463.645882	4908.349689
464.018024	4866.510633
464.390106	4863.319583
464.762130	4973.158763
465.134094	5140.512468
465.505999	5439.410041
465.877845	5767.821050
466.249631	5909.512761
466.621358	5819.555891
466.993026	5650.611702
467.364634	5484.977031
467.736184	5281.251401
468.107674	5146.619826
468.479105	5047.543509
468.850477	4963.814984
469.221790	4827.938244
469.593043	4676.993495
469.964238	4584.233744
470.335373	4519.296121
470.706449	4534.212895
471.077467	4555.201739
471.448425	4749.936471
471.819324	4921.282769
472.190164	4888.066607
472.560945	4650.396368
472.931667	4425.049229
473.302330	4304.616063
473.672934	4211.195921
474.043479	4185.473433
474.413965	4105.200620
474.784393	4041.964386
475.154761	4041.747617
475.525070	3995.578209
475.895321	3938.527471
476.265513	3916.399326
476.635645	3917.039553
477.005719	3865.622304
477.375734	3839.665403
477.745691	3824.274760
478.115588	3825.572857
478.485427	3830.306501
478.855207	3884.163668
479.224928	3927.608332
479.594591	3961.215184
479.964194	3902.362233
480.333739	3864.470401
480.703226	3807.757420
481.072653	3775.448665
481.442022	3750.948657
481.811333	3727.832446
482.180584	3655.890140
482.549777	3599.678754
482.918912	3549.209242
483.287988	3507.924712
483.657005	3450.238789
484.025964	3402.337745
484.394864	3371.921943
484.763706	3329.563648
485.132489	3285.415743
485.501213	3248.204466
485.869879	3217.085424
486.238487	3181.429342
486.607036	3159.162566
486.975527	3125.404479
487.343959	3103.750203
487.712333	3078.047880
488.080648	3058.205898
488.448905	3041.996068
488.817104	3016.782737
489.185244	3003.325377
489.553326	2994.107627
489.921350	3002.518793
490.289315	3018.227028
490.657222	3010.980369
491.025070	2997.091990
491.392861	2971.435038
491.760593	2943.620472
492.128267	2910.210224
492.495883	2882.337685
492.863440	2856.867255
493.230939	2831.971517
493.598380	2815.033240
493.965763	2799.579583
494.333088	2782.477468
494.700354	2772.221241
495.067563	2763.351331
495.434713	2752.303642
495.801805	2747.451531
496.168839	2737.890983
496.535815	2729.336145
496.902733	2723.473283
497.269593	2720.330124
497.636395	2710.585573
498.003139	2707.444934
498.369825	2698.988399
498.736453	2695.192410
499.103023	2689.574044
499.469535	2688.472552
499.835989	2683.300328
500.202385	2678.906962
500.568723	2677.427384
500.935003	2672.451765
501.301226	2666.321722
501.667390	2667.571928
502.033497	2665.192503
502.399546	2660.146308
502.765537	2656.065494
503.131470	2655.369815
503.497345	2653.670946
503.863163	2651.644402
504.228923	2648.599546
504.594625	2648.586943
504.960269	2644.072589
505.325856	2643.145017
505.691385	2642.640902
506.056856	2642.373721
506.422270	2640.342136
506.787625	2638.658390
507.152924	2636.281486
507.518164	2634.759058
507.883347	2633.251753
508.248472	2633.811321
508.613540	2633.791156
508.978550	2630.060702
509.343503	2628.949128
509.708398	2631.648666
510.073236	2629.218830
510.438016	2630.635394
510.802738	2629.145733
511.167403	2627.411576
511.532010	2625.339662
511.896561	2626.471401
512.261053	2630.700929
512.625488	2620.656430
512.989866	2620.911008
513.354186	2622.403190
513.718449	2619.128960
514.082655	2620.361522
514.446803	2625.276647
514.810894	2622.730865
515.174927	2625.047275
515.538904	2622.193982
515.902822	2622.688015
516.266684	2622.090638
516.630488	2621.868827
516.994235	2624.192799
517.357925	2623.297994
517.721558	2622.383025
518.085133	2622.115844
518.448651	2622.597274
518.812112	2619.965792
519.175516	2621.407562
519.538863	2621.720113
519.902152	2621.256327
520.265385	2620.051491
520.628560	2620.825308
520.991678	2620.094341
521.354739	2621.773045
521.717743	2617.684670
522.080690	2619.595267
522.443580	2620.079218
522.806413	2620.883282
523.169189	2617.097375
523.531908	2618.856738
523.894569	2617.964454
524.257174	2619.108796
524.619722	2617.636779
524.982213	2620.933693
525.344647	2619.375977
525.707025	2617.780452
526.069345	2619.514608
526.431608	2618.450925
526.793815	2618.740791
527.155964	2620.817747
527.518057	2615.819443
527.880093	2618.143415
528.242072	2617.074690
528.603995	2617.480503
528.965860	2618.070318
529.327669	2616.754577
529.689421	2616.590739
530.051117	2617.674587
530.412755	2617.886316
530.774337	2614.758280
531.135862	2615.559823
531.497331	2612.736777
531.858743	2612.638475
532.220098	2613.233331
532.581396	2614.559154
532.942638	2609.210490
533.303824	2613.344236
533.664953	2615.257354
534.026025	2614.859103
534.387040	2616.563013
534.747999	2614.148300
535.108902	2615.433794
535.469748	2614.256685
535.830537	2610.705192
536.191270	2615.040584
536.551947	2612.000769
536.912567	2615.585029
537.273131	2616.532766
537.633638	2612.867847
537.994089	2611.017744
538.354483	2610.508587
538.714821	2610.468258
539.075103	2614.259206
539.435328	2613.523197
539.795497	2611.935234
540.155609	2611.718464
540.515665	2609.727208
540.875665	2612.456993
541.235609	2614.564195
541.595496	2611.214349
541.955328	2610.876591
542.315102	2613.170316
542.674821	2610.637137
543.034483	2615.189298
543.394090	2614.218876
543.753640	2612.830038
544.113134	2610.324585
544.472571	2607.141096
544.831953	2611.932713
545.191278	2609.023967
545.550548	2611.347939
545.909761	2610.390120
546.268918	2611.378186
546.628019	2610.606890
546.987064	2611.332816
547.346053	2610.354832
547.704986	2611.998248
548.063863	2610.546396
548.422684	2609.583535
548.781449	2609.994389
549.140158	2611.526900
549.498811	2610.279215
549.857408	2610.054883
550.215949	2608.718977
550.574434	2607.660335
550.932864	2609.833073
551.291237	2608.459358
551.649555	2608.419029
552.007817	2610.254009
552.366022	2609.558330
552.724173	2611.116046
553.082267	2611.428598
553.440305	2610.579163
553.798288	2612.199894
554.156215	2608.449276
554.514086	2611.771396
554.871902	2607.713267
555.229661	2612.094030
555.587365	2612.497322
555.945014	2609.114708
556.302606	2610.909359
556.660143	2609.782661
557.017625	2611.622682
557.375050	2608.373658
557.732421	2610.763165
558.089735	2611.579832
558.446994	2612.782147
558.804197	2613.243413
559.161345	2613.326592
559.518437	2613.185440
559.875474	2610.150665
560.232455	2611.282404
560.589381	2609.447424
560.946251	2613.152672
561.303065	2611.395830
561.659825	2610.117898
562.016528	2612.391458
562.373177	2610.503546
562.729770	2609.911210
563.086307	2610.440532
563.442789	2609.402054
563.799216	2613.303907
564.155587	2610.672425
564.511904	2610.059924
564.868164	2606.803339
565.224370	2611.786520
565.580520	2610.639657
565.936615	2612.983794
566.292654	2609.938937
566.648638	2611.695779
567.004567	2609.717126
567.360441	2610.435490
567.716260	2611.733587
568.072023	2608.799636
568.427732	2607.302413
568.783385	2606.082454
569.138982	2606.510952
569.494525	2608.212342
569.850013	2607.335181
570.205445	2610.869030
570.560823	2611.836931
570.916145	2610.374997
571.271412	2609.243257
571.626625	2608.963473
571.981782	2609.301231
572.336884	2609.339039
572.691931	2609.117229
573.046923	2610.359873
573.401860	2609.054214
573.756743	2610.153186
574.111570	2607.357866
574.466342	2611.461365
574.821059	2607.370469
575.175722	2610.952209
575.530330	2607.962804
575.884882	2609.684358
576.239380	2608.512290
576.593823	2610.117898
576.948211	2609.371807
577.302544	2608.325767
577.656823	2608.053545
578.011047	2610.528752
578.365216	2609.649070
578.719330	2609.104626
579.073389	2608.376179
579.427394	2607.093205
579.781344	2607.239399
580.135239	2608.474482
580.489080	2608.103957
580.842866	2608.529934
581.196597	2608.078751
581.550273	2607.786364
581.903895	2607.690582
582.257463	2609.949019
582.610975	2608.550099
582.964434	2607.798967
583.317837	2610.521190
583.671186	2608.308123
584.024481	2607.264605
584.377721	2610.236365
584.730906	2607.178905
585.084037	2608.640840
585.437113	2609.505397
585.790135	2606.541199
586.143103	2608.068669
586.496016	2609.802826
586.848874	2605.293513
587.201679	2605.928699
587.554428	2602.011722
587.907124	2604.665890
588.259765	2603.511466
588.612352	2604.456682
588.964884	2603.854264
589.317362	2609.533124
589.669786	2606.032042
590.022155	2606.090016
590.374470	2609.515480
590.726731	2608.502208
591.078937	2605.351487
591.431090	2605.540530
591.783188	2607.839296
592.135232	2607.085644
592.487222	2605.117073
592.839157	2605.137238
593.191038	2604.648246
593.542866	2606.626899
593.894639	2605.316199
594.246358	2605.222937
594.598022	2604.035746
594.949633	2603.924840
595.301190	2602.357041
595.652692	2606.203442
596.004141	2605.608586
596.355535	2606.639502
596.706876	2600.958121
597.058162	2604.166816
597.409395	2601.595827
597.760573	2606.682351
598.111698	2603.955087
598.462768	2603.665221
598.813785	2603.526589
599.164748	2603.879470
599.515657	2602.815786
599.866511	2603.201435
600.217312	2604.849892
600.568060	2603.650097
600.918753	2604.696137
601.269392	2603.995416
601.619978	2604.257556
601.970510	2604.486929
602.320988	2601.522730
602.671412	2605.525407
603.021783	2603.501383
603.372100	2602.979624
603.722363	2605.414501
604.072572	2602.301589
604.422728	2604.393667
604.772830	2598.750096
605.122878	2600.244798
605.472872	2597.820003
605.822813	2599.687750
606.172701	2600.078440
606.522534	2602.667072
606.872314	2605.545571
607.222041	2602.457864
607.571714	2602.336877
607.921333	2605.205293
608.270899	2602.089860
608.620411	2601.096753
608.969870	2605.079264
609.319276	2603.163626
609.668627	2604.600355
610.017926	2603.017432
610.367171	2602.382247
610.716362	2603.123297
611.065500	2602.838472
611.414585	2602.369644
611.763616	2604.043307
612.112594	2601.913420
612.461518	2605.001127
612.810389	2603.634974
613.159207	2602.425097
613.507971	2603.781167
613.856682	2603.186311
614.205340	2604.282762
614.553945	2604.587752
614.902496	2604.396188
615.250994	2602.851074
615.599439	2601.676486
615.947830	2602.344438
616.296169	2604.063472
616.644454	2604.915427
616.992686	2603.241764
617.340864	2604.113883
617.688990	2602.747731
618.037063	2604.522217
618.385082	2602.546085
618.733048	2606.823504
619.080961	2604.665890
619.428821	2605.144799
619.776628	2606.077413
620.124382	2605.409460
620.472083	2604.144130
620.819731	2603.128338
621.167326	2601.472319
621.514868	2603.725715
621.862357	2602.094901
622.209793	2604.002978
622.557176	2603.307299
622.904506	2600.822010
623.251783	2600.355703
623.599007	2598.210692
623.946179	2597.749427
624.293297	2598.646752
624.640363	2599.914602
624.987376	2599.476022
625.334336	2601.023656
625.681243	2602.021805
626.028097	2601.038780
626.374899	2603.198914
626.721647	2598.994592
627.068343	2598.954262
627.414987	2601.069027
627.761577	2601.283276
628.108115	2600.149016
628.454600	2599.854108
628.801032	2598.412338
629.147412	2601.623553
629.493739	2597.267997
629.840014	2599.067688
630.186236	2601.694130
630.532405	2599.387802
630.878521	2598.465271
631.224585	2599.344952
631.570597	2598.752616
631.916556	2600.257401
632.262462	2598.387133
632.608316	2597.996443
632.954117	2599.836464
633.299866	2598.316557
633.645562	2595.700198
633.991206	2600.048193
634.336797	2596.292533
634.682336	2597.356217
635.027823	2598.026690
635.373257	2597.721700
635.718639	2594.071905
636.063968	2597.157091
636.409245	2596.988212
636.754470	2595.576689
637.099642	2595.433017
637.444762	2595.775815
637.789829	2596.799169
638.134845	2595.415372
638.479808	2593.338417
638.824719	2595.080136
639.169577	2592.851946
639.514383	2597.588110
639.859137	2595.216247
640.203839	2596.032914
640.548489	2597.567945
640.893086	2591.919332
641.237632	2591.689960
641.582125	2591.334558
641.926566	2590.948910
642.270955	2595.722883
642.615292	2592.801534
642.959576	2593.741709
643.303809	2593.010742
643.647990	2593.656010
643.992118	2593.892944
644.336195	2592.642738
644.680219	2592.942687
645.024192	2594.155084
645.368112	2594.417224
645.711981	2593.686257
646.055797	2595.843871
646.399562	2593.068715
646.743274	2597.603233
647.086935	2594.984354
647.430544	2593.335897
647.774101	2598.729931
648.117606	2597.172215
648.461059	2596.244642
648.804460	2598.188007
649.147810	2593.620722
649.491108	2593.968561
649.834354	2595.841350
650.177548	2594.812955
650.520690	2593.809765
650.863781	2596.199272
651.206820	2596.942842
651.549807	2593.996288
651.892742	2593.109045
652.235626	2592.410845
652.578458	2591.390011
652.921238	2592.877152
653.263967	2591.508478
653.606644	2593.356061
653.949269	2590.722058
654.291843	2590.911102
654.634365	2594.175249
654.976836	2589.197109
655.319255	2591.735330
655.661622	2590.427151
656.003938	2592.398242
656.346203	2592.456215
656.688416	2590.384301
657.030577	2591.014445
657.372687	2591.352202
657.714746	2592.491503
658.056753	2591.120309
658.398708	2585.224680
658.740612	2586.613518
659.082465	2589.766760
659.424266	2586.681573
659.766016	2587.644434
660.107715	2591.510999
660.449362	2587.815833
660.790958	2591.379929
661.132503	2591.384970
661.473996	2593.051071
661.815438	2593.358582
662.156829	2591.059816
662.498168	2591.009404
662.839456	2592.567121
663.180693	2591.936976
663.521879	2593.648448
663.863013	2589.045875
664.204097	2590.737182
664.545129	2591.029569
664.886110	2592.267172
665.227040	2589.025710
665.567918	2591.395052
665.908746	2589.537387
666.249522	2591.485793
666.590248	2590.742223
666.930922	2591.667275
667.271545	2590.298601
667.612118	2590.759867
667.952639	2589.474373
668.293109	2592.710793
668.633528	2589.993612
668.973896	2590.762387
669.314213	2591.447984
669.654480	2591.679877
669.994695	2591.662233
670.334859	2587.513364
670.674973	2587.709969
671.015035	2588.700556
671.355047	2589.078642
671.695008	2590.643920
672.034918	2586.694176
672.374777	2590.124682
672.714585	2590.016297
673.054342	2591.165680
673.394049	2587.147880
673.733705	2588.808940
674.073310	2591.442943
674.412864	2592.189034
674.752368	2590.036461
675.091820	2590.318766
675.431223	2589.086204
675.770574	2591.669795
676.109875	2586.968919
676.449125	2587.168045
676.788324	2586.225349
677.127473	2587.576378
677.466571	2586.174937
677.805619	2588.922366
678.144616	2586.910946
678.483562	2587.873806
678.822458	2587.324321
679.161303	2588.844228
679.500098	2589.050916
679.838842	2593.091401
680.177535	2586.447160
680.516179	2589.988570
680.854771	2588.604774
681.193314	2588.388004
681.531805	2589.706266
681.870247	2588.390525
682.208638	2587.475555
682.546978	2591.097624
682.885268	2590.288519
683.223508	2591.914291
683.561697	2593.303129
683.899836	2591.266503
684.237925	2591.999991
684.575963	2589.572675
684.913951	2591.148036
685.251889	2588.889599
685.589776	2589.136615
685.927614	2589.761718
686.265401	2588.960175
686.603137	2590.802717
686.940824	2589.300453
687.278460	2591.248859
687.616046	2589.653334
687.953582	2590.729620
688.291068	2591.263982
688.628504	2590.966554
688.965889	2589.227356
689.303224	2587.505802
689.640510	2591.884044
689.977745	2591.032089
690.314930	2592.693149
690.652065	2590.475042
690.989150	2588.846749
691.326185	2588.309866
691.663170	2588.960175
692.000105	2588.486307
692.336990	2588.065370
692.673825	2587.215936
693.010610	2586.018662
693.347345	2580.722930
693.684030	2579.538258
694.020665	2583.498085
694.357251	2580.564133
694.693786	2582.739391
695.030272	2582.154617
695.366707	2585.670822
695.703093	2583.913980
696.039429	2583.039340
696.375716	2583.586305
696.711952	2584.052612
697.048139	2585.113775
697.384276	2582.018506
697.720363	2583.046902
698.056400	2585.761563
698.392388	2584.677715
698.728326	2585.378435
699.064214	2582.091603
699.400053	2583.573702
699.735842	2580.669998
700.071581	2584.145873
700.407270	2583.049422
700.742910	2582.646130
701.078501	2583.873651
701.414042	2583.687128
701.749533	2582.933476
702.084974	2583.193095
702.420366	2580.070100
702.755709	2580.929617
703.091002	2581.680749
703.426246	2579.495409
703.761440	2582.625965
704.096584	2581.995821
704.431679	2584.672674
704.766725	2583.117478
705.101721	2579.656726
705.436668	2583.835842
705.771565	2582.555389
706.106413	2582.958681
706.441212	2581.831983
706.775961	2583.152766
707.110661	2578.439287
707.445311	2583.508167
707.779913	2581.045563
708.114465	2582.053794
708.448967	2583.813157
708.783421	2582.343661
709.117825	2578.459452
709.452180	2582.678897
709.786485	2582.530183
710.120742	2583.230904
710.454949	2584.866758
710.789107	2580.037333
711.123216	2579.238310
711.457275	2579.918866
711.791286	2582.855338
712.125247	2579.389544
712.459159	2584.634865
712.793023	2584.332396
713.126837	2584.430698
713.460602	2584.821388
713.794318	2584.773497
714.127985	2584.642427
714.461602	2584.808785
714.795171	2585.257447
715.128691	2583.455235
715.462162	2582.018506
715.795584	2580.947261
716.128957	2580.115471
716.462281	2582.971284
716.795556	2580.632189
717.128782	2580.692683
717.461960	2581.305183
717.795088	2580.062538
718.128167	2579.455079
718.461198	2580.743094
718.794180	2581.552199
719.127113	2580.405337
719.459997	2581.549679
719.792833	2578.572877
720.125619	2580.254102
720.458357	2580.496078
720.791046	2579.568505
721.123686	2579.591191
721.456278	2580.037333
721.788821	2580.175964
722.121315	2581.862230
722.453761	2576.647157
722.786158	2579.087075
723.118506	2577.511715
723.450805	2578.285532
723.783056	2576.690007
724.115259	2580.357446
724.447412	2577.857034
724.779518	2579.692014
725.111574	2578.847620
725.443582	2580.669997
725.775542	2580.443146
726.107453	2577.887281
726.439315	2580.433063
726.771129	2583.581264
727.102895	2579.306365
727.434612	2578.872826
727.766281	2579.669328
728.097901	2577.378124
728.429473	2577.095819
728.760996	2578.066242
729.092471	2576.148082
729.423897	2579.908783
729.755276	2581.905080
730.086606	2580.969946
730.417887	2578.272929
730.749120	2579.916345
731.080305	2581.824422
731.411442	2581.905080
731.742530	2580.783423
732.073570	2580.801067
732.404562	2582.978846
732.735506	2579.936510
733.066401	2581.131263
733.397249	2584.486151
733.728048	2581.791654
734.058798	2578.487178
734.389501	2580.387693
734.720156	2581.204360
735.050762	2580.879205
735.381320	2577.499112
735.711831	2577.105902
736.042293	2578.343505
736.372707	2576.760583
736.703073	2580.168403
737.033391	2578.381314
737.363661	2579.107240
737.693883	2580.649833
738.024056	2580.881726
738.354182	2579.833166
738.684260	2580.785944
739.014290	2580.324678
739.344272	2577.541962
739.674207	2577.058011
740.004093	2579.049267
740.333931	2578.683783
740.663722	2580.591860
740.993464	2581.020358
741.323159	2578.512384
741.652806	2583.132601
741.982405	2581.461459
742.311956	2580.347364
742.641460	2580.410378
742.970915	2580.112950
743.300323	2578.010789
743.629683	2580.952302
743.958996	2577.090778
744.288260	2578.678742
744.617477	2580.458269
744.946647	2573.365366
745.275768	2573.695561
745.604842	2572.798236
745.933869	2573.987948
746.262847	2573.118349
746.591778	2577.121025
746.920662	2576.062383
747.249498	2575.313772
747.578286	2578.537589
747.907027	2577.824266
748.235720	2577.516756
748.564365	2575.767475
748.892963	2576.861406
749.221514	2578.018351
749.550017	2578.782085
749.878473	2578.101530
750.206881	2576.763103
750.535242	2577.806622
750.863555	2577.075655
751.191821	2578.320820
751.520039	2577.620099
751.848210	2576.316961
752.176334	2577.496591
752.504411	2576.793350
752.832440	2575.391909
753.160421	2576.122877
753.488356	2575.724626
753.816243	2577.670511
754.144082	2574.640778
754.471875	2575.286045
754.799620	2575.207907
755.127318	2573.662794
755.454969	2576.851323
755.782572	2578.492219
756.110129	2576.695048
756.437638	2577.675552
756.765100	2574.965932
757.092515	2573.710685
757.419882	2577.340315
757.747203	2577.196643
758.074477	2576.511046
758.401703	2575.575912
758.728882	2577.521797
759.056014	2578.209914
759.383099	2574.953329
759.710138	2578.323340
760.037129	2575.810325
760.364073	2579.888619
760.690970	2575.454924
761.017820	2576.674883
761.344623	2574.764286
761.671379	2580.102868
761.998088	2574.116497
762.324751	2576.609348
762.651366	2577.736046
762.977935	2582.711665
763.304456	2581.708475
763.630931	2587.001687
763.957359	2588.362798
764.283740	2584.755853
764.610074	2583.931624
764.936362	2580.755697
765.262602	2579.137487
765.588796	2581.680749
765.914943	2581.219483
766.241044	2577.446180
766.567097	2577.645305
766.893104	2575.878381
767.219064	2575.480130
767.544978	2573.589697
767.870845	2577.093299
768.196665	2575.074317
768.522438	2573.728329
768.848165	2576.599266
769.173846	2571.762279
769.499479	2573.998030
769.825066	2570.895200
770.150607	2573.947619
770.476101	2573.425859
770.801548	2577.884760
771.126949	2571.089285
771.452303	2574.756724
771.777611	2572.132803
772.102872	2571.563153
772.428087	2575.301169
772.753256	2573.451065
773.078378	2572.999882
773.403453	2571.520303
773.728482	2574.101374
774.053465	2571.510221
774.378401	2571.245560
774.703291	2570.002916
775.028135	2572.707495
775.352932	2570.426373
775.677683	2575.432239
776.002388	2572.551219
776.327046	2571.129614
776.651658	2572.931826
776.976224	2573.652711
777.300743	2571.631209
777.625216	2571.167422
777.949643	2573.390571
778.274024	2571.996692
778.598359	2568.115004
778.922647	2567.736917
779.246889	2570.212124
779.571086	2568.346897
779.895236	2568.964438
780.219339	2571.064079
780.543397	2571.815211
780.867409	2572.278997
781.191374	2571.404357
781.515294	2573.617423
781.839167	2570.413770
782.162995	2571.868143
782.486776	2573.325036
782.810511	2570.580128
783.134201	2572.828483
783.457844	2572.997361
783.781441	2573.146075
784.104993	2570.275138
784.428498	2570.612896
784.751958	2570.227247
785.075372	2569.516445
785.398739	2571.343863
785.722061	2570.300344
786.045337	2570.507031
786.368568	2570.660787
786.691752	2571.205231
787.014891	2571.691702
787.337983	2570.544840
787.661030	2572.026939
787.984031	2575.694379
788.306987	2573.491394
788.629897	2576.168247
788.952760	2570.191959
789.275579	2574.567681
789.598351	2572.641960
789.921078	2570.670869
790.243759	2572.725139
790.566395	2570.237330
790.888984	2573.493915
791.211529	2570.869994
791.534027	2569.894531
791.856480	2571.905952
792.178888	2570.940571
792.501249	2571.301013
792.823566	2572.972156
793.145836	2567.966290
793.468062	2571.802608
793.790241	2571.142217
794.112375	2571.522824
794.434464	2573.438462
794.756507	2573.135993
795.078505	2573.766137
795.400457	2568.576269
795.722364	2567.986454
796.044226	2569.231619
796.366042	2568.349418
796.687812	2570.512072
797.009538	2574.028277
797.331218	2569.539130
797.652852	2572.344532
797.974442	2571.658935
798.295986	2570.882597
798.617484	2571.467371
798.938938	2572.561302
799.260346	2572.702454
799.581709	2571.230437
799.903026	2570.224727
800.224299	2570.222206
800.545526	2571.782443
800.866708	2568.442679
801.187845	2572.145406
801.508936	2566.317832
801.829983	2573.269584
802.150984	2570.237330
802.471940	2569.740776
802.792851	2570.854871
803.113717	2570.920406
803.434538	2571.401836
803.755314	2569.587021
804.076045	2571.122052
804.396731	2567.318502
804.717372	2571.510221
805.037967	2569.395457
805.358518	2569.090467
805.679024	2570.817062
805.999485	2567.827658
806.319901	2568.437638
806.640272	2568.835889
806.960598	2569.095508
807.280879	2571.064079
807.601115	2570.224727
807.921306	2572.125242
808.241453	2567.890673
808.561554	2568.840930
808.881611	2569.392936
809.201623	2571.101887
809.521590	2568.417473
809.841513	2571.971487
810.161390	2571.999213
810.481223	2569.070302
810.801011	2571.540468
811.120755	2570.680951
811.440453	2571.079202
811.760107	2571.323698
812.079716	2568.490570
812.399281	2567.225240
812.718801	2565.183573
813.038276	2566.320353
813.357707	2567.265569
813.677093	2570.181877
813.996434	2570.012998
814.315731	2568.029304
814.634983	2570.784295
814.954191	2570.615416
815.273354	2570.204562
815.592473	2568.944274
815.911547	2568.210786
816.230577	2571.225396
816.549562	2570.050807
816.868502	2569.418142
817.187399	2570.958215
817.506250	2571.752196
817.825058	2571.858061
818.143821	2571.333781
818.462539	2571.217834
818.781213	2573.877043
819.099843	2571.212793
819.418429	2574.227403
819.736970	2574.708833
820.055466	2576.828638
820.373919	2576.201015
820.692327	2578.895511
821.010691	2581.577405
821.329011	2587.606625
821.647286	2606.556322
821.965517	2616.376490
822.283704	2629.443161
822.601847	2639.008750
822.919945	2634.950622
823.237999	2629.397791
823.556010	2625.627007
823.873976	2614.183588
824.191897	2611.030347
824.509775	2602.014243
824.827609	2597.630960
825.145398	2593.398911
825.463144	2593.497213
825.780845	2592.587285
826.098502	2592.851946
826.416116	2594.787749
826.733685	2598.200610
827.051210	2597.812441
827.368692	2600.028028
827.686129	2599.135744
828.003522	2594.006370
828.320872	2586.789958
828.638177	2583.167889
828.955439	2581.826942
829.272656	2576.972311
829.589830	2575.563309
829.906960	2577.151272
830.224046	2574.547516
830.541088	2572.125242
830.858086	2571.883266
831.175041	2573.032649
831.491952	2573.614903
831.808819	2573.945098
832.125642	2574.081209
832.442421	2572.856209
832.759157	2574.146744
833.075849	2577.277301
833.392497	2579.649164
833.709101	2582.988928
834.025662	2581.927765
834.342179	2582.671336
834.658653	2579.339133
834.975083	2579.946592
835.291469	2587.911615
835.607811	2575.018864
835.924110	2574.784450
836.240366	2572.881415
836.556578	2576.818556
836.872746	2573.047773
837.188871	2570.277659
837.504952	2570.575087
837.820990	2568.815724
838.136984	2568.546023
838.452935	2569.745817
838.768842	2570.217165
839.084706	2570.595252
839.400526	2570.068451
839.716303	2569.743297
840.032037	2573.216652
840.347727	2573.622464
840.663373	2573.191446
840.978977	2574.040880
841.294537	2570.567525
841.610054	2569.909655
841.925527	2570.741445
842.240957	2570.491908
842.556344	2569.032494
842.871687	2570.953173
843.186987	2567.774726
843.502244	2570.151630
843.817458	2567.356310
844.132629	2568.304047
844.447756	2566.721125
844.762840	2561.856411
845.077881	2566.857236
845.392879	2562.753737
845.707833	2564.077040
846.022745	2565.581824
846.337613	2567.368913
846.652438	2564.772719
846.967221	2566.547205
847.281960	2566.683316
847.596656	2567.994016
847.911309	2566.796742
848.225919	2567.988975
848.540485	2568.800601
848.855009	2566.766495
849.169490	2565.473439
849.483928	2565.639797
849.798323	2565.428069
850.112675	2565.176011
850.426984	2568.205745
850.741251	2565.601989
851.055474	2566.915209
851.369654	2568.888821
851.683792	2564.994530
851.997887	2564.445044
852.311938	2564.288768
852.625947	2565.722976
852.939914	2566.274983
853.253837	2568.319171
853.567718	2567.116855
853.881555	2567.275652
854.195350	2564.349262
854.509103	2565.241546
854.822812	2565.959911
855.136479	2565.251628
855.450103	2564.651731
855.763685	2565.791032
856.077224	2565.342369
856.390720	2567.842782
856.704173	2566.726166
857.017584	2567.530230
857.330953	2564.339180
857.644278	2566.408573
857.957561	2568.241033
858.270802	2567.376475
858.584000	2566.610219
858.897155	2566.476629
859.210268	2563.787173
859.523339	2564.941597
859.836367	2566.103583
860.149352	2567.200034
860.462295	2566.479149
860.775195	2561.044786
861.088054	2561.997564
861.400869	2561.964796
861.713642	2561.571586
862.026373	2562.640311
862.339062	2567.378995
862.651708	2566.756413
862.964312	2567.631053
863.276873	2564.636608
863.589392	2566.433779
863.901869	2564.707184
864.214303	2565.276834
864.526696	2562.998233
864.839045	2564.702143
865.151353	2567.598286
865.463619	2565.170970
865.775842	2567.429407
866.088023	2566.007802
866.400162	2567.545353
866.712258	2564.475291
867.024313	2563.719118
867.336325	2566.794222
867.648296	2564.825651
867.960224	2568.800601
868.272110	2565.501166
868.583954	2564.417317
868.895755	2564.407235
869.207515	2566.844633
869.519233	2567.401681
869.830909	2567.852864
870.142542	2569.672720
870.454134	2569.476115
870.765684	2566.038048
871.077191	2565.367575
871.388657	2569.377813
871.700081	2564.061916
872.011463	2567.164746
872.322803	2563.628377
872.634101	2567.469736
872.945357	2564.245918
873.256571	2568.281362
873.567744	2566.824468
873.878874	2570.575087
874.189963	2567.812535
874.501010	2567.522668
874.812015	2567.353790
875.122979	2565.586865
875.433900	2565.896896
875.744780	2568.989644
876.055618	2568.238512
876.366415	2568.291444
876.677169	2568.793039
876.987882	2565.453275
877.298554	2565.556618
877.609183	2563.280537
877.919771	2564.964283
878.230317	2565.395301
878.540822	2571.895869
878.851285	2567.936043
879.161707	2568.097360
879.472087	2570.504511
879.782425	2571.230437
880.092722	2574.376117
880.402977	2579.674370
880.713191	2585.191912
881.023363	2594.409662
881.333494	2598.535847
881.643583	2600.539705
881.953631	2602.785539
882.263637	2599.634818
882.573602	2599.453337
882.883526	2598.336721
883.193408	2597.419231
883.503248	2594.636514
883.813048	2590.520412
884.122806	2587.732654
884.432522	2587.883889
884.742197	2581.837025
885.051831	2583.500605
885.361424	2578.121694
885.670975	2579.656726
885.980485	2577.012640
886.289954	2573.967783
886.599382	2572.871332
886.908768	2573.012485
887.218113	2570.902762
887.527417	2572.221024
887.836680	2570.998544
888.145901	2569.040056
888.455082	2571.318657
888.764221	2569.791188
889.073319	2564.697102
889.382376	2570.184398
889.691392	2566.368244
890.000366	2569.781105
890.309300	2567.447051
890.618193	2570.280179
890.927044	2568.848492
891.235855	2569.125755
891.544625	2566.277503
891.853353	2567.875549
892.162041	2570.335632
892.470687	2568.777916
892.779293	2570.343194
893.087858	2568.029304
893.396381	2564.026628
893.704864	2567.779767
894.013306	2566.965621
894.321707	2575.243195
894.630068	2576.707651
894.938387	2578.043556
895.246665	2579.941551
895.554903	2576.974832
895.863100	2575.396951
896.171256	2575.454924
896.479371	2575.485171
896.787446	2573.345201
897.095480	2570.222206
897.403473	2570.585169
897.711425	2572.102557
898.019336	2570.786815
898.327207	2571.427042
898.635038	2569.723132
898.942827	2568.598955
899.250576	2569.561815
899.558284	2568.495611
899.865952	2569.241702
900.173579	2565.622153
900.481165	2568.571228
900.788711	2564.485373
901.096216	2567.101732
901.403681	2564.792883
901.711105	2567.946125
902.018489	2564.611402
902.325832	2569.118193
902.633135	2567.288255
902.940397	2568.805642
903.247619	2569.156002
903.554800	2569.864284
903.861941	2571.527865
904.169041	2577.410892
904.476101	2578.824935
904.783121	2580.264185
905.090100	2579.003896
905.397039	2576.201015
905.703938	2575.671693
906.010796	2575.414595
906.317614	2572.866291
906.624391	2572.447876
906.931129	2570.864953
907.237826	2570.933009
907.544483	2571.001064
907.851099	2567.568039
908.157675	2568.172977
908.464211	2568.208265
908.770707	2564.319015
909.077163	2562.272307
909.383578	2562.350444
909.689954	2560.301215
909.996289	2563.666186
910.302584	2564.016546
910.608839	2563.729200
910.915054	2564.770198
911.221229	2563.530074
911.527363	2565.226423
911.833458	2566.834551
912.139513	2565.944787
912.445527	2565.397822
912.751502	2564.767678
913.057436	2567.169787
913.363331	2566.922771
913.669186	2566.912689
913.975000	2566.579972
914.280775	2565.952349
914.586510	2569.037535
914.892205	2566.700960
915.197859	2570.685992
915.503475	2572.977197
915.809050	2577.615058
916.114585	2578.192270
916.420081	2576.846282
916.725536	2578.482137
917.030952	2578.169585
917.336328	2576.982393
917.641665	2577.622620
917.946961	2576.662280
918.252218	2573.745973
918.557435	2576.284194
918.862612	2574.940726
919.167750	2573.050293
919.472848	2573.362845
919.777906	2571.149778
920.082925	2569.276990
920.387904	2569.443348
920.692843	2570.600293
920.997743	2568.374623
921.302603	2569.982751
921.607423	2568.634243
921.912204	2566.012843
922.216946	2565.385219
922.521647	2565.614592
922.826310	2567.389078
923.130932	2563.172153
923.435516	2563.305743
923.740059	2564.674416
924.044564	2563.396484
924.349028	2565.949828
924.653454	2560.825495
924.957840	2564.011505
925.262186	2562.390774
925.566493	2563.015877
925.870761	2558.834240
926.174989	2565.183573
926.479178	2562.166442
926.783328	2563.726679
927.087438	2561.760629
927.391509	2565.977555
927.695541	2564.843295
927.999533	2564.329097
928.303486	2563.094015
928.607400	2562.819272
928.911275	2562.736093
929.215110	2564.198027
929.518906	2563.683830
929.822663	2563.335990
930.126381	2564.258521
930.430060	2564.588717
930.733699	2564.573593
931.037299	2562.703325
931.340861	2561.130485
931.644383	2562.216854
931.947866	2560.402038
932.251309	2563.368757
932.554714	2561.314487
932.858080	2564.586196
933.161407	2564.810527
933.464694	2564.674416
933.767943	2561.637121
934.071153	2563.779612
934.374323	2561.624518
934.677455	2565.208779
934.980548	2558.007490
935.283602	2561.564024
935.586617	2564.863460
935.889593	2565.760785
936.192530	2563.262893
936.495428	2562.781463
936.798287	2559.625701
937.101108	2565.112997
937.403890	2563.706515
937.706632	2562.385733
938.009336	2564.908830
938.312002	2562.763819
938.614628	2562.662996
938.917216	2561.465722
939.219765	2564.772719
939.522275	2562.448747
939.824747	2565.382698
940.127179	2561.508572
940.429573	2562.025290
940.731929	2559.804662
941.034246	2557.997408
941.336524	2560.964127
941.638763	2563.945970
941.940964	2567.111814
942.243126	2562.068140
942.545250	2564.243398
942.847335	2564.152657
943.149381	2561.601833
943.451389	2562.564693
943.753359	2561.616957
944.055290	2564.649211
944.357182	2563.222564
944.659036	2563.348593
944.960851	2562.887327
945.262628	2562.297512
945.564367	2564.656772
945.866067	2563.358675
946.167729	2563.706515
946.469352	2562.720969
946.770937	2562.168963
947.072484	2561.329611
947.373992	2563.802297
947.675462	2562.713407
947.976893	2561.599312
948.278286	2560.344065
948.579641	2564.213151
948.880958	2563.779612
949.182236	2561.838767
949.483476	2562.035372
949.784678	2563.272976
950.085841	2562.277348
950.386967	2563.709035
950.688054	2563.509910
950.989103	2562.874724
951.290114	2560.565876
951.591087	2561.876576
951.892021	2561.407749
952.192917	2563.257852
952.493776	2567.537792
952.794596	2563.252811
953.095378	2562.478994
953.396122	2564.414797
953.696828	2565.435631
953.997496	2566.645507
954.298126	2561.455640
954.598718	2566.695919
954.899272	2562.605023
955.199788	2560.061761
955.500266	2563.076371
955.800706	2560.369271
956.101108	2560.316339
956.401472	2561.206102
956.701798	2558.289795
957.002087	2556.732078
957.302337	2562.978068
957.602550	2563.772050
957.902724	2562.829354
958.202861	2559.988664
958.502960	2560.840619
958.803022	2562.020249
959.103045	2560.951524
959.403031	2563.356155
959.702979	2558.509085
960.002889	2561.634601
960.302762	2560.588561
960.602596	2561.266596
960.902393	2561.652245
961.202153	2560.528067
961.501875	2559.345917
961.801559	2559.320711
962.101205	2561.576627
962.400814	2559.819785
962.700385	2563.343552
962.999918	2562.453788
963.299414	2558.267110
963.598873	2559.580330
963.898293	2558.559497
964.197677	2558.428427
964.497022	2559.804662
964.796331	2560.447409
965.095601	2559.250135
965.394835	2563.519992
965.694030	2561.006977
965.993189	2561.717780
966.292309	2557.445402
966.591393	2560.102090
966.890439	2559.615618
967.189447	2563.431772
967.488419	2560.661658
967.787353	2560.608726
968.086249	2560.780125
968.385108	2561.876576
968.683930	2560.185269
968.982714	2560.366750
969.281462	2559.373643
969.580172	2561.047306
969.878844	2560.548232
970.177480	2562.622667
970.476078	2559.482028
970.774639	2560.230639
971.073162	2560.969168
971.371649	2557.964641
971.670098	2555.174362
971.968510	2556.737120
972.266885	2556.727037
972.565223	2561.291802
972.863524	2561.168294
973.161788	2559.960937
973.460014	2559.913047
973.758204	2561.201061
974.056356	2560.790207
974.354471	2561.773232
974.652550	2561.012018
974.950591	2560.215516
975.248595	2560.225598
975.546563	2561.939590
975.844493	2559.456822
976.142386	2560.795248
976.440243	2561.047306
976.738062	2558.801472
977.035845	2558.292316
977.333590	2563.804817
977.631299	2562.423541
977.928971	2562.529405
978.226606	2560.780125
978.524204	2561.654765
978.821765	2560.530588
979.119290	2558.241904
979.416777	2559.121585
979.714228	2560.041596
980.011642	2558.867007
980.309020	2564.190466
980.606360	2561.256514
980.903664	2559.035886
981.200931	2559.839950
981.498162	2560.492779
981.795356	2561.586710
982.092513	2562.549570
982.389633	2561.664848
982.686717	2563.598130
982.983764	2563.416648
983.280775	2563.910682
983.577749	2562.839436
983.874686	2563.789694
984.171587	2564.820610
984.468451	2560.354148
984.765279	2563.477142
985.062070	2563.464539
985.358824	2562.395815
985.655543	2564.573593
985.952224	2562.496638
986.248869	2562.015208
986.545478	2557.639486
986.842050	2557.314332
987.138586	2556.732078
987.435086	2557.677295
987.731549	2555.683518
988.027975	2560.691905
988.324366	2558.839281
988.620719	2557.581513
988.917037	2560.404559
989.213318	2560.381874
989.509563	2557.649568
989.805772	2560.838098
990.101944	2561.170814
990.398080	2558.592264
990.694180	2557.097562
990.990244	2559.454302
991.286271	2560.507903
991.582262	2559.434137
991.878217	2560.215516
992.174136	2561.291802
992.470019	2561.022100
992.765865	2559.839950
993.061676	2561.468242
993.357450	2559.842470
993.653188	2557.800803
993.948890	2562.078222
994.244556	2560.041596
994.540186	2563.580486
994.835780	2559.930691
995.131337	2562.713408
995.426859	2559.575289
995.722345	2558.148643
996.017795	2560.167625
996.313208	2562.443706
996.608586	2558.685526
996.903928	2561.339693
997.199234	2561.823644
997.494504	2560.822975
997.789738	2561.576627
998.084936	2561.135526
998.380099	2559.676112
998.675225	2559.915567
998.970316	2562.826833
999.265371	2560.802810
999.560390	2559.751730
999.855373	2565.463357
1000.150320	2561.085115
1000.445232	2559.504713
1000.740108	2559.033365
1001.034948	2559.366081
1001.329752	2561.571586
1001.624521	2558.496482
1001.919254	2557.591595
1002.213951	2559.814744
1002.508613	2558.093190
1002.803239	2555.673436
1003.097829	2557.279044
1003.392384	2557.959599
1003.686903	2559.529919
1003.981386	2559.721483
1004.275834	2556.757284
1004.570246	2561.836247
1004.864623	2557.485731
1005.158964	2561.533777
1005.453270	2558.287274
1005.747540	2560.505382
1006.041775	2560.182748
1006.335974	2559.318190
1006.630138	2559.313149
1006.924266	2558.234342
1007.218359	2558.443550
1007.512416	2559.711400
1007.806438	2559.116544
1008.100425	2559.093859
1008.394376	2558.299877
1008.688292	2558.463715
1008.982172	2559.776935
1009.276017	2560.192831
1009.569827	2558.884651
1009.863602	2560.076884
1010.157341	2558.506565
1010.451045	2561.609395
1010.744714	2558.766184
1011.038347	2558.504044
1011.331945	2559.582851
1011.625508	2559.683674
1011.919036	2559.721483
1012.212528	2559.605536
1012.505986	2557.478169
1012.799408	2560.434806
1013.092795	2558.307439
1013.386147	2557.742830
1013.679464	2560.404559
1013.972745	2557.256358
1014.265992	2559.353478
1014.559204	2559.807182
1014.852380	2560.563355
1015.145521	2561.080074
1015.438628	2559.572769
1015.731699	2558.725855
1016.024736	2559.925649
1016.317737	2560.212995
1016.610703	2557.153015
1016.903635	2557.657130
1017.196531	2553.959444
1017.489393	2558.045299
1017.782219	2556.197716
1018.075011	2552.951213
1018.367768	2558.609908
1018.660490	2559.169476
1018.953177	2559.169476
1019.245829	2559.169476
