Dividing Wavelength (nm)	Counts (n)	Blue Motor Position (mm): 0.000000	Red Motor Position (mm): 19.700000	
326.493990	2130.507562
326.888308	2130.507562
327.282561	2130.507562
327.676750	2096.757037
328.070874	2095.763930
328.464933	2096.373909
328.858929	2107.870261
329.252859	2114.237238
329.646726	2125.206789
330.040528	2138.626340
330.434265	2155.864566
330.827938	2172.271001
331.221547	2189.690708
331.615091	2208.504294
332.008571	2228.681513
332.401986	2247.505181
332.795338	2267.329518
333.188625	2287.552107
333.581847	2306.647998
333.975006	2323.687098
334.368100	2343.453462
334.761129	2362.151102
335.154095	2377.947557
335.546996	2393.736451
335.939833	2409.003586
336.332606	2425.410021
336.725315	2438.138934
337.117960	2447.013886
337.510540	2456.370267
337.903056	2467.244036
338.295508	2474.437762
338.687896	2481.341623
339.080220	2489.813282
339.472480	2495.794611
339.864676	2501.831393
340.256807	2505.423215
340.648875	2510.393792
341.040879	2509.710716
341.432818	2512.964781
341.824694	2514.300687
342.216506	2515.238341
342.608253	2513.864627
342.999937	2512.717764
343.391557	2514.235152
343.783113	2513.516787
344.174605	2513.073166
344.566033	2509.471261
344.957397	2509.829183
345.348697	2507.374141
345.739934	2503.981445
346.131106	2503.258039
346.522215	2503.424397
346.913260	2498.536998
347.304241	2500.843326
347.695159	2499.247801
348.086012	2494.244456
348.476802	2492.107007
348.867528	2492.021307
349.258191	2492.376708
349.648789	2490.854280
350.039324	2485.041830
350.429796	2488.353868
350.820203	2484.998980
351.210548	2485.719865
351.600828	2487.411172
351.991045	2486.927221
352.381198	2484.376397
352.771288	2482.982518
353.161314	2482.440594
353.551276	2484.308342
353.941175	2480.325830
354.331010	2484.653661
354.720782	2480.713999
355.110490	2482.977477
355.500135	2483.524442
355.889717	2483.020327
356.279235	2482.846407
356.668689	2485.956799
357.058080	2483.756335
357.447408	2480.340954
357.836672	2479.776344
358.225873	2481.848259
358.615010	2479.146200
359.004084	2488.933600
359.393095	2485.528301
359.782043	2489.364619
360.170927	2487.320431
360.559748	2487.932931
360.948505	2490.110710
361.337199	2489.833446
361.725830	2491.978457
362.114398	2492.747233
362.502903	2489.871255
362.891344	2491.565083
363.279722	2491.620535
363.668037	2493.047182
364.056289	2492.311173
364.444478	2492.918633
364.832603	2491.993581
365.220665	2497.611947
365.608665	2496.979282
365.996601	2497.120434
366.384474	2497.871566
366.772284	2501.009684
367.160031	2501.274345
367.547715	2501.554129
367.935336	2505.080416
368.322893	2508.195849
368.710388	2511.462517
369.097820	2517.834535
369.485189	2521.186903
369.872495	2528.423479
370.259738	2535.022349
370.646918	2542.884029
371.034035	2549.767724
371.421090	2562.821792
371.808081	2569.902093
372.195010	2577.869637
372.581875	2589.434043
372.968678	2604.756631
373.355418	2614.967488
373.742096	2633.864253
374.128710	2648.760862
374.515262	2663.821310
374.901751	2677.238341
375.288177	2691.540094
375.674540	2712.458362
376.060841	2731.909654
376.447079	2750.582088
376.833254	2770.688730
377.219367	2780.955040
377.605417	2820.127326
377.991404	2827.865497
378.377329	2852.695700
378.763191	2869.588607
379.148991	2906.351221
379.534727	2932.151847
379.920402	2961.398101
380.306013	2971.636684
380.691563	3022.920342
381.077049	3043.279042
381.462474	3061.124727
381.847835	3098.429265
382.233134	3122.049591
382.618371	3119.960033
383.003545	3189.054088
383.388657	3196.852753
383.773706	3230.951117
384.158693	3246.190525
384.543618	3270.030142
384.928480	3308.715957
385.313280	3351.369159
385.698017	3350.451669
386.082692	3404.177766
386.467305	3409.730597
386.851856	3441.651183
387.236344	3465.337045
387.620770	3495.122702
388.005133	3523.325437
388.389435	3545.519117
388.773674	3560.019996
389.157851	3599.114144
389.541965	3616.178450
389.926018	3581.984304
390.310008	3651.542144
390.693936	3672.205834
391.077802	3711.988100
391.461606	3700.161553
391.845348	3765.754526
392.229027	3763.191099
392.612645	3777.074437
392.996200	3853.977239
393.379694	3892.194226
393.763125	3958.203095
394.146494	3925.193619
394.529801	3983.844924
394.913047	4040.515055
395.296230	3998.975947
395.679351	4059.031213
396.062410	4079.977207
396.445408	4055.731777
396.828343	4090.223352
397.211217	4114.995582
397.594028	4039.164025
397.976778	4102.075105
398.359466	4127.086790
398.742092	4157.605935
399.124656	4078.308585
399.507158	4157.295904
399.889598	4186.746325
400.271977	4248.296293
400.654294	4212.428483
401.036549	4223.463569
401.418742	4196.979867
401.800874	4298.380156
402.182944	4317.087878
402.564952	4376.976786
402.946898	4369.185682
403.328783	4365.185527
403.710606	4280.247126
404.092367	4471.097649
404.474067	4435.484417
404.855705	4445.075213
405.237282	4370.592164
405.618797	4479.133248
406.000250	4515.217827
406.381642	4595.299077
406.762972	4551.937592
407.144240	4563.363367
407.525447	4561.636772
407.906593	4618.218682
408.287677	4658.900794
408.668700	4588.997634
409.049661	4637.732989
409.430560	4672.380839
409.811399	4595.210856
410.192176	4750.485957
410.572891	4686.493550
410.953545	4781.184063
411.334138	4659.712420
411.714669	4718.061255
412.095139	4608.340542
412.475547	4740.655707
412.855894	4707.731931
413.236180	4707.946180
413.616405	4653.610103
413.996568	4723.044436
414.376670	4657.244775
414.756711	4599.631948
415.136691	4617.071820
415.516609	4671.942259
415.896466	4692.253068
416.276262	4705.201272
416.655997	4667.914377
417.035670	4812.101459
417.415283	4870.667064
417.794834	4802.414882
418.174324	4740.128906
418.553753	4633.266527
418.933121	4764.628914
419.312428	4796.360457
419.691674	4718.275504
420.070859	4789.096154
420.449983	4687.060679
420.829045	4744.620574
421.208047	4640.382115
421.586988	4663.619314
421.965867	4630.269561
422.344686	4686.117984
422.723444	4544.597672
423.102141	4380.296386
423.480777	4550.142941
423.859352	4347.836396
424.237866	4478.253567
424.616319	4431.769087
424.994712	4455.412098
425.373044	4335.044468
425.751314	4371.426475
426.129524	4205.065878
426.507673	4271.495683
426.885762	4275.788225
427.263789	4180.767516
427.641756	4078.003595
428.019662	4085.063731
428.397508	4039.988254
428.775292	3961.074032
429.153016	3957.159576
429.530679	3877.937843
429.908282	3865.395452
430.285824	3765.653703
430.663305	3824.247034
431.040726	3667.812468
431.418086	3630.399545
431.795385	3619.382103
432.172624	3577.359045
432.549802	3528.220398
432.926920	3490.220180
433.303977	3450.112760
433.680974	3417.433480
434.057910	3376.816904
434.434786	3336.560770
434.811601	3289.650313
435.188355	3308.179074
435.565050	3241.466964
435.941683	3196.850232
436.318257	3200.550439
436.694770	3153.634941
437.071222	3128.030920
437.447614	3078.476378
437.823946	3032.216230
438.200218	3022.098634
438.576429	2974.268166
438.952580	2958.822071
439.328670	2934.506065
439.704700	2899.621281
440.080670	2873.545913
440.456580	2872.877960
440.832429	2837.262208
441.208218	2804.557722
441.583947	2796.108748
441.959616	2774.915737
442.335224	2751.479413
442.710773	2742.060017
443.086261	2727.082749
443.461689	2702.439069
443.837057	2693.460774
444.212365	2686.438446
444.587612	2670.112670
444.962800	2663.523882
445.337927	2651.951913
445.712995	2631.499952
446.088002	2638.376086
446.462949	2625.304374
446.837837	2616.568054
447.212664	2613.122425
447.587431	2610.649739
447.962139	2612.832559
448.336786	2625.080042
448.711374	2614.105450
449.085901	2594.601226
449.460369	2587.841039
449.834776	2581.285018
450.209124	2584.012282
450.583412	2580.838876
450.957640	2578.527507
451.331808	2575.165057
451.705917	2567.121897
452.079965	2571.157340
452.453954	2566.700960
452.827883	2564.210630
453.201752	2563.787173
453.575562	2562.605023
453.949311	2561.705177
454.323001	2556.976574
454.696632	2556.848025
455.070202	2559.847512
455.443713	2560.056719
455.817164	2555.890206
456.190556	2557.841132
456.563888	2556.626214
456.937160	2553.472972
457.310373	2558.251986
457.683526	2556.913560
458.056619	2555.449105
458.429653	2552.005997
458.802628	2556.127140
459.175542	2553.530946
459.548398	2555.038251
459.921194	2556.172510
460.293930	2555.612942
460.666607	2557.498334
461.039224	2561.553942
461.411782	2558.708211
461.784280	2561.679971
462.156719	2559.963458
462.529099	2559.509754
462.901419	2554.922304
463.273680	2557.339537
463.645882	2559.555125
464.018024	2556.732078
464.390106	2558.471277
464.762130	2558.488921
465.134094	2561.185938
465.505999	2565.395301
465.877845	2571.734552
466.249631	2577.037846
466.621358	2572.944429
466.993026	2575.036508
467.364634	2575.417115
467.736184	2570.320509
468.107674	2565.135682
468.479105	2567.202555
468.850477	2565.750703
469.221790	2565.687688
469.593043	2561.576627
469.964238	2564.765157
470.335373	2561.977399
470.706449	2565.115517
471.077467	2563.444375
471.448425	2570.814542
471.819324	2575.560788
472.190164	2576.513566
472.560945	2572.886456
472.931667	2562.471432
473.302330	2565.481001
473.672934	2560.016390
474.043479	2563.635939
474.413965	2564.714746
474.784393	2559.421534
475.154761	2563.925805
475.525070	2561.972358
475.895321	2562.027811
476.265513	2563.935887
476.635645	2570.209603
477.005719	2567.502504
477.375734	2568.157854
477.745691	2570.791857
478.115588	2573.466189
478.485427	2573.367886
478.855207	2570.645663
479.224928	2580.420460
479.594591	2582.522622
479.964194	2581.907601
480.333739	2582.812488
480.703226	2580.375090
481.072653	2582.827611
481.442022	2584.728126
481.811333	2585.259968
482.180584	2580.052456
482.549777	2583.001531
482.918912	2580.652353
483.287988	2581.789134
483.657005	2581.095975
484.025964	2579.936510
484.394864	2578.832497
484.763706	2582.487333
485.132489	2579.129925
485.501213	2582.303331
485.869879	2579.263516
486.238487	2574.406364
486.607036	2577.655387
486.975527	2575.918710
487.343959	2578.653536
487.712333	2579.346695
488.080648	2576.977352
488.448905	2577.534400
488.817104	2575.757393
489.185244	2575.533062
489.553326	2580.455748
489.921350	2583.384659
490.289315	2586.043867
490.657222	2586.003538
491.025070	2588.566965
491.392861	2586.532859
491.760593	2581.947930
492.128267	2583.062025
492.495883	2579.132446
492.863440	2578.958526
493.230939	2575.328895
493.598380	2575.608679
493.965763	2572.064748
494.333088	2572.929306
494.700354	2572.470561
495.067563	2572.508369
495.434713	2570.139027
495.801805	2573.909810
496.168839	2571.023750
496.535815	2573.473750
496.902733	2575.036508
497.269593	2572.841086
497.636395	2571.263204
498.003139	2574.431570
498.369825	2571.769840
498.736453	2575.366704
499.103023	2574.633216
499.469535	2572.677248
499.835989	2572.064748
500.202385	2570.645663
500.568723	2569.919737
500.935003	2570.549881
501.301226	2574.209759
501.667390	2572.949470
502.033497	2574.454255
502.399546	2572.636919
502.765537	2572.029460
503.131470	2574.658422
503.497345	2572.916703
503.863163	2574.691189
504.228923	2574.907959
504.594625	2575.764955
504.960269	2573.798905
505.325856	2575.936354
505.691385	2575.250757
506.056856	2572.878894
506.422270	2573.007444
506.787625	2573.554409
507.152924	2574.723957
507.518164	2578.247723
507.883347	2573.811508
508.248472	2572.843606
508.613540	2577.930130
508.978550	2575.195304
509.343503	2575.646488
509.708398	2575.898545
510.073236	2576.858885
510.438016	2576.629513
510.802738	2576.964749
511.167403	2576.667321
511.532010	2575.805284
511.896561	2577.451221
512.261053	2576.758062
512.625488	2575.606158
512.989866	2570.070972
513.354186	2573.297310
513.718449	2573.645150
514.082655	2576.843762
514.446803	2575.631364
514.810894	2579.697055
515.174927	2576.069945
515.538904	2575.089440
515.902822	2577.138669
516.266684	2578.333423
516.630488	2576.216138
516.994235	2578.557754
517.357925	2579.215625
517.721558	2579.366859
518.085133	2579.140007
518.448651	2580.546489
518.812112	2577.594894
519.175516	2579.613876
519.538863	2577.771334
519.902152	2580.715368
520.265385	2579.840728
520.628560	2578.159503
520.991678	2579.997003
521.354739	2579.455079
521.717743	2580.848958
522.080690	2581.310224
522.443580	2579.134966
522.806413	2578.991293
523.169189	2577.569688
523.531908	2582.222673
523.894569	2578.179667
524.257174	2579.467682
524.619722	2578.119174
524.982213	2583.361974
525.344647	2577.592373
525.707025	2579.427353
526.069345	2578.739236
526.431608	2581.453897
526.793815	2580.614545
527.155964	2579.659246
527.518057	2581.496747
527.880093	2580.168403
528.242072	2579.830645
528.603995	2581.403485
528.965860	2583.356933
529.327669	2577.287383
529.689421	2578.557754
530.051117	2579.324009
530.412755	2580.937179
530.774337	2578.154462
531.135862	2582.986408
531.497331	2578.865264
531.858743	2576.211097
532.220098	2579.283680
532.581396	2573.730849
532.942638	2578.741756
533.303824	2578.766962
533.664953	2578.779565
534.026025	2579.623958
534.387040	2579.296283
534.747999	2578.522466
535.108902	2579.606314
535.469748	2579.490368
535.830537	2575.044070
536.191270	2577.395768
536.551947	2580.831314
536.912567	2577.060531
537.273131	2578.603124
537.633638	2578.467013
537.994089	2579.387024
538.354483	2576.382496
538.714821	2576.705130
539.075103	2581.108578
539.435328	2579.916345
539.795497	2580.296952
540.155609	2578.290573
540.515665	2579.923907
540.875665	2576.760583
541.235609	2579.560944
541.595496	2580.866602
541.955328	2577.461303
542.315102	2576.261508
542.674821	2579.780234
543.034483	2579.409709
543.394090	2580.554051
543.753640	2577.471385
544.113134	2578.789647
544.472571	2578.635892
544.831953	2580.465831
545.191278	2578.991293
545.550548	2577.612538
545.909761	2580.644792
546.268918	2579.933989
546.628019	2578.799729
546.987064	2578.935841
547.346053	2578.792168
547.704986	2576.954667
548.063863	2579.109760
548.422684	2578.114132
548.781449	2578.794688
549.140158	2578.620768
549.498811	2580.485995
549.857408	2577.940213
550.215949	2575.477609
550.574434	2574.363514
550.932864	2574.444172
551.291237	2574.857547
551.649555	2577.557085
552.007817	2578.706468
552.366022	2578.880388
552.724173	2576.695048
553.082267	2579.961715
553.440305	2579.195460
553.798288	2576.858885
554.156215	2579.276118
554.514086	2578.169585
554.871902	2578.706468
555.229661	2579.132446
555.587365	2578.837538
555.945014	2577.957857
556.302606	2578.441807
556.660143	2578.358628
557.017625	2578.262847
557.375050	2577.302507
557.732421	2578.961046
558.089735	2575.432239
558.446994	2579.006417
558.804197	2577.201684
559.161345	2577.743608
559.518437	2577.181519
559.875474	2576.621951
560.232455	2577.824266
560.589381	2576.715212
560.946251	2580.420460
561.303065	2578.028433
561.659825	2574.968452
562.016528	2577.189081
562.373177	2575.608679
562.729770	2579.082034
563.086307	2576.324523
563.442789	2578.446849
563.799216	2575.739749
564.155587	2577.990624
564.511904	2576.523648
564.868164	2574.686148
565.224370	2582.094123
565.580520	2577.141190
565.936615	2576.490881
566.292654	2575.444842
566.648638	2575.928792
567.004567	2577.499112
567.360441	2579.034143
567.716260	2572.268915
568.072023	2577.128587
568.427732	2573.425859
568.783385	2574.323185
569.138982	2569.942422
569.494525	2571.883266
569.850013	2570.670869
570.205445	2577.859554
570.560823	2575.228072
570.916145	2574.731518
571.271412	2574.451734
571.626625	2575.061714
571.981782	2575.573391
572.336884	2574.988617
572.691931	2574.829821
573.046923	2573.640108
573.401860	2573.793864
573.756743	2573.534244
574.111570	2573.453586
574.466342	2576.974832
574.821059	2574.905438
575.175722	2574.234965
575.530330	2573.226734
575.884882	2574.418967
576.239380	2572.266394
576.593823	2573.461147
576.948211	2573.718246
577.302544	2575.797722
577.656823	2574.222362
578.011047	2574.696230
578.365216	2573.098184
578.719330	2572.321847
579.073389	2572.626837
579.427394	2572.551219
579.781344	2569.622309
580.135239	2570.617937
580.489080	2570.438976
580.842866	2571.853019
581.196597	2575.298648
581.550273	2571.366548
581.903895	2573.080540
582.257463	2573.287228
582.610975	2570.726322
582.964434	2574.023236
583.317837	2572.573904
583.671186	2571.691703
584.024481	2570.663307
584.377721	2570.048286
584.730906	2571.916034
585.084037	2570.809501
585.437113	2572.309244
585.790135	2574.214800
586.143103	2568.162895
586.496016	2569.415622
586.848874	2566.675754
587.201679	2568.329253
587.554428	2569.156002
587.907124	2568.717422
588.259765	2566.713563
588.612352	2568.551064
588.964884	2567.830179
589.317362	2569.345045
589.669786	2567.250446
590.022155	2571.422001
590.374470	2569.072823
590.726731	2569.581980
591.078937	2567.704150
591.431090	2568.011660
591.783188	2569.065261
592.135232	2568.624160
592.487222	2570.254974
592.839157	2569.682803
593.191038	2568.329253
593.542866	2566.698440
593.894639	2568.190621
594.246358	2570.232288
594.598022	2568.142730
594.949633	2568.311609
595.301190	2566.907647
595.652692	2566.123748
596.004141	2568.419994
596.355535	2569.017370
596.706876	2564.424879
597.058162	2565.730538
597.409395	2568.135168
597.760573	2568.470405
598.111698	2564.379509
598.462768	2565.617112
598.813785	2564.472770
599.164748	2566.685837
599.515657	2566.549726
599.866511	2561.932029
600.217312	2564.485373
600.568060	2565.173491
600.918753	2565.667524
601.269392	2566.257339
601.619978	2566.274983
601.970510	2564.805486
602.320988	2564.598799
602.671412	2567.066444
603.021783	2564.215671
603.372100	2566.716084
603.722363	2566.398491
604.072572	2567.668862
604.422728	2568.104922
604.772830	2560.152501
605.122878	2561.969837
605.472872	2562.960424
605.822813	2560.215516
606.172701	2565.874211
606.522534	2564.828172
606.872314	2566.161557
607.222041	2563.870352
607.571714	2566.481670
607.921333	2565.647359
608.270899	2563.335990
608.620411	2566.370765
608.969870	2567.426886
609.319276	2566.176680
609.668627	2568.235992
610.017926	2572.924265
610.367171	2571.094326
610.716362	2573.710685
611.065500	2568.069633
611.414585	2569.080385
611.763616	2569.652556
612.112594	2568.152812
612.461518	2566.022925
612.810389	2567.255487
613.159207	2567.094170
613.507971	2566.393450
613.856682	2566.247256
614.205340	2566.489232
614.553945	2567.099211
614.902496	2567.245405
615.250994	2567.873028
615.599439	2565.181052
615.947830	2563.497307
616.296169	2564.742472
616.644454	2565.291958
616.992686	2562.153839
617.340864	2565.417987
617.688990	2564.835733
618.037063	2565.274314
618.385082	2565.251628
618.733048	2567.943605
619.080961	2564.810528
619.428821	2563.981258
619.776628	2565.813717
620.124382	2565.995199
620.472083	2563.404046
620.819731	2565.619633
621.167326	2564.765157
621.514868	2566.345559
621.862357	2562.468912
622.209793	2565.715415
622.557176	2563.996381
622.904506	2562.884807
623.251783	2560.364230
623.599007	2559.945814
623.946179	2558.698128
624.293297	2561.213664
624.640363	2559.164435
624.987376	2562.216854
625.334336	2561.155691
625.681243	2562.085784
626.028097	2560.896072
626.374899	2565.037379
626.721647	2562.383212
627.068343	2564.374468
627.414987	2562.385732
627.761577	2561.465722
628.108115	2562.073181
628.454600	2561.231308
628.801032	2559.242573
629.147412	2562.995712
629.493739	2564.152657
629.840014	2561.780794
630.186236	2560.860783
630.532405	2558.987995
630.878521	2561.700136
631.224585	2562.542008
631.570597	2558.917419
631.916556	2557.410114
632.262462	2562.015208
632.608316	2561.213664
632.954117	2559.013201
633.299866	2559.219888
633.645562	2559.570248
633.991206	2558.194013
634.336797	2558.990515
634.682336	2557.458005
635.027823	2556.994218
635.373257	2558.698128
635.718639	2556.129661
636.063968	2556.288457
636.409245	2555.779300
636.754470	2555.713765
637.099642	2557.838612
637.444762	2556.512788
637.789829	2557.813406
638.134845	2555.065977
638.479808	2557.977243
638.824719	2554.743343
639.169577	2556.167469
639.514383	2555.103786
639.859137	2557.042109
640.203839	2553.936759
640.548489	2556.621173
640.893086	2554.355174
641.237632	2550.894422
641.582125	2554.476162
641.926566	2552.268137
642.270955	2554.277037
642.615292	2555.018086
642.959576	2558.103272
643.303809	2556.396842
643.647990	2558.032696
643.992118	2555.128992
644.336195	2558.156204
644.680219	2554.178734
645.024192	2556.729558
645.368112	2553.926676
645.711981	2558.924980
646.055797	2555.640669
646.399562	2556.480021
646.743274	2557.581513
647.086935	2556.192675
647.430544	2558.486400
647.774101	2558.720814
648.117606	2552.507592
648.461059	2556.006152
648.804460	2556.946327
649.147810	2555.524722
649.491108	2554.196378
649.834354	2555.648230
650.177548	2554.607232
650.520690	2555.151677
650.863781	2554.924825
651.206820	2555.945658
651.549807	2553.520863
651.892742	2554.211502
652.235626	2553.810730
652.578458	2555.050854
652.921238	2550.944834
653.263967	2553.674619
653.606644	2554.907181
653.949269	2552.253013
654.291843	2553.619166
654.634365	2553.750236
654.976836	2551.605225
655.319255	2553.979608
655.661622	2551.867365
656.003938	2555.335679
656.346203	2553.445246
656.688416	2555.807027
657.030577	2552.749567
657.372687	2554.239228
657.714746	2552.321069
658.056753	2552.308466
658.398708	2547.186654
658.740612	2550.488609
659.082465	2549.450132
659.424266	2548.996428
659.766016	2550.055070
660.107715	2550.549103
660.449362	2551.554813
660.790958	2554.161090
661.132503	2551.784186
661.473996	2554.718137
661.815438	2552.734443
662.156829	2553.205791
662.498168	2552.192519
662.839456	2553.886347
663.180693	2553.296532
663.521879	2556.076728
663.863013	2552.865513
664.204097	2551.824515
664.545129	2551.171686
664.886110	2554.592109
665.227040	2552.953734
665.567918	2555.267623
665.908746	2556.490103
666.249522	2551.728733
666.590248	2553.001625
666.930922	2553.046995
667.271545	2551.403579
667.612118	2555.224773
667.952639	2552.832746
668.293109	2554.042623
668.633528	2552.764690
668.973896	2554.576985
669.314213	2552.900802
669.654480	2552.452139
669.994695	2552.084135
670.334859	2553.276368
670.674973	2552.326110
671.015035	2554.939948
671.355047	2553.745195
671.695008	2554.428271
672.034918	2551.085986
672.374777	2553.316697
672.714585	2554.266954
673.054342	2554.924825
673.394049	2552.726882
673.733705	2555.648230
674.073310	2553.992211
674.412864	2551.917777
674.752368	2551.033054
675.091820	2551.877447
675.431223	2551.784186
675.770574	2552.520194
676.109875	2547.753783
676.449125	2550.017262
676.788324	2548.583053
677.127473	2550.939793
677.466571	2547.589946
677.805619	2548.986346
678.144616	2550.420554
678.483562	2551.159083
678.822458	2552.452139
679.161303	2553.974567
679.500098	2550.347457
679.838842	2549.603887
680.177535	2551.514484
680.516179	2551.143959
680.854771	2549.901315
681.193314	2552.255534
681.531805	2551.459032
681.870247	2551.733774
682.208638	2552.575647
682.546978	2554.430792
682.885268	2551.854762
683.223508	2550.380225
683.561697	2552.265616
683.899836	2553.094886
684.237925	2551.837118
684.575963	2551.494320
684.913951	2549.646737
685.251889	2554.100596
685.589776	2553.016748
685.927614	2551.706048
686.265401	2551.280071
686.603137	2551.832077
686.940824	2551.348126
687.278460	2554.508930
687.616046	2552.890719
687.953582	2554.866852
688.291068	2553.082283
688.628504	2552.794937
688.965889	2552.444577
689.303224	2554.582026
689.640510	2550.211346
689.977745	2549.157745
690.314930	2554.725699
690.652065	2551.643034
690.989150	2551.063301
691.326185	2551.862324
691.663170	2548.283105
692.000105	2550.445760
692.336990	2548.767055
692.673825	2549.805533
693.010610	2550.602035
693.347345	2544.751776
693.684030	2544.580377
694.020665	2544.411498
694.357251	2544.794626
694.693786	2545.392003
695.030272	2547.794113
695.366707	2547.889895
695.703093	2549.064483
696.039429	2549.608928
696.375716	2549.021634
696.711952	2549.208156
697.048139	2548.507436
697.384276	2548.434339
697.720363	2547.131201
698.056400	2548.530121
698.392388	2545.747404
698.728326	2547.718495
699.064214	2548.215049
699.400053	2549.954247
699.735842	2545.833104
700.071581	2546.846376
700.407270	2546.155738
700.742910	2547.509288
701.078501	2547.378217
701.414042	2545.147507
701.749533	2547.075748
702.084974	2545.606252
702.420366	2543.761190
702.755709	2546.498536
703.091002	2544.908052
703.426246	2544.739173
703.761440	2546.551468
704.096584	2546.995090
704.431679	2546.939637
704.766725	2544.272867
705.101721	2544.335881
705.436668	2543.592311
705.771565	2546.407795
706.106413	2548.255378
706.441212	2542.644574
706.775961	2544.131714
707.110661	2544.845038
707.445311	2546.702703
707.779913	2546.158258
708.114465	2550.055070
708.448967	2547.181613
708.783421	2546.251520
709.117825	2547.002652
709.452180	2544.827394
709.786485	2548.641027
710.120742	2546.924514
710.454949	2548.668753
710.789107	2545.066848
711.123216	2543.365459
711.457275	2545.303783
711.791286	2545.931406
712.125247	2545.278577
712.459159	2548.139432
712.793023	2551.887530
713.126837	2547.594987
713.460602	2548.003321
713.794318	2546.780841
714.127985	2548.688917
714.461602	2544.187167
714.795171	2548.136911
715.128691	2545.147507
715.462162	2547.433670
715.795584	2543.735984
716.128957	2544.086344
716.462281	2545.008875
716.795556	2545.233207
717.128782	2543.972918
717.461960	2547.403423
717.795088	2545.162630
718.128167	2545.253371
718.461198	2545.560882
718.794180	2546.153217
719.127113	2542.997455
719.459997	2544.938299
719.792833	2542.175747
720.125619	2544.030891
720.458357	2544.358566
720.791046	2543.483926
721.123686	2544.265305
721.456278	2543.715819
721.788821	2541.850592
722.121315	2543.630120
722.453761	2542.831097
722.786158	2541.346477
723.118506	2544.673638
723.450805	2541.590973
723.783056	2545.792775
724.115259	2542.561395
724.447412	2542.629451
724.779518	2544.824873
725.111574	2545.011396
725.443582	2544.799667
725.775542	2542.432846
726.107453	2544.252702
726.439315	2545.765048
726.771129	2547.438711
727.102895	2545.530635
727.434612	2545.475182
727.766281	2543.594832
728.097901	2545.094575
728.429473	2540.537372
728.760996	2542.563916
729.092471	2541.346477
729.423897	2542.914276
729.755276	2542.054759
730.086606	2542.374872
730.417887	2545.243289
730.749120	2549.422405
731.080305	2544.194729
731.411442	2549.729916
731.742530	2544.960984
732.073570	2544.300593
732.404562	2547.340409
732.735506	2544.903011
733.066401	2545.361756
733.397249	2545.477703
733.728048	2544.832435
734.058798	2543.630120
734.389501	2543.985521
734.720156	2540.229861
735.050762	2542.624409
735.381320	2545.059287
735.711831	2542.967208
736.042293	2542.730274
736.372707	2541.298586
736.703073	2543.657846
737.033391	2544.391334
737.363661	2540.081147
737.693883	2542.611807
738.024056	2544.635830
738.354182	2544.719009
738.684260	2542.510983
739.014290	2545.833104
739.344272	2543.529297
739.674207	2543.312527
740.004093	2544.030891
740.333931	2540.557536
740.663722	2544.076262
740.993464	2543.191539
741.323159	2544.046015
741.652806	2543.226827
741.982405	2542.364790
742.311956	2542.720191
742.641460	2541.941333
742.970915	2542.057280
743.300323	2542.425284
743.629683	2542.979811
743.958996	2542.621889
744.288260	2542.710109
744.617477	2544.373690
744.946647	2539.312371
745.275768	2541.253216
745.604842	2537.994110
745.933869	2539.249357
746.262847	2538.198276
746.591778	2544.028371
746.920662	2542.329502
747.249498	2541.132228
747.578286	2540.330684
747.907027	2542.145500
748.235720	2543.894780
748.564365	2543.015099
748.892963	2542.891591
749.221514	2541.805222
749.550017	2544.114070
749.878473	2545.127342
750.206881	2540.877650
750.535242	2542.105171
750.863555	2538.594007
751.191821	2540.096271
751.520039	2541.228010
751.848210	2541.661549
752.176334	2540.612989
752.504411	2541.220448
752.832440	2540.386137
753.160421	2540.542413
753.488356	2540.454193
753.816243	2541.195242
754.144082	2540.277752
754.471875	2543.307486
754.799620	2539.055272
755.127318	2542.518545
755.454969	2539.682896
755.782572	2543.007537
756.110129	2541.391847
756.437638	2540.688606
756.765100	2542.097609
757.092515	2541.328833
757.419882	2542.193391
757.747203	2540.890252
758.074477	2542.284132
758.401703	2539.597197
758.728882	2539.138452
759.056014	2543.128525
759.383099	2540.194573
759.710138	2541.888401
760.037129	2540.973432
760.364073	2541.154913
760.690970	2538.432690
761.017820	2545.265974
761.344623	2538.556198
761.671379	2540.197094
761.998088	2539.423277
762.324751	2541.797660
762.651366	2542.742877
762.977935	2547.990718
763.304456	2549.016592
763.630931	2552.540359
763.957359	2550.165976
764.283740	2548.875440
764.610074	2543.773792
764.936362	2545.896118
765.262602	2543.536858
765.588796	2542.853782
765.914943	2544.328319
766.241044	2539.846734
766.567097	2540.406302
766.893104	2538.152906
767.219064	2537.573173
767.544978	2543.113401
767.870845	2538.475540
768.196665	2539.342618
768.522438	2540.920499
768.848165	2539.803884
769.173846	2541.159954
769.499479	2539.203987
769.825066	2539.592155
770.150607	2538.999820
770.476101	2538.311702
770.801548	2539.549306
771.126949	2539.564429
771.452303	2538.397402
771.777611	2538.387320
772.102872	2540.181970
772.428087	2539.526620
772.753256	2536.080992
773.078378	2540.822197
773.403453	2535.992772
773.728482	2541.107022
774.053465	2537.812628
774.378401	2539.158616
774.703291	2539.153575
775.028135	2535.634850
775.352932	2537.817669
775.677683	2536.380940
776.002388	2537.618544
776.327046	2537.099305
776.651658	2537.633667
776.976224	2538.634336
777.300743	2540.739018
777.625216	2535.947401
777.949643	2537.336239
778.274024	2538.644418
778.598359	2532.610157
778.922647	2533.721732
779.246889	2533.585621
779.571086	2534.929088
779.895236	2533.812472
780.219339	2540.071065
780.543397	2537.701723
780.867409	2537.389171
781.191374	2536.945550
781.515294	2537.938657
781.839167	2536.882535
782.162995	2537.358924
782.486776	2539.834131
782.810511	2536.159130
783.134201	2539.690458
783.457844	2536.786753
783.781441	2539.282124
784.104993	2536.605272
784.428498	2535.836496
784.751958	2538.420087
785.075372	2537.603420
785.398739	2537.472350
785.722061	2537.374048
786.045337	2537.525282
786.368568	2537.608461
786.691752	2537.656352
787.014891	2537.595858
787.337983	2536.857329
787.661030	2539.587114
787.984031	2539.836651
788.306987	2537.661393
788.629897	2537.248019
788.952760	2536.539737
789.275579	2537.545447
789.598351	2539.491332
789.921078	2537.855478
790.243759	2538.062165
790.566395	2538.142824
790.888984	2537.487474
791.211529	2536.179294
791.534027	2537.492515
791.856480	2536.612833
792.178888	2538.538554
792.501249	2537.169881
792.823566	2539.544264
793.145836	2536.499407
793.468062	2536.638039
793.790241	2535.816331
794.112375	2536.653163
794.434464	2537.172402
794.756507	2537.908410
795.078505	2535.576876
795.400457	2536.438914
795.722364	2536.012936
796.044226	2530.260980
796.366042	2532.227030
796.687812	2534.974458
797.009538	2536.648122
797.331218	2537.028729
797.652852	2538.525951
797.974442	2532.968079
798.295986	2535.929757
798.617484	2538.619213
798.938938	2536.393543
799.260346	2535.649973
799.581709	2535.952442
799.903026	2539.060314
800.224299	2536.832124
800.545526	2538.626774
800.866708	2535.173584
801.187845	2535.758358
801.508936	2539.093081
801.829983	2535.357586
802.150984	2536.479243
802.471940	2535.218954
802.792851	2537.127031
803.113717	2536.433873
803.434538	2538.263811
803.755314	2536.426311
804.076045	2536.698533
804.396731	2536.156609
804.717372	2535.213913
805.037967	2538.246167
805.358518	2535.922195
805.679024	2538.324305
805.999485	2536.837165
806.319901	2538.541075
806.640272	2536.481763
806.960598	2536.784233
807.280879	2534.593851
807.601115	2534.009077
807.921306	2534.661907
808.241453	2535.392874
808.561554	2535.405477
808.881611	2537.462268
809.201623	2538.115097
809.521590	2535.692823
809.841513	2534.314067
810.161390	2536.280117
810.481223	2534.334232
810.801011	2536.547298
811.120755	2537.356404
811.440453	2537.792463
811.760107	2537.845396
812.079716	2536.461599
812.399281	2530.853315
812.718801	2534.319108
813.038276	2531.241484
813.357707	2537.381609
813.677093	2534.044366
813.996434	2537.593338
814.315731	2533.779705
814.634983	2536.343132
814.954191	2534.188038
815.273354	2537.416898
815.592473	2536.280117
815.911547	2537.316074
816.230577	2534.072092
816.549562	2537.237937
816.868502	2535.642411
817.187399	2537.631147
817.506250	2536.655683
817.825058	2536.043183
818.143821	2534.649304
818.462539	2537.580735
818.781213	2539.554347
819.099843	2539.382947
819.418429	2538.047042
819.736970	2541.807743
820.055466	2539.761034
820.373919	2543.524255
820.692327	2546.183464
821.010691	2549.064483
821.329011	2553.558672
821.647286	2570.766651
821.965517	2584.960019
822.283704	2595.551484
822.601847	2600.925354
822.919945	2595.052409
823.237999	2579.591191
823.556010	2570.161712
823.873976	2565.947308
824.191897	2559.625701
824.509775	2551.879968
824.827609	2551.068342
825.145398	2546.793444
825.463144	2549.520708
825.780845	2548.043650
826.098502	2552.457180
826.416116	2553.619166
826.733685	2561.863973
827.051210	2561.627039
827.368692	2559.154353
827.686129	2555.441543
828.003522	2548.956099
828.320872	2543.612476
828.638177	2540.522248
828.955439	2538.349511
829.272656	2538.226003
829.589830	2534.119983
829.906960	2536.688451
830.224046	2534.455220
830.541088	2539.705581
830.858086	2537.321116
831.175041	2539.745911
831.491952	2536.569984
831.808819	2539.267001
832.125642	2536.842206
832.442421	2539.123328
832.759157	2541.502753
833.075849	2542.720191
833.392497	2546.952240
833.709101	2547.862168
834.025662	2549.482899
834.342179	2548.091541
834.658653	2545.273536
834.975083	2541.359080
835.291469	2546.266643
835.607811	2537.613502
835.924110	2537.076620
836.240366	2537.512679
836.556578	2535.750796
836.872746	2539.710623
837.188871	2539.269522
837.504952	2535.821372
837.820990	2534.130065
838.136984	2532.894982
838.452935	2535.871784
838.768842	2535.912113
839.084706	2537.646270
839.400526	2539.014943
839.716303	2538.813297
840.032037	2538.785571
840.347727	2541.442259
840.663373	2536.595189
840.978977	2536.993441
841.294537	2534.319108
841.610054	2535.234078
841.925527	2535.970086
842.240957	2535.407998
842.556344	2533.878007
842.871687	2534.225847
843.186987	2534.240971
843.502244	2528.796524
843.817458	2535.692823
844.132629	2533.545291
844.447756	2533.673841
844.762840	2528.678057
845.077881	2532.290044
845.392879	2528.289888
845.707833	2532.244674
846.022745	2528.892306
846.337613	2533.741896
846.652438	2533.958666
846.967221	2534.419932
847.281960	2530.838192
847.596656	2535.518903
847.911309	2533.469674
848.225919	2532.463964
848.540485	2533.068902
848.855009	2533.633512
849.169490	2530.744930
849.483928	2531.874149
849.798323	2532.927750
850.112675	2532.053110
850.426984	2533.018491
850.741251	2532.327853
851.055474	2531.848943
851.369654	2530.787780
851.683792	2531.246525
851.997887	2530.659231
852.311938	2534.611495
852.625947	2535.128214
852.939914	2533.250384
853.253837	2533.918337
853.567718	2532.065713
853.881555	2532.582431
854.195350	2531.329704
854.509103	2534.508152
854.822812	2530.707122
855.136479	2532.456402
855.450103	2532.700898
855.763685	2529.910619
856.077224	2530.417255
856.390720	2534.581248
856.704173	2531.949766
857.017584	2532.511855
857.330953	2533.739376
857.644278	2535.503780
857.957561	2536.917823
858.270802	2533.308357
858.584000	2533.878008
858.897155	2534.480425
859.210268	2532.935312
859.523339	2533.895652
859.836367	2531.501103
860.149352	2532.027904
860.462295	2535.859181
860.775195	2528.020187
861.088054	2528.988088
861.400869	2528.231915
861.713642	2524.146060
862.026373	2530.944056
862.339062	2530.702081
862.651708	2532.811803
862.964312	2531.372554
863.276873	2534.631660
863.589392	2532.733666
863.901869	2532.108562
864.214303	2531.213758
864.526696	2532.670651
864.839045	2531.092770
865.151353	2533.686444
865.463619	2531.952287
865.775842	2532.592513
866.088023	2533.008408
866.400162	2533.872966
866.712258	2529.393901
867.024313	2533.971269
867.336325	2532.330373
867.648296	2532.431196
867.960224	2531.238963
868.272110	2535.594520
868.583954	2533.348686
868.895755	2533.078985
869.207515	2531.501103
869.519233	2532.630322
869.830909	2532.489170
870.142542	2533.131917
870.454134	2532.738707
870.765684	2531.586803
871.077191	2532.317770
871.388657	2537.401774
871.700081	2530.878521
872.011463	2533.757020
872.322803	2535.435724
872.634101	2532.310209
872.945357	2533.661238
873.256571	2534.631660
873.567744	2533.383974
873.878874	2531.163346
874.189963	2534.288862
874.501010	2536.363296
874.812015	2533.205013
875.122979	2533.595703
875.433900	2535.171063
875.744780	2534.228368
876.055618	2532.675692
876.366415	2532.814324
876.677169	2533.527647
876.987882	2533.565456
877.298554	2531.100332
877.609183	2530.225692
877.919771	2530.878521
878.230317	2535.720549
878.540822	2536.242309
878.851285	2537.094264
879.161707	2537.681558
879.472087	2536.517052
879.782425	2537.132072
880.092722	2542.362269
880.402977	2545.092054
880.713191	2553.901471
881.023363	2563.421690
881.333494	2571.628688
881.643583	2570.660787
881.953631	2569.660118
882.263637	2570.154151
882.573602	2564.702143
882.883526	2558.534291
883.193408	2554.340051
883.503248	2549.734957
883.813048	2548.799823
884.122806	2546.191026
884.432522	2546.155738
884.742197	2540.544933
885.051831	2539.569470
885.361424	2537.915972
885.670975	2536.612833
885.980485	2537.631147
886.289954	2538.208359
886.599382	2534.286341
886.908768	2537.593338
887.218113	2536.098636
887.527417	2538.772968
887.836680	2533.998995
888.145901	2532.458923
888.455082	2534.684592
888.764221	2532.748789
889.073319	2532.940353
889.382376	2533.220137
889.691392	2532.413552
890.000366	2535.544109
890.309300	2532.337935
890.618193	2532.912627
890.927044	2534.866074
891.235855	2533.789787
891.544625	2534.417411
891.853353	2535.793646
892.162041	2533.515044
892.470687	2533.179808
892.779293	2536.464119
893.087858	2534.056968
893.396381	2537.351362
893.704864	2535.687782
894.013306	2533.293234
894.321707	2545.878474
894.630068	2544.915614
894.938387	2545.923845
895.246665	2545.505429
895.554903	2546.322096
895.863100	2541.475026
896.171256	2541.147351
896.479371	2538.031918
896.787446	2538.047042
897.095480	2536.406146
897.403473	2535.811290
897.711425	2535.344983
898.019336	2534.616537
898.327207	2534.538399
898.635038	2537.439583
898.942827	2534.291382
899.250576	2533.368851
899.558284	2534.939170
899.865952	2531.533871
900.173579	2533.736855
900.481165	2533.709129
900.788711	2533.968748
901.096216	2533.842719
901.403681	2530.717204
901.711105	2535.849099
902.018489	2531.657379
902.325832	2533.346166
902.633135	2535.218954
902.940397	2534.210724
903.247619	2537.003523
903.554800	2539.566950
903.861941	2542.780685
904.169041	2546.748073
904.476101	2550.536500
904.783121	2549.946685
905.090100	2547.796633
905.397039	2543.965356
905.703938	2543.632640
906.010796	2540.484440
906.317614	2536.718698
906.624391	2536.038142
906.931129	2535.796167
907.237826	2535.806249
907.544483	2534.687113
907.851099	2534.530837
908.157675	2532.562266
908.464211	2533.199972
908.770707	2530.127389
909.077163	2529.290557
909.383578	2529.398942
909.689954	2528.403314
909.996289	2530.530681
910.302584	2534.069571
910.608839	2529.020856
910.915054	2531.274252
911.221229	2533.124355
911.527363	2529.466998
911.833458	2532.837009
912.139513	2532.537061
912.445527	2532.249715
912.751502	2530.021525
913.057436	2529.063706
913.363331	2533.434386
913.669186	2533.583100
913.975000	2532.867256
914.280775	2536.874973
914.586510	2535.579397
914.892205	2537.502597
915.197859	2540.166847
915.503475	2542.034594
915.809050	2546.054915
916.114585	2546.927034
916.420081	2546.957281
916.725536	2547.516849
917.030952	2545.810419
917.336328	2545.760007
917.641665	2541.248174
917.946961	2543.889739
918.252218	2540.118956
918.557435	2536.607792
918.862612	2537.810108
919.167750	2535.206352
919.472848	2534.482946
919.777906	2534.878677
920.082925	2533.809952
920.387904	2535.032432
920.692843	2533.005888
920.997743	2530.933974
921.302603	2533.618388
921.607423	2533.832637
921.912204	2534.868594
922.216946	2534.321629
922.521647	2531.554036
922.826310	2529.000691
923.130932	2534.326670
923.435516	2530.770136
923.740059	2530.863398
924.044564	2531.564118
924.349028	2532.526978
924.653454	2527.387522
924.957840	2530.306350
925.262186	2526.981709
925.566493	2528.078160
925.870761	2526.528005
926.174989	2532.794159
926.479178	2530.500434
926.783328	2528.562111
927.087438	2529.030938
927.391509	2529.986237
927.695541	2529.996319
927.999533	2531.196114
928.303486	2529.429189
928.607400	2530.747451
928.911275	2528.841895
929.215110	2531.309540
929.518906	2528.592358
929.822663	2529.756864
930.126381	2529.552698
930.430060	2531.997657
930.733699	2529.146885
931.037299	2530.404653
931.340861	2530.702081
931.644383	2531.307019
931.947866	2531.233922
932.251309	2530.099663
932.554714	2529.184693
932.858080	2531.395239
933.161407	2531.236443
933.464694	2532.300126
933.767943	2529.179652
934.071153	2531.798532
934.374323	2529.013294
934.677455	2529.714014
934.980548	2529.547656
935.283602	2528.728469
935.586617	2531.067564
935.889593	2531.793490
936.192530	2527.712676
936.495428	2530.137471
936.798287	2530.016484
937.101108	2529.461957
937.403890	2532.852133
937.706632	2530.402132
938.009336	2527.614374
938.312002	2528.428520
938.614628	2533.958666
938.917216	2534.130065
939.219765	2529.550177
939.522275	2529.862728
939.824747	2532.400949
940.127179	2526.782583
940.429573	2526.643952
940.731929	2526.795186
941.034246	2525.855011
941.336524	2528.415917
941.638763	2530.656710
941.940964	2530.218130
942.243126	2530.137471
942.545250	2530.323994
942.847335	2531.801052
943.149381	2528.655372
943.451389	2528.247039
943.753359	2529.005732
944.055290	2527.465660
944.357182	2528.751154
944.659036	2531.070085
944.960851	2532.300126
945.262628	2530.565969
945.564367	2528.715866
945.866067	2528.806607
946.167729	2530.853315
946.469352	2530.064375
946.770937	2530.543284
947.072484	2529.149405
947.373992	2529.560259
947.675462	2527.165711
947.976893	2531.382636
948.278286	2532.665610
948.579641	2528.221833
948.880958	2530.490352
949.182236	2529.000691
949.483476	2528.436082
949.784678	2531.274252
950.085841	2527.780732
950.386967	2529.986237
950.688054	2530.291227
950.989103	2532.221988
951.290114	2529.769467
951.591087	2531.304498
951.892021	2529.887934
952.192917	2531.788449
952.493776	2529.585465
952.794596	2531.092770
953.095378	2529.381298
953.396122	2529.819879
953.696828	2530.387008
953.997496	2530.392050
954.298126	2529.298119
954.598718	2531.077647
954.899272	2530.029087
955.199788	2528.357944
955.500266	2530.623943
955.800706	2524.141019
956.101108	2528.045392
956.401472	2526.966586
956.701798	2527.821061
957.002087	2524.425844
957.302337	2531.002029
957.602550	2528.597399
957.902724	2526.354085
958.202861	2529.701412
958.502960	2527.800897
958.803022	2527.243849
959.103045	2531.485980
959.403031	2527.135464
959.702979	2529.976154
960.002889	2526.407018
960.302762	2528.768798
960.602596	2529.829961
960.902393	2528.534384
961.202153	2526.414579
961.501875	2525.053468
961.801559	2528.342821
962.101205	2527.286699
962.400814	2525.507172
962.700385	2525.028262
962.999918	2530.475229
963.299414	2523.616739
963.598873	2530.296268
963.898293	2525.731503
964.197677	2531.294416
964.497022	2528.216792
964.796331	2528.824251
965.095601	2525.436595
965.394835	2531.538912
965.694030	2526.096987
965.993189	2530.200486
966.292309	2527.654703
966.591393	2526.255783
966.890439	2526.565814
967.189447	2526.686802
967.488419	2528.441123
967.787353	2528.491535
968.086249	2525.907943
968.385108	2530.387008
968.683930	2525.371060
968.982714	2529.162008
969.281462	2527.808458
969.580172	2526.129754
969.878844	2530.013963
970.177480	2527.866432
970.476078	2528.461288
970.774639	2529.948428
971.073162	2529.159487
971.371649	2524.849301
971.670098	2524.191430
971.968510	2523.581451
972.266885	2523.561286
972.565223	2526.848118
972.863524	2525.983561
973.161788	2529.396422
973.460014	2527.563962
973.758204	2526.374250
974.056356	2529.698891
974.354471	2528.688140
974.652550	2526.522964
974.950591	2528.274765
975.248595	2526.006246
975.546563	2528.625125
975.844493	2527.747964
976.142386	2527.374919
976.440243	2527.402645
976.738062	2528.181504
977.035845	2527.122861
977.333590	2527.085053
977.631299	2524.733354
977.928971	2527.344672
978.226606	2526.228057
978.524204	2528.574714
978.821765	2528.216792
979.119290	2527.392563
979.416777	2527.022038
979.714228	2531.664941
980.011642	2527.241328
980.309020	2530.434899
980.606360	2523.626821
980.903664	2527.513551
981.200931	2525.711338
981.498162	2526.694363
981.795356	2527.130423
982.092513	2528.768798
982.389633	2527.868952
982.686717	2528.887265
982.983764	2528.131092
983.280775	2527.997502
983.577749	2528.597399
983.874686	2525.658406
984.171587	2527.538757
984.468451	2527.473222
984.765279	2525.129085
985.062070	2528.930115
985.358824	2526.419620
985.655543	2527.710156
985.952224	2525.749147
986.248869	2526.873324
986.545478	2522.341327
986.842050	2522.250586
987.138586	2525.534898
987.435086	2525.360978
987.731549	2521.766635
988.027975	2528.176463
988.324366	2527.190917
988.620719	2528.080681
988.917037	2525.245032
989.213318	2526.855680
989.509563	2527.747964
989.805772	2527.198479
990.101944	2527.238808
990.398080	2527.808458
990.694180	2524.675381
990.990244	2527.700073
991.286271	2528.289888
991.582262	2526.873324
991.878217	2527.266534
992.174136	2525.981040
992.470019	2526.308715
992.765865	2527.211082
993.061676	2524.700587
993.357450	2526.964065
993.653188	2527.148067
993.948890	2529.030938
994.244556	2527.861390
994.540186	2530.371885
994.835780	2525.078673
995.131337	2529.829961
995.426859	2524.526667
995.722345	2525.832326
996.017795	2528.652852
996.313208	2526.638911
996.608586	2526.031452
996.903928	2524.836698
997.199234	2526.598581
997.494504	2526.946421
997.789738	2526.543129
998.084936	2526.369209
998.380099	2525.784435
998.675225	2527.241328
998.970316	2530.220650
999.265371	2529.852646
999.560390	2528.748633
999.855373	2528.678057
1000.150320	2529.593027
1000.445232	2527.543798
1000.740108	2526.827954
1001.034948	2526.180166
1001.329752	2522.548014
1001.624521	2527.420289
1001.919254	2519.888806
1002.213951	2522.227901
1002.508613	2523.160514
1002.803239	2527.251411
1003.097829	2524.294774
1003.392384	2527.100176
1003.686903	2523.631862
1003.981386	2528.670496
1004.275834	2524.198992
1004.570246	2528.821730
1004.864623	2526.437264
1005.158964	2525.842408
1005.453270	2525.587830
1005.747540	2528.647810
1006.041775	2525.441637
1006.335974	2527.372398
1006.630138	2526.507841
1006.924266	2527.836185
1007.218359	2529.126720
1007.512416	2525.683612
1007.806438	2527.523633
1008.100425	2526.084384
1008.394376	2528.531864
1008.688292	2528.453726
1008.982172	2528.315094
1009.276017	2526.170083
1009.569827	2524.519105
1009.863602	2527.208561
1010.157341	2526.500279
1010.451045	2527.397604
1010.744714	2526.825433
1011.038347	2527.127902
1011.331945	2525.799558
1011.625508	2525.124044
1011.919036	2528.267203
1012.212528	2526.638911
1012.505986	2523.982222
1012.799408	2526.495238
1013.092795	2528.579755
1013.386147	2527.533715
1013.679464	2525.360978
1013.972745	2526.659075
1014.265992	2525.522295
1014.559204	2527.773170
1014.852380	2527.039682
1015.145521	2528.085722
1015.438628	2525.459281
1015.731699	2526.815351
1016.024736	2527.687471
1016.317737	2525.731503
1016.610703	2527.747964
1016.903635	2519.548528
1017.196531	2524.377953
1017.489393	2523.221008
1017.782219	2523.243693
1018.075011	2523.861235
1018.367768	2525.391225
1018.660490	2526.961544
1018.953177	2526.961544
1019.245829	2526.961544
