Dividing Wavelength (nm)	Counts (n)	Blue Motor Position (mm): 0.000000	Red Motor Position (mm): 10.500000	
326.493990	2146.329223
326.888308	2146.329223
327.282561	2146.329223
327.676750	2121.385594
328.070874	2124.042282
328.464933	2126.323404
328.858929	2137.686165
329.252859	2149.900881
329.646726	2164.762202
330.040528	2176.084634
330.434265	2196.188755
330.827938	2217.195243
331.221547	2236.034035
331.615091	2256.256624
332.008571	2273.247833
332.401986	2293.349434
332.795338	2316.296766
333.188625	2334.308809
333.581847	2355.151460
333.975006	2372.374562
334.368100	2391.921636
334.761129	2411.362846
335.154095	2427.514702
335.546996	2439.487443
335.939833	2454.948662
336.332606	2465.764457
336.725315	2483.290029
337.117960	2490.312356
337.510540	2496.311329
337.903056	2504.014212
338.295508	2514.472086
338.687896	2517.572395
339.080220	2529.610671
339.472480	2533.910775
339.864676	2537.353883
340.256807	2539.569470
340.648875	2542.717671
341.040879	2544.741694
341.432818	2545.228165
341.824694	2546.853937
342.216506	2546.143135
342.608253	2545.802857
342.999937	2546.112888
343.391557	2543.652805
343.783113	2542.415202
344.174605	2543.350336
344.566033	2542.415202
344.957397	2536.121321
345.348697	2536.401105
345.739934	2534.666948
346.131106	2530.127389
346.522215	2532.126207
346.913260	2527.390042
347.304241	2528.126051
347.695159	2525.348375
348.086012	2525.991122
348.476802	2525.577748
348.867528	2522.011131
349.258191	2520.768487
349.648789	2521.572551
350.039324	2518.522653
350.429796	2519.798065
350.820203	2513.857065
351.210548	2516.170955
351.600828	2516.387724
351.991045	2516.584329
352.381198	2515.334123
352.771288	2514.956037
353.161314	2512.412774
353.551276	2515.074504
353.941175	2513.436129
354.331010	2513.161386
354.720782	2514.971160
355.110490	2515.576098
355.500135	2512.579133
355.889717	2517.562313
356.279235	2514.474606
356.668689	2517.942920
357.058080	2515.750018
357.447408	2514.441839
357.836672	2511.175171
358.225873	2515.412261
358.615010	2514.507374
359.004084	2520.952489
359.393095	2518.331089
359.782043	2519.969464
360.170927	2521.673374
360.559748	2519.256141
360.948505	2522.003570
361.337199	2520.224042
361.725830	2522.096831
362.114398	2522.762263
362.502903	2523.115144
362.891344	2522.666481
363.279722	2524.561955
363.668037	2524.572037
364.056289	2522.797551
364.444478	2524.750998
364.832603	2526.608664
365.220665	2527.473222
365.608665	2525.106400
365.996601	2525.802079
366.384474	2524.168745
366.772284	2527.790814
367.160031	2529.378778
367.547715	2526.049096
367.935336	2530.462626
368.322893	2525.807120
368.710388	2526.596061
369.097820	2530.359282
369.485189	2528.262162
369.872495	2527.178314
370.259738	2531.720394
370.646918	2526.865762
371.034035	2529.708973
371.421090	2531.223840
371.808081	2530.704601
372.195010	2530.815507
372.581875	2532.196783
372.968678	2530.707122
373.355418	2533.966228
373.742096	2534.971938
374.128710	2535.027391
374.515262	2537.459747
374.901751	2536.615354
375.288177	2537.386651
375.674540	2540.431507
376.060841	2544.098947
376.447079	2544.245140
376.833254	2544.212373
377.219367	2542.730274
377.605417	2547.226983
377.991404	2547.365615
378.377329	2549.954247
378.763191	2550.228990
379.148991	2560.165104
379.534727	2562.655434
379.920402	2568.062072
380.306013	2567.643656
380.691563	2574.373596
381.077049	2579.795357
381.462474	2582.353743
381.847835	2587.725092
382.233134	2591.962182
382.618371	2596.244642
383.003545	2604.199583
383.388657	2610.213680
383.773706	2620.195164
384.158693	2624.391925
384.543618	2630.259828
384.928480	2635.336270
385.313280	2644.286838
385.698017	2652.829074
386.082692	2661.036072
386.467305	2664.630415
386.851856	2673.454955
387.236344	2685.778055
387.620770	2690.468849
388.005133	2698.854808
388.389435	2709.693289
388.773674	2713.963146
389.157851	2726.349261
389.541965	2735.125910
389.926018	2737.578432
390.310008	2749.518404
390.693936	2755.184661
391.077802	2764.818306
391.461606	2773.073196
391.845348	2779.336829
392.229027	2787.894188
392.612645	2802.637042
392.996200	2803.998154
393.379694	2814.468631
393.763125	2829.919767
394.146494	2835.981755
394.529801	2841.758917
394.913047	2850.013806
395.296230	2853.189733
395.679351	2852.914990
396.062410	2863.382946
396.445408	2854.565968
396.828343	2862.120137
397.211217	2861.043851
397.594028	2848.549351
397.976778	2855.546473
398.359466	2863.443440
398.742092	2854.694518
399.124656	2860.693491
399.507158	2864.345807
399.889598	2861.684077
400.271977	2865.296064
400.654294	2865.495190
401.036549	2861.583254
401.418742	2859.781042
401.800874	2866.992412
402.182944	2861.827750
402.564952	2870.561549
402.946898	2854.893643
403.328783	2850.782582
403.710606	2852.483972
404.092367	2854.729806
404.474067	2858.727441
404.855705	2841.360666
405.237282	2832.226095
405.618797	2834.771878
406.000250	2834.744151
406.381642	2835.749862
406.762972	2825.864159
407.144240	2813.599032
407.525447	2812.016109
407.906593	2796.832154
408.287677	2794.314097
408.668700	2788.746143
409.049661	2776.904473
409.430560	2770.093874
409.811399	2759.341093
410.192176	2755.625762
410.572891	2747.643095
410.953545	2745.349370
411.334138	2726.392111
411.714669	2729.925960
412.095139	2707.523072
412.475547	2707.868391
412.855894	2694.678212
413.236180	2688.984229
413.616405	2680.623475
413.996568	2673.782630
414.376670	2666.349448
414.756711	2658.376863
415.136691	2652.065339
415.516609	2646.754483
415.896466	2641.751138
416.276262	2638.055972
416.655997	2628.571041
417.035670	2621.878910
417.415283	2623.986112
417.794834	2616.961264
418.174324	2611.695779
418.553753	2608.101436
418.933121	2606.964656
419.312428	2601.903337
419.691674	2594.334045
420.070859	2591.306832
420.449983	2587.052098
420.829045	2587.828436
421.208047	2582.411716
421.586988	2579.389544
421.965867	2580.428022
422.344686	2578.131777
422.723444	2577.794019
423.102141	2571.679100
423.480777	2573.745973
423.859352	2571.200190
424.237866	2567.772205
424.616319	2569.939902
424.994712	2570.232288
425.373044	2566.239695
425.751314	2566.375806
426.129524	2563.714077
426.507673	2566.572411
426.885762	2565.826320
427.263789	2562.292471
427.641756	2563.015877
428.019662	2565.695250
428.397508	2565.690209
428.775292	2562.393294
429.153016	2563.615774
429.530679	2561.493448
429.908282	2561.979920
430.285824	2563.109138
430.663305	2560.714590
431.040726	2563.646021
431.418086	2561.095197
431.795385	2563.940928
432.172624	2562.211813
432.549802	2565.523851
432.926920	2565.513768
433.303977	2563.552760
433.680974	2562.670558
434.057910	2563.441854
434.434786	2564.742472
434.811601	2565.060065
435.188355	2565.428069
435.565050	2562.736093
435.941683	2563.051165
436.318257	2558.718293
436.694770	2561.848850
437.071222	2561.831206
437.447614	2563.434292
437.823946	2560.112172
438.200218	2562.277348
438.576429	2563.479663
438.952580	2564.467729
439.328670	2563.913202
439.704700	2564.200548
440.080670	2566.834551
440.456580	2564.911351
440.832429	2565.576783
441.208218	2562.489076
441.583947	2567.988975
441.959616	2564.187945
442.335224	2564.177863
442.710773	2565.049982
443.086261	2563.986299
443.461689	2567.096691
443.837057	2564.692060
444.212365	2565.662482
444.587612	2563.593089
444.962800	2566.083419
445.337927	2567.399160
445.712995	2564.296330
446.088002	2565.919581
446.462949	2567.230281
446.837837	2569.632391
447.212664	2567.540312
447.587431	2569.574418
447.962139	2565.186093
448.336786	2569.382854
448.711374	2569.869325
449.085901	2568.241033
449.460369	2566.310271
449.834776	2566.121227
450.209124	2566.403532
450.583412	2567.857905
450.957640	2567.091650
451.331808	2572.727660
451.705917	2569.672720
452.079965	2567.883111
452.453954	2566.358162
452.827883	2568.946794
453.201752	2566.990827
453.575562	2568.127607
453.949311	2569.755899
454.323001	2569.624829
454.696632	2568.556105
455.070202	2571.903431
455.443713	2568.233471
455.817164	2569.340004
456.190556	2566.673234
456.563888	2568.440158
456.937160	2566.116186
457.310373	2569.002247
457.683526	2569.836558
458.056619	2570.925447
458.429653	2571.666497
458.802628	2572.904100
459.175542	2573.466189
459.548398	2573.007444
459.921194	2573.488874
460.293930	2574.925603
460.666607	2573.728329
461.039224	2572.127762
461.411782	2574.391240
461.784280	2572.818400
462.156719	2573.824111
462.529099	2574.998699
462.901419	2573.912331
463.273680	2575.202866
463.645882	2574.481981
464.018024	2575.613720
464.390106	2572.654563
464.762130	2574.819738
465.134094	2573.395612
465.505999	2577.547003
465.877845	2577.854513
466.249631	2579.981880
466.621358	2581.128742
466.993026	2582.953640
467.364634	2582.124370
467.736184	2575.858216
468.107674	2578.030953
468.479105	2576.758062
468.850477	2577.269739
469.221790	2577.400809
469.593043	2577.662949
469.964238	2576.354770
470.335373	2577.121025
470.706449	2575.961560
471.077467	2576.004410
471.448425	2578.522466
471.819324	2579.102199
472.190164	2581.083372
472.560945	2580.417940
472.931667	2579.674370
473.302330	2576.498443
473.672934	2578.472054
474.043479	2577.652867
474.413965	2577.801581
474.784393	2573.088102
475.154761	2572.392423
475.525070	2575.510377
475.895321	2573.284707
476.265513	2573.677917
476.635645	2576.178329
477.005719	2575.802763
477.375734	2578.116653
477.745691	2577.388206
478.115588	2575.472568
478.485427	2577.095819
478.855207	2580.856520
479.224928	2581.874833
479.594591	2580.133115
479.964194	2579.392065
480.333739	2579.172775
480.703226	2579.628999
481.072653	2579.571026
481.442022	2582.000862
481.811333	2581.600090
482.180584	2579.134966
482.549777	2581.179154
482.918912	2579.785275
483.287988	2580.377611
483.657005	2578.628330
484.025964	2579.608835
484.394864	2579.699575
484.763706	2578.663618
485.132489	2578.013309
485.501213	2579.465162
485.869879	2576.684965
486.238487	2576.032136
486.607036	2578.421643
486.975527	2582.421798
487.343959	2579.260995
487.712333	2580.271746
488.080648	2577.302507
488.448905	2579.573547
488.817104	2580.919535
489.185244	2580.034812
489.553326	2577.345357
489.921350	2583.767787
490.289315	2581.164031
490.657222	2578.721592
491.025070	2579.820563
491.392861	2583.936665
491.760593	2580.969946
492.128267	2582.971284
492.495883	2581.859710
492.863440	2581.746284
493.230939	2581.784093
493.598380	2581.108578
493.965763	2576.889132
494.333088	2577.778896
494.700354	2577.864595
495.067563	2579.341653
495.434713	2573.627506
495.801805	2578.267888
496.168839	2581.239648
496.535815	2579.165213
496.902733	2580.463310
497.269593	2581.121181
497.636395	2578.640933
498.003139	2580.233938
498.369825	2576.826118
498.736453	2578.933320
499.103023	2579.644123
499.469535	2581.388362
499.835989	2577.032805
500.202385	2577.083217
500.568723	2580.450707
500.935003	2581.348033
501.301226	2576.218659
501.667390	2578.106571
502.033497	2580.533886
502.399546	2579.571026
502.765537	2577.877198
503.131470	2578.406519
503.497345	2581.567323
503.863163	2579.276118
504.228923	2580.357446
504.594625	2580.397775
504.960269	2578.910635
505.325856	2579.374421
505.691385	2575.021385
506.056856	2577.746128
506.422270	2578.136818
506.787625	2577.945254
507.152924	2579.422312
507.518164	2578.580439
507.883347	2577.899883
508.248472	2578.393917
508.613540	2581.579926
508.978550	2579.346695
509.343503	2578.663618
509.708398	2581.403485
510.073236	2579.172775
510.438016	2579.659246
510.802738	2579.722261
511.167403	2582.114288
511.532010	2580.208732
511.896561	2578.194791
512.261053	2580.642271
512.625488	2575.344018
512.989866	2576.677404
513.354186	2579.089596
513.718449	2575.906107
514.082655	2577.652867
514.446803	2578.290573
514.810894	2578.474575
515.174927	2582.751994
515.538904	2578.101530
515.902822	2582.416757
516.266684	2579.114802
516.630488	2577.380645
516.994235	2577.466344
517.357925	2580.730491
517.721558	2580.395255
518.085133	2581.799216
518.448651	2578.865264
518.812112	2579.092116
519.175516	2576.652198
519.538863	2580.334761
519.902152	2579.623958
520.265385	2579.805440
520.628560	2583.218301
520.991678	2579.064390
521.354739	2579.286201
521.717743	2582.051274
522.080690	2582.464648
522.443580	2578.446849
522.806413	2581.824422
523.169189	2577.594894
523.531908	2580.513722
523.894569	2579.487847
524.257174	2581.189236
524.619722	2582.588157
524.982213	2580.047415
525.344647	2577.912486
525.707025	2580.949782
526.069345	2579.097157
526.431608	2581.141345
526.793815	2578.961046
527.155964	2576.473237
527.518057	2579.021540
527.880093	2579.702096
528.242072	2582.126891
528.603995	2581.050605
528.965860	2582.124370
529.327669	2581.201839
529.689421	2581.355594
530.051117	2580.226376
530.412755	2581.058166
530.774337	2579.966757
531.135862	2580.576736
531.497331	2577.733525
531.858743	2580.433063
532.220098	2576.553895
532.581396	2576.677404
532.942638	2574.411405
533.303824	2578.706468
533.664953	2578.635892
534.026025	2577.846951
534.387040	2581.501788
534.747999	2581.224524
535.108902	2581.083372
535.469748	2580.382652
535.830537	2577.965418
536.191270	2579.354256
536.551947	2580.422981
536.912567	2581.955492
537.273131	2579.727302
537.633638	2579.641602
537.994089	2580.559092
538.354483	2577.962898
538.714821	2580.296952
539.075103	2580.987590
539.435328	2580.972467
539.795497	2578.149421
540.155609	2577.925089
540.515665	2581.350553
540.875665	2580.629668
541.235609	2581.166551
541.595496	2581.113619
541.955328	2581.542117
542.315102	2580.367528
542.674821	2579.545820
543.034483	2579.896180
543.394090	2577.194122
543.753640	2580.705286
544.113134	2577.723443
544.472571	2579.674370
544.831953	2578.255285
545.191278	2577.788978
545.550548	2583.430029
545.909761	2578.318299
546.268918	2582.825091
546.628019	2579.709658
546.987064	2578.918197
547.346053	2580.017168
547.704986	2577.763772
548.063863	2582.172261
548.422684	2581.272415
548.781449	2579.916345
549.140158	2580.107909
549.498811	2581.257292
549.857408	2579.472723
550.215949	2577.993145
550.574434	2578.983732
550.932864	2577.599935
551.291237	2578.219997
551.649555	2582.205029
552.007817	2581.070769
552.366022	2578.882908
552.724173	2578.792168
553.082267	2580.622107
553.440305	2577.819225
553.798288	2580.407857
554.156215	2580.647312
554.514086	2581.368197
554.871902	2580.370049
555.229661	2583.026737
555.587365	2581.443815
555.945014	2582.091603
556.302606	2579.145048
556.660143	2582.699062
557.017625	2579.213104
557.375050	2580.516242
557.732421	2580.798547
558.089735	2580.826273
558.446994	2580.475913
558.804197	2577.756211
559.161345	2579.865933
559.518437	2581.872313
559.875474	2578.245203
560.232455	2580.226376
560.589381	2579.220666
560.946251	2583.828280
561.303065	2580.233938
561.659825	2580.614545
562.016528	2578.943402
562.373177	2579.029102
562.729770	2582.157138
563.086307	2580.571695
563.442789	2579.956674
563.799216	2582.484813
564.155587	2579.417271
564.511904	2581.534555
564.868164	2580.289390
565.224370	2580.969946
565.580520	2582.386510
565.936615	2580.793506
566.292654	2580.344843
566.648638	2581.653022
567.004567	2579.555902
567.360441	2582.457087
567.716260	2580.556572
568.072023	2579.545820
568.427732	2578.308217
568.783385	2577.655388
569.138982	2575.951478
569.494525	2575.780078
569.850013	2578.620768
570.205445	2578.756880
570.560823	2578.207394
570.916145	2580.052456
571.271412	2581.095975
571.626625	2581.842066
571.981782	2581.247210
572.336884	2580.077662
572.691931	2579.898701
573.046923	2581.821901
573.401860	2577.547003
573.756743	2579.225707
574.111570	2579.976839
574.466342	2583.271233
574.821059	2581.834504
575.175722	2581.393403
575.530330	2580.785944
575.884882	2580.264185
576.239380	2580.269226
576.593823	2581.451376
576.948211	2582.230235
577.302544	2578.512384
577.656823	2580.695203
578.011047	2582.106726
578.365216	2577.912486
578.719330	2581.287539
579.073389	2578.590522
579.427394	2578.620768
579.781344	2579.724781
580.135239	2580.798547
580.489080	2579.339133
580.842866	2579.931468
581.196597	2583.510688
581.550273	2577.776375
581.903895	2579.548341
582.257463	2581.834504
582.610975	2579.223186
582.964434	2579.618917
583.317837	2580.435584
583.671186	2579.621437
584.024481	2582.043712
584.377721	2581.080852
584.730906	2581.474062
585.084037	2579.752507
585.437113	2579.749987
585.790135	2580.659915
586.143103	2578.086406
586.496016	2577.574729
586.848874	2576.339646
587.201679	2578.104050
587.554428	2576.674883
587.907124	2575.621282
588.259765	2577.378124
588.612352	2580.647312
588.964884	2577.940213
589.317362	2581.327868
589.669786	2579.114802
590.022155	2579.001376
590.374470	2582.825091
590.726731	2581.806778
591.078937	2578.275449
591.431090	2580.344843
591.783188	2579.150090
592.135232	2579.397106
592.487222	2579.273598
592.839157	2577.242013
593.191038	2578.167065
593.542866	2578.250244
593.894639	2579.127404
594.246358	2581.174113
594.598022	2579.039184
594.949633	2581.658064
595.301190	2578.925758
595.652692	2579.964236
596.004141	2579.129925
596.355535	2580.954823
596.706876	2578.509863
597.058162	2580.296952
597.409395	2578.076324
597.760573	2578.497260
598.111698	2577.194122
598.462768	2580.944740
598.813785	2578.973649
599.164748	2575.893504
599.515657	2577.355439
599.866511	2578.169585
600.217312	2579.283680
600.568060	2580.826273
600.918753	2581.705955
601.269392	2579.019020
601.619978	2582.930955
601.970510	2578.351067
602.320988	2579.177816
602.671412	2579.392065
603.021783	2581.645461
603.372100	2578.598083
603.722363	2577.448700
604.072572	2579.308886
604.422728	2579.470203
604.772830	2575.800243
605.122878	2576.659760
605.472872	2577.010120
605.822813	2577.806622
606.172701	2576.926941
606.522534	2579.228227
606.872314	2580.697724
607.222041	2579.492888
607.571714	2579.238310
607.921333	2578.673701
608.270899	2579.480285
608.620411	2580.685121
608.969870	2576.621951
609.319276	2579.021540
609.668627	2579.676890
610.017926	2576.541292
610.367171	2580.254102
610.716362	2578.124215
611.065500	2580.894329
611.414585	2580.422981
611.763616	2581.068249
612.112594	2579.760069
612.461518	2580.783423
612.810389	2581.325347
613.159207	2578.671180
613.507971	2580.249061
613.856682	2581.746284
614.205340	2579.210583
614.553945	2580.453228
614.902496	2580.717888
615.250994	2580.405337
615.599439	2577.705799
615.947830	2578.714030
616.296169	2577.496591
616.644454	2578.474575
616.992686	2579.422312
617.340864	2577.930130
617.688990	2578.978690
618.037063	2579.253433
618.385082	2576.997517
618.733048	2579.676890
619.080961	2579.762590
619.428821	2580.198650
619.776628	2580.390213
620.124382	2582.318455
620.472083	2580.092785
620.819731	2579.417271
621.167326	2579.548341
621.514868	2579.762590
621.862357	2577.189081
622.209793	2581.315265
622.557176	2579.502970
622.904506	2574.915520
623.251783	2576.125397
623.599007	2578.325861
623.946179	2574.734039
624.293297	2574.635736
624.640363	2578.255285
624.987376	2579.860892
625.334336	2578.197312
625.681243	2580.090265
626.028097	2577.360480
626.374899	2579.001376
626.721647	2578.701427
627.068343	2579.785275
627.414987	2578.840059
627.761577	2577.148752
628.108115	2578.973649
628.454600	2576.760583
628.801032	2579.767631
629.147412	2580.669997
629.493739	2575.510377
629.840014	2577.937692
630.186236	2578.371231
630.532405	2577.778896
630.878521	2577.433577
631.224585	2581.027919
631.570597	2578.766962
631.916556	2578.981211
632.262462	2576.886612
632.608316	2576.266550
632.954117	2577.473906
633.299866	2579.981880
633.645562	2577.330233
633.991206	2577.277301
634.336797	2577.988104
634.682336	2578.963567
635.027823	2579.548341
635.373257	2578.570357
635.718639	2578.444328
636.063968	2575.336457
636.409245	2579.419791
636.754470	2577.736046
637.099642	2576.831159
637.444762	2577.849472
637.789829	2575.767475
638.134845	2577.773855
638.479808	2578.071283
638.824719	2576.841241
639.169577	2577.173957
639.514383	2578.212435
639.859137	2578.482137
640.203839	2578.081365
640.548489	2577.441138
640.893086	2573.171281
641.237632	2574.739080
641.582125	2572.445355
641.926566	2573.425859
642.270955	2577.552044
642.615292	2577.363001
642.959576	2577.453741
643.303809	2576.382496
643.647990	2578.376272
643.992118	2575.628844
644.336195	2578.446849
644.680219	2576.616910
645.024192	2579.979359
645.368112	2577.075655
645.711981	2579.195460
646.055797	2574.915520
646.399562	2575.323854
646.743274	2574.981055
647.086935	2575.908628
647.430544	2579.031622
647.774101	2576.619430
648.117606	2578.524987
648.461059	2577.942733
648.804460	2577.214287
649.147810	2576.901735
649.491108	2576.813515
649.834354	2579.049267
650.177548	2578.865264
650.520690	2577.632702
650.863781	2578.736715
651.206820	2579.008937
651.549807	2575.515418
651.892742	2577.211766
652.235626	2576.589183
652.578458	2578.071283
652.921238	2577.189081
653.263967	2579.883578
653.606644	2575.805284
653.949269	2577.499112
654.291843	2576.609348
654.634365	2578.363670
654.976836	2576.163206
655.319255	2578.701427
655.661622	2573.998030
656.003938	2578.388875
656.346203	2574.784450
656.688416	2577.920048
657.030577	2574.456775
657.372687	2578.020871
657.714746	2575.160016
658.056753	2574.676066
658.398708	2573.735890
658.740612	2573.929975
659.082465	2572.057186
659.424266	2572.215982
659.766016	2573.549368
660.107715	2577.395768
660.449362	2573.950139
660.790958	2576.450552
661.132503	2575.906107
661.473996	2576.571539
661.815438	2576.364852
662.156829	2577.453741
662.498168	2577.249575
662.839456	2575.757393
663.180693	2577.940213
663.521879	2581.894998
663.863013	2579.946592
664.204097	2576.059862
664.545129	2576.553895
664.886110	2575.606158
665.227040	2579.147569
665.567918	2578.411561
665.908746	2576.347208
666.249522	2576.866447
666.590248	2576.178329
666.930922	2574.061045
667.271545	2574.938206
667.612118	2575.953998
667.952639	2576.422825
668.293109	2579.369380
668.633528	2579.051787
668.973896	2574.855027
669.314213	2574.255129
669.654480	2578.867785
669.994695	2575.860737
670.334859	2575.906107
670.674973	2576.677404
671.015035	2577.473906
671.355047	2575.117167
671.695008	2574.053483
672.034918	2575.981724
672.374777	2576.891653
672.714585	2577.221848
673.054342	2575.064234
673.394049	2579.084555
673.733705	2577.978021
674.073310	2575.333936
674.412864	2578.099009
674.752368	2576.858885
675.091820	2577.841910
675.431223	2576.017012
675.770574	2572.394943
676.109875	2574.000551
676.449125	2572.001733
676.788324	2574.081209
677.127473	2572.301682
677.466571	2572.493246
677.805619	2577.105902
678.144616	2577.448700
678.483562	2576.619430
678.822458	2575.800243
679.161303	2576.959708
679.500098	2575.212948
679.838842	2574.996179
680.177535	2574.852506
680.516179	2574.930644
680.854771	2574.204718
681.193314	2576.311920
681.531805	2574.353432
681.870247	2574.726477
682.208638	2577.335274
682.546978	2577.615058
682.885268	2574.900397
683.223508	2578.532548
683.561697	2574.673545
683.899836	2576.793350
684.237925	2575.200346
684.575963	2575.792681
684.913951	2576.712692
685.251889	2576.952147
685.589776	2577.254616
685.927614	2576.773186
686.265401	2579.079513
686.603137	2574.421487
686.940824	2578.015830
687.278460	2576.309399
687.616046	2575.354101
687.953582	2575.419636
688.291068	2577.068093
688.628504	2578.300655
688.965889	2575.941395
689.303224	2579.132446
689.640510	2576.211097
689.977745	2576.316961
690.314930	2578.018351
690.652065	2575.623802
690.989150	2575.548185
691.326185	2573.662794
691.663170	2577.940213
692.000105	2578.706468
692.336990	2575.429718
692.673825	2574.938206
693.010610	2577.002558
693.347345	2572.223544
693.684030	2571.689182
694.020665	2569.471074
694.357251	2572.578946
694.693786	2571.822773
695.030272	2570.973338
695.366707	2572.793195
695.703093	2570.915365
696.039429	2574.509708
696.375716	2574.736559
696.711952	2573.743452
697.048139	2575.699420
697.384276	2577.660429
697.720363	2574.466858
698.056400	2573.990469
698.392388	2575.870819
698.728326	2575.777558
699.064214	2576.939544
699.400053	2574.020716
699.735842	2573.083061
700.071581	2573.642629
700.407270	2574.552557
700.742910	2574.103895
701.078501	2575.472568
701.414042	2571.553071
701.749533	2573.390571
702.084974	2575.714543
702.420366	2573.670355
702.755709	2575.492733
703.091002	2573.967783
703.426246	2573.808987
703.761440	2576.672362
704.096584	2574.033318
704.431679	2575.974163
704.766725	2572.803277
705.101721	2573.405695
705.436668	2576.921900
705.771565	2574.557598
706.106413	2573.307392
706.441212	2572.309244
706.775961	2573.922413
707.110661	2574.519790
707.445311	2574.960891
707.779913	2573.304872
708.114465	2573.975345
708.448967	2572.904100
708.783421	2573.146075
709.117825	2573.990469
709.452180	2574.451734
709.786485	2574.608010
710.120742	2577.002558
710.454949	2575.336457
710.789107	2573.884604
711.123216	2569.692885
711.457275	2572.652042
711.791286	2571.797567
712.125247	2573.178843
712.459159	2573.204049
712.793023	2575.268401
713.126837	2575.727146
713.460602	2575.896025
713.794318	2574.129100
714.127985	2573.745973
714.461602	2576.127918
714.795171	2576.513566
715.128691	2575.598597
715.462162	2574.401323
715.795584	2573.246898
716.128957	2573.062896
716.462281	2573.468709
716.795556	2575.228072
717.128782	2571.991651
717.461960	2574.166909
717.795088	2572.710016
718.128167	2572.347052
718.461198	2573.357804
718.794180	2573.647670
719.127113	2572.818400
719.459997	2573.940057
719.792833	2570.708677
720.125619	2573.330077
720.458357	2571.888307
720.791046	2573.483833
721.123686	2573.297310
721.456278	2571.321178
721.788821	2572.294120
722.121315	2574.325705
722.453761	2575.674214
722.786158	2574.272773
723.118506	2572.369738
723.450805	2573.135993
723.783056	2574.446693
724.115259	2572.526013
724.447412	2573.728329
724.779518	2574.817218
725.111574	2572.553740
725.443582	2575.845613
725.775542	2572.079871
726.107453	2574.234965
726.439315	2573.138514
726.771129	2575.926272
727.102895	2572.455437
727.434612	2572.432752
727.766281	2572.657083
728.097901	2573.743452
728.429473	2570.456620
728.760996	2571.086764
729.092471	2570.706157
729.423897	2571.946281
729.755276	2573.854357
730.086606	2573.314954
730.417887	2575.288566
730.749120	2576.097671
731.080305	2574.948288
731.411442	2574.053483
731.742530	2572.246229
732.073570	2572.402505
732.404562	2572.014336
732.735506	2571.895869
733.066401	2574.194635
733.397249	2575.210428
733.728048	2573.630026
734.058798	2575.984245
734.389501	2574.643298
734.720156	2572.757907
735.050762	2572.054666
735.381320	2573.415777
735.711831	2574.562640
736.042293	2570.476784
736.372707	2573.965263
736.703073	2570.698595
737.033391	2570.822103
737.363661	2570.219686
737.693883	2572.878894
738.024056	2575.480130
738.354182	2571.835375
738.684260	2574.083730
739.014290	2574.129100
739.344272	2573.463668
739.674207	2571.873184
740.004093	2574.812177
740.333931	2571.923596
740.663722	2574.587845
740.993464	2573.045252
741.323159	2575.515418
741.652806	2572.790674
741.982405	2570.887638
742.311956	2572.019377
742.641460	2573.113308
742.970915	2573.090623
743.300323	2574.340829
743.629683	2570.766651
743.958996	2572.946950
744.288260	2572.730180
744.617477	2573.216652
744.946647	2571.752196
745.275768	2569.677762
745.604842	2567.104253
745.933869	2565.997719
746.262847	2568.614078
746.591778	2569.864284
746.920662	2570.507031
747.249498	2570.890159
747.578286	2571.323698
747.907027	2575.114646
748.235720	2574.691189
748.564365	2572.689851
748.892963	2573.935016
749.221514	2571.754717
749.550017	2571.520303
749.878473	2572.899059
750.206881	2571.890828
750.535242	2573.209090
750.863555	2570.698595
751.191821	2573.052814
751.520039	2574.726477
751.848210	2570.842268
752.176334	2572.994841
752.504411	2572.916703
752.832440	2572.740262
753.160421	2573.118349
753.488356	2571.774882
753.816243	2572.100036
754.144082	2570.315467
754.471875	2570.839748
754.799620	2572.589028
755.127318	2570.444017
755.454969	2572.757907
755.782572	2572.072310
756.110129	2571.366548
756.437638	2572.140365
756.765100	2570.474264
757.092515	2574.262691
757.419882	2571.537947
757.747203	2571.391754
758.074477	2573.597259
758.401703	2570.023081
758.728882	2571.381672
759.056014	2573.098184
759.383099	2572.589028
759.710138	2572.828483
760.037129	2571.439645
760.364073	2572.170612
760.690970	2570.935529
761.017820	2571.275807
761.344623	2571.931157
761.671379	2573.829152
761.998088	2569.486198
762.324751	2571.646332
762.651366	2569.524006
762.977935	2569.599624
763.304456	2569.511403
763.630931	2575.432239
763.957359	2572.485684
764.283740	2572.573904
764.610074	2573.859399
764.936362	2574.749162
765.262602	2572.883935
765.588796	2572.619275
765.914943	2570.635581
766.241044	2570.464182
766.567097	2571.679100
766.893104	2573.826631
767.219064	2572.102557
767.544978	2572.026939
767.870845	2571.192628
768.196665	2573.365366
768.522438	2571.908472
768.848165	2569.460992
769.173846	2572.077351
769.499479	2571.308575
769.825066	2571.936198
770.150607	2571.253122
770.476101	2569.569377
770.801548	2570.948132
771.126949	2573.481312
771.452303	2571.540468
771.777611	2569.274469
772.102872	2569.476115
772.428087	2572.382341
772.753256	2572.566343
773.078378	2566.940415
773.403453	2569.052658
773.728482	2570.809501
774.053465	2571.230437
774.378401	2570.181877
774.703291	2570.065930
775.028135	2571.847978
775.352932	2570.597772
775.677683	2570.244891
776.002388	2572.457958
776.327046	2568.591393
776.651658	2572.702454
776.976224	2570.887638
777.300743	2568.223389
777.625216	2571.401836
777.949643	2570.892680
778.274024	2571.981569
778.598359	2567.409242
778.922647	2566.229612
779.246889	2567.295816
779.571086	2565.670044
779.895236	2570.882597
780.219339	2572.243709
780.543397	2571.278328
780.867409	2568.682134
781.191374	2569.345045
781.515294	2570.287741
781.839167	2569.745817
782.162995	2569.423183
782.486776	2572.548699
782.810511	2569.307237
783.134201	2570.469223
783.457844	2570.741445
783.781441	2569.342525
784.104993	2570.784295
784.428498	2567.741958
784.751958	2569.027453
785.075372	2568.780436
785.398739	2568.072154
785.722061	2570.938050
786.045337	2569.546692
786.368568	2568.430076
786.691752	2571.956363
787.014891	2569.057700
787.337983	2566.479149
787.661030	2573.294789
787.984031	2572.629357
788.306987	2569.345045
788.629897	2571.873184
788.952760	2571.079202
789.275579	2571.812690
789.598351	2572.543657
789.921078	2571.119532
790.243759	2570.108780
790.566395	2569.680282
790.888984	2571.764799
791.211529	2571.147258
791.534027	2573.191446
791.856480	2570.275138
792.178888	2570.174315
792.501249	2571.611044
792.823566	2571.190108
793.145836	2569.082905
793.468062	2569.884449
793.790241	2569.027453
794.112375	2570.368400
794.434464	2569.733214
794.756507	2571.379151
795.078505	2568.157854
795.400457	2565.360013
795.722364	2565.377657
796.044226	2565.002091
796.366042	2567.003429
796.687812	2567.515107
797.009538	2568.583831
797.331218	2568.261197
797.652852	2571.522824
797.974442	2570.670869
798.295986	2567.479818
798.617484	2571.449727
798.938938	2571.298493
799.260346	2572.561302
799.581709	2568.566187
799.903026	2568.929150
800.224299	2570.814542
800.545526	2570.018039
800.866708	2570.796898
801.187845	2569.869325
801.508936	2568.911506
801.829983	2567.951166
802.150984	2568.984603
802.471940	2568.853533
802.792851	2570.234809
803.113717	2570.887638
803.434538	2567.933522
803.755314	2568.805642
804.076045	2569.579459
804.396731	2570.305385
804.717372	2570.146589
805.037967	2571.648853
805.358518	2566.955538
805.679024	2572.331929
805.999485	2569.201373
806.319901	2570.746486
806.640272	2569.098029
806.960598	2565.705332
807.280879	2567.835220
807.601115	2568.185580
807.921306	2567.562998
808.241453	2569.241702
808.561554	2571.742114
808.881611	2570.542319
809.201623	2568.929150
809.521590	2570.048286
809.841513	2569.496280
810.161390	2569.881928
810.481223	2570.461661
810.801011	2569.463512
811.120755	2570.053328
811.440453	2570.814542
811.760107	2569.133317
812.079716	2565.990157
812.399281	2564.235836
812.718801	2567.149623
813.038276	2567.749520
813.357707	2567.600806
813.677093	2565.002091
813.996434	2569.473595
814.315731	2569.216496
814.634983	2569.198852
814.954191	2568.359500
815.273354	2568.835889
815.592473	2568.409911
815.911547	2570.857392
816.230577	2569.219017
816.549562	2572.445355
816.868502	2573.405695
817.187399	2568.341856
817.506250	2569.213975
817.825058	2569.594582
818.143821	2569.329922
818.462539	2567.570559
818.781213	2572.563822
819.099843	2570.519634
819.418429	2568.800601
819.736970	2568.374623
820.055466	2569.334963
820.373919	2568.404870
820.692327	2572.253791
821.010691	2573.756055
821.329011	2570.890159
821.647286	2582.278126
821.965517	2581.519432
822.283704	2586.200143
822.601847	2586.674012
822.919945	2585.756522
823.237999	2585.179310
823.556010	2583.629155
823.873976	2582.429360
824.191897	2579.482806
824.509775	2578.963567
824.827609	2575.994327
825.145398	2575.898545
825.463144	2576.952147
825.780845	2574.234965
826.098502	2576.115315
826.416116	2574.608010
826.733685	2572.838565
827.051210	2575.046590
827.368692	2577.942733
827.686129	2573.405695
828.003522	2574.925603
828.320872	2570.328070
828.638177	2569.675241
828.955439	2570.126424
829.272656	2568.477967
829.589830	2565.977555
829.906960	2572.336970
830.224046	2568.732545
830.541088	2570.096177
830.858086	2567.303378
831.175041	2569.400498
831.491952	2568.793039
831.808819	2567.008471
832.125642	2568.876218
832.442421	2566.945456
832.759157	2570.166753
833.075849	2570.943091
833.392497	2571.971487
833.709101	2569.894531
834.025662	2573.090623
834.342179	2570.980900
834.658653	2569.246743
834.975083	2571.028791
835.291469	2572.125242
835.607811	2569.501321
835.924110	2569.581980
836.240366	2572.082392
836.556578	2568.611557
836.872746	2569.488718
837.188871	2568.737586
837.504952	2569.188770
837.820990	2564.644169
838.136984	2567.910837
838.452935	2568.293965
838.768842	2570.154151
839.084706	2569.763461
839.400526	2566.806824
839.716303	2569.342525
840.032037	2571.245560
840.347727	2570.035683
840.663373	2571.200190
840.978977	2567.822617
841.294537	2563.867832
841.610054	2566.650549
841.925527	2567.368913
842.240957	2567.852864
842.556344	2568.233471
842.871687	2570.126424
843.186987	2566.917730
843.502244	2568.596434
843.817458	2568.233471
844.132629	2566.716084
844.447756	2568.641804
844.762840	2562.226936
845.077881	2563.562842
845.392879	2566.141392
845.707833	2565.165929
846.022745	2564.634087
846.337613	2567.550395
846.652438	2570.081054
846.967221	2569.587021
847.281960	2567.447051
847.596656	2568.757751
847.911309	2565.604509
848.225919	2567.220199
848.540485	2568.087277
848.855009	2567.580642
849.169490	2567.104252
849.483928	2568.326732
849.798323	2566.159036
850.112675	2566.927812
850.426984	2565.649880
850.741251	2567.144582
851.055474	2565.851526
851.369654	2567.227761
851.683792	2565.838923
851.997887	2568.672051
852.311938	2568.619119
852.625947	2566.834551
852.939914	2563.908161
853.253837	2568.616599
853.567718	2564.147616
853.881555	2568.057031
854.195350	2567.426886
854.509103	2565.294478
854.822812	2566.738769
855.136479	2565.191135
855.450103	2566.033007
855.763685	2567.873028
856.077224	2566.209448
856.390720	2566.065775
856.704173	2564.707184
857.017584	2567.918399
857.330953	2566.269942
857.644278	2568.258677
857.957561	2568.707339
858.270802	2569.062741
858.584000	2566.330435
858.897155	2566.574931
859.210268	2564.480332
859.523339	2566.877401
859.836367	2567.762123
860.149352	2567.063923
860.462295	2568.956877
860.775195	2564.908830
861.088054	2561.248952
861.400869	2562.456309
861.713642	2562.864642
862.026373	2566.998388
862.339062	2568.571228
862.651708	2564.596278
862.964312	2565.302040
863.276873	2567.129458
863.589392	2566.053172
863.901869	2566.325394
864.214303	2565.213820
864.526696	2567.759602
864.839045	2568.732545
865.151353	2568.669531
865.463619	2564.175342
865.775842	2564.818089
866.088023	2565.019735
866.400162	2568.046948
866.712258	2566.620302
867.024313	2565.259190
867.336325	2569.231619
867.648296	2566.874880
867.960224	2566.075857
868.272110	2566.958059
868.583954	2566.534602
868.895755	2566.620302
869.207515	2570.010478
869.519233	2568.838409
869.830909	2565.939746
870.142542	2566.229612
870.454134	2564.465208
870.765684	2565.423028
871.077191	2566.043090
871.388657	2566.786660
871.700081	2568.490570
872.011463	2568.162895
872.322803	2567.363872
872.634101	2566.796742
872.945357	2566.874880
873.256571	2567.147102
873.567744	2564.911351
873.878874	2568.465364
874.189963	2566.471588
874.501010	2567.598286
874.812015	2568.750189
875.122979	2568.014181
875.433900	2566.524520
875.744780	2569.960066
876.055618	2567.058882
876.366415	2566.421176
876.677169	2565.589386
876.987882	2561.984961
877.298554	2562.002605
877.609183	2562.042934
877.919771	2564.808007
878.230317	2564.008984
878.540822	2567.053841
878.851285	2568.167936
879.161707	2567.764644
879.472087	2566.678275
879.782425	2569.458471
880.092722	2567.434448
880.402977	2569.783626
880.713191	2571.868143
881.023363	2576.357290
881.333494	2576.891653
881.643583	2574.907959
881.953631	2578.096488
882.263637	2577.068093
882.573602	2576.095150
882.883526	2575.845613
883.193408	2574.116498
883.503248	2573.761096
883.813048	2574.182033
884.122806	2572.185736
884.432522	2572.624316
884.742197	2571.895869
885.051831	2572.384861
885.361424	2567.414283
885.670975	2570.713719
885.980485	2567.263049
886.289954	2568.591393
886.599382	2569.435786
886.908768	2565.511248
887.218113	2567.701629
887.527417	2571.482495
887.836680	2568.266238
888.145901	2567.333625
888.455082	2565.115517
888.764221	2565.922102
889.073319	2569.062741
889.382376	2566.670713
889.691392	2567.870508
890.000366	2567.598286
890.309300	2566.990827
890.618193	2566.189283
890.927044	2566.582493
891.235855	2566.302709
891.544625	2568.717422
891.853353	2566.126269
892.162041	2567.613409
892.470687	2567.008471
892.779293	2566.763975
893.087858	2561.377502
893.396381	2560.535629
893.704864	2567.058882
894.013306	2562.632749
894.321707	2570.297823
894.630068	2570.088616
894.938387	2570.272618
895.246665	2570.766651
895.554903	2569.823955
895.863100	2565.085270
896.171256	2565.506207
896.479371	2568.107442
896.787446	2569.513924
897.095480	2566.353121
897.403473	2569.957546
897.711425	2567.568039
898.019336	2568.172977
898.327207	2564.906309
898.635038	2567.658779
898.942827	2565.014694
899.250576	2565.438151
899.558284	2568.122566
899.865952	2567.399160
900.173579	2568.518296
900.481165	2567.124417
900.788711	2565.120558
901.096216	2567.336146
901.403681	2568.009140
901.711105	2565.163408
902.018489	2565.170970
902.325832	2568.818245
902.633135	2566.421176
902.940397	2566.111145
903.247619	2564.165260
903.554800	2564.830692
903.861941	2569.309757
904.169041	2569.203893
904.476101	2566.849674
904.783121	2567.545353
905.090100	2568.977041
905.397039	2568.886300
905.703938	2568.253636
906.010796	2569.055179
906.317614	2566.834551
906.624391	2565.085270
906.931129	2565.473439
907.237826	2566.859757
907.544483	2567.283213
907.851099	2568.142730
908.157675	2563.993861
908.464211	2565.823799
908.770707	2560.031514
909.077163	2564.503017
909.383578	2560.903633
909.689954	2563.525033
909.996289	2559.877758
910.302584	2566.524520
910.608839	2564.719787
910.915054	2565.531412
911.221229	2562.058058
911.527363	2566.859757
911.833458	2564.893707
912.139513	2569.511403
912.445527	2565.501166
912.751502	2566.020404
913.057436	2566.138872
913.363331	2564.659293
913.669186	2566.287586
913.975000	2567.252967
914.280775	2565.488563
914.586510	2565.581824
914.892205	2566.902606
915.197859	2568.218347
915.503475	2568.614078
915.809050	2570.570046
916.114585	2569.410580
916.420081	2568.740107
916.725536	2566.559808
917.030952	2570.524675
917.336328	2567.399160
917.641665	2567.694067
917.946961	2567.948646
918.252218	2565.450754
918.557435	2568.611557
918.862612	2567.603327
919.167750	2566.741289
919.472848	2566.605178
919.777906	2564.389591
920.082925	2567.252967
920.387904	2567.202555
920.692843	2569.682803
920.997743	2569.282031
921.302603	2566.078378
921.607423	2565.793552
921.912204	2564.024107
922.216946	2564.855898
922.521647	2566.353121
922.826310	2566.337997
923.130932	2567.283213
923.435516	2564.785322
923.740059	2566.184242
924.044564	2564.424879
924.349028	2564.112328
924.653454	2562.620146
924.957840	2563.020918
925.262186	2560.215516
925.566493	2563.756926
925.870761	2560.502862
926.174989	2564.535785
926.479178	2564.624005
926.783328	2563.953531
927.087438	2564.366906
927.391509	2567.177349
927.695541	2564.825651
927.999533	2564.616443
928.303486	2564.019066
928.607400	2564.994530
928.911275	2563.212482
929.215110	2564.959242
929.518906	2563.320867
929.822663	2565.304561
930.126381	2564.591237
930.430060	2561.483366
930.733699	2564.722307
931.037299	2562.426062
931.340861	2565.594427
931.644383	2563.469581
931.947866	2565.433110
932.251309	2563.192317
932.554714	2565.133161
932.858080	2564.908830
933.161407	2562.448747
933.464694	2562.804148
933.767943	2563.162070
934.071153	2564.850857
934.374323	2565.947308
934.677455	2564.578634
934.980548	2563.474622
935.283602	2562.864642
935.586617	2562.219374
935.889593	2565.511248
936.192530	2564.918912
936.495428	2563.971175
936.798287	2564.717266
937.101108	2564.371947
937.403890	2565.022256
937.706632	2565.733059
938.009336	2564.780281
938.312002	2564.452606
938.614628	2562.657955
938.917216	2565.405384
939.219765	2563.149467
939.522275	2565.987637
939.824747	2564.603840
940.127179	2559.660989
940.429573	2561.811041
940.731929	2563.807338
941.034246	2561.342214
941.336524	2563.628377
941.638763	2564.273645
941.940964	2564.225754
942.243126	2564.792883
942.545250	2566.930333
942.847335	2565.032338
943.149381	2561.266596
943.451389	2564.508058
943.753359	2565.818758
944.055290	2563.373799
944.357182	2564.245918
944.659036	2561.889179
944.960851	2564.092163
945.262628	2563.300702
945.564367	2563.633418
945.866067	2563.232646
946.167729	2567.074006
946.469352	2562.529405
946.770937	2564.268603
947.072484	2562.128634
947.373992	2563.230126
947.675462	2564.457647
947.976893	2565.929664
948.278286	2562.355486
948.579641	2562.484035
948.880958	2565.246587
949.182236	2563.865311
949.483476	2565.100394
949.784678	2563.898079
950.085841	2563.096535
950.386967	2563.164591
950.688054	2566.053172
950.989103	2563.830023
951.290114	2563.716597
951.591087	2564.558470
951.892021	2564.729869
952.192917	2564.243398
952.493776	2563.923284
952.794596	2563.777091
953.095378	2564.934036
953.396122	2564.946639
953.696828	2565.165929
953.997496	2564.787842
954.298126	2561.891699
954.598718	2566.123748
954.899272	2562.864642
955.199788	2566.791701
955.500266	2564.765157
955.800706	2559.945814
956.101108	2560.805331
956.401472	2560.591082
956.701798	2558.146122
957.002087	2560.064281
957.302337	2563.812379
957.602550	2562.783984
957.902724	2562.058058
958.202861	2561.579148
958.502960	2562.582337
958.803022	2564.261042
959.103045	2565.221382
959.403031	2565.881773
959.702979	2560.533108
960.002889	2561.390105
960.302762	2562.123593
960.602596	2561.712738
960.902393	2561.082594
961.202153	2561.511092
961.501875	2565.450754
961.801559	2566.320353
962.101205	2563.676268
962.400814	2560.230639
962.700385	2564.916392
962.999918	2564.319015
963.299414	2561.969837
963.598873	2563.260373
963.898293	2560.966648
964.197677	2561.944632
964.497022	2561.856411
964.796331	2565.140723
965.095601	2562.554611
965.394835	2563.915723
965.694030	2563.358675
965.993189	2563.802297
966.292309	2565.057544
966.591393	2562.499158
966.890439	2562.390774
967.189447	2562.484035
967.488419	2562.110990
967.787353	2561.145609
968.086249	2562.970506
968.385108	2565.281875
968.683930	2563.746844
968.982714	2562.572255
969.281462	2561.327090
969.580172	2563.151988
969.878844	2562.020249
970.177480	2564.770198
970.476078	2565.644838
970.774639	2560.770043
971.073162	2559.915567
971.371649	2559.852553
971.670098	2559.540001
971.968510	2561.503531
972.266885	2559.527398
972.565223	2562.108469
972.863524	2560.223078
973.161788	2564.316494
973.460014	2562.418500
973.758204	2562.421021
974.056356	2560.790207
974.354471	2563.194838
974.652550	2562.889848
974.950591	2561.435475
975.248595	2563.542677
975.546563	2562.206772
975.844493	2561.871535
976.142386	2560.336503
976.440243	2564.059396
976.738062	2564.147616
977.035845	2561.770712
977.333590	2563.008315
977.631299	2562.670558
977.928971	2563.719118
978.226606	2562.015208
978.524204	2562.821792
978.821765	2561.009497
979.119290	2563.454457
979.416777	2564.026628
979.714228	2565.659962
980.011642	2563.308264
980.309020	2566.244736
980.606360	2561.982440
980.903664	2562.559652
981.200931	2562.726010
981.498162	2562.176525
981.795356	2561.072512
982.092513	2561.342214
982.389633	2562.219374
982.686717	2563.295661
982.983764	2562.617626
983.280775	2561.443037
983.577749	2564.079560
983.874686	2565.728017
984.171587	2564.490414
984.468451	2563.096535
984.765279	2566.451423
985.062070	2559.575289
985.358824	2562.930177
985.655543	2564.407235
985.952224	2564.036710
986.248869	2563.640980
986.545478	2557.599157
986.842050	2559.731565
987.138586	2557.384908
987.435086	2558.937583
987.731549	2556.353992
988.027975	2561.034703
988.324366	2560.780125
988.620719	2562.693243
988.917037	2562.829354
989.213318	2561.279199
989.509563	2562.877245
989.805772	2562.675599
990.101944	2560.616287
990.398080	2559.419013
990.694180	2560.525547
990.990244	2563.109138
991.286271	2562.294992
991.582262	2560.921277
991.878217	2559.575289
992.174136	2561.145609
992.470019	2561.445557
992.765865	2561.793397
993.061676	2564.457647
993.357450	2561.223747
993.653188	2561.269117
993.948890	2564.618964
994.244556	2561.057388
994.540186	2563.386402
994.835780	2561.306926
995.131337	2562.849519
995.426859	2564.233315
995.722345	2562.116031
996.017795	2562.461350
996.313208	2560.737275
996.608586	2562.194169
996.903928	2565.201217
997.199234	2561.770712
997.494504	2562.536967
997.789738	2560.207954
998.084936	2562.617626
998.380099	2561.324570
998.675225	2562.358006
998.970316	2563.265414
999.265371	2563.366237
999.560390	2559.010680
999.855373	2563.033521
1000.150320	2560.916236
1000.445232	2563.966134
1000.740108	2561.213664
1001.034948	2561.621998
1001.329752	2564.737431
1001.624521	2561.508572
1001.919254	2558.798952
1002.213951	2560.066802
1002.508613	2560.109652
1002.803239	2558.080587
1003.097829	2560.097049
1003.392384	2560.742316
1003.686903	2562.872204
1003.981386	2562.675599
1004.275834	2561.735424
1004.570246	2562.756257
1004.864623	2563.041082
1005.158964	2560.046637
1005.453270	2561.175856
1005.747540	2562.000084
1006.041775	2560.008828
1006.335974	2559.766853
1006.630138	2561.374981
1006.924266	2561.924467
1007.218359	2559.812223
1007.512416	2561.339693
1007.806438	2562.857080
1008.100425	2564.039231
1008.394376	2557.599157
1008.688292	2562.829354
1008.982172	2562.007646
1009.276017	2561.690053
1009.569827	2561.188458
1009.863602	2561.594271
1010.157341	2560.787687
1010.451045	2561.483366
1010.744714	2560.407080
1011.038347	2560.175187
1011.331945	2561.463201
1011.625508	2564.056875
1011.919036	2561.806000
1012.212528	2560.318859
1012.505986	2561.735424
1012.799408	2563.056206
1013.092795	2557.896585
1013.386147	2561.944632
1013.679464	2560.129816
1013.972745	2560.336503
1014.265992	2561.737944
1014.559204	2562.743654
1014.852380	2564.273645
1015.145521	2564.568552
1015.438628	2559.101421
1015.731699	2561.584189
1016.024736	2562.668037
1016.317737	2563.588048
1016.610703	2561.385063
1016.903635	2558.836760
1017.196531	2557.178221
1017.489393	2559.320711
1017.782219	2557.946997
1018.075011	2558.930022
1018.367768	2561.695094
1018.660490	2560.457491
1018.953177	2560.457491
1019.245829	2560.457491
