Dividing Wavelength (nm)	Counts (n)	Blue Motor Position (mm): 14.500000	Red Motor Position (mm): 0.000000	
326.493990	2172.553306
326.888308	2172.553306
327.282561	2172.553306
327.676750	2131.604013
328.070874	2127.694598
328.464933	2128.208796
328.858929	2131.399846
329.252859	2137.035856
329.646726	2145.101702
330.040528	2157.898671
330.434265	2170.753614
330.827938	2187.911181
331.221547	2204.620085
331.615091	2223.635318
332.008571	2240.732391
332.401986	2260.965062
332.795338	2280.020623
333.188625	2296.835392
333.581847	2315.079328
333.975006	2330.878304
334.368100	2353.316480
334.761129	2367.835003
335.154095	2386.310832
335.546996	2407.148441
335.939833	2435.136927
336.332606	2448.382559
336.725315	2466.255970
337.117960	2477.167547
337.510540	2486.692807
337.903056	2497.856443
338.295508	2505.755931
338.687896	2516.087776
339.080220	2522.868127
339.472480	2531.425486
339.864676	2536.229706
340.256807	2540.212217
340.648875	2544.023330
341.040879	2545.560882
341.432818	2549.704710
341.824694	2553.208312
342.216506	2551.890050
342.608253	2554.914743
342.999937	2557.437840
343.391557	2558.062943
343.783113	2555.290308
344.174605	2553.684701
344.566033	2552.726882
344.957397	2551.433826
345.348697	2551.302756
345.739934	2548.038609
346.131106	2546.823691
346.522215	2543.163813
346.913260	2542.611807
347.304241	2538.563760
347.695159	2538.299099
348.086012	2536.638039
348.476802	2536.706095
348.867528	2530.843233
349.258191	2529.847605
349.648789	2529.867770
350.039324	2524.640093
350.429796	2528.839374
350.820203	2526.850639
351.210548	2522.580782
351.600828	2524.887110
351.991045	2522.958868
352.381198	2520.932324
352.771288	2522.369053
353.161314	2521.063394
353.551276	2521.786800
353.941175	2521.582633
354.331010	2521.801923
354.720782	2520.327386
355.110490	2524.592202
355.500135	2518.376459
355.889717	2518.936027
356.279235	2520.879392
356.668689	2518.227745
357.058080	2522.459794
357.447408	2521.539783
357.836672	2519.588857
358.225873	2522.621111
358.615010	2521.103724
359.004084	2521.549866
359.393095	2519.006604
359.782043	2522.313601
360.170927	2522.583302
360.559748	2525.028262
360.948505	2524.045237
361.337199	2526.875845
361.725830	2525.920546
362.114398	2525.459281
362.502903	2526.273427
362.891344	2527.521113
363.279722	2525.050947
363.668037	2527.558921
364.056289	2526.316277
364.444478	2528.032790
364.832603	2530.243336
365.220665	2530.702081
365.608665	2529.197296
365.996601	2532.559746
366.384474	2530.175280
366.772284	2531.869108
367.160031	2528.922553
367.547715	2534.233409
367.935336	2531.047400
368.322893	2531.828778
368.710388	2527.871473
369.097820	2530.651669
369.485189	2531.493542
369.872495	2534.220806
370.259738	2532.524458
370.646918	2534.941691
371.034035	2535.234078
371.421090	2532.849612
371.808081	2534.954294
372.195010	2533.331042
372.581875	2532.630322
372.968678	2536.181815
373.355418	2534.987061
373.742096	2535.876825
374.128710	2536.038142
374.515262	2538.268852
374.901751	2536.867412
375.288177	2539.824048
375.674540	2539.191384
376.060841	2539.345139
376.447079	2538.281455
376.833254	2537.971424
377.219367	2537.535365
377.605417	2537.729449
377.991404	2538.112577
378.377329	2537.200128
378.763191	2537.729449
379.148991	2538.205838
379.534727	2538.215920
379.920402	2536.963194
380.306013	2540.214738
380.691563	2541.580891
381.077049	2540.466796
381.462474	2539.463606
381.847835	2539.125849
382.233134	2540.015612
382.618371	2539.327495
383.003545	2542.349667
383.388657	2540.602907
383.773706	2540.660880
384.158693	2541.729605
384.543618	2545.704554
384.928480	2540.086188
385.313280	2545.681869
385.698017	2543.287321
386.082692	2539.952598
386.467305	2544.814791
386.851856	2544.081303
387.236344	2545.908721
387.620770	2540.572660
388.005133	2539.519059
388.389435	2539.985365
388.773674	2539.856816
389.157851	2543.713299
389.541965	2545.112219
389.926018	2545.969215
390.310008	2545.429812
390.693936	2546.985008
391.077802	2546.145655
391.461606	2546.193546
391.845348	2547.715975
392.229027	2546.647250
392.612645	2546.821170
392.996200	2547.048022
393.379694	2545.596170
393.763125	2546.438042
394.146494	2547.368135
394.529801	2546.652291
394.913047	2547.547096
395.296230	2548.325954
395.679351	2547.882333
396.062410	2548.411654
396.445408	2549.049360
396.828343	2549.997097
397.211217	2548.827549
397.594028	2548.262940
397.976778	2550.924669
398.359466	2550.765873
398.742092	2552.726882
399.124656	2548.900646
399.507158	2548.252858
399.889598	2552.328631
400.271977	2550.208825
400.654294	2550.896943
401.036549	2549.515667
401.418742	2551.093548
401.800874	2551.789227
402.182944	2551.569937
402.564952	2552.142108
402.946898	2553.578837
403.328783	2551.040616
403.710606	2550.244113
404.092367	2551.368291
404.474067	2553.810730
404.855705	2554.279557
405.237282	2554.229146
405.618797	2555.055895
406.000250	2557.342058
406.381642	2554.256872
406.762972	2551.264947
407.144240	2550.196222
407.525447	2553.533466
407.906593	2547.559699
408.287677	2553.283929
408.668700	2556.381718
409.049661	2556.704352
409.430560	2553.036913
409.811399	2554.375339
410.192176	2555.844835
410.572891	2555.892726
410.953545	2556.480021
411.334138	2555.360885
411.714669	2556.429609
412.095139	2554.617314
412.475547	2555.958261
412.855894	2555.605381
413.236180	2556.180072
413.616405	2554.803837
413.996568	2557.594116
414.376670	2557.934394
414.756711	2557.823488
415.136691	2556.606050
415.516609	2559.023283
415.896466	2557.122768
416.276262	2559.040927
416.655997	2558.766184
417.035670	2555.537325
417.415283	2558.017573
417.794834	2557.982285
418.174324	2557.417675
418.553753	2557.838612
418.933121	2558.504044
419.312428	2559.184600
419.691674	2557.150494
420.070859	2561.120403
420.449983	2560.006308
420.829045	2558.751061
421.208047	2559.784497
421.586988	2561.102759
421.965867	2563.683830
422.344686	2562.723490
422.723444	2558.652758
423.102141	2562.100907
423.480777	2559.303067
423.859352	2561.213664
424.237866	2560.008828
424.616319	2559.413972
424.994712	2561.727862
425.373044	2561.997564
425.751314	2559.575289
426.129524	2557.863817
426.507673	2559.771894
426.885762	2554.576985
427.263789	2559.794579
427.641756	2560.520506
428.019662	2562.642831
428.397508	2561.687533
428.775292	2562.312636
429.153016	2563.882955
429.530679	2560.885989
429.908282	2560.686864
430.285824	2562.753737
430.663305	2558.703170
431.040726	2561.122923
431.418086	2562.720969
431.795385	2564.195507
432.172624	2562.494117
432.549802	2561.843808
432.926920	2562.897410
433.303977	2563.099056
433.680974	2563.046124
434.057910	2561.919426
434.434786	2562.592420
434.811601	2562.894889
435.188355	2563.963614
435.565050	2561.445557
435.941683	2562.794066
436.318257	2563.855229
436.694770	2563.041082
437.071222	2562.526885
437.447614	2563.572924
437.823946	2564.566032
438.200218	2565.138202
438.576429	2563.325908
438.952580	2566.103583
439.328670	2565.334807
439.704700	2562.244580
440.080670	2565.420507
440.456580	2566.320353
440.832429	2563.618295
441.208218	2565.415466
441.583947	2565.352452
441.959616	2565.879252
442.335224	2565.821279
442.710773	2567.885631
443.086261	2567.827658
443.461689	2565.198696
443.837057	2567.845302
444.212365	2565.871690
444.587612	2565.627194
444.962800	2560.540670
445.337927	2562.791545
445.712995	2562.252142
446.088002	2565.692729
446.462949	2564.918912
446.837837	2564.293809
447.212664	2565.554098
447.587431	2568.498132
447.962139	2564.195507
448.336786	2567.689026
448.711374	2568.404870
449.085901	2568.656928
449.460369	2568.694737
449.834776	2567.368913
450.209124	2567.008471
450.583412	2567.537792
450.957640	2569.413101
451.331808	2566.927812
451.705917	2570.184397
452.079965	2566.637946
452.453954	2565.866649
452.827883	2570.146589
453.201752	2569.965107
453.575562	2573.191446
453.949311	2567.043759
454.323001	2569.934860
454.696632	2571.563153
455.070202	2572.268915
455.443713	2568.944274
455.817164	2570.640622
456.190556	2569.650035
456.563888	2573.425859
456.937160	2568.001578
457.310373	2568.982082
457.683526	2571.590879
458.056619	2572.226065
458.429653	2570.045766
458.802628	2569.730694
459.175542	2572.926785
459.548398	2570.343194
459.921194	2571.860581
460.293930	2571.832855
460.666607	2572.190777
461.039224	2570.869994
461.411782	2572.843606
461.784280	2574.426528
462.156719	2576.228741
462.529099	2572.117680
462.901419	2574.058524
463.273680	2571.485015
463.645882	2569.413101
464.018024	2569.571897
464.390106	2568.097360
464.762130	2573.791343
465.134094	2575.351580
465.505999	2574.645819
465.877845	2578.555233
466.249631	2577.214287
466.621358	2579.926427
466.993026	2577.960377
467.364634	2581.453897
467.736184	2577.859554
468.107674	2577.363001
468.479105	2579.044225
468.850477	2577.912486
469.221790	2577.267219
469.593043	2574.176991
469.964238	2577.771334
470.335373	2577.486509
470.706449	2577.088258
471.077467	2579.019020
471.448425	2577.935172
471.819324	2579.258474
472.190164	2584.518918
472.560945	2577.022723
472.931667	2579.893660
473.302330	2579.697055
473.672934	2577.758731
474.043479	2578.822415
474.413965	2578.819894
474.784393	2576.833679
475.154761	2581.660584
475.525070	2581.408527
475.895321	2578.635892
476.265513	2577.105902
476.635645	2580.274267
477.005719	2581.017837
477.375734	2580.783423
477.745691	2581.058166
478.115588	2580.027250
478.485427	2582.535224
478.855207	2583.024216
479.224928	2585.544793
479.594591	2584.317272
479.964194	2587.067222
480.333739	2588.627459
480.703226	2585.239803
481.072653	2586.575709
481.442022	2585.030596
481.811333	2583.787951
482.180584	2583.477920
482.549777	2586.409351
482.918912	2582.469689
483.287988	2585.602767
483.657005	2587.410020
484.025964	2586.492530
484.394864	2587.899012
484.763706	2586.449680
485.132489	2582.706624
485.501213	2586.260637
485.869879	2589.134095
486.238487	2588.766091
486.607036	2583.346850
486.975527	2586.207705
487.343959	2585.973291
487.712333	2587.868765
488.080648	2586.893302
488.448905	2587.435226
488.817104	2583.994638
489.185244	2588.045206
489.553326	2590.162490
489.921350	2587.951944
490.289315	2591.150556
490.657222	2591.931935
491.025070	2592.940166
491.392861	2591.735330
491.760593	2590.611153
492.128267	2592.045361
492.495883	2589.214753
492.863440	2590.152408
493.230939	2589.892788
493.598380	2587.977150
493.965763	2591.110227
494.333088	2589.832295
494.700354	2589.353385
495.067563	2590.938828
495.434713	2589.055957
495.801805	2588.042685
496.168839	2590.185175
496.535815	2589.267685
496.902733	2589.648292
497.269593	2589.638210
497.636395	2590.351533
498.003139	2588.319948
498.369825	2587.145360
498.736453	2591.788262
499.103023	2592.793972
499.469535	2591.561410
499.835989	2590.850608
500.202385	2587.747777
500.568723	2585.733837
500.935003	2586.535380
501.301226	2586.484968
501.667390	2593.776997
502.033497	2595.881679
502.399546	2591.682398
502.765537	2593.991247
503.131470	2592.922522
503.497345	2594.520568
503.863163	2594.187852
504.228923	2593.958479
504.594625	2597.651124
504.960269	2594.029055
505.325856	2597.431834
505.691385	2597.020980
506.056856	2599.382761
506.422270	2596.705908
506.787625	2596.158943
507.152924	2597.598192
507.518164	2599.289499
507.883347	2599.511310
508.248472	2597.681371
508.613540	2600.055755
508.978550	2602.344438
509.343503	2600.259921
509.708398	2603.198914
510.073236	2603.660180
510.438016	2604.663369
510.802738	2605.588421
511.167403	2605.570777
511.532010	2605.611106
511.896561	2606.211003
512.261053	2610.165789
512.625488	2609.321395
512.989866	2607.922475
513.354186	2610.238885
513.718449	2610.884153
514.082655	2610.501025
514.446803	2614.337343
514.810894	2612.542693
515.174927	2613.823146
515.538904	2611.592435
515.902822	2612.860285
516.266684	2617.515791
516.630488	2615.179216
516.994235	2618.864300
517.357925	2619.038219
517.721558	2621.236162
518.085133	2620.250617
518.448651	2619.456635
518.812112	2618.027468
519.175516	2621.309259
519.538863	2621.158025
519.902152	2625.662296
520.265385	2627.214971
520.628560	2627.696401
520.991678	2629.402832
521.354739	2630.481639
521.717743	2628.946607
522.080690	2634.696043
522.443580	2635.137144
522.806413	2637.345170
523.169189	2633.034983
523.531908	2636.278966
523.894569	2634.869963
524.257174	2639.217958
524.619722	2639.041518
524.982213	2643.379431
525.344647	2642.366159
525.707025	2647.046870
526.069345	2645.461427
526.431608	2645.708444
526.793815	2646.285656
527.155964	2648.360091
527.518057	2647.677014
527.880093	2650.293373
528.242072	2653.509629
528.603995	2654.061636
528.965860	2656.128509
529.327669	2654.333858
529.689421	2659.223777
530.051117	2657.776966
530.412755	2659.977430
530.774337	2662.208140
531.135862	2663.168480
531.497331	2666.677123
531.858743	2665.817607
532.220098	2670.599141
532.581396	2671.897238
532.942638	2670.163081
533.303824	2676.199863
533.664953	2676.398988
534.026025	2678.017199
534.387040	2681.525842
534.747999	2682.967612
535.108902	2686.400638
535.469748	2687.774352
535.830537	2688.795186
536.191270	2694.998326
536.551947	2692.689477
536.912567	2690.748633
537.273131	2696.515713
537.633638	2698.927905
537.994089	2706.051055
538.354483	2704.904193
538.714821	2715.523383
539.075103	2715.505739
539.435328	2717.005483
539.795497	2720.352809
540.155609	2724.436143
540.515665	2728.723645
540.875665	2730.934191
541.235609	2732.950652
541.595496	2738.601786
541.955328	2741.092116
542.315102	2751.055956
542.674821	2750.125863
543.034483	2752.883375
543.394090	2763.311001
543.753640	2762.814448
544.113134	2775.263577
544.472571	2777.564864
544.831953	2783.964609
545.191278	2786.991822
545.550548	2790.165228
545.909761	2797.973975
546.268918	2807.968063
546.628019	2812.671459
546.987064	2820.951554
547.346053	2824.782831
547.704986	2831.802638
548.063863	2841.277487
548.422684	2845.189422
548.781449	2851.679908
549.140158	2863.380426
549.498811	2870.299409
549.857408	2873.014071
550.215949	2886.778941
550.574434	2893.466032
550.932864	2904.551529
551.291237	2915.863878
551.649555	2929.953903
552.007817	2940.860440
552.366022	2948.149948
552.724173	2954.516926
553.082267	2970.003350
553.440305	2991.181238
553.798288	2993.205261
554.156215	3017.685104
554.514086	3031.102135
554.871902	3029.068029
555.229661	3047.516132
555.587365	3063.045406
555.945014	3077.977304
556.302606	3104.987806
556.660143	3116.723612
557.017625	3144.986841
557.375050	3153.881957
557.732421	3174.459947
558.089735	3194.697659
558.446994	3210.158878
558.804197	3240.166347
559.161345	3261.573606
559.518437	3261.303905
559.875474	3296.881848
560.232455	3316.502019
560.589381	3344.026719
560.946251	3363.689739
561.303065	3398.413207
561.659825	3435.619443
562.016528	3446.518418
562.373177	3462.894606
562.729770	3484.662308
563.086307	3531.245090
563.442789	3561.870100
563.799216	3589.901436
564.155587	3609.070423
564.511904	3654.952485
564.868164	3664.543280
565.224370	3712.784602
565.580520	3726.557034
565.936615	3778.485960
566.292654	3785.914100
566.648638	3847.327957
567.004567	3867.391749
567.360441	3900.736461
567.716260	3916.353956
568.072023	3989.765759
568.427732	4015.851209
568.783385	4032.774363
569.138982	4086.437446
569.494525	4141.665807
569.850013	4176.835416
570.205445	4210.769943
570.560823	4228.376173
570.916145	4280.005150
571.271412	4311.313236
571.626625	4368.018655
571.981782	4403.846136
572.336884	4429.387142
572.691931	4491.015247
573.046923	4496.767204
573.401860	4556.285587
573.756743	4621.697079
574.111570	4649.589783
574.466342	4685.182850
574.821059	4751.131224
575.175722	4759.781844
575.530330	4829.639634
575.884882	4878.087643
576.239380	4932.476652
576.593823	4967.542918
576.948211	5004.184544
577.302544	5036.523546
577.656823	5073.311367
578.011047	5150.685516
578.365216	5188.353018
578.719330	5240.407973
579.073389	5269.646665
579.427394	5373.267582
579.781344	5365.950347
580.135239	5433.683290
580.489080	5476.374302
580.842866	5490.171940
581.196597	5611.270537
581.550273	5621.718329
581.903895	5713.159818
582.257463	5803.255320
582.610975	5812.805786
582.964434	5908.829684
583.317837	5938.491834
583.671186	6016.889338
584.024481	6087.329380
584.377721	6083.243525
584.730906	6166.452811
585.084037	6244.525160
585.437113	6287.584176
585.790135	6381.274020
586.143103	6357.252922
586.496016	6404.143214
586.848874	6551.276851
587.201679	6579.829947
587.554428	6582.726089
587.907124	6723.036524
588.259765	6739.911787
588.612352	6853.955290
588.964884	6817.895916
589.317362	6920.407780
589.669786	6995.984758
590.022155	7071.385296
590.374470	7197.217537
590.726731	7218.677729
591.078937	7221.137812
591.431090	7314.752039
591.783188	7298.464071
592.135232	7349.508275
592.487222	7475.312789
592.839157	7539.189250
593.191038	7597.278466
593.542866	7602.990093
593.894639	7620.114892
594.246358	7749.596929
594.598022	7772.400588
594.949633	7782.624048
595.301190	7832.133220
595.652692	7949.544214
596.004141	8089.262313
596.355535	7948.331817
596.706876	8024.569186
597.058162	8073.480981
597.409395	8185.734875
597.760573	8300.406001
598.111698	8303.889438
598.462768	8347.268567
598.813785	8397.685147
599.164748	8403.492556
599.515657	8476.801015
599.866511	8482.066501
600.217312	8664.578955
600.568060	8560.826968
600.918753	8760.252493
601.269392	8805.212024
601.619978	8770.009647
601.970510	8950.614024
602.320988	8972.510276
602.671412	9122.202298
603.021783	9158.498606
603.372100	9109.785936
603.722363	9246.796936
604.072572	9297.042117
604.422728	9388.788596
604.772830	9407.072861
605.122878	9405.749558
605.472872	9500.946707
605.822813	9573.229292
606.172701	9625.281726
606.522534	9780.710581
606.872314	9858.823260
607.222041	9821.402775
607.571714	10000.255352
607.921333	10009.614254
608.270899	10106.706877
608.620411	10289.584815
608.969870	10194.382625
609.319276	10278.297672
609.668627	10379.304751
610.017926	10508.867446
610.367171	10622.111926
610.716362	10746.729249
611.065500	10683.656852
611.414585	10816.589559
611.763616	10890.749973
612.112594	10943.704773
612.461518	10969.704524
612.810389	11142.558128
613.159207	11100.194792
613.507971	11136.367591
613.856682	11394.177240
614.205340	11407.364898
614.553945	11574.950496
614.902496	11457.010182
615.250994	11713.723379
615.599439	11726.162427
615.947830	11772.475507
616.296169	11836.102430
616.644454	11914.368864
616.992686	11923.528641
617.340864	12123.221347
617.688990	12074.755694
618.037063	12233.058008
618.385082	12205.187988
618.733048	12416.863518
619.080961	12399.837021
619.428821	12499.828307
619.776628	12515.077798
620.124382	12505.615552
620.472083	12610.010286
620.819731	12699.405067
621.167326	12544.359340
621.514868	12635.339564
621.862357	12553.277141
622.209793	12625.784057
622.557176	12582.407448
622.904506	12498.449552
623.251783	12513.749454
623.599007	12464.968728
623.946179	12471.002990
624.293297	12502.827794
624.640363	12394.337122
624.987376	12446.724793
625.334336	12352.724917
625.681243	12309.673464
626.028097	12359.797656
626.374899	12410.115933
626.721647	12329.333964
627.068343	12258.432655
627.414987	12271.758946
627.761577	12328.045949
628.108115	12409.785738
628.454600	12232.488357
628.801032	12333.810508
629.147412	12336.462155
629.493739	12394.962225
629.840014	12306.469810
630.186236	12410.771283
630.532405	12287.096656
630.878521	12477.264103
631.224585	12429.615117
631.570597	12364.092719
631.916556	12393.452399
632.262462	12419.784867
632.608316	12420.278900
632.954117	12401.568657
633.299866	12447.846449
633.645562	12442.603649
633.991206	12275.655757
634.336797	12203.307638
634.682336	12239.535890
635.027823	12186.568487
635.373257	12153.589258
635.718639	12096.160434
636.063968	12095.905855
636.409245	11950.778598
636.754470	12009.354285
637.099642	11928.431163
637.444762	11767.159610
637.789829	11854.658918
638.134845	11758.945050
638.479808	11805.928604
638.824719	11814.992598
639.169577	11706.030579
639.514383	11775.396856
639.859137	11653.393371
640.203839	11757.596541
640.548489	11645.085549
640.893086	11681.661641
641.237632	11576.830847
641.582125	11749.679409
641.926566	11638.927780
642.270955	11671.964982
642.615292	11667.463231
642.959576	11703.958664
643.303809	11769.425609
643.647990	11726.492622
643.992118	11810.556383
644.336195	11625.261212
644.680219	11813.734831
645.024192	11788.198866
645.368112	12006.891681
645.711981	12092.031729
646.055797	12252.118610
646.399562	12246.936304
646.743274	12482.539670
647.086935	12763.750355
647.430544	12741.632293
647.774101	12769.575408
648.117606	12956.256897
648.461059	12932.906273
648.804460	12987.484325
649.147810	12760.082916
649.491108	12673.455728
649.834354	12744.104979
650.177548	12494.066268
650.520690	12346.647807
650.863781	12289.445834
651.206820	12349.891789
651.549807	12221.483518
651.892742	12080.895820
652.235626	12035.825384
652.578458	12061.908314
652.921238	11801.648664
653.263967	11984.254380
653.606644	11862.119825
653.949269	11841.650220
654.291843	11702.211905
654.634365	11834.496823
654.976836	11733.777089
655.319255	11765.274219
655.661622	11737.873027
656.003938	11681.036538
656.346203	11632.200360
656.688416	11709.095600
657.030577	11688.522651
657.372687	11639.910805
657.714746	11616.850047
658.056753	11797.908128
658.398708	11659.490646
658.740612	11674.840960
659.082465	11775.502720
659.424266	11742.841084
659.766016	11780.997577
660.107715	11708.929242
660.449362	11784.304574
660.790958	11768.724888
661.132503	11724.617313
661.473996	11788.052672
661.815438	11819.736324
662.156829	11838.471773
662.498168	11842.585354
662.839456	11840.694921
663.180693	11875.516692
663.521879	11969.655198
663.863013	11958.103394
664.204097	11953.178187
664.545129	12060.043087
664.886110	12046.842826
665.227040	12131.352729
665.567918	12145.220943
665.908746	12192.438910
666.249522	12178.230418
666.590248	12220.928991
666.930922	12342.468690
667.271545	12332.824963
667.612118	12417.929722
667.952639	12344.580933
668.293109	12352.109897
668.633528	12325.263232
668.973896	12311.347127
669.314213	12405.261302
669.654480	12175.379646
669.994695	12223.681461
670.334859	12271.285077
670.674973	12223.520144
671.015035	12270.246599
671.355047	12216.369268
671.695008	12196.731453
672.034918	12201.886033
672.374777	12245.739030
672.714585	12174.678925
673.054342	12215.550080
673.394049	12166.272801
673.733705	12258.790577
674.073310	12187.473374
674.412864	12218.279865
674.752368	12105.083276
675.091820	12101.065476
675.431223	12110.852877
675.770574	11993.295689
676.109875	11922.253229
676.449125	11897.049980
676.788324	11832.220742
677.127473	11680.368585
677.466571	11678.105107
677.805619	11587.578587
678.144616	11511.522699
678.483562	11481.686630
678.822458	11356.260201
679.161303	11341.426606
679.500098	11339.316883
679.838842	11295.037908
680.177535	11317.655045
680.516179	11374.428520
680.854771	11327.823052
681.193314	11538.823067
681.531805	11684.192300
681.870247	12072.330899
682.208638	12471.640696
682.546978	12781.555711
682.885268	12863.814738
683.223508	12564.047566
683.561697	12407.572671
683.899836	12307.883854
684.237925	12123.753189
684.575963	12046.431972
684.913951	11973.826753
685.251889	11917.650655
685.589776	12013.067095
685.927614	11954.753548
686.265401	11907.124726
686.603137	11951.353289
686.940824	12105.078235
687.278460	12219.482180
687.616046	12274.108123
687.953582	12448.867283
688.291068	12362.469468
688.628504	12580.428796
688.965889	12592.126793
689.303224	12574.397055
689.640510	12477.861479
689.977745	12191.929754
690.314930	11964.072121
690.652065	11879.814275
690.989150	11609.217740
691.326185	11384.677186
691.663170	11175.638180
692.000105	10943.984558
692.336990	10845.140133
692.673825	10598.879768
693.010610	10479.946346
693.347345	10279.565522
693.684030	10075.098842
694.020665	10015.371252
694.357251	9829.324948
694.693786	9791.773393
695.030272	9616.999110
695.366707	9500.243466
695.703093	9429.195965
696.039429	9431.116644
696.375716	9362.753557
696.711952	9233.768074
697.048139	9265.509699
697.384276	9216.852482
697.720363	9237.669927
698.056400	9178.484260
698.392388	9127.866035
698.728326	9093.324048
699.064214	9025.235704
699.400053	9079.957429
699.735842	8898.425479
700.071581	8849.281791
700.407270	8775.559957
700.742910	8702.243936
701.078501	8609.741283
701.414042	8496.222061
701.749533	8427.826206
702.084974	8296.047924
702.420366	8400.135148
702.755709	8284.833877
703.091002	8155.697159
703.426246	8182.901746
703.761440	8137.518759
704.096584	8094.038807
704.431679	8027.603961
704.766725	8013.090479
705.101721	7961.549722
705.436668	8001.536154
705.771565	7897.784167
706.106413	7982.921694
706.441212	8027.208230
706.775961	7982.926735
707.110661	8002.521700
707.445311	8161.691091
707.779913	8057.858446
708.114465	8185.013990
708.448967	8228.504024
708.783421	8360.373047
709.117825	8538.315695
709.452180	8575.912621
709.786485	8658.708531
710.120742	8929.410931
710.454949	8936.357641
710.789107	9031.756437
711.123216	9239.388961
711.457275	9398.918795
711.791286	9571.301050
712.125247	9562.305111
712.459159	9548.996465
712.793023	9813.946908
713.126837	9382.313234
713.460602	9527.828660
713.794318	9361.400007
714.127985	9392.317404
714.461602	9093.399666
714.795171	9034.382878
715.128691	8789.932287
715.462162	8535.013739
715.795584	8481.340574
716.128957	8350.283177
716.462281	8175.549223
716.795556	8225.794404
717.128782	8030.759723
717.461960	7755.948783
717.795088	7824.694998
718.128167	7735.027994
718.461198	7569.698313
718.794180	7510.976432
719.127113	7504.004517
719.459997	7370.807150
719.792833	7130.583566
720.125619	7182.630959
720.458357	7048.286729
720.791046	7034.068155
721.123686	7039.817591
721.456278	6887.710856
721.788821	6905.037302
722.121315	6794.736856
722.453761	6850.860021
722.786158	6807.576674
723.118506	6820.587893
723.450805	6794.900693
723.783056	6858.721701
724.115259	6756.386278
724.447412	6747.972592
724.779518	6796.221475
725.111574	6802.548123
725.443582	6882.331945
725.775542	6858.182297
726.107453	7046.608025
726.439315	6962.808925
726.771129	7014.934456
727.102895	7168.961870
727.434612	7295.431817
727.766281	7312.644837
728.097901	7407.292501
728.429473	7391.175932
728.760996	7355.265272
729.092471	7343.758839
729.423897	7299.121942
729.755276	7308.543858
730.086606	7242.585402
730.417887	7345.198088
730.749120	7511.851073
731.080305	7704.886936
731.411442	7846.976898
731.742530	7834.633633
732.073570	7936.817821
732.404562	8019.427209
732.735506	7863.864763
733.066401	8011.119388
733.397249	7950.486910
733.728048	7718.369502
734.058798	7385.812144
734.389501	7172.251223
734.720156	6992.713049
735.050762	6758.009529
735.381320	6653.496328
735.711831	6617.625998
736.042293	6502.793554
736.372707	6524.261308
736.703073	6390.945474
737.033391	6430.223624
737.363661	6436.144459
737.693883	6456.185566
738.024056	6537.758997
738.354182	6594.628254
738.684260	6629.311392
739.014290	6730.048769
739.344272	6840.011458
739.674207	6868.463731
740.004093	6931.473113
740.333931	6952.759385
740.663722	6962.330015
740.993464	7035.981273
741.323159	7034.393309
741.652806	6785.572038
741.982405	6776.785307
742.311956	6841.317117
742.641460	6702.148503
742.970915	6503.204408
743.300323	6495.705692
743.629683	6437.724861
743.958996	6307.027906
744.288260	6222.782664
744.617477	6162.102295
744.946647	6181.273803
745.275768	6012.097721
745.604842	5965.519980
745.933869	5949.456343
746.262847	5905.736937
746.591778	5895.699999
746.920662	5857.951839
747.249498	5840.640517
747.578286	5889.950563
747.907027	5962.868333
748.235720	6026.165061
748.564365	5997.740515
748.892963	6015.528226
749.221514	6170.654612
749.550017	6030.434918
749.878473	5893.701182
750.206881	5941.763543
750.535242	5878.852463
750.863555	5818.212423
751.191821	5840.060784
751.520039	5842.863666
751.848210	5751.575931
752.176334	5762.721922
752.504411	5819.634029
752.832440	5747.119551
753.160421	5669.347150
753.488356	5717.417073
753.816243	5756.206231
754.144082	5610.514364
754.471875	5575.516154
754.799620	5620.067351
755.127318	5631.478003
755.454969	5582.518317
755.782572	5549.710487
756.110129	5591.128607
756.437638	5587.579635
756.765100	5520.262587
757.092515	5517.096742
757.419882	5556.513524
757.747203	5547.688985
758.074477	5613.337411
758.401703	5600.825267
758.728882	5549.599582
759.056014	5596.767138
759.383099	5731.703703
759.710138	5739.716617
760.037129	5721.704574
760.364073	5728.124484
760.690970	5809.024921
761.017820	5799.164424
761.344623	5742.421196
761.671379	5842.961968
761.998088	5955.581345
762.324751	6178.239028
762.651366	6747.297077
762.977935	7998.892069
763.304456	9594.601263
763.630931	10522.536534
763.957359	10191.874651
764.283740	9272.695864
764.610074	8469.453534
764.936362	7491.399111
765.262602	6895.819552
765.588796	6353.991295
765.914943	6011.903637
766.241044	5856.847827
766.567097	5674.307646
766.893104	5410.635135
767.219064	5237.010235
767.544978	5169.683105
767.870845	5099.311118
768.196665	4986.122090
768.522438	4919.288993
768.848165	4885.477974
769.173846	4820.663859
769.499479	4781.453765
769.825066	4724.687852
770.150607	4670.387063
770.476101	4643.984020
770.801548	4641.395387
771.126949	4569.644645
771.452303	4514.895193
771.777611	4470.553204
772.102872	4485.008713
772.428087	4453.241882
772.753256	4413.295779
773.078378	4372.679202
773.403453	4304.973985
773.728482	4290.596615
774.053465	4247.484667
774.378401	4226.878951
774.703291	4238.657607
775.028135	4165.381915
775.352932	4115.623206
775.677683	4100.852625
776.002388	4123.036223
776.327046	4137.287564
776.651658	4063.543045
776.976224	3994.869927
777.300743	4005.060620
777.625216	4023.423022
777.949643	4021.482178
778.274024	3979.738904
778.598359	3931.414403
778.922647	3948.314871
779.246889	3948.166157
779.571086	3943.518213
779.895236	3926.721089
780.219339	3912.522679
780.543397	3898.296543
780.867409	3954.197898
781.191374	3970.173314
781.515294	3912.623502
781.839167	3903.652769
782.162995	3918.148607
782.486776	3906.740476
782.810511	3912.373965
783.134201	3919.774379
783.457844	3882.159809
783.781441	3817.958195
784.104993	3822.031447
784.428498	3840.545084
784.751958	3841.835620
785.075372	3822.369204
785.398739	3782.957463
785.722061	3786.251857
786.045337	3831.594516
786.368568	3868.672202
786.691752	3783.214562
787.014891	3827.851459
787.337983	3942.895631
787.661030	4097.764918
787.984031	4258.118981
788.306987	4435.660858
788.629897	4512.825800
788.952760	4471.813492
789.275579	4399.727513
789.598351	4346.074513
789.921078	4214.273545
790.243759	4013.118904
790.566395	3988.102178
790.888984	3984.976663
791.211529	3881.648132
791.534027	3822.283505
791.856480	3818.908452
792.178888	3753.633072
792.501249	3702.971996
792.823566	3709.356617
793.145836	3744.362390
793.468062	3695.009493
793.790241	3647.070641
794.112375	3676.445444
794.434464	3734.287644
794.756507	3757.602980
795.078505	3747.629057
795.400457	3773.260804
795.722364	3901.739651
796.044226	4003.472656
796.366042	4078.565684
796.687812	4067.510433
797.009538	4076.854212
797.331218	4032.502141
797.652852	4000.458046
797.974442	3978.846620
798.295986	3987.524966
798.617484	3909.989499
798.938938	3820.375428
799.260346	3857.037219
799.581709	3854.640151
799.903026	3786.529121
800.224299	3747.941609
800.545526	3740.599168
800.866708	3706.334446
801.187845	3638.974548
801.508936	3677.488963
801.829983	3683.959284
802.150984	3602.118672
802.471940	3587.290118
802.792851	3602.458950
803.113717	3598.728496
803.434538	3603.852829
803.755314	3549.398285
804.076045	3523.148997
804.396731	3539.618447
804.717372	3564.100810
805.037967	3554.343657
805.358518	3546.940723
805.679024	3567.755647
805.999485	3581.742328
806.319901	3580.542534
806.640272	3597.939556
806.960598	3615.989407
807.280879	3588.283225
807.601115	3599.943414
807.921306	3610.640743
808.241453	3655.343174
808.561554	3634.858446
808.881611	3569.215061
809.201623	3600.387036
809.521590	3612.649642
809.841513	3588.131991
810.161390	3612.856330
810.481223	3599.537601
810.801011	3540.263714
811.120755	3527.368443
811.440453	3565.144329
811.760107	3570.510637
812.079716	3532.528064
812.399281	3496.471211
812.718801	3518.185981
813.038276	3495.717558
813.357707	3489.494254
813.677093	3510.415042
813.996434	3462.443423
814.315731	3464.343938
814.634983	3465.962148
814.954191	3479.661483
815.273354	3512.431504
815.592473	3512.030732
815.911547	3508.322964
816.230577	3544.462996
816.549562	3596.185234
816.868502	3641.540495
817.187399	3669.115607
817.506250	3662.317611
817.825058	3629.048516
818.143821	3715.441290
818.462539	3821.101354
818.781213	3866.398642
819.099843	3920.906118
819.418429	4141.738903
819.736970	4375.779512
820.055466	4613.850523
820.373919	4967.991580
820.692327	5371.412437
821.010691	5770.097131
821.329011	7043.343878
821.647286	9623.476993
821.965517	13986.507426
822.283704	17985.652252
822.601847	20291.352513
822.919945	18563.078616
823.237999	16100.850528
823.556010	13658.580369
823.873976	11632.860751
824.191897	9586.500129
824.509775	8235.856547
824.827609	7117.227029
825.145398	6560.650877
825.463144	6447.592919
825.780845	6565.959212
826.098502	6726.066258
826.416116	7521.532608
826.733685	8802.562897
827.051210	9917.283001
827.368692	10044.985510
827.686129	8861.914922
828.003522	7365.970162
828.320872	6362.480598
828.638177	5678.131361
828.955439	5137.213033
829.272656	4643.502590
829.589830	4356.295452
829.906960	4182.806663
830.224046	4004.929550
830.541088	3878.946074
830.858086	3837.404446
831.175041	3763.891820
831.491952	3742.114035
831.808819	3754.429574
832.125642	3818.858041
832.442421	3955.828711
832.759157	4210.076785
833.075849	4728.531732
833.392497	5558.449327
833.709101	6320.099618
834.025662	6677.708990
834.342179	6362.941864
834.658653	5715.002360
834.975083	5085.818469
835.291469	4528.173593
835.607811	4118.373155
835.924110	3980.124552
836.240366	3789.158083
836.556578	3582.112853
836.872746	3475.119404
837.188871	3440.446348
837.504952	3378.261194
837.820990	3297.965696
838.136984	3245.686410
838.452935	3268.472425
838.768842	3264.920932
839.084706	3285.942544
839.400526	3432.526695
839.716303	3748.226434
840.032037	4238.715580
840.347727	4527.810629
840.663373	4280.904996
840.978977	3910.327257
841.294537	3611.654015
841.610054	3382.873850
841.925527	3275.358642
842.240957	3204.217878
842.556344	3154.754077
842.871687	3101.698453
843.186987	3051.004610
843.502244	3017.349867
843.817458	2981.693786
844.132629	2949.069959
844.447756	2960.178141
844.762840	2948.003755
845.077881	2914.689290
845.392879	2894.471742
845.707833	2893.052657
846.022745	2892.500651
846.337613	2890.713562
846.652438	2882.773745
846.967221	2878.579505
847.281960	2865.787577
847.596656	2861.747092
847.911309	2857.615866
848.225919	2853.451873
848.540485	2849.638240
848.855009	2851.755525
849.169490	2840.226406
849.483928	2829.662668
849.798323	2827.802483
850.112675	2826.547235
850.426984	2834.527382
850.741251	2835.780108
851.055474	2825.725527
851.369654	2819.774445
851.683792	2825.581854
851.997887	2832.422700
852.311938	2835.396981
852.625947	2822.978098
852.939914	2828.261227
853.253837	2832.909171
853.567718	2818.246975
853.881555	2813.546099
854.195350	2827.358861
854.509103	2826.373315
854.822812	2818.647747
855.136479	2816.049032
855.450103	2815.882674
855.763685	2813.147848
856.077224	2807.148875
856.390720	2821.007007
856.704173	2831.593430
857.017584	2823.159580
857.330953	2819.335865
857.644278	2829.037565
857.957561	2837.463854
858.270802	2838.560305
858.584000	2838.633402
858.897155	2831.119562
859.210268	2825.914570
859.523339	2824.036741
859.836367	2822.811740
860.149352	2818.516677
860.462295	2811.988383
860.775195	2822.572285
861.088054	2820.969198
861.400869	2804.973617
861.713642	2801.817855
862.026373	2817.221101
862.339062	2820.989363
862.651708	2825.052533
862.964312	2829.531598
863.276873	2820.497851
863.589392	2830.597802
863.901869	2839.253463
864.214303	2862.762884
864.526696	2876.265615
864.839045	2873.737476
865.151353	2874.670090
865.463619	2871.433669
865.775842	2871.922661
866.088023	2889.627193
866.400162	2898.766805
866.712258	2872.474667
867.024313	2859.087883
867.336325	2865.724562
867.648296	2889.697769
867.960224	2878.818959
868.272110	2868.938298
868.583954	2873.966849
868.895755	2888.447563
869.207515	2876.437014
869.519233	2875.590100
869.830909	2885.006976
870.142542	2897.536764
870.454134	2899.797721
870.765684	2897.904768
871.077191	2900.231260
871.388657	2906.013464
871.700081	2918.502923
872.011463	2930.105138
872.322803	2929.074222
872.634101	2929.409459
872.945357	2944.674073
873.256571	2970.898155
873.567744	2966.998823
873.878874	2953.894343
874.189963	2978.759834
874.501010	2982.460041
874.812015	2972.329843
875.122979	2972.695326
875.433900	2967.639049
875.744780	2970.585603
876.055618	2980.620020
876.366415	2976.151037
876.677169	2987.324755
876.987882	2988.075887
877.298554	2977.643219
877.609183	2992.496979
877.919771	3018.605114
878.230317	3045.023281
878.540822	3093.413317
878.851285	3132.744399
879.161707	3167.898886
879.472087	3259.355499
879.782425	3465.752940
880.092722	3875.999519
880.402977	4381.717991
880.713191	4974.938290
881.023363	6063.436832
881.333494	7305.297355
881.643583	7879.530149
881.953631	7604.530165
882.263637	7022.342431
882.573602	6471.404810
882.883526	5903.060084
883.193408	5344.714487
883.503248	4881.760123
883.813048	4590.998972
884.122806	4311.290551
884.432522	4009.839633
884.742197	3780.663738
885.051831	3594.095676
885.361424	3457.760191
885.670975	3389.160169
885.980485	3309.782161
886.289954	3234.477404
886.599382	3193.197916
886.908768	3154.043274
887.218113	3110.699433
887.527417	3061.250755
887.836680	3009.770492
888.145901	3004.671365
888.455082	2998.120386
888.764221	2949.324537
889.073319	2918.339085
889.382376	2919.337233
889.691392	2917.920669
890.000366	2918.543252
890.309300	2907.155285
890.618193	2919.861513
890.927044	2935.496652
891.235855	2935.925150
891.544625	2920.259765
891.853353	2932.560180
892.162041	2946.183898
892.470687	2984.320227
892.779293	3036.314688
893.087858	3078.824218
893.396381	3146.216883
893.704864	3257.268461
894.013306	3478.106288
894.321707	3767.193775
894.630068	3972.257832
894.938387	3980.094305
895.246665	3929.947427
895.554903	3821.681087
895.863100	3629.356026
896.171256	3468.969196
896.479371	3335.139164
896.787446	3219.636247
897.095480	3119.997842
897.403473	3056.557441
897.711425	3017.720392
898.019336	3007.234792
898.327207	2985.759477
898.635038	2952.450053
898.942827	2939.653083
899.250576	2926.563728
899.558284	2896.089953
899.865952	2880.467417
900.173579	2860.325487
900.481165	2850.575895
900.788711	2841.867302
901.096216	2815.607931
901.403681	2804.729121
901.711105	2809.959318
902.018489	2808.699030
902.325832	2810.072744
902.633135	2817.521049
902.940397	2847.042046
903.247619	2919.967378
903.554800	3093.352823
903.861941	3410.983324
904.169041	3821.852486
904.476101	4121.291983
904.783121	4101.268520
905.090100	3867.421996
905.397039	3607.860546
905.703938	3363.972044
906.010796	3185.220290
906.317614	3078.829259
906.624391	2988.842142
906.931129	2922.540887
907.237826	2862.672144
907.544483	2814.536686
907.851099	2785.587860
908.157675	2766.497011
908.464211	2745.843403
908.770707	2734.813359
909.077163	2723.488407
909.383578	2707.477702
909.689954	2699.326156
909.996289	2694.947914
910.302584	2697.350024
910.608839	2697.226516
910.915054	2694.151412
911.221229	2685.087417
911.527363	2683.602797
911.833458	2693.823737
912.139513	2696.281299
912.445527	2700.024356
912.751502	2707.273535
913.057436	2714.931048
913.363331	2730.422514
913.669186	2750.211563
913.975000	2777.738784
914.280775	2835.212979
914.586510	2903.815521
914.892205	2976.382930
915.197859	3092.735282
915.503475	3270.251953
915.809050	3472.354331
916.114585	3615.392030
916.420081	3644.610558
916.725536	3590.685335
917.030952	3480.372286
917.336328	3356.569109
917.641665	3233.506982
917.946961	3134.168525
918.252218	3072.484967
918.557435	2998.957217
918.862612	2940.522683
919.167750	2889.843963
919.472848	2858.298943
919.777906	2831.028821
920.082925	2806.727939
920.387904	2780.571912
920.692843	2760.193048
920.997743	2749.016810
921.302603	2737.482650
921.607423	2727.836402
921.912204	2715.341902
922.216946	2706.555171
922.521647	2696.228367
922.826310	2692.087059
923.130932	2682.914680
923.435516	2672.930675
923.740059	2668.552432
924.044564	2657.857625
924.349028	2655.984836
924.653454	2651.422592
924.957840	2645.688279
925.262186	2638.907927
925.566493	2638.585293
925.870761	2632.051958
926.174989	2628.518109
926.479178	2622.534260
926.783328	2619.678446
927.087438	2617.092334
927.391509	2617.969495
927.695541	2613.278701
927.999533	2609.984307
928.303486	2606.505911
928.607400	2606.619337
928.911275	2608.373658
929.215110	2603.473657
929.518906	2605.565736
929.822663	2604.393667
930.126381	2606.299224
930.430060	2606.425252
930.733699	2602.669593
931.037299	2603.632453
931.340861	2606.896600
931.644383	2608.298041
931.947866	2607.998093
932.251309	2605.356528
932.554714	2603.629933
932.858080	2604.093719
933.161407	2597.756988
933.464694	2599.191197
933.767943	2595.783377
934.071153	2598.803028
934.374323	2597.623398
934.677455	2599.743203
934.980548	2597.958635
935.283602	2596.915116
935.586617	2598.409818
935.889593	2598.016608
936.192530	2597.888058
936.495428	2596.826896
936.798287	2598.203131
937.101108	2601.716815
937.403890	2606.679831
937.706632	2610.390120
938.009336	2614.481016
938.312002	2625.173304
938.614628	2634.093625
938.917216	2638.426497
939.219765	2637.556898
939.522275	2637.927423
939.824747	2635.699233
940.127179	2636.838534
940.429573	2633.617236
940.731929	2627.033489
941.034246	2622.861935
941.336524	2620.837911
941.638763	2619.925462
941.940964	2614.284411
942.243126	2616.840276
942.545250	2616.799947
942.847335	2614.544031
943.149381	2608.126642
943.451389	2606.851230
943.753359	2604.943153
944.055290	2603.768564
944.357182	2603.158585
944.659036	2600.837133
944.960851	2599.660024
945.262628	2599.728080
945.564367	2597.751947
945.866067	2600.879983
946.167729	2598.737493
946.469352	2598.498038
946.770937	2598.253542
947.072484	2597.716659
947.373992	2600.222113
947.675462	2594.089549
947.976893	2590.457398
948.278286	2590.921184
948.579641	2593.242635
948.880958	2585.053281
949.182236	2592.972933
949.483476	2591.034610
949.784678	2590.832964
950.085841	2586.386666
950.386967	2594.361771
950.688054	2590.026379
950.989103	2591.584096
951.290114	2591.301791
951.591087	2593.996288
951.892021	2596.403439
952.192917	2597.509972
952.493776	2601.210179
952.794596	2602.004161
953.095378	2603.579521
953.396122	2600.600199
953.696828	2600.945518
953.997496	2597.610795
954.298126	2597.993923
954.598718	2596.088367
954.899272	2593.154415
955.199788	2590.018817
955.500266	2584.055132
955.800706	2586.868096
956.101108	2582.447004
956.401472	2583.488002
956.701798	2579.923907
957.002087	2581.761407
957.302337	2575.933833
957.602550	2574.638257
957.902724	2574.638257
958.202861	2573.808987
958.502960	2573.604820
958.803022	2573.481312
959.103045	2571.018708
959.403031	2572.662125
959.702979	2568.961918
960.002889	2567.807493
960.302762	2570.726322
960.602596	2567.837740
960.902393	2568.397308
961.202153	2569.367731
961.501875	2564.409756
961.801559	2566.879921
962.101205	2569.042576
962.400814	2569.662638
962.700385	2566.577452
962.999918	2564.387071
963.299414	2562.758778
963.598873	2564.001422
963.898293	2560.853222
964.197677	2563.580486
964.497022	2565.428069
964.796331	2563.056206
965.095601	2563.023438
965.394835	2560.833057
965.694030	2565.617112
965.993189	2566.723645
966.292309	2562.310115
966.591393	2564.132492
966.890439	2562.539488
967.189447	2564.576114
967.488419	2564.641649
967.787353	2564.946639
968.086249	2564.636608
968.385108	2565.755744
968.683930	2564.503017
968.982714	2565.110476
969.281462	2559.338355
969.580172	2564.165260
969.878844	2565.445713
970.177480	2564.838254
970.476078	2563.940928
970.774639	2565.392781
971.073162	2563.643500
971.371649	2563.492266
971.670098	2567.084088
971.968510	2566.317832
972.266885	2565.927143
972.565223	2567.893193
972.863524	2564.661813
973.161788	2561.528736
973.460014	2565.614592
973.758204	2565.526371
974.056356	2565.014694
974.354471	2565.460836
974.652550	2566.118707
974.950591	2566.148954
975.248595	2565.478480
975.546563	2562.796587
975.844493	2565.559139
976.142386	2562.161401
976.440243	2563.031000
976.738062	2563.230126
977.035845	2562.915054
977.333590	2561.059909
977.631299	2561.243911
977.928971	2560.391956
978.226606	2557.208467
978.524204	2560.011349
978.821765	2557.856256
979.119290	2559.955896
979.416777	2560.560835
979.714228	2562.325239
980.011642	2563.714077
980.309020	2562.315156
980.606360	2561.377502
980.903664	2564.608881
981.200931	2562.789025
981.498162	2565.170970
981.795356	2562.995712
982.092513	2566.935374
982.389633	2566.900086
982.686717	2574.950808
982.983764	2575.281004
983.280775	2579.780234
983.577749	2580.790985
983.874686	2580.365008
984.171587	2575.575912
984.468451	2575.921231
984.765279	2572.319326
985.062070	2571.555591
985.358824	2572.505849
985.655543	2566.910168
985.952224	2562.287430
986.248869	2569.493759
986.545478	2564.109807
986.842050	2563.386402
987.138586	2562.080743
987.435086	2560.394477
987.731549	2559.565207
988.027975	2560.717111
988.324366	2560.830537
988.620719	2565.233984
988.917037	2558.869528
989.213318	2560.036555
989.509563	2555.907850
989.805772	2560.951524
990.101944	2560.817934
990.398080	2560.092008
990.694180	2559.308108
990.990244	2560.114693
991.286271	2561.586710
991.582262	2559.310629
991.878217	2559.235011
992.174136	2557.084959
992.470019	2557.097562
992.765865	2558.433468
993.061676	2556.467418
993.357450	2558.617470
993.653188	2553.488096
993.948890	2559.751730
994.244556	2558.088149
994.540186	2560.454971
994.835780	2562.738613
995.131337	2558.317521
995.426859	2560.268448
995.722345	2562.370609
996.017795	2564.591237
996.313208	2566.940415
996.608586	2564.404715
996.903928	2564.878583
997.199234	2563.824982
997.494504	2564.966803
997.789738	2563.121741
998.084936	2563.036041
998.380099	2560.384394
998.675225	2563.895558
998.970316	2561.586710
999.265371	2563.446895
999.560390	2559.204764
999.855373	2560.515464
1000.150320	2559.242573
1000.445232	2560.812892
1000.740108	2557.750392
1001.034948	2556.958930
1001.329752	2558.357851
1001.624521	2559.527398
1001.919254	2557.866338
1002.213951	2560.896072
1002.508613	2559.587892
1002.803239	2555.686039
1003.097829	2557.037068
1003.392384	2558.178890
1003.686903	2559.272820
1003.981386	2557.823488
1004.275834	2558.539332
1004.570246	2557.485731
1004.864623	2558.163766
1005.158964	2560.142419
1005.453270	2559.300546
1005.747540	2556.563200
1006.041775	2562.587379
1006.335974	2557.581513
1006.630138	2558.078067
1006.924266	2559.469425
1007.218359	2556.049002
1007.512416	2553.777962
1007.806438	2553.041954
1008.100425	2553.382232
1008.394376	2550.294525
1008.688292	2559.144271
1008.982172	2556.938766
1009.276017	2558.897254
1009.569827	2560.288613
1009.863602	2558.524209
1010.157341	2557.692418
1010.451045	2555.386090
1010.744714	2555.197047
1011.038347	2556.774928
1011.331945	2556.260731
1011.625508	2557.916750
1011.919036	2555.486913
1012.212528	2558.372974
1012.505986	2555.008004
1012.799408	2554.871893
1013.092795	2555.912891
1013.386147	2559.920608
1013.679464	2555.486913
1013.972745	2559.045968
1014.265992	2556.626214
1014.559204	2557.221070
1014.852380	2557.170659
1015.145521	2556.759805
1015.438628	2557.762994
1015.731699	2557.047151
1016.024736	2558.309960
1016.317737	2553.987170
1016.610703	2556.081770
1016.903635	2559.119065
1017.196531	2556.928683
1017.489393	2556.359033
1017.782219	2555.625545
1018.075011	2555.413817
1018.367768	2559.053530
1018.660490	2558.093190
1018.953177	2558.093190
1019.245829	2558.093190
