Dividing Wavelength (nm)	Counts (n)	Blue Motor Position (mm): 0.000000	Red Motor Position (mm): 1.000000	
326.493990	2218.107692
326.888308	2218.107692
327.282561	2218.107692
327.676750	2150.052115
328.070874	2195.422500
328.464933	2172.737308
328.858929	2225.669423
329.252859	2177.778462
329.646726	2233.231154
330.040528	2160.134423
330.434265	2215.587115
330.827938	2301.286731
331.221547	2182.819615
331.615091	2200.463654
332.008571	2243.313462
332.401986	2301.286731
332.795338	2389.506923
333.188625	2407.150962
333.581847	2369.342308
333.975006	2502.932885
334.368100	2399.589231
334.761129	2455.041923
335.154095	2497.891731
335.546996	2475.206538
335.939833	2490.330000
336.332606	2525.618077
336.725315	2497.891731
337.117960	2442.439038
337.510540	2502.932885
337.903056	2591.153077
338.295508	2628.961731
338.687896	2553.344423
339.080220	2570.988462
339.472480	2520.576923
339.864676	2591.153077
340.256807	2563.426731
340.648875	2581.070769
341.040879	2601.235385
341.432818	2586.111923
341.824694	2586.111923
342.216506	2586.111923
342.608253	2636.523462
342.999937	2631.482308
343.391557	2553.344423
343.783113	2623.920577
344.174605	2603.755962
344.566033	2634.002885
344.957397	2576.029615
345.348697	2626.441154
345.739934	2555.865000
346.131106	2621.400000
346.522215	2500.412308
346.913260	2513.015192
347.304241	2518.056346
347.695159	2588.632500
348.086012	2601.235385
348.476802	2576.029615
348.867528	2495.371154
349.258191	2578.550192
349.648789	2659.208654
350.039324	2581.070769
350.429796	2513.015192
350.820203	2523.097500
351.210548	2538.220962
351.600828	2533.179808
351.991045	2500.412308
352.381198	2520.576923
352.771288	2505.453462
353.161314	2588.632500
353.551276	2591.153077
353.941175	2570.988462
354.331010	2570.988462
354.720782	2573.509038
355.110490	2462.603654
355.500135	2621.400000
355.889717	2470.165385
356.279235	2601.235385
356.668689	2525.618077
357.058080	2535.700385
357.447408	2565.947308
357.836672	2550.823846
358.225873	2565.947308
358.615010	2533.179808
359.004084	2583.591346
359.393095	2573.509038
359.782043	2591.153077
360.170927	2588.632500
360.559748	2576.029615
360.948505	2550.823846
361.337199	2601.235385
361.725830	2601.235385
362.114398	2528.138654
362.502903	2563.426731
362.891344	2480.247692
363.279722	2636.523462
363.668037	2515.535769
364.056289	2538.220962
364.444478	2646.605769
364.832603	2596.194231
365.220665	2533.179808
365.608665	2603.755962
365.996601	2513.015192
366.384474	2573.509038
366.772284	2518.056346
367.160031	2611.317692
367.547715	2586.111923
367.935336	2530.659231
368.322893	2596.194231
368.710388	2654.167500
369.097820	2581.070769
369.485189	2528.138654
369.872495	2570.988462
370.259738	2543.262115
370.646918	2601.235385
371.034035	2596.194231
371.421090	2548.303269
371.808081	2626.441154
372.195010	2581.070769
372.581875	2621.400000
372.968678	2548.303269
373.355418	2628.961731
373.742096	2502.932885
374.128710	2601.235385
374.515262	2510.494615
374.901751	2578.550192
375.288177	2634.002885
375.674540	2636.523462
376.060841	2570.988462
376.447079	2570.988462
376.833254	2644.085192
377.219367	2500.412308
377.605417	2558.385577
377.991404	2586.111923
378.377329	2545.782692
378.763191	2596.194231
379.148991	2540.741538
379.534727	2513.015192
379.920402	2603.755962
380.306013	2563.426731
380.691563	2623.920577
381.077049	2500.412308
381.462474	2505.453462
381.847835	2570.988462
382.233134	2545.782692
382.618371	2601.235385
383.003545	2601.235385
383.388657	2613.838269
383.773706	2636.523462
384.158693	2603.755962
384.543618	2621.400000
384.928480	2505.453462
385.313280	2581.070769
385.698017	2568.467885
386.082692	2671.811538
386.467305	2560.906154
386.851856	2603.755962
387.236344	2606.276538
387.620770	2593.673654
388.005133	2591.153077
388.389435	2570.988462
388.773674	2565.947308
389.157851	2578.550192
389.541965	2525.618077
389.926018	2520.576923
390.310008	2535.700385
390.693936	2603.755962
391.077802	2573.509038
391.461606	2608.797115
391.845348	2621.400000
392.229027	2583.591346
392.612645	2515.535769
392.996200	2596.194231
393.379694	2618.879423
393.763125	2626.441154
394.146494	2560.906154
394.529801	2563.426731
394.913047	2568.467885
395.296230	2573.509038
395.679351	2563.426731
396.062410	2535.700385
396.445408	2586.111923
396.828343	2623.920577
397.211217	2591.153077
397.594028	2601.235385
397.976778	2603.755962
398.359466	2603.755962
398.742092	2606.276538
399.124656	2560.906154
399.507158	2525.618077
399.889598	2576.029615
400.271977	2505.453462
400.654294	2578.550192
401.036549	2444.959615
401.418742	2593.673654
401.800874	2583.591346
402.182944	2598.714808
402.564952	2543.262115
402.946898	2543.262115
403.328783	2535.700385
403.710606	2646.605769
404.092367	2628.961731
404.474067	2565.947308
404.855705	2591.153077
405.237282	2628.961731
405.618797	2533.179808
406.000250	2543.262115
406.381642	2578.550192
406.762972	2616.358846
407.144240	2623.920577
407.525447	2626.441154
407.906593	2530.659231
408.287677	2639.044038
408.668700	2553.344423
409.049661	2535.700385
409.430560	2659.208654
409.811399	2681.893846
410.192176	2664.249808
410.572891	2555.865000
410.953545	2578.550192
411.334138	2608.797115
411.714669	2626.441154
412.095139	2681.893846
412.475547	2674.332115
412.855894	2598.714808
413.236180	2573.509038
413.616405	2518.056346
413.996568	2651.646923
414.376670	2565.947308
414.756711	2578.550192
415.136691	2631.482308
415.516609	2669.290962
415.896466	2606.276538
416.276262	2603.755962
416.655997	2583.591346
417.035670	2621.400000
417.415283	2664.249808
417.794834	2538.220962
418.174324	2565.947308
418.553753	2601.235385
418.933121	2525.618077
419.312428	2651.646923
419.691674	2664.249808
420.070859	2628.961731
420.449983	2591.153077
420.829045	2644.085192
421.208047	2525.618077
421.586988	2616.358846
421.965867	2613.838269
422.344686	2671.811538
422.723444	2570.988462
423.102141	2538.220962
423.480777	2588.632500
423.859352	2616.358846
424.237866	2586.111923
424.616319	2596.194231
424.994712	2603.755962
425.373044	2613.838269
425.751314	2538.220962
426.129524	2603.755962
426.507673	2593.673654
426.885762	2555.865000
427.263789	2586.111923
427.641756	2603.755962
428.019662	2626.441154
428.397508	2596.194231
428.775292	2568.467885
429.153016	2568.467885
429.530679	2576.029615
429.908282	2583.591346
430.285824	2659.208654
430.663305	2593.673654
431.040726	2533.179808
431.418086	2593.673654
431.795385	2581.070769
432.172624	2553.344423
432.549802	2606.276538
432.926920	2606.276538
433.303977	2570.988462
433.680974	2641.564615
434.057910	2646.605769
434.434786	2598.714808
434.811601	2578.550192
435.188355	2626.441154
435.565050	2581.070769
435.941683	2558.385577
436.318257	2649.126346
436.694770	2649.126346
437.071222	2583.591346
437.447614	2646.605769
437.823946	2669.290962
438.200218	2694.496731
438.576429	2588.632500
438.952580	2651.646923
439.328670	2749.949423
439.704700	2704.579038
440.080670	2676.852692
440.456580	2719.702500
440.832429	2671.811538
441.208218	2634.002885
441.583947	2717.181923
441.959616	2785.237500
442.335224	2749.949423
442.710773	2792.799231
443.086261	2792.799231
443.461689	2780.196346
443.837057	2802.881538
444.212365	2891.101731
444.587612	2818.005000
444.962800	2863.375385
445.337927	2875.978269
445.712995	2888.581154
446.088002	3032.254038
446.462949	3012.089423
446.837837	3039.815769
447.212664	3014.610000
447.587431	3117.953654
447.962139	3178.447500
448.336786	3531.328269
448.711374	3546.451731
449.085901	3433.025769
449.460369	3438.066923
449.834776	3564.095769
450.209124	3675.001154
450.583412	3833.797500
450.957640	3924.538269
451.331808	3836.318077
451.705917	3939.661731
452.079965	3869.085577
452.453954	4012.758462
452.827883	4017.799615
453.201752	4302.624808
453.575562	4277.419038
453.949311	4443.777115
454.323001	4375.721538
454.696632	4660.546731
455.070202	4877.316346
455.443713	5020.989231
455.817164	5245.320577
456.190556	5353.705385
456.563888	5590.639615
456.937160	5759.518269
457.310373	5666.256923
457.683526	5721.709615
458.056619	5862.861923
458.429653	6087.193269
458.802628	6054.425769
459.175542	6341.771538
459.548398	6782.872500
459.921194	7060.135962
460.293930	7402.934423
460.666607	7765.897500
461.039224	8595.167308
461.411782	8869.910192
461.784280	8978.295000
462.156719	9230.352692
462.529099	9205.146923
462.901419	8970.733269
463.273680	8950.568654
463.645882	9121.967885
464.018024	9111.885577
464.390106	9689.097692
464.762130	10397.379808
465.134094	11017.441731
465.505999	12912.915577
465.877845	14808.389423
466.249631	16736.630769
466.621358	16504.737692
466.993026	15746.044038
467.364634	15660.344423
467.736184	15252.010962
468.107674	14891.568462
468.479105	15320.066538
468.850477	14974.747500
469.221790	15143.626154
469.593043	14843.677500
469.964238	14417.700000
470.335373	14566.414038
470.706449	15224.284615
471.077467	15531.795000
471.448425	17770.067308
471.819324	20991.364615
472.190164	21866.004808
472.560945	18390.129231
472.931667	17152.525962
473.302330	17086.990962
473.672934	17200.416923
474.043479	17404.583654
474.413965	17593.626923
474.784393	17200.416923
475.154761	18266.620962
475.525070	18062.454231
475.895321	18107.824615
476.265513	18712.763077
476.635645	19519.347692
477.005719	19491.621346
477.375734	19799.131731
477.745691	20426.755385
478.115588	20814.924231
478.485427	21888.690000
478.855207	23224.595769
479.224928	25228.454423
479.594591	27378.506538
479.964194	26463.537115
480.333739	26995.378846
480.703226	27164.257500
481.072653	26975.214231
481.442022	27723.825577
481.811333	28560.657115
482.180584	28157.364808
482.549777	27302.889231
482.918912	27411.274038
483.287988	27466.726731
483.657005	26982.775962
484.025964	27098.722500
484.394864	26909.679231
484.763706	26277.014423
485.132489	25714.925769
485.501213	25840.954615
485.869879	25868.680962
486.238487	25679.637692
486.607036	25730.049231
486.975527	25460.347500
487.343959	25467.909231
487.712333	25016.725962
488.080648	24918.423462
488.448905	25074.699231
488.817104	25367.086154
489.185244	25946.818846
489.553326	25593.938077
489.921350	26811.376731
490.289315	29082.416538
490.657222	29974.700769
491.025070	29881.439423
491.392861	29604.175962
491.760593	28396.819615
492.128267	27189.463269
492.495883	26128.300385
492.863440	25314.154038
493.230939	24595.789615
493.598380	24114.359423
493.965763	23403.556731
494.333088	22496.149038
494.700354	22501.190192
495.067563	22072.692115
495.434713	21351.807115
495.801805	21601.344231
496.168839	21283.751538
496.535815	21079.584808
496.902733	21147.640385
497.269593	20575.469423
497.636395	20086.477500
498.003139	20008.339615
498.369825	19657.979423
498.736453	19320.222115
499.103023	19037.917500
499.469535	18763.174615
499.835989	18806.024423
500.202385	18811.065577
500.568723	17976.754615
500.935003	17548.256538
501.301226	17397.021923
501.667390	17901.137308
502.033497	17686.888269
502.399546	16918.112308
502.765537	16653.451731
503.131470	16623.204808
503.497345	16235.035962
503.863163	15743.523462
504.228923	15844.346538
504.594625	15614.974038
504.960269	15080.611731
505.325856	14952.062308
505.691385	14420.220577
506.056856	14697.484038
506.422270	14374.850192
506.787625	13860.652500
507.152924	13913.584615
507.518164	13560.703846
507.883347	13265.796346
508.248472	12897.792115
508.613540	12600.364038
508.978550	12532.308462
509.343503	12295.374231
509.708398	11909.725962
510.073236	12038.275385
510.438016	11859.314423
510.802738	11549.283462
511.167403	11375.363654
511.532010	10994.756538
511.896561	10984.674231
512.261053	10772.945769
512.625488	10679.684423
512.989866	10117.595769
513.354186	10104.992885
513.718449	9822.688269
514.082655	9575.671731
514.446803	9437.040000
514.810894	9348.819808
515.174927	9074.076923
515.538904	8731.278462
515.902822	8698.510962
516.266684	8433.850385
516.630488	8237.245385
516.994235	7924.693846
517.357925	8045.681538
517.721558	7997.790577
518.085133	7680.197885
518.448651	7511.319231
518.812112	7188.685385
519.175516	7274.385000
519.538863	7077.780000
519.902152	6873.613269
520.265385	6765.228462
520.628560	6634.158462
520.991678	6702.214038
521.354739	6361.936154
521.717743	6188.016346
522.080690	6125.001923
522.443580	5953.602692
522.806413	5875.464808
523.169189	5756.997692
523.531908	5512.501731
523.894569	5487.295962
524.257174	5295.732115
524.619722	5341.102500
524.982213	5162.141538
525.344647	4912.604423
525.707025	4975.618846
526.069345	4738.684615
526.431608	4826.904808
526.793815	4723.561154
527.155964	4572.326538
527.518057	4413.530192
527.880093	4405.968462
528.242072	4358.077500
528.603995	4262.295577
528.965860	4171.554808
529.327669	4121.143269
529.689421	4063.170000
530.051117	3977.470385
530.412755	3914.455962
530.774337	3859.003269
531.135862	3763.221346
531.497331	3775.824231
531.858743	3702.727500
532.220098	3614.507308
532.581396	3606.945577
532.942638	3483.437308
533.303824	3526.287115
533.664953	3493.519615
534.026025	3405.299423
534.387040	3390.175962
534.747999	3284.311731
535.108902	3309.517500
535.469748	3284.311731
535.830537	3259.105962
536.191270	3175.926923
536.551947	3173.406346
536.912567	3196.091538
537.273131	3117.953654
537.633638	3135.597692
537.994089	3049.898077
538.354483	3097.789038
538.714821	3065.021538
539.075103	3024.692308
539.435328	2994.445385
539.795497	2926.389808
540.155609	3014.610000
540.515665	2989.404231
540.875665	2954.116154
541.235609	2969.239615
541.595496	2999.486538
541.955328	2918.828077
542.315102	2886.060577
542.674821	2838.169615
543.034483	2795.319808
543.394090	2825.566731
543.753640	2855.813654
544.113134	2868.416538
544.472571	2810.443269
544.831953	2777.675769
545.191278	2878.498846
545.550548	2742.387692
545.909761	2795.319808
546.268918	2820.525577
546.628019	2739.867115
546.987064	2765.072885
547.346053	2838.169615
547.704986	2777.675769
548.063863	2719.702500
548.422684	2714.661346
548.781449	2737.346538
549.140158	2825.566731
549.498811	2719.702500
549.857408	2694.496731
550.215949	2732.305385
550.574434	2669.290962
550.932864	2732.305385
551.291237	2719.702500
551.649555	2651.646923
552.007817	2732.305385
552.366022	2714.661346
552.724173	2631.482308
553.082267	2639.044038
553.440305	2752.470000
553.798288	2712.140769
554.156215	2707.099615
554.514086	2762.552308
554.871902	2689.455577
555.229661	2727.264231
555.587365	2686.935000
555.945014	2714.661346
556.302606	2702.058462
556.660143	2679.373269
557.017625	2694.496731
557.375050	2593.673654
557.732421	2712.140769
558.089735	2676.852692
558.446994	2588.632500
558.804197	2616.358846
559.161345	2732.305385
559.518437	2631.482308
559.875474	2689.455577
560.232455	2583.591346
560.589381	2639.044038
560.946251	2621.400000
561.303065	2636.523462
561.659825	2669.290962
562.016528	2626.441154
562.373177	2639.044038
562.729770	2621.400000
563.086307	2689.455577
563.442789	2634.002885
563.799216	2674.332115
564.155587	2623.920577
564.511904	2686.935000
564.868164	2669.290962
565.224370	2666.770385
565.580520	2591.153077
565.936615	2702.058462
566.292654	2654.167500
566.648638	2694.496731
567.004567	2644.085192
567.360441	2671.811538
567.716260	2707.099615
568.072023	2717.181923
568.427732	2631.482308
568.783385	2671.811538
569.138982	2641.564615
569.494525	2649.126346
569.850013	2654.167500
570.205445	2707.099615
570.560823	2752.470000
570.916145	2727.264231
571.271412	2734.825962
571.626625	2666.770385
571.981782	2553.344423
572.336884	2581.070769
572.691931	2765.072885
573.046923	2621.400000
573.401860	2704.579038
573.756743	2651.646923
574.111570	2651.646923
574.466342	2656.688077
574.821059	2646.605769
575.175722	2636.523462
575.530330	2581.070769
575.884882	2591.153077
576.239380	2639.044038
576.593823	2634.002885
576.948211	2634.002885
577.302544	2631.482308
577.656823	2656.688077
578.011047	2674.332115
578.365216	2641.564615
578.719330	2661.729231
579.073389	2661.729231
579.427394	2734.825962
579.781344	2661.729231
580.135239	2616.358846
580.489080	2681.893846
580.842866	2616.358846
581.196597	2636.523462
581.550273	2636.523462
581.903895	2669.290962
582.257463	2570.988462
582.610975	2684.414423
582.964434	2664.249808
583.317837	2603.755962
583.671186	2634.002885
584.024481	2616.358846
584.377721	2646.605769
584.730906	2586.111923
585.084037	2621.400000
585.437113	2671.811538
585.790135	2739.867115
586.143103	2659.208654
586.496016	2634.002885
586.848874	2606.276538
587.201679	2666.770385
587.554428	2588.632500
587.907124	2654.167500
588.259765	2545.782692
588.612352	2644.085192
588.964884	2578.550192
589.317362	2714.661346
589.669786	2646.605769
590.022155	2543.262115
590.374470	2621.400000
590.726731	2593.673654
591.078937	2626.441154
591.431090	2649.126346
591.783188	2641.564615
592.135232	2591.153077
592.487222	2591.153077
592.839157	2654.167500
593.191038	2684.414423
593.542866	2666.770385
593.894639	2581.070769
594.246358	2616.358846
594.598022	2697.017308
594.949633	2616.358846
595.301190	2634.002885
595.652692	2581.070769
596.004141	2699.537885
596.355535	2664.249808
596.706876	2634.002885
597.058162	2570.988462
597.409395	2631.482308
597.760573	2593.673654
598.111698	2606.276538
598.462768	2641.564615
598.813785	2651.646923
599.164748	2601.235385
599.515657	2656.688077
599.866511	2634.002885
600.217312	2520.576923
600.568060	2646.605769
600.918753	2636.523462
601.269392	2563.426731
601.619978	2656.688077
601.970510	2621.400000
602.320988	2649.126346
602.671412	2694.496731
603.021783	2661.729231
603.372100	2654.167500
603.722363	2636.523462
604.072572	2578.550192
604.422728	2646.605769
604.772830	2681.893846
605.122878	2626.441154
605.472872	2639.044038
605.822813	2644.085192
606.172701	2649.126346
606.522534	2686.935000
606.872314	2684.414423
607.222041	2644.085192
607.571714	2535.700385
607.921333	2689.455577
608.270899	2598.714808
608.620411	2681.893846
608.969870	2586.111923
609.319276	2689.455577
609.668627	2563.426731
610.017926	2543.262115
610.367171	2752.470000
610.716362	2649.126346
611.065500	2634.002885
611.414585	2691.976154
611.763616	2671.811538
612.112594	2601.235385
612.461518	2613.838269
612.810389	2676.852692
613.159207	2586.111923
613.507971	2636.523462
613.856682	2666.770385
614.205340	2666.770385
614.553945	2639.044038
614.902496	2724.743654
615.250994	2628.961731
615.599439	2664.249808
615.947830	2644.085192
616.296169	2513.015192
616.644454	2686.935000
616.992686	2598.714808
617.340864	2596.194231
617.688990	2540.741538
618.037063	2631.482308
618.385082	2654.167500
618.733048	2588.632500
619.080961	2628.961731
619.428821	2581.070769
619.776628	2616.358846
620.124382	2555.865000
620.472083	2623.920577
620.819731	2664.249808
621.167326	2611.317692
621.514868	2649.126346
621.862357	2598.714808
622.209793	2626.441154
622.557176	2621.400000
622.904506	2535.700385
623.251783	2654.167500
623.599007	2588.632500
623.946179	2664.249808
624.293297	2661.729231
624.640363	2613.838269
624.987376	2631.482308
625.334336	2603.755962
625.681243	2661.729231
626.028097	2591.153077
626.374899	2631.482308
626.721647	2621.400000
627.068343	2646.605769
627.414987	2626.441154
627.761577	2616.358846
628.108115	2656.688077
628.454600	2621.400000
628.801032	2623.920577
629.147412	2664.249808
629.493739	2613.838269
629.840014	2644.085192
630.186236	2681.893846
630.532405	2636.523462
630.878521	2621.400000
631.224585	2631.482308
631.570597	2792.799231
631.916556	2565.947308
632.262462	2603.755962
632.608316	2646.605769
632.954117	2586.111923
633.299866	2626.441154
633.645562	2679.373269
633.991206	2576.029615
634.336797	2618.879423
634.682336	2563.426731
635.027823	2593.673654
635.373257	2634.002885
635.718639	2558.385577
636.063968	2593.673654
636.409245	2540.741538
636.754470	2611.317692
637.099642	2616.358846
637.444762	2689.455577
637.789829	2656.688077
638.134845	2601.235385
638.479808	2646.605769
638.824719	2649.126346
639.169577	2644.085192
639.514383	2603.755962
639.859137	2616.358846
640.203839	2674.332115
640.548489	2598.714808
640.893086	2651.646923
641.237632	2676.852692
641.582125	2528.138654
641.926566	2525.618077
642.270955	2593.673654
642.615292	2641.564615
642.959576	2603.755962
643.303809	2694.496731
643.647990	2689.455577
643.992118	2676.852692
644.336195	2641.564615
644.680219	2651.646923
645.024192	2651.646923
645.368112	2644.085192
645.711981	2674.332115
646.055797	2626.441154
646.399562	2636.523462
646.743274	2676.852692
647.086935	2631.482308
647.430544	2686.935000
647.774101	2639.044038
648.117606	2684.414423
648.461059	2593.673654
648.804460	2641.564615
649.147810	2649.126346
649.491108	2593.673654
649.834354	2671.811538
650.177548	2570.988462
650.520690	2641.564615
650.863781	2608.797115
651.206820	2631.482308
651.549807	2641.564615
651.892742	2656.688077
652.235626	2591.153077
652.578458	2583.591346
652.921238	2646.605769
653.263967	2666.770385
653.606644	2553.344423
653.949269	2651.646923
654.291843	2581.070769
654.634365	2634.002885
654.976836	2558.385577
655.319255	2586.111923
655.661622	2606.276538
656.003938	2702.058462
656.346203	2591.153077
656.688416	2674.332115
657.030577	2659.208654
657.372687	2649.126346
657.714746	2671.811538
658.056753	2636.523462
658.398708	2591.153077
658.740612	2608.797115
659.082465	2618.879423
659.424266	2535.700385
659.766016	2639.044038
660.107715	2616.358846
660.449362	2608.797115
660.790958	2603.755962
661.132503	2709.620192
661.473996	2603.755962
661.815438	2623.920577
662.156829	2669.290962
662.498168	2651.646923
662.839456	2583.591346
663.180693	2581.070769
663.521879	2611.317692
663.863013	2613.838269
664.204097	2641.564615
664.545129	2661.729231
664.886110	2601.235385
665.227040	2636.523462
665.567918	2656.688077
665.908746	2621.400000
666.249522	2581.070769
666.590248	2565.947308
666.930922	2704.579038
667.271545	2598.714808
667.612118	2565.947308
667.952639	2596.194231
668.293109	2603.755962
668.633528	2586.111923
668.973896	2563.426731
669.314213	2608.797115
669.654480	2538.220962
669.994695	2646.605769
670.334859	2528.138654
670.674973	2641.564615
671.015035	2588.632500
671.355047	2659.208654
671.695008	2628.961731
672.034918	2639.044038
672.374777	2596.194231
672.714585	2664.249808
673.054342	2674.332115
673.394049	2628.961731
673.733705	2634.002885
674.073310	2679.373269
674.412864	2646.605769
674.752368	2591.153077
675.091820	2618.879423
675.431223	2651.646923
675.770574	2634.002885
676.109875	2659.208654
676.449125	2691.976154
676.788324	2593.673654
677.127473	2606.276538
677.466571	2671.811538
677.805619	2598.714808
678.144616	2641.564615
678.483562	2636.523462
678.822458	2558.385577
679.161303	2631.482308
679.500098	2709.620192
679.838842	2636.523462
680.177535	2603.755962
680.516179	2644.085192
680.854771	2606.276538
681.193314	2628.961731
681.531805	2644.085192
681.870247	2666.770385
682.208638	2686.935000
682.546978	2699.537885
682.885268	2654.167500
683.223508	2686.935000
683.561697	2699.537885
683.899836	2628.961731
684.237925	2669.290962
684.575963	2616.358846
684.913951	2588.632500
685.251889	2724.743654
685.589776	2644.085192
685.927614	2694.496731
686.265401	2699.537885
686.603137	2618.879423
686.940824	2666.770385
687.278460	2606.276538
687.616046	2596.194231
687.953582	2634.002885
688.291068	2588.632500
688.628504	2623.920577
688.965889	2639.044038
689.303224	2628.961731
689.640510	2636.523462
689.977745	2644.085192
690.314930	2510.494615
690.652065	2659.208654
690.989150	2588.632500
691.326185	2644.085192
691.663170	2596.194231
692.000105	2596.194231
692.336990	2699.537885
692.673825	2573.509038
693.010610	2671.811538
693.347345	2714.661346
693.684030	2634.002885
694.020665	2694.496731
694.357251	2581.070769
694.693786	2656.688077
695.030272	2646.605769
695.366707	2631.482308
695.703093	2656.688077
696.039429	2601.235385
696.375716	2613.838269
696.711952	2649.126346
697.048139	2651.646923
697.384276	2654.167500
697.720363	2621.400000
698.056400	2576.029615
698.392388	2644.085192
698.728326	2576.029615
699.064214	2666.770385
699.400053	2646.605769
699.735842	2644.085192
700.071581	2631.482308
700.407270	2623.920577
700.742910	2654.167500
701.078501	2558.385577
701.414042	2616.358846
701.749533	2565.947308
702.084974	2631.482308
702.420366	2601.235385
702.755709	2639.044038
703.091002	2669.290962
703.426246	2613.838269
703.761440	2565.947308
704.096584	2555.865000
704.431679	2628.961731
704.766725	2588.632500
705.101721	2570.988462
705.436668	2744.908269
705.771565	2548.303269
706.106413	2654.167500
706.441212	2568.467885
706.775961	2621.400000
707.110661	2621.400000
707.445311	2593.673654
707.779913	2611.317692
708.114465	2447.480192
708.448967	2601.235385
708.783421	2611.317692
709.117825	2651.646923
709.452180	2601.235385
709.786485	2634.002885
710.120742	2717.181923
710.454949	2691.976154
710.789107	2727.264231
711.123216	2656.688077
711.457275	2576.029615
711.791286	2593.673654
712.125247	2666.770385
712.459159	2603.755962
712.793023	2654.167500
713.126837	2729.784808
713.460602	2616.358846
713.794318	2654.167500
714.127985	2631.482308
714.461602	2626.441154
714.795171	2654.167500
715.128691	2497.891731
715.462162	2601.235385
715.795584	2565.947308
716.128957	2628.961731
716.462281	2601.235385
716.795556	2689.455577
717.128782	2616.358846
717.461960	2603.755962
717.795088	2618.879423
718.128167	2651.646923
718.461198	2699.537885
718.794180	2553.344423
719.127113	2651.646923
719.459997	2618.879423
719.792833	2631.482308
720.125619	2659.208654
720.458357	2555.865000
720.791046	2671.811538
721.123686	2709.620192
721.456278	2641.564615
721.788821	2588.632500
722.121315	2558.385577
722.453761	2591.153077
722.786158	2674.332115
723.118506	2681.893846
723.450805	2659.208654
723.783056	2518.056346
724.115259	2576.029615
724.447412	2676.852692
724.779518	2616.358846
725.111574	2618.879423
725.443582	2674.332115
725.775542	2644.085192
726.107453	2553.344423
726.439315	2659.208654
726.771129	2618.879423
727.102895	2586.111923
727.434612	2581.070769
727.766281	2626.441154
728.097901	2598.714808
728.429473	2659.208654
728.760996	2664.249808
729.092471	2621.400000
729.423897	2679.373269
729.755276	2649.126346
730.086606	2583.591346
730.417887	2601.235385
730.749120	2591.153077
731.080305	2623.920577
731.411442	2573.509038
731.742530	2646.605769
732.073570	2616.358846
732.404562	2697.017308
732.735506	2661.729231
733.066401	2611.317692
733.397249	2654.167500
733.728048	2704.579038
734.058798	2613.838269
734.389501	2621.400000
734.720156	2631.482308
735.050762	2676.852692
735.381320	2565.947308
735.711831	2691.976154
736.042293	2560.906154
736.372707	2621.400000
736.703073	2689.455577
737.033391	2654.167500
737.363661	2586.111923
737.693883	2581.070769
738.024056	2641.564615
738.354182	2649.126346
738.684260	2576.029615
739.014290	2573.509038
739.344272	2621.400000
739.674207	2510.494615
740.004093	2654.167500
740.333931	2573.509038
740.663722	2691.976154
740.993464	2606.276538
741.323159	2555.865000
741.652806	2626.441154
741.982405	2576.029615
742.311956	2661.729231
742.641460	2654.167500
742.970915	2558.385577
743.300323	2623.920577
743.629683	2603.755962
743.958996	2570.988462
744.288260	2525.618077
744.617477	2623.920577
744.946647	2611.317692
745.275768	2666.770385
745.604842	2666.770385
745.933869	2593.673654
746.262847	2646.605769
746.591778	2621.400000
746.920662	2623.920577
747.249498	2578.550192
747.578286	2596.194231
747.907027	2608.797115
748.235720	2681.893846
748.564365	2601.235385
748.892963	2583.591346
749.221514	2628.961731
749.550017	2684.414423
749.878473	2661.729231
750.206881	2576.029615
750.535242	2535.700385
750.863555	2608.797115
751.191821	2671.811538
751.520039	2681.893846
751.848210	2628.961731
752.176334	2608.797115
752.504411	2548.303269
752.832440	2651.646923
753.160421	2636.523462
753.488356	2578.550192
753.816243	2623.920577
754.144082	2699.537885
754.471875	2656.688077
754.799620	2543.262115
755.127318	2694.496731
755.454969	2661.729231
755.782572	2513.015192
756.110129	2664.249808
756.437638	2601.235385
756.765100	2565.947308
757.092515	2676.852692
757.419882	2565.947308
757.747203	2611.317692
758.074477	2540.741538
758.401703	2603.755962
758.728882	2573.509038
759.056014	2578.550192
759.383099	2651.646923
759.710138	2591.153077
760.037129	2601.235385
760.364073	2555.865000
760.690970	2558.385577
761.017820	2636.523462
761.344623	2697.017308
761.671379	2545.782692
761.998088	2628.961731
762.324751	2583.591346
762.651366	2674.332115
762.977935	2568.467885
763.304456	2649.126346
763.630931	2679.373269
763.957359	2591.153077
764.283740	2631.482308
764.610074	2623.920577
764.936362	2684.414423
765.262602	2684.414423
765.588796	2560.906154
765.914943	2636.523462
766.241044	2611.317692
766.567097	2626.441154
766.893104	2636.523462
767.219064	2651.646923
767.544978	2603.755962
767.870845	2621.400000
768.196665	2634.002885
768.522438	2608.797115
768.848165	2656.688077
769.173846	2646.605769
769.499479	2530.659231
769.825066	2550.823846
770.150607	2568.467885
770.476101	2684.414423
770.801548	2613.838269
771.126949	2500.412308
771.452303	2581.070769
771.777611	2573.509038
772.102872	2545.782692
772.428087	2596.194231
772.753256	2626.441154
773.078378	2671.811538
773.403453	2586.111923
773.728482	2583.591346
774.053465	2548.303269
774.378401	2649.126346
774.703291	2510.494615
775.028135	2593.673654
775.352932	2666.770385
775.677683	2593.673654
776.002388	2603.755962
776.327046	2651.646923
776.651658	2631.482308
776.976224	2563.426731
777.300743	2626.441154
777.625216	2596.194231
777.949643	2707.099615
778.274024	2641.564615
778.598359	2636.523462
778.922647	2618.879423
779.246889	2623.920577
779.571086	2654.167500
779.895236	2581.070769
780.219339	2593.673654
780.543397	2659.208654
780.867409	2621.400000
781.191374	2621.400000
781.515294	2707.099615
781.839167	2616.358846
782.162995	2593.673654
782.486776	2686.935000
782.810511	2646.605769
783.134201	2628.961731
783.457844	2502.932885
783.781441	2565.947308
784.104993	2689.455577
784.428498	2583.591346
784.751958	2583.591346
785.075372	2611.317692
785.398739	2644.085192
785.722061	2507.974038
786.045337	2565.947308
786.368568	2616.358846
786.691752	2560.906154
787.014891	2671.811538
787.337983	2608.797115
787.661030	2613.838269
787.984031	2568.467885
788.306987	2596.194231
788.629897	2606.276538
788.952760	2644.085192
789.275579	2636.523462
789.598351	2528.138654
789.921078	2628.961731
790.243759	2664.249808
790.566395	2641.564615
790.888984	2618.879423
791.211529	2649.126346
791.534027	2669.290962
791.856480	2480.247692
792.178888	2570.988462
792.501249	2639.044038
792.823566	2623.920577
793.145836	2593.673654
793.468062	2591.153077
793.790241	2641.564615
794.112375	2674.332115
794.434464	2626.441154
794.756507	2586.111923
795.078505	2601.235385
795.400457	2596.194231
795.722364	2641.564615
796.044226	2654.167500
796.366042	2659.208654
796.687812	2606.276538
797.009538	2634.002885
797.331218	2490.330000
797.652852	2651.646923
797.974442	2588.632500
798.295986	2623.920577
798.617484	2661.729231
798.938938	2621.400000
799.260346	2661.729231
799.581709	2639.044038
799.903026	2656.688077
800.224299	2666.770385
800.545526	2601.235385
800.866708	2555.865000
801.187845	2558.385577
801.508936	2563.426731
801.829983	2664.249808
802.150984	2576.029615
802.471940	2608.797115
802.792851	2593.673654
803.113717	2616.358846
803.434538	2626.441154
803.755314	2583.591346
804.076045	2659.208654
804.396731	2651.646923
804.717372	2573.509038
805.037967	2644.085192
805.358518	2586.111923
805.679024	2518.056346
805.999485	2510.494615
806.319901	2606.276538
806.640272	2550.823846
806.960598	2533.179808
807.280879	2654.167500
807.601115	2560.906154
807.921306	2639.044038
808.241453	2626.441154
808.561554	2616.358846
808.881611	2591.153077
809.201623	2606.276538
809.521590	2543.262115
809.841513	2558.385577
810.161390	2649.126346
810.481223	2586.111923
810.801011	2608.797115
811.120755	2596.194231
811.440453	2553.344423
811.760107	2588.632500
812.079716	2573.509038
812.399281	2583.591346
812.718801	2623.920577
813.038276	2576.029615
813.357707	2578.550192
813.677093	2631.482308
813.996434	2576.029615
814.315731	2570.988462
814.634983	2598.714808
814.954191	2644.085192
815.273354	2651.646923
815.592473	2583.591346
815.911547	2591.153077
816.230577	2639.044038
816.549562	2540.741538
816.868502	2581.070769
817.187399	2606.276538
817.506250	2611.317692
817.825058	2649.126346
818.143821	2545.782692
818.462539	2540.741538
818.781213	2598.714808
819.099843	2651.646923
819.418429	2639.044038
819.736970	2613.838269
820.055466	2631.482308
820.373919	2644.085192
820.692327	2636.523462
821.010691	2548.303269
821.329011	2671.811538
821.647286	2621.400000
821.965517	2752.470000
822.283704	2679.373269
822.601847	2714.661346
822.919945	2656.688077
823.237999	2621.400000
823.556010	2636.523462
823.873976	2659.208654
824.191897	2606.276538
824.509775	2649.126346
824.827609	2570.988462
825.145398	2649.126346
825.463144	2578.550192
825.780845	2709.620192
826.098502	2593.673654
826.416116	2601.235385
826.733685	2674.332115
827.051210	2659.208654
827.368692	2613.838269
827.686129	2601.235385
828.003522	2601.235385
828.320872	2697.017308
828.638177	2704.579038
828.955439	2581.070769
829.272656	2651.646923
829.589830	2616.358846
829.906960	2613.838269
830.224046	2631.482308
830.541088	2611.317692
830.858086	2596.194231
831.175041	2613.838269
831.491952	2626.441154
831.808819	2581.070769
832.125642	2626.441154
832.442421	2659.208654
832.759157	2591.153077
833.075849	2654.167500
833.392497	2651.646923
833.709101	2603.755962
834.025662	2644.085192
834.342179	2626.441154
834.658653	2565.947308
834.975083	2702.058462
835.291469	2560.906154
835.607811	2565.947308
835.924110	2639.044038
836.240366	2603.755962
836.556578	2611.317692
836.872746	2636.523462
837.188871	2628.961731
837.504952	2623.920577
837.820990	2621.400000
838.136984	2626.441154
838.452935	2684.414423
838.768842	2654.167500
839.084706	2581.070769
839.400526	2616.358846
839.716303	2618.879423
840.032037	2621.400000
840.347727	2601.235385
840.663373	2606.276538
840.978977	2588.632500
841.294537	2563.426731
841.610054	2570.988462
841.925527	2656.688077
842.240957	2553.344423
842.556344	2618.879423
842.871687	2601.235385
843.186987	2626.441154
843.502244	2603.755962
843.817458	2555.865000
844.132629	2583.591346
844.447756	2586.111923
844.762840	2543.262115
845.077881	2646.605769
845.392879	2578.550192
845.707833	2616.358846
846.022745	2543.262115
846.337613	2560.906154
846.652438	2634.002885
846.967221	2669.290962
847.281960	2623.920577
847.596656	2676.852692
847.911309	2671.811538
848.225919	2626.441154
848.540485	2593.673654
848.855009	2646.605769
849.169490	2518.056346
849.483928	2550.823846
849.798323	2603.755962
850.112675	2581.070769
850.426984	2613.838269
850.741251	2634.002885
851.055474	2611.317692
851.369654	2661.729231
851.683792	2581.070769
851.997887	2500.412308
852.311938	2646.605769
852.625947	2611.317692
852.939914	2581.070769
853.253837	2641.564615
853.567718	2611.317692
853.881555	2623.920577
854.195350	2626.441154
854.509103	2560.906154
854.822812	2490.330000
855.136479	2621.400000
855.450103	2611.317692
855.763685	2543.262115
856.077224	2535.700385
856.390720	2576.029615
856.704173	2631.482308
857.017584	2560.906154
857.330953	2596.194231
857.644278	2649.126346
857.957561	2548.303269
858.270802	2586.111923
858.584000	2576.029615
858.897155	2548.303269
859.210268	2644.085192
859.523339	2598.714808
859.836367	2548.303269
860.149352	2613.838269
860.462295	2649.126346
860.775195	2626.441154
861.088054	2593.673654
861.400869	2608.797115
861.713642	2535.700385
862.026373	2623.920577
862.339062	2548.303269
862.651708	2535.700385
862.964312	2583.591346
863.276873	2664.249808
863.589392	2616.358846
863.901869	2593.673654
864.214303	2568.467885
864.526696	2621.400000
864.839045	2510.494615
865.151353	2639.044038
865.463619	2545.782692
865.775842	2518.056346
866.088023	2591.153077
866.400162	2586.111923
866.712258	2659.208654
867.024313	2618.879423
867.336325	2598.714808
867.648296	2616.358846
867.960224	2477.727115
868.272110	2568.467885
868.583954	2588.632500
868.895755	2618.879423
869.207515	2628.961731
869.519233	2659.208654
869.830909	2588.632500
870.142542	2533.179808
870.454134	2628.961731
870.765684	2568.467885
871.077191	2563.426731
871.388657	2593.673654
871.700081	2636.523462
872.011463	2608.797115
872.322803	2623.920577
872.634101	2581.070769
872.945357	2641.564615
873.256571	2548.303269
873.567744	2639.044038
873.878874	2631.482308
874.189963	2616.358846
874.501010	2576.029615
874.812015	2669.290962
875.122979	2578.550192
875.433900	2606.276538
875.744780	2518.056346
876.055618	2689.455577
876.366415	2639.044038
876.677169	2578.550192
876.987882	2704.579038
877.298554	2709.620192
877.609183	2558.385577
877.919771	2568.467885
878.230317	2664.249808
878.540822	2606.276538
878.851285	2634.002885
879.161707	2507.974038
879.472087	2654.167500
879.782425	2581.070769
880.092722	2634.002885
880.402977	2641.564615
880.713191	2649.126346
881.023363	2636.523462
881.333494	2606.276538
881.643583	2631.482308
881.953631	2656.688077
882.263637	2679.373269
882.573602	2608.797115
882.883526	2639.044038
883.193408	2596.194231
883.503248	2578.550192
883.813048	2553.344423
884.122806	2588.632500
884.432522	2588.632500
884.742197	2644.085192
885.051831	2583.591346
885.361424	2636.523462
885.670975	2684.414423
885.980485	2593.673654
886.289954	2591.153077
886.599382	2666.770385
886.908768	2613.838269
887.218113	2606.276538
887.527417	2611.317692
887.836680	2581.070769
888.145901	2654.167500
888.455082	2570.988462
888.764221	2669.290962
889.073319	2576.029615
889.382376	2581.070769
889.691392	2565.947308
890.000366	2545.782692
890.309300	2659.208654
890.618193	2613.838269
890.927044	2636.523462
891.235855	2538.220962
891.544625	2548.303269
891.853353	2613.838269
892.162041	2606.276538
892.470687	2618.879423
892.779293	2618.879423
893.087858	2674.332115
893.396381	2601.235385
893.704864	2568.467885
894.013306	2654.167500
894.321707	2593.673654
894.630068	2646.605769
894.938387	2611.317692
895.246665	2608.797115
895.554903	2621.400000
895.863100	2530.659231
896.171256	2608.797115
896.479371	2616.358846
896.787446	2608.797115
897.095480	2641.564615
897.403473	2581.070769
897.711425	2669.290962
898.019336	2588.632500
898.327207	2603.755962
898.635038	2550.823846
898.942827	2525.618077
899.250576	2578.550192
899.558284	2634.002885
899.865952	2550.823846
900.173579	2631.482308
900.481165	2558.385577
900.788711	2558.385577
901.096216	2525.618077
901.403681	2606.276538
901.711105	2576.029615
902.018489	2563.426731
902.325832	2593.673654
902.633135	2578.550192
902.940397	2558.385577
903.247619	2613.838269
903.554800	2641.564615
903.861941	2601.235385
904.169041	2563.426731
904.476101	2618.879423
904.783121	2631.482308
905.090100	2525.618077
905.397039	2621.400000
905.703938	2666.770385
906.010796	2593.673654
906.317614	2596.194231
906.624391	2543.262115
906.931129	2611.317692
907.237826	2613.838269
907.544483	2550.823846
907.851099	2623.920577
908.157675	2666.770385
908.464211	2596.194231
908.770707	2570.988462
909.077163	2611.317692
909.383578	2656.688077
909.689954	2664.249808
909.996289	2538.220962
910.302584	2591.153077
910.608839	2611.317692
910.915054	2578.550192
911.221229	2601.235385
911.527363	2578.550192
911.833458	2591.153077
912.139513	2520.576923
912.445527	2613.838269
912.751502	2591.153077
913.057436	2563.426731
913.363331	2560.906154
913.669186	2636.523462
913.975000	2601.235385
914.280775	2555.865000
914.586510	2697.017308
914.892205	2550.823846
915.197859	2613.838269
915.503475	2576.029615
915.809050	2674.332115
916.114585	2639.044038
916.420081	2576.029615
916.725536	2631.482308
917.030952	2623.920577
917.336328	2606.276538
917.641665	2528.138654
917.946961	2578.550192
918.252218	2550.823846
918.557435	2520.576923
918.862612	2618.879423
919.167750	2603.755962
919.472848	2548.303269
919.777906	2616.358846
920.082925	2656.688077
920.387904	2613.838269
920.692843	2646.605769
920.997743	2553.344423
921.302603	2528.138654
921.607423	2659.208654
921.912204	2591.153077
922.216946	2588.632500
922.521647	2495.371154
922.826310	2603.755962
923.130932	2628.961731
923.435516	2565.947308
923.740059	2603.755962
924.044564	2578.550192
924.349028	2641.564615
924.653454	2573.509038
924.957840	2573.509038
925.262186	2510.494615
925.566493	2588.632500
925.870761	2646.605769
926.174989	2540.741538
926.479178	2686.935000
926.783328	2631.482308
927.087438	2674.332115
927.391509	2649.126346
927.695541	2560.906154
927.999533	2623.920577
928.303486	2636.523462
928.607400	2565.947308
928.911275	2548.303269
929.215110	2596.194231
929.518906	2586.111923
929.822663	2628.961731
930.126381	2487.809423
930.430060	2699.537885
930.733699	2578.550192
931.037299	2654.167500
931.340861	2558.385577
931.644383	2553.344423
931.947866	2568.467885
932.251309	2684.414423
932.554714	2601.235385
932.858080	2628.961731
933.161407	2596.194231
933.464694	2613.838269
933.767943	2525.618077
934.071153	2636.523462
934.374323	2558.385577
934.677455	2628.961731
934.980548	2576.029615
935.283602	2593.673654
935.586617	2593.673654
935.889593	2578.550192
936.192530	2518.056346
936.495428	2518.056346
936.798287	2596.194231
937.101108	2596.194231
937.403890	2558.385577
937.706632	2583.591346
938.009336	2588.632500
938.312002	2613.838269
938.614628	2573.509038
938.917216	2623.920577
939.219765	2596.194231
939.522275	2578.550192
939.824747	2581.070769
940.127179	2586.111923
940.429573	2636.523462
940.731929	2568.467885
941.034246	2593.673654
941.336524	2586.111923
941.638763	2608.797115
941.940964	2583.591346
942.243126	2674.332115
942.545250	2616.358846
942.847335	2543.262115
943.149381	2644.085192
943.451389	2576.029615
943.753359	2596.194231
944.055290	2628.961731
944.357182	2611.317692
944.659036	2636.523462
944.960851	2623.920577
945.262628	2639.044038
945.564367	2654.167500
945.866067	2540.741538
946.167729	2573.509038
946.469352	2616.358846
946.770937	2608.797115
947.072484	2525.618077
947.373992	2641.564615
947.675462	2540.741538
947.976893	2588.632500
948.278286	2548.303269
948.579641	2669.290962
948.880958	2601.235385
949.182236	2576.029615
949.483476	2608.797115
949.784678	2608.797115
950.085841	2588.632500
950.386967	2581.070769
950.688054	2674.332115
950.989103	2623.920577
951.290114	2518.056346
951.591087	2613.838269
951.892021	2560.906154
952.192917	2581.070769
952.493776	2676.852692
952.794596	2593.673654
953.095378	2591.153077
953.396122	2661.729231
953.696828	2661.729231
953.997496	2593.673654
954.298126	2570.988462
954.598718	2576.029615
954.899272	2611.317692
955.199788	2520.576923
955.500266	2601.235385
955.800706	2576.029615
956.101108	2588.632500
956.401472	2520.576923
956.701798	2626.441154
957.002087	2510.494615
957.302337	2593.673654
957.602550	2603.755962
957.902724	2611.317692
958.202861	2578.550192
958.502960	2565.947308
958.803022	2631.482308
959.103045	2631.482308
959.403031	2545.782692
959.702979	2578.550192
960.002889	2603.755962
960.302762	2586.111923
960.602596	2495.371154
960.902393	2669.290962
961.202153	2634.002885
961.501875	2616.358846
961.801559	2608.797115
962.101205	2603.755962
962.400814	2502.932885
962.700385	2560.906154
962.999918	2679.373269
963.299414	2568.467885
963.598873	2581.070769
963.898293	2656.688077
964.197677	2601.235385
964.497022	2628.961731
964.796331	2704.579038
965.095601	2631.482308
965.394835	2588.632500
965.694030	2611.317692
965.993189	2588.632500
966.292309	2581.070769
966.591393	2586.111923
966.890439	2548.303269
967.189447	2576.029615
967.488419	2573.509038
967.787353	2560.906154
968.086249	2588.632500
968.385108	2568.467885
968.683930	2507.974038
968.982714	2651.646923
969.281462	2591.153077
969.580172	2613.838269
969.878844	2634.002885
970.177480	2548.303269
970.476078	2606.276538
970.774639	2591.153077
971.073162	2530.659231
971.371649	2621.400000
971.670098	2528.138654
971.968510	2548.303269
972.266885	2535.700385
972.565223	2611.317692
972.863524	2530.659231
973.161788	2593.673654
973.460014	2588.632500
973.758204	2634.002885
974.056356	2651.646923
974.354471	2570.988462
974.652550	2596.194231
974.950591	2593.673654
975.248595	2661.729231
975.546563	2621.400000
975.844493	2550.823846
976.142386	2583.591346
976.440243	2545.782692
976.738062	2601.235385
977.035845	2520.576923
977.333590	2576.029615
977.631299	2631.482308
977.928971	2533.179808
978.226606	2601.235385
978.524204	2560.906154
978.821765	2513.015192
979.119290	2601.235385
979.416777	2631.482308
979.714228	2591.153077
980.011642	2560.906154
980.309020	2555.865000
980.606360	2525.618077
980.903664	2540.741538
981.200931	2550.823846
981.498162	2626.441154
981.795356	2659.208654
982.092513	2583.591346
982.389633	2545.782692
982.686717	2535.700385
982.983764	2563.426731
983.280775	2669.290962
983.577749	2626.441154
983.874686	2628.961731
984.171587	2548.303269
984.468451	2686.935000
984.765279	2593.673654
985.062070	2568.467885
985.358824	2588.632500
985.655543	2618.879423
985.952224	2558.385577
986.248869	2616.358846
986.545478	2618.879423
986.842050	2492.850577
987.138586	2593.673654
987.435086	2558.385577
987.731549	2634.002885
988.027975	2558.385577
988.324366	2601.235385
988.620719	2576.029615
988.917037	2568.467885
989.213318	2636.523462
989.509563	2558.385577
989.805772	2606.276538
990.101944	2558.385577
990.398080	2634.002885
990.694180	2578.550192
990.990244	2558.385577
991.286271	2593.673654
991.582262	2518.056346
991.878217	2646.605769
992.174136	2623.920577
992.470019	2497.891731
992.765865	2616.358846
993.061676	2639.044038
993.357450	2634.002885
993.653188	2581.070769
993.948890	2518.056346
994.244556	2598.714808
994.540186	2603.755962
994.835780	2611.317692
995.131337	2601.235385
995.426859	2568.467885
995.722345	2553.344423
996.017795	2636.523462
996.313208	2616.358846
996.608586	2545.782692
996.903928	2613.838269
997.199234	2586.111923
997.494504	2548.303269
997.789738	2618.879423
998.084936	2588.632500
998.380099	2616.358846
998.675225	2618.879423
998.970316	2518.056346
999.265371	2538.220962
999.560390	2623.920577
999.855373	2583.591346
1000.150320	2543.262115
1000.445232	2578.550192
1000.740108	2603.755962
1001.034948	2596.194231
1001.329752	2651.646923
1001.624521	2591.153077
1001.919254	2613.838269
1002.213951	2495.371154
1002.508613	2583.591346
1002.803239	2576.029615
1003.097829	2560.906154
1003.392384	2621.400000
1003.686903	2487.809423
1003.981386	2636.523462
1004.275834	2563.426731
1004.570246	2646.605769
1004.864623	2626.441154
1005.158964	2578.550192
1005.453270	2588.632500
1005.747540	2606.276538
1006.041775	2553.344423
1006.335974	2613.838269
1006.630138	2563.426731
1006.924266	2613.838269
1007.218359	2598.714808
1007.512416	2601.235385
1007.806438	2570.988462
1008.100425	2636.523462
1008.394376	2631.482308
1008.688292	2553.344423
1008.982172	2565.947308
1009.276017	2581.070769
1009.569827	2603.755962
1009.863602	2686.935000
1010.157341	2656.688077
1010.451045	2634.002885
1010.744714	2646.605769
1011.038347	2626.441154
1011.331945	2568.467885
1011.625508	2623.920577
1011.919036	2576.029615
1012.212528	2518.056346
1012.505986	2583.591346
1012.799408	2603.755962
1013.092795	2530.659231
1013.386147	2568.467885
1013.679464	2593.673654
1013.972745	2676.852692
1014.265992	2616.358846
1014.559204	2555.865000
1014.852380	2588.632500
1015.145521	2596.194231
1015.438628	2578.550192
1015.731699	2598.714808
1016.024736	2528.138654
1016.317737	2558.385577
1016.610703	2644.085192
1016.903635	2618.879423
1017.196531	2598.714808
1017.489393	2598.714808
1017.782219	2533.179808
1018.075011	2681.893846
1018.367768	2558.385577
1018.660490	2578.550192
1018.953177	2578.550192
1019.245829	2578.550192
