Dividing Wavelength (nm)	Counts (n)	Blue Motor Position (mm): 0.000000	Red Motor Position (mm): 26.600000	
326.493990	2126.767026
326.888308	2126.767026
327.282561	2126.767026
327.676750	2097.225864
328.070874	2093.089598
328.464933	2097.644280
328.858929	2104.364138
329.252859	2114.181785
329.646726	2122.537498
330.040528	2137.318161
330.434265	2152.179482
330.827938	2171.469458
331.221547	2188.604339
331.615091	2210.603935
332.008571	2231.454147
332.401986	2248.697414
332.795338	2266.162491
333.188625	2285.250820
333.581847	2306.683286
333.975006	2322.121820
334.368100	2342.142762
334.761129	2357.271265
335.154095	2374.968235
335.546996	2393.991029
335.939833	2409.792526
336.332606	2425.299115
336.725315	2438.224634
337.117960	2445.231838
337.510540	2452.576799
337.903056	2464.872173
338.295508	2473.129583
338.687896	2483.337920
339.080220	2489.994763
339.472480	2497.012049
339.864676	2500.540857
340.256807	2506.801970
340.648875	2507.918586
341.040879	2511.339009
341.432818	2513.635254
341.824694	2517.055677
342.216506	2512.891684
342.608253	2512.574091
342.999937	2513.083248
343.391557	2514.552744
343.783113	2512.894205
344.174605	2511.190295
344.566033	2511.465038
344.957397	2511.649040
345.348697	2508.778103
345.739934	2508.241220
346.131106	2505.045128
346.522215	2504.041938
346.913260	2500.064468
347.304241	2500.709736
347.695159	2497.380054
348.086012	2497.924498
348.476802	2492.404435
348.867528	2495.507265
349.258191	2490.251862
349.648789	2492.759836
350.039324	2488.013590
350.429796	2490.231698
350.820203	2486.443270
351.210548	2485.608959
351.600828	2483.710965
351.991045	2483.673156
352.381198	2485.190544
352.771288	2482.700214
353.161314	2482.271716
353.551276	2481.039153
353.941175	2481.424802
354.331010	2483.426140
354.720782	2484.038640
355.110490	2483.844556
355.500135	2482.475882
355.889717	2482.879175
356.279235	2483.728609
356.668689	2484.313383
357.058080	2483.093424
357.447408	2484.504947
357.836672	2484.613332
358.225873	2484.535194
358.615010	2481.933958
359.004084	2490.032572
359.393095	2489.528457
359.782043	2489.099958
360.170927	2487.191882
360.559748	2492.258241
360.948505	2491.973416
361.337199	2490.629949
361.725830	2490.642552
362.114398	2493.826040
362.502903	2493.178252
362.891344	2492.109527
363.279722	2496.540702
363.668037	2495.421565
364.056289	2494.758654
364.444478	2498.239570
364.832603	2494.438540
365.220665	2497.828716
365.608665	2498.363079
365.996601	2496.636483
366.384474	2501.357524
366.772284	2499.746875
367.160031	2503.452123
367.547715	2503.951198
367.935336	2504.120076
368.322893	2509.009996
368.710388	2513.441170
369.097820	2520.644979
369.485189	2520.834022
369.872495	2529.711494
370.259738	2534.140148
370.646918	2543.239430
371.034035	2548.078938
371.421090	2560.941442
371.808081	2571.389233
372.195010	2576.165727
372.581875	2595.022162
372.968678	2606.402567
373.355418	2612.073865
373.742096	2634.144037
374.128710	2649.779176
374.515262	2663.120589
374.901751	2676.388906
375.288177	2693.102852
375.674540	2716.597149
376.060841	2732.595251
376.447079	2752.638879
376.833254	2773.514297
377.219367	2787.069959
377.605417	2822.622697
377.991404	2832.052175
378.377329	2852.942717
378.763191	2873.225799
379.148991	2911.062179
379.534727	2935.516817
379.920402	2961.806434
380.306013	2976.025008
380.691563	3024.911598
381.077049	3047.012016
381.462474	3064.600602
381.847835	3103.460337
382.233134	3126.954634
382.618371	3126.521095
383.003545	3194.992567
383.388657	3201.117569
383.773706	3232.014801
384.158693	3247.012233
384.543618	3274.473919
384.928480	3311.806184
385.313280	3354.658512
385.698017	3353.763707
386.082692	3408.750093
386.467305	3413.148500
386.851856	3446.646967
387.236344	3470.552118
387.620770	3501.328363
388.005133	3528.454812
388.389435	3556.239131
388.773674	3565.378743
389.157851	3607.984055
389.541965	3624.564410
389.926018	3586.486054
390.310008	3660.369205
390.693936	3677.284797
391.077802	3716.268039
391.461606	3707.279662
391.845348	3770.609157
392.229027	3769.666461
392.612645	3782.332360
392.996200	3861.400338
393.379694	3897.250503
393.763125	3964.123930
394.146494	3933.025052
394.529801	3995.575689
394.913047	4043.980848
395.296230	4007.883666
395.679351	4065.219229
396.062410	4085.698917
396.445408	4070.056216
396.828343	4102.065023
397.211217	4124.241058
397.594028	4046.130900
397.976778	4110.937453
398.359466	4140.304695
398.742092	4166.062471
399.124656	4089.086572
399.507158	4168.759488
399.889598	4195.437274
400.271977	4256.011779
400.654294	4227.700659
401.036549	4236.711721
401.418742	4202.699056
401.800874	4305.737720
402.182944	4332.057584
402.564952	4394.504878
402.946898	4378.738669
403.328783	4375.656003
403.710606	4290.190802
404.092367	4484.892766
404.474067	4446.360707
404.855705	4454.111481
405.237282	4388.400040
405.618797	4493.223273
406.000250	4524.596894
406.381642	4606.152681
406.762972	4570.776384
407.144240	4581.685441
407.525447	4580.697374
407.906593	4640.213237
408.287677	4682.984907
408.668700	4609.295840
409.049661	4662.210312
409.430560	4702.910067
409.811399	4630.584633
410.192176	4794.273419
410.572891	4730.384356
410.953545	4832.581147
411.334138	4714.920616
411.714669	4784.072644
412.095139	4672.476621
412.475547	4817.646729
412.855894	4796.075631
413.236180	4802.971930
413.616405	4761.884005
413.996568	4846.227550
414.376670	4792.524138
414.756711	4743.186366
415.136691	4778.066109
415.516609	4859.599211
415.896466	4890.632554
416.276262	4927.233852
416.655997	4908.231222
417.035670	5088.475157
417.415283	5181.053427
417.794834	5122.480261
418.174324	5075.554680
418.553753	4983.775433
418.933121	5165.090613
419.312428	5236.173403
419.691674	5173.837015
420.070859	5304.241583
420.449983	5211.607861
420.829045	5327.125901
421.208047	5233.554524
421.586988	5309.287778
421.965867	5319.312113
422.344686	5447.271721
422.723444	5303.785359
423.102141	5121.308192
423.480777	5422.925468
423.859352	5192.421229
424.237866	5445.451864
424.616319	5441.592861
424.994712	5556.198452
425.373044	5426.542496
425.751314	5572.307459
426.129524	5375.861256
426.507673	5566.285801
426.885762	5654.700078
427.263789	5584.128965
427.641756	5464.789730
428.019662	5582.805662
428.397508	5593.734884
428.775292	5543.030958
429.153016	5635.246265
429.530679	5562.207508
429.908282	5646.503162
430.285824	5521.369120
430.663305	5795.116377
431.040726	5530.995204
431.418086	5530.894381
431.795385	5635.251306
432.172624	5646.319160
432.549802	5640.080732
432.926920	5652.116487
433.303977	5657.069420
433.680974	5697.270102
434.057910	5718.027053
434.434786	5720.449327
434.811601	5690.688875
435.188355	5923.723773
435.565050	5798.483868
435.941683	5780.552484
436.318257	5992.664073
436.694770	5977.016331
437.071222	6012.576631
437.447614	5939.248007
437.823946	5855.844637
438.200218	6005.392986
438.576429	5873.153439
438.952580	5965.885464
439.328670	6013.340365
439.704700	5916.411580
440.080670	5903.433129
440.456580	6168.776782
440.832429	6051.365789
441.208218	5900.708386
441.583947	6048.807403
441.959616	6050.919647
442.335224	5974.168079
442.710773	6110.637155
443.086261	6134.466689
443.461689	5923.146561
443.837057	6064.455145
444.212365	6215.409976
444.587612	6101.502584
444.962800	6250.481283
445.337927	6225.880453
445.712995	5830.502757
446.088002	6391.343725
446.462949	6220.894752
446.837837	6143.820550
447.212664	6305.291229
447.587431	6431.047852
447.962139	6943.423168
448.336786	7827.084505
448.711374	7552.039151
449.085901	6659.563356
449.460369	6571.665798
449.834776	6495.395661
450.209124	6845.339958
450.583412	6964.303627
450.957640	7089.974551
451.331808	6854.482090
451.705917	6418.654176
452.079965	6326.945505
452.453954	6501.795406
452.827883	6368.545107
453.201752	6432.403923
453.575562	6229.212655
453.949311	6384.739813
454.323001	6263.091730
454.696632	6303.836856
455.070202	6395.379168
455.443713	6507.685994
455.817164	6566.922072
456.190556	6603.256188
456.563888	6631.728625
456.937160	6638.156097
457.310373	6318.821686
457.683526	6300.691176
458.056619	6173.550755
458.429653	6127.759434
458.802628	6036.426329
459.175542	6085.191931
459.548398	6323.172201
459.921194	6399.775055
460.293930	6354.102201
460.666607	6693.938984
461.039224	6860.234047
461.411782	6905.642240
461.784280	6868.735953
462.156719	6740.635193
462.529099	6597.993224
462.901419	6251.827272
463.273680	6129.349918
463.645882	6086.651345
464.018024	5932.543272
464.390106	5985.079657
464.762130	6178.604512
465.134094	6402.177164
465.505999	6952.862728
465.877845	7618.358050
466.249631	7940.853265
466.621358	7625.312322
466.993026	7156.364027
467.364634	6930.439676
467.736184	6638.148535
468.107674	6368.819849
468.479105	6291.687675
468.850477	6109.621363
469.221790	5902.626545
469.593043	5652.592876
469.964238	5508.947717
470.335373	5442.936328
470.706449	5396.275408
471.077467	5322.851003
471.448425	5820.264173
471.819324	6198.917841
472.190164	6136.720085
472.560945	5528.726684
472.931667	5121.547647
473.302330	5000.164224
473.672934	4795.400117
474.043479	4855.725084
474.413965	4768.492958
474.784393	4650.691275
475.154761	4641.362620
475.525070	4601.776959
475.895321	4486.788240
476.265513	4473.434223
476.635645	4465.401145
477.005719	4390.882809
477.375734	4364.628479
477.745691	4364.804920
478.115588	4332.720496
478.485427	4322.716326
478.855207	4398.936052
479.224928	4520.758055
479.594591	4606.140078
479.964194	4477.260459
480.333739	4380.651787
480.703226	4271.377216
481.072653	4227.819126
481.442022	4211.200962
481.811333	4189.592056
482.180584	4081.592897
482.549777	3959.796099
482.918912	3876.256618
483.287988	3824.433557
483.657005	3770.223509
484.025964	3671.023683
484.394864	3627.853762
484.763706	3568.978127
485.132489	3499.122858
485.501213	3447.632513
485.869879	3413.309817
486.238487	3350.227338
486.607036	3325.306394
486.975527	3262.934718
487.343959	3241.761872
487.712333	3213.609548
488.080648	3171.107580
488.448905	3138.856798
488.817104	3103.379678
489.185244	3089.506423
489.553326	3070.624781
489.921350	3080.565936
490.289315	3108.015019
490.657222	3103.745162
491.025070	3065.124882
491.392861	3030.343441
491.760593	2985.532625
492.128267	2943.698609
492.495883	2903.966755
492.863440	2874.246633
493.230939	2842.815039
493.598380	2826.857266
493.965763	2801.482618
494.333088	2791.281843
494.700354	2769.572114
495.067563	2765.478697
495.434713	2744.545306
495.801805	2741.656725
496.168839	2727.715414
496.535815	2716.849207
496.902733	2712.901983
497.269593	2703.686754
497.636395	2696.871114
498.003139	2689.427851
498.369825	2680.535255
498.736453	2677.326561
499.103023	2674.201045
499.469535	2668.895231
499.835989	2662.054385
500.202385	2659.087666
500.568723	2652.423261
500.935003	2651.120123
501.301226	2642.794657
501.667390	2644.236427
502.033497	2645.022847
502.399546	2640.241312
502.765537	2637.014974
503.131470	2635.701753
503.497345	2633.897020
503.863163	2628.162708
504.228923	2630.615229
504.594625	2629.138171
504.960269	2624.747326
505.325856	2625.768160
505.691385	2620.638786
506.056856	2624.296143
506.422270	2621.165586
506.787625	2620.109465
507.152924	2619.355812
507.518164	2618.405555
507.883347	2614.798609
508.248472	2616.933538
508.613540	2614.682662
508.978550	2614.412961
509.343503	2610.838783
509.708398	2610.934565
510.073236	2614.148300
510.438016	2614.536469
510.802738	2610.281735
511.167403	2608.151848
511.532010	2607.524224
511.896561	2608.812239
512.261053	2609.180243
512.625488	2603.009871
512.989866	2604.746548
513.354186	2603.471136
513.718449	2599.057606
514.082655	2601.661362
514.446803	2606.246292
514.810894	2604.053390
515.174927	2605.520365
515.538904	2601.484922
515.902822	2603.375354
516.266684	2603.980293
516.630488	2601.237905
516.994235	2603.022474
517.357925	2600.978286
517.721558	2603.012391
518.085133	2604.136569
518.448651	2604.020622
518.812112	2602.110025
519.175516	2601.308481
519.538863	2602.742690
519.902152	2600.572473
520.265385	2601.568101
520.628560	2602.578852
520.991678	2600.975765
521.354739	2600.330497
521.717743	2603.559357
522.080690	2603.307299
522.443580	2603.687906
522.806413	2601.391660
523.169189	2599.014756
523.531908	2602.377206
523.894569	2602.362082
524.257174	2601.041300
524.619722	2601.648759
524.982213	2600.746393
525.344647	2601.711774
525.707025	2600.660693
526.069345	2601.275714
526.431608	2600.416197
526.793815	2601.663883
527.155964	2600.650611
527.518057	2597.562904
527.880093	2601.069027
528.242072	2601.096753
528.603995	2600.380909
528.965860	2600.726228
529.327669	2600.743872
529.689421	2599.992740
530.051117	2598.339242
530.412755	2598.487956
530.774337	2596.506782
531.135862	2597.794797
531.497331	2596.814293
531.858743	2592.819178
532.220098	2595.861515
532.581396	2596.136257
532.942638	2596.151381
533.303824	2600.287648
533.664953	2600.353183
534.026025	2599.793615
534.387040	2601.230343
534.747999	2597.802359
535.108902	2599.566763
535.469748	2599.370158
535.830537	2600.141454
536.191270	2597.860332
536.551947	2597.666248
536.912567	2597.051227
537.273131	2598.583738
537.633638	2595.977461
537.994089	2595.853953
538.354483	2596.670620
538.714821	2597.749427
539.075103	2596.542070
539.435328	2599.723038
539.795497	2596.872266
540.155609	2598.656834
540.515665	2598.152719
540.875665	2599.833944
541.235609	2597.494848
541.595496	2597.840167
541.955328	2597.184817
542.315102	2596.048037
542.674821	2597.252873
543.034483	2596.269848
543.394090	2594.893613
543.753640	2599.022318
544.113134	2597.744386
544.472571	2596.471494
544.831953	2599.360075
545.191278	2599.100456
545.550548	2595.785897
545.909761	2599.050044
546.268918	2596.998295
546.628019	2599.599530
546.987064	2596.776484
547.346053	2599.695312
547.704986	2598.215733
548.063863	2599.589448
548.422684	2597.588110
548.781449	2595.153232
549.140158	2599.559201
549.498811	2598.291351
549.857408	2598.581217
550.215949	2595.070053
550.574434	2594.044179
550.932864	2591.261462
551.291237	2595.392687
551.649555	2598.135075
552.007817	2598.157760
552.366022	2597.479725
552.724173	2599.249170
553.082267	2601.361413
553.440305	2598.205651
553.798288	2597.744386
554.156215	2598.251022
554.514086	2599.821341
554.871902	2601.195055
555.229661	2597.656165
555.587365	2598.278748
555.945014	2600.585076
556.302606	2597.157091
556.660143	2601.495004
557.017625	2599.405446
557.375050	2596.579879
557.732421	2599.591968
558.089735	2599.150867
558.446994	2598.288830
558.804197	2598.820672
559.161345	2597.172215
559.518437	2596.544591
559.875474	2600.307812
560.232455	2600.227154
560.589381	2596.773963
560.946251	2601.409304
561.303065	2598.694643
561.659825	2599.256732
562.016528	2596.224478
562.373177	2598.858481
562.729770	2597.996443
563.086307	2595.614498
563.442789	2597.787235
563.799216	2599.203800
564.155587	2597.056268
564.511904	2597.862853
564.868164	2597.298243
565.224370	2597.744386
565.580520	2598.571135
565.936615	2598.767740
566.292654	2596.224478
566.648638	2596.390836
567.004567	2597.038624
567.360441	2596.446288
567.716260	2597.323449
568.072023	2597.288161
568.427732	2592.022676
568.783385	2593.676174
569.138982	2592.453695
569.494525	2593.363623
569.850013	2590.938828
570.205445	2596.584920
570.560823	2595.634663
570.916145	2594.439909
571.271412	2596.670620
571.626625	2597.976279
571.981782	2591.712645
572.336884	2598.019128
572.691931	2594.500403
573.046923	2592.728437
573.401860	2596.468974
573.756743	2594.563417
574.111570	2593.277923
574.466342	2597.109200
574.821059	2596.315218
575.175722	2592.670464
575.530330	2594.938983
575.884882	2594.623911
576.239380	2591.866400
576.593823	2594.039137
576.948211	2594.061823
577.302544	2591.727768
577.656823	2591.843715
578.011047	2594.870928
578.365216	2591.841194
578.719330	2592.899837
579.073389	2591.263982
579.427394	2592.410845
579.781344	2592.171390
580.135239	2591.947059
580.489080	2593.766915
580.842866	2590.086873
581.196597	2595.864035
581.550273	2590.404466
581.903895	2592.746082
582.257463	2591.304312
582.610975	2590.137284
582.964434	2593.323294
583.317837	2589.391194
583.671186	2591.629466
584.024481	2590.207861
584.377721	2589.854980
584.730906	2589.492017
585.084037	2589.658375
585.437113	2589.673498
585.790135	2588.750967
586.143103	2588.241811
586.496016	2588.100658
586.848874	2586.346337
587.201679	2588.496389
587.554428	2583.533373
587.907124	2589.905391
588.259765	2583.122519
588.612352	2586.033785
588.964884	2587.906574
589.317362	2590.038982
589.669786	2587.238621
590.022155	2590.011256
590.374470	2586.605956
590.726731	2587.929259
591.078937	2586.583271
591.431090	2587.901533
591.783188	2588.042685
592.135232	2585.577561
592.487222	2588.879517
592.839157	2587.800710
593.191038	2586.726944
593.542866	2584.009762
593.894639	2585.779207
594.246358	2587.473035
594.598022	2585.834660
594.949633	2585.131419
595.301190	2585.295256
595.652692	2585.456573
596.004141	2587.815833
596.355535	2586.192582
596.706876	2585.081007
597.058162	2583.525811
597.409395	2584.024885
597.760573	2584.521439
598.111698	2583.223342
598.462768	2584.927252
598.813785	2584.140832
599.164748	2584.201326
599.515657	2584.839032
599.866511	2580.735532
600.217312	2584.402972
600.568060	2584.357602
600.918753	2582.381469
601.269392	2582.562951
601.619978	2581.151428
601.970510	2585.754001
602.320988	2582.250399
602.671412	2584.405492
603.021783	2585.234762
603.372100	2584.549165
603.722363	2583.336768
604.072572	2583.828280
604.422728	2583.437591
604.772830	2580.733012
605.122878	2576.195973
605.472872	2580.244020
605.822813	2579.346695
606.172701	2579.810481
606.522534	2582.741912
606.872314	2587.946903
607.222041	2582.540266
607.571714	2582.212591
607.921333	2583.273753
608.270899	2583.150245
608.620411	2582.908270
608.969870	2583.314083
609.319276	2584.473548
609.668627	2588.007397
610.017926	2589.605443
610.367171	2592.224322
610.716362	2588.632500
611.065500	2589.292891
611.414585	2587.967068
611.763616	2588.990422
612.112594	2588.735844
612.461518	2586.613518
612.810389	2585.164186
613.159207	2584.526480
613.507971	2584.458425
613.856682	2586.293405
614.205340	2582.757035
614.553945	2584.760894
614.902496	2580.811150
615.250994	2584.750812
615.599439	2585.330544
615.947830	2587.886409
616.296169	2586.807602
616.644454	2582.220152
616.992686	2584.037488
617.340864	2584.067735
617.688990	2585.118816
618.037063	2586.109402
618.385082	2582.492375
618.733048	2583.787951
619.080961	2582.872982
619.428821	2582.230235
619.776628	2584.042529
620.124382	2585.504464
620.472083	2582.235276
620.819731	2582.764597
621.167326	2582.303331
621.514868	2583.495564
621.862357	2581.030440
622.209793	2581.947930
622.557176	2581.824422
622.904506	2578.920717
623.251783	2578.025912
623.599007	2576.939544
623.946179	2577.617579
624.293297	2578.439287
624.640363	2577.166396
624.987376	2579.954154
625.334336	2581.887436
625.681243	2579.860892
626.028097	2576.264029
626.374899	2581.529514
626.721647	2579.250913
627.068343	2579.533217
627.414987	2578.240161
627.761577	2576.740418
628.108115	2579.815522
628.454600	2578.658577
628.801032	2577.496591
629.147412	2578.822415
629.493739	2578.262847
629.840014	2576.778227
630.186236	2576.369893
630.532405	2577.776375
630.878521	2576.745459
631.224585	2574.754203
631.570597	2574.968452
631.916556	2576.569019
632.262462	2577.395768
632.608316	2574.580284
632.954117	2577.426015
633.299866	2572.382341
633.645562	2575.187743
633.991206	2575.984245
634.336797	2572.657083
634.682336	2574.645819
635.027823	2572.125242
635.373257	2573.297310
635.718639	2571.306054
636.063968	2573.292269
636.409245	2569.854202
636.754470	2570.781774
637.099642	2574.242526
637.444762	2570.628019
637.789829	2570.340673
638.134845	2573.163719
638.479808	2571.505180
638.824719	2568.283883
639.169577	2571.714388
639.514383	2569.314798
639.859137	2567.343707
640.203839	2571.290931
640.548489	2570.242371
640.893086	2565.622153
641.237632	2565.143244
641.582125	2567.101732
641.926566	2564.775239
642.270955	2568.813204
642.615292	2565.173491
642.959576	2568.477967
643.303809	2568.087278
643.647990	2568.959397
643.992118	2568.795560
644.336195	2566.789180
644.680219	2567.119376
645.024192	2564.392112
645.368112	2570.295303
645.711981	2570.232288
646.055797	2572.319326
646.399562	2569.284552
646.743274	2570.451579
647.086935	2572.009295
647.430544	2570.829665
647.774101	2571.185067
648.117606	2569.944943
648.461059	2570.249932
648.804460	2574.570201
649.147810	2569.385375
649.491108	2569.425704
649.834354	2570.086095
650.177548	2570.123904
650.520690	2569.292113
650.863781	2571.346383
651.206820	2571.270766
651.549807	2568.649366
651.892742	2567.794891
652.235626	2568.714901
652.578458	2570.532237
652.921238	2565.496124
653.263967	2568.712381
653.606644	2568.979562
653.949269	2566.146433
654.291843	2566.448903
654.634365	2566.040569
654.976836	2566.267421
655.319255	2566.695919
655.661622	2564.896227
656.003938	2565.090312
656.346203	2564.205589
656.688416	2564.384550
657.030577	2563.172152
657.372687	2566.080898
657.714746	2566.267421
658.056753	2565.687688
658.398708	2561.707697
658.740612	2562.078222
659.082465	2565.697771
659.424266	2561.821123
659.766016	2560.351627
660.107715	2564.538305
660.449362	2561.465722
660.790958	2564.321536
661.132503	2565.165929
661.473996	2565.049982
661.815438	2564.359344
662.156829	2567.126938
662.498168	2564.445044
662.839456	2565.201217
663.180693	2568.911506
663.521879	2564.316494
663.863013	2562.841957
664.204097	2563.323387
664.545129	2567.784808
664.886110	2561.964796
665.227040	2564.326577
665.567918	2564.742472
665.908746	2567.164746
666.249522	2562.247101
666.590248	2564.324056
666.930922	2563.837585
667.271545	2564.266083
667.612118	2569.329922
667.952639	2567.784808
668.293109	2567.200034
668.633528	2566.519479
668.973896	2562.090825
669.314213	2564.654252
669.654480	2566.123748
669.994695	2566.300188
670.334859	2564.157698
670.674973	2565.599468
671.015035	2565.304561
671.355047	2563.875393
671.695008	2565.334807
672.034918	2563.018397
672.374777	2567.303378
672.714585	2564.500497
673.054342	2567.472257
673.394049	2564.175342
673.733705	2563.393963
674.073310	2567.031156
674.412864	2568.074675
674.752368	2565.057544
675.091820	2567.494942
675.431223	2562.761298
675.770574	2564.046793
676.109875	2557.526060
676.449125	2562.012687
676.788324	2559.741647
677.127473	2562.310115
677.466571	2558.345248
677.805619	2563.691391
678.144616	2561.440516
678.483562	2562.037893
678.822458	2563.346072
679.161303	2563.666186
679.500098	2562.042934
679.838842	2563.114179
680.177535	2558.342727
680.516179	2563.908161
680.854771	2560.954045
681.193314	2562.088304
681.531805	2563.570404
681.870247	2565.838923
682.208638	2564.878583
682.546978	2565.382698
682.885268	2566.718604
683.223508	2565.949828
683.561697	2562.446226
683.899836	2563.368757
684.237925	2566.340518
684.575963	2561.748027
684.913951	2562.405897
685.251889	2561.382543
685.589776	2563.116700
685.927614	2561.382543
686.265401	2562.743654
686.603137	2564.135013
686.940824	2563.724159
687.278460	2564.984447
687.616046	2564.243398
687.953582	2564.455126
688.291068	2567.421845
688.628504	2565.624674
688.965889	2566.602658
689.303224	2563.850188
689.640510	2562.395815
689.977745	2565.223902
690.314930	2560.621329
690.652065	2561.211144
690.989150	2562.098387
691.326185	2561.710218
691.663170	2561.140567
692.000105	2562.405897
692.336990	2558.844322
692.673825	2560.792728
693.010610	2560.727193
693.347345	2555.189485
693.684030	2555.068498
694.020665	2556.979095
694.357251	2548.825029
694.693786	2555.186965
695.030272	2555.433981
695.366707	2557.669733
695.703093	2557.702501
696.039429	2556.192675
696.375716	2557.291647
696.711952	2555.181924
697.048139	2557.621842
697.384276	2554.854249
697.720363	2555.801986
698.056400	2554.024979
698.392388	2557.735268
698.728326	2554.609753
699.064214	2555.930535
699.400053	2555.960782
699.735842	2554.345092
700.071581	2556.318704
700.407270	2555.300391
700.742910	2554.392983
701.078501	2555.060936
701.414042	2554.430792
701.749533	2553.568754
702.084974	2553.079763
702.420366	2553.004145
702.755709	2553.019269
703.091002	2550.581871
703.426246	2553.523384
703.761440	2549.417364
704.096584	2552.759649
704.431679	2552.747046
704.766725	2550.992725
705.101721	2551.363250
705.436668	2554.637479
705.771565	2553.382232
706.106413	2551.532128
706.441212	2554.004814
706.775961	2553.349464
707.110661	2551.839639
707.445311	2556.560679
707.779913	2554.307283
708.114465	2552.868034
708.448967	2553.951882
708.783421	2554.733261
709.117825	2554.385421
709.452180	2554.418189
709.786485	2551.297715
710.120742	2553.551110
710.454949	2553.543549
710.789107	2555.128992
711.123216	2554.350133
711.457275	2555.683518
711.791286	2552.865513
712.125247	2553.069680
712.459159	2555.824671
712.793023	2558.093190
713.126837	2555.043292
713.460602	2558.872048
713.794318	2556.321224
714.127985	2555.408776
714.461602	2556.348951
714.795171	2556.812737
715.128691	2556.691749
715.462162	2554.161090
715.795584	2554.430792
716.128957	2556.341389
716.462281	2555.330638
716.795556	2554.007335
717.128782	2551.088507
717.461960	2549.984494
717.795088	2550.155893
718.128167	2550.334854
718.461198	2550.564227
718.794180	2552.253013
719.127113	2551.206974
719.459997	2550.430636
719.792833	2548.217570
720.125619	2549.442570
720.458357	2550.009700
720.791046	2550.216387
721.123686	2549.157745
721.456278	2549.772766
721.788821	2549.399720
722.121315	2547.988197
722.453761	2548.416695
722.786158	2547.032898
723.118506	2548.194884
723.450805	2547.151366
723.783056	2547.042981
724.115259	2549.175389
724.447412	2545.349153
724.779518	2549.303938
725.111574	2549.664381
725.443582	2550.609597
725.775542	2551.857283
726.107453	2549.976932
726.439315	2547.506767
726.771129	2553.150339
727.102895	2550.544062
727.434612	2548.898125
727.766281	2550.186140
728.097901	2549.656819
728.429473	2546.586756
728.760996	2546.957281
729.092471	2546.090203
729.423897	2551.060780
729.755276	2552.003476
730.086606	2552.555482
730.417887	2551.091027
730.749120	2552.497509
731.080305	2553.092365
731.411442	2555.459187
731.742530	2553.205791
732.073570	2554.284598
732.404562	2552.386604
732.735506	2553.528425
733.066401	2550.498692
733.397249	2554.932387
733.728048	2552.111861
734.058798	2550.796120
734.389501	2549.051881
734.720156	2550.012220
735.050762	2546.387631
735.381320	2548.026006
735.711831	2548.315872
736.042293	2547.796633
736.372707	2547.237065
736.703073	2548.114226
737.033391	2549.467776
737.363661	2547.332847
737.693883	2546.609442
738.024056	2552.714279
738.354182	2547.373176
738.684260	2552.227807
739.014290	2546.848896
739.344272	2550.609597
739.674207	2547.594987
740.004093	2549.649257
740.333931	2552.386604
740.663722	2549.119936
740.993464	2547.658002
741.323159	2549.230842
741.652806	2546.798485
741.982405	2548.714123
742.311956	2547.922662
742.641460	2547.847045
742.970915	2548.638506
743.300323	2550.342416
743.629683	2549.298897
743.958996	2549.089689
744.288260	2546.869061
744.617477	2548.489792
744.946647	2541.616179
745.275768	2543.085675
745.604842	2543.488967
745.933869	2545.296221
746.262847	2542.715150
746.591778	2547.153886
746.920662	2546.871582
747.249498	2546.405275
747.578286	2547.000131
747.907027	2546.420398
748.235720	2545.691952
748.564365	2548.918290
748.892963	2547.640357
749.221514	2548.270502
749.550017	2548.855276
749.878473	2547.995759
750.206881	2543.609955
750.535242	2544.497198
750.863555	2545.071890
751.191821	2547.378217
751.520039	2547.839483
751.848210	2545.981818
752.176334	2545.276056
752.504411	2546.097764
752.832440	2544.224976
753.160421	2544.850079
753.488356	2544.882846
753.816243	2544.643392
754.144082	2546.637168
754.471875	2543.720860
754.799620	2547.161448
755.127318	2545.578526
755.454969	2542.740356
755.782572	2546.274205
756.110129	2543.947712
756.437638	2545.709596
756.765100	2542.624409
757.092515	2544.040974
757.419882	2543.798998
757.747203	2544.953422
758.074477	2545.233207
758.401703	2545.739842
758.728882	2543.231868
759.056014	2545.094575
759.383099	2546.599359
759.710138	2545.886036
760.037129	2547.252189
760.364073	2546.753114
760.690970	2545.787733
761.017820	2547.748742
761.344623	2545.886036
761.671379	2549.424926
761.998088	2545.477702
762.324751	2546.523742
762.651366	2548.572971
762.977935	2556.197716
763.304456	2556.986657
763.630931	2563.688871
763.957359	2560.013870
764.283740	2557.188303
764.610074	2554.151008
764.936362	2553.414999
765.262602	2546.647250
765.588796	2546.221273
765.914943	2544.913093
766.241044	2546.939637
766.567097	2544.827394
766.893104	2545.880995
767.219064	2544.124153
767.544978	2544.046015
767.870845	2544.252702
768.196665	2545.578526
768.522438	2543.569626
768.848165	2540.829759
769.173846	2540.804553
769.499479	2544.111550
769.825066	2540.302958
770.150607	2540.260108
770.476101	2540.371014
770.801548	2543.133566
771.126949	2542.677342
771.452303	2540.988555
771.777611	2540.418905
772.102872	2541.714481
772.428087	2539.980324
772.753256	2539.904707
773.078378	2540.517207
773.403453	2539.939995
773.728482	2541.560726
774.053465	2538.629295
774.378401	2540.149203
774.703291	2543.025181
775.028135	2537.827752
775.352932	2539.685417
775.677683	2540.073586
776.002388	2540.106353
776.327046	2538.205838
776.651658	2538.112577
776.976224	2539.599717
777.300743	2541.941333
777.625216	2537.006043
777.949643	2537.618544
778.274024	2543.728422
778.598359	2536.685930
778.922647	2535.249201
779.246889	2533.991433
779.571086	2534.339273
779.895236	2535.957483
780.219339	2540.386137
780.543397	2539.466127
780.867409	2539.317413
781.191374	2537.658873
781.515294	2539.892104
781.839167	2538.848585
782.162995	2538.689789
782.486776	2537.469830
782.810511	2537.744573
783.134201	2537.308513
783.457844	2537.991589
783.781441	2535.685261
784.104993	2539.357742
784.428498	2538.896476
784.751958	2537.805066
785.075372	2540.988555
785.398739	2533.772143
785.722061	2540.234903
786.045337	2539.007382
786.368568	2540.386137
786.691752	2535.803728
787.014891	2540.285314
787.337983	2539.579552
787.661030	2539.203987
787.984031	2540.960829
788.306987	2539.385468
788.629897	2541.414533
788.952760	2541.880839
789.275579	2538.677186
789.598351	2542.518545
789.921078	2539.819007
790.243759	2541.674152
790.566395	2542.231199
790.888984	2538.289017
791.211529	2537.638708
791.534027	2540.643236
791.856480	2539.367824
792.178888	2537.915972
792.501249	2538.717515
792.823566	2539.990407
793.145836	2538.115097
793.468062	2540.197094
793.790241	2538.432690
794.112375	2538.213400
794.434464	2539.556867
794.756507	2538.757844
795.078505	2537.737011
795.400457	2537.855478
795.722364	2536.096115
796.044226	2538.667104
796.366042	2536.247350
796.687812	2535.085364
797.009538	2541.109543
797.331218	2538.944367
797.652852	2539.496373
797.974442	2540.411343
798.295986	2539.095602
798.617484	2538.583925
798.938938	2537.041332
799.260346	2540.106353
799.581709	2536.340611
799.903026	2540.078627
800.224299	2534.412370
800.545526	2538.737680
800.866708	2535.765920
801.187845	2536.640560
801.508936	2535.085364
801.829983	2539.554347
802.150984	2537.134593
802.471940	2539.272042
802.792851	2538.140303
803.113717	2537.447144
803.434538	2535.448327
803.755314	2536.358255
804.076045	2538.682227
804.396731	2539.072917
804.717372	2535.478574
805.037967	2539.745911
805.358518	2537.172402
805.679024	2539.849254
805.999485	2538.243647
806.319901	2540.436549
806.640272	2537.908410
806.960598	2538.077289
807.280879	2535.592000
807.601115	2537.003523
807.921306	2536.580066
808.241453	2536.849768
808.561554	2537.139634
808.881611	2538.571322
809.201623	2534.777853
809.521590	2539.151054
809.841513	2535.733152
810.161390	2537.585776
810.481223	2537.265663
810.801011	2540.975952
811.120755	2540.378575
811.440453	2539.168698
811.760107	2538.616692
812.079716	2532.176618
812.399281	2530.835671
812.718801	2534.858512
813.038276	2531.138140
813.357707	2538.732639
813.677093	2536.733821
813.996434	2537.716846
814.315731	2536.537216
814.634983	2534.795497
814.954191	2535.680220
815.273354	2537.139634
815.592473	2536.355735
815.911547	2538.876312
816.230577	2538.800694
816.549562	2537.973945
816.868502	2537.328677
817.187399	2536.542257
817.506250	2536.350693
817.825058	2539.430838
818.143821	2538.679707
818.462539	2539.730787
818.781213	2538.306661
819.099843	2542.692465
819.418429	2538.941847
819.736970	2546.339740
820.055466	2544.618186
820.373919	2545.669266
820.692327	2548.313352
821.010691	2555.018086
821.329011	2567.744479
821.647286	2593.766915
821.965517	2617.598970
822.283704	2630.935342
822.601847	2637.509007
822.919945	2622.307408
823.237999	2610.216200
823.556010	2594.087028
823.873976	2582.986408
824.191897	2572.979717
824.509775	2565.281875
824.827609	2560.770043
825.145398	2557.846173
825.463144	2554.834084
825.780845	2559.237532
826.098502	2563.542677
826.416116	2566.101063
826.733685	2575.769996
827.051210	2576.881570
827.368692	2573.773699
827.686129	2565.007133
828.003522	2560.442368
828.320872	2550.627241
828.638177	2547.947868
828.955439	2541.981662
829.272656	2540.802032
829.589830	2535.851619
829.906960	2541.991745
830.224046	2538.896476
830.541088	2543.572146
830.858086	2539.294727
831.175041	2540.602907
831.491952	2537.737011
831.808819	2539.899666
832.125642	2540.791950
832.442421	2543.798998
832.759157	2546.382590
833.075849	2547.128680
833.392497	2553.873744
833.709101	2558.463715
834.025662	2558.204095
834.342179	2555.270144
834.658653	2550.022303
834.975083	2547.940306
835.291469	2550.649926
835.607811	2542.763041
835.924110	2540.781868
836.240366	2538.644418
836.556578	2536.943029
836.872746	2540.282793
837.188871	2539.108205
837.504952	2537.613502
837.820990	2534.268697
838.136984	2535.743234
838.452935	2533.394057
838.768842	2537.928575
839.084706	2538.798174
839.400526	2539.357742
839.716303	2540.126518
840.032037	2543.191539
840.347727	2544.761859
840.663373	2541.374203
840.978977	2539.995448
841.294537	2537.893287
841.610054	2538.430169
841.925527	2534.727442
842.240957	2536.348173
842.556344	2536.980838
842.871687	2537.056455
843.186987	2536.287679
843.502244	2535.692823
843.817458	2533.845240
844.132629	2534.762730
844.447756	2535.997813
844.762840	2529.656041
845.077881	2530.838192
845.392879	2529.187214
845.707833	2532.070754
846.022745	2527.029600
846.337613	2532.756351
846.652438	2533.215096
846.967221	2532.718542
847.281960	2532.937832
847.596656	2534.750127
847.911309	2530.230733
848.225919	2531.206196
848.540485	2532.685775
848.855009	2532.579910
849.169490	2531.468336
849.483928	2532.239632
849.798323	2529.832482
850.112675	2532.080836
850.426984	2533.041176
850.741251	2532.831968
851.055474	2533.867925
851.369654	2533.504962
851.683792	2535.907072
851.997887	2531.060003
852.311938	2533.552853
852.625947	2533.935981
852.939914	2531.266690
853.253837	2533.094108
853.567718	2532.151412
853.881555	2530.066895
854.195350	2531.485980
854.509103	2534.482946
854.822812	2531.831299
855.136479	2532.567308
855.450103	2532.395908
855.763685	2533.855322
856.077224	2533.033614
856.390720	2533.605785
856.704173	2533.981351
857.017584	2532.249715
857.330953	2535.236598
857.644278	2532.413552
857.957561	2535.365148
858.270802	2532.171577
858.584000	2534.253573
858.897155	2532.675692
859.210268	2535.773481
859.523339	2533.769623
859.836367	2531.364992
860.149352	2531.823737
860.462295	2536.159130
860.775195	2529.091432
861.088054	2527.488345
861.400869	2530.495393
861.713642	2530.533202
862.026373	2532.834489
862.339062	2532.952956
862.651708	2532.647966
862.964312	2533.711649
863.276873	2535.503780
863.589392	2532.141330
863.901869	2532.375744
864.214303	2534.629139
864.526696	2535.307175
864.839045	2533.482277
865.151353	2529.640918
865.463619	2534.898841
865.775842	2533.938501
866.088023	2531.916999
866.400162	2531.758202
866.712258	2535.261804
867.024313	2532.743748
867.336325	2535.050076
867.648296	2533.184849
867.960224	2533.326001
868.272110	2533.585621
868.583954	2535.473533
868.895755	2530.939015
869.207515	2534.346835
869.519233	2535.975127
869.830909	2532.615198
870.142542	2532.882380
870.454134	2532.421114
870.765684	2534.929088
871.077191	2533.908254
871.388657	2531.485980
871.700081	2534.150230
872.011463	2534.089736
872.322803	2533.194931
872.634101	2532.874818
872.945357	2534.664427
873.256571	2533.492359
873.567744	2534.155271
873.878874	2535.251722
874.189963	2534.540919
874.501010	2534.384643
874.812015	2533.429345
875.122979	2534.785415
875.433900	2534.339273
875.744780	2536.590148
876.055618	2532.605116
876.366415	2532.839530
876.677169	2535.808769
876.987882	2533.731814
877.298554	2530.679395
877.609183	2535.176105
877.919771	2532.854653
878.230317	2533.197452
878.540822	2538.208359
878.851285	2537.726928
879.161707	2536.385982
879.472087	2541.366642
879.782425	2542.974770
880.092722	2546.811088
880.402977	2552.104299
880.713191	2565.995199
881.023363	2583.601428
881.333494	2594.215578
881.643583	2591.256421
881.953631	2591.412696
882.263637	2585.925400
882.573602	2583.001531
882.883526	2574.620613
883.193408	2568.530899
883.503248	2563.083932
883.813048	2557.762994
884.122806	2554.087993
884.432522	2551.007848
884.742197	2547.778989
885.051831	2545.724719
885.361424	2546.087682
885.670975	2544.046015
885.980485	2541.530479
886.289954	2541.439738
886.599382	2537.121990
886.908768	2539.889583
887.218113	2536.592669
887.527417	2538.510828
887.836680	2537.212731
888.145901	2536.776671
888.455082	2535.392874
888.764221	2534.019160
889.073319	2535.954963
889.382376	2533.716691
889.691392	2537.091743
890.000366	2534.528316
890.309300	2534.213244
890.618193	2536.728780
890.927044	2536.552340
891.235855	2534.049407
891.544625	2536.307844
891.853353	2535.952442
892.162041	2535.690302
892.470687	2536.287679
892.779293	2536.088553
893.087858	2537.842875
893.396381	2535.390354
893.704864	2539.766075
894.013306	2537.875643
894.321707	2545.472661
894.630068	2551.464073
894.938387	2553.755277
895.246665	2555.181924
895.554903	2550.745708
895.863100	2548.026006
896.171256	2547.968033
896.479371	2544.464431
896.787446	2542.475695
897.095480	2539.312371
897.403473	2538.115097
897.711425	2535.254243
898.019336	2537.547967
898.327207	2535.662576
898.635038	2538.185673
898.942827	2534.482946
899.250576	2537.237937
899.558284	2536.310364
899.865952	2535.599562
900.173579	2535.685261
900.481165	2538.137782
900.788711	2533.615868
901.096216	2534.273738
901.403681	2534.780374
901.711105	2534.515713
902.018489	2533.678882
902.325832	2538.687268
902.633135	2535.632329
902.940397	2536.955632
903.247619	2537.807587
903.554800	2538.886394
903.861941	2546.130532
904.169041	2555.645710
904.476101	2559.552604
904.783121	2559.701318
905.090100	2556.331307
905.397039	2553.351985
905.703938	2548.983825
906.010796	2544.494677
906.317614	2541.270860
906.624391	2539.110725
906.931129	2538.432690
907.237826	2535.405477
907.544483	2534.361958
907.851099	2532.539581
908.157675	2535.523944
908.464211	2531.221319
908.770707	2529.252749
909.077163	2533.779705
909.383578	2529.048582
909.689954	2526.631349
909.996289	2528.902389
910.302584	2532.426155
910.608839	2530.780218
910.915054	2527.581606
911.221229	2532.032945
911.527363	2529.751823
911.833458	2531.430527
912.139513	2532.292565
912.445527	2532.484128
912.751502	2531.304498
913.057436	2529.971113
913.363331	2534.619057
913.669186	2533.283151
913.975000	2534.704757
914.280775	2538.256250
914.586510	2542.752959
914.892205	2539.856816
915.197859	2543.806560
915.503475	2548.469627
915.809050	2554.080432
916.114585	2559.998746
916.420081	2561.097718
916.725536	2560.127296
917.030952	2554.554300
917.336328	2550.007179
917.641665	2550.481048
917.946961	2545.696993
918.252218	2544.058618
918.557435	2541.061652
918.862612	2541.122146
919.167750	2537.248019
919.472848	2534.671989
919.777906	2535.123173
920.082925	2538.510828
920.387904	2536.857329
920.692843	2533.310878
920.997743	2535.682741
921.302603	2531.891793
921.607423	2532.040507
921.912204	2535.418080
922.216946	2534.273738
922.521647	2533.696526
922.826310	2533.215096
923.130932	2532.358100
923.435516	2532.516896
923.740059	2533.094108
924.044564	2530.991947
924.349028	2529.976154
924.653454	2526.480114
924.957840	2529.842564
925.262186	2529.784591
925.566493	2529.487163
925.870761	2524.357788
926.174989	2530.334076
926.479178	2530.901206
926.783328	2531.135620
927.087438	2526.704446
927.391509	2530.611340
927.695541	2528.728469
927.999533	2530.820548
928.303486	2530.694519
928.607400	2529.971113
928.911275	2530.152595
929.215110	2529.845084
929.518906	2530.064375
929.822663	2527.755526
930.126381	2528.118489
930.430060	2532.736186
930.733699	2530.346679
931.037299	2530.931453
931.340861	2527.135464
931.644383	2531.289375
931.947866	2531.158305
932.251309	2528.897347
932.554714	2530.180321
932.858080	2532.947915
933.161407	2529.356093
933.464694	2530.646628
933.767943	2530.180321
934.071153	2530.964221
934.374323	2528.645290
934.677455	2527.349713
934.980548	2529.174611
935.283602	2527.223684
935.586617	2529.537574
935.889593	2529.905578
936.192530	2527.369878
936.495428	2529.719056
936.798287	2530.011443
937.101108	2530.250897
937.403890	2531.012112
937.706632	2530.356762
938.009336	2529.051103
938.312002	2534.298944
938.614628	2530.180321
938.917216	2531.538912
939.219765	2528.113448
939.522275	2532.252235
939.824747	2533.255425
940.127179	2530.379447
940.429573	2525.754188
940.731929	2527.710156
941.034246	2524.655217
941.336524	2529.648479
941.638763	2529.323325
941.940964	2532.539581
942.243126	2531.304498
942.545250	2529.590506
942.847335	2533.467153
943.149381	2529.252749
943.451389	2527.901720
943.753359	2528.776360
944.055290	2528.428520
944.357182	2528.786442
944.659036	2530.462626
944.960851	2533.457071
945.262628	2528.037831
945.564367	2529.320804
945.866067	2530.467667
946.167729	2530.513037
946.469352	2529.769467
946.770937	2528.801566
947.072484	2532.297606
947.373992	2529.202337
947.675462	2527.682429
947.976893	2530.132430
948.278286	2527.548839
948.579641	2528.839374
948.880958	2530.051772
949.182236	2530.402132
949.483476	2528.834333
949.784678	2527.740403
950.085841	2533.729293
950.386967	2531.675023
950.688054	2529.698891
950.989103	2530.540764
951.290114	2526.084384
951.591087	2530.404652
951.892021	2530.480270
952.192917	2529.855167
952.493776	2531.259128
952.794596	2530.976823
953.095378	2527.513551
953.396122	2528.771319
953.696828	2529.257790
953.997496	2529.340969
954.298126	2526.984230
954.598718	2528.806607
954.899272	2528.562111
955.199788	2531.044879
955.500266	2527.624456
955.800706	2524.367871
956.101108	2523.284023
956.401472	2523.538601
956.701798	2523.263858
957.002087	2527.077491
957.302337	2525.071112
957.602550	2527.203520
957.902724	2528.804086
958.202861	2528.572193
958.502960	2527.886596
958.803022	2527.427851
959.103045	2527.561442
959.403031	2528.741072
959.702979	2524.330062
960.002889	2527.500948
960.302762	2527.195958
960.602596	2529.673685
960.902393	2528.131092
961.202153	2528.085722
961.501875	2528.972965
961.801559	2527.682429
962.101205	2526.780063
962.400814	2528.194107
962.700385	2526.275948
962.999918	2526.608664
963.299414	2526.122192
963.598873	2525.973478
963.898293	2526.979188
964.197677	2526.870804
964.497022	2525.877696
964.796331	2526.346524
965.095601	2527.904240
965.394835	2527.826102
965.694030	2528.529343
965.993189	2527.001874
966.292309	2526.825433
966.591393	2525.688653
966.890439	2525.570186
967.189447	2528.415917
967.488419	2529.051103
967.787353	2527.183355
968.086249	2528.577234
968.385108	2526.903571
968.683930	2527.458098
968.982714	2526.069260
969.281462	2527.427851
969.580172	2524.453570
969.878844	2526.313756
970.177480	2525.265196
970.476078	2527.778211
970.774639	2526.351565
971.073162	2525.814682
971.371649	2524.330062
971.670098	2526.233098
971.968510	2522.500123
972.266885	2524.120854
972.565223	2526.717048
972.863524	2528.655372
973.161788	2523.689836
973.460014	2525.718900
973.758204	2528.483973
974.056356	2528.012625
974.354471	2527.720238
974.652550	2525.880217
974.950591	2525.638242
975.248595	2525.847449
975.546563	2528.408356
975.844493	2523.742768
976.142386	2526.787625
976.440243	2527.475742
976.738062	2528.884745
977.035845	2526.386853
977.333590	2527.904240
977.631299	2528.768798
977.928971	2526.323838
978.226606	2526.099507
978.524204	2527.082532
978.821765	2525.560104
979.119290	2526.354085
979.416777	2530.634025
979.714228	2526.996832
980.011642	2528.965403
980.309020	2527.427851
980.606360	2527.430372
980.903664	2526.414579
981.200931	2526.709487
981.498162	2526.959024
981.795356	2525.272758
982.092513	2529.300640
982.389633	2525.315608
982.686717	2526.190248
982.983764	2527.977337
983.280775	2529.630835
983.577749	2528.478932
983.874686	2527.332069
984.171587	2524.690505
984.468451	2526.316277
984.765279	2525.688653
985.062070	2528.136133
985.358824	2527.737882
985.655543	2527.778211
985.952224	2528.302491
986.248869	2527.185876
986.545478	2523.092459
986.842050	2523.531039
987.138586	2521.817047
987.435086	2523.646986
987.731549	2520.972654
988.027975	2523.215967
988.324366	2526.442306
988.620719	2527.175793
988.917037	2526.908612
989.213318	2528.985568
989.509563	2526.462470
989.805772	2522.759743
990.101944	2526.313756
990.398080	2524.317459
990.694180	2526.283509
990.990244	2527.054806
991.286271	2526.878365
991.582262	2524.798889
991.878217	2526.394415
992.174136	2526.039013
992.470019	2525.033303
992.765865	2524.461132
993.061676	2526.623787
993.357450	2525.630680
993.653188	2527.190917
993.948890	2525.088756
994.244556	2526.401976
994.540186	2526.497758
994.835780	2525.353416
995.131337	2524.577079
995.426859	2526.754857
995.722345	2525.807120
996.017795	2525.131606
996.313208	2525.678571
996.608586	2522.573220
996.903928	2525.963396
997.199234	2527.775691
997.494504	2526.515402
997.789738	2525.144208
998.084936	2526.684281
998.380099	2529.192255
998.675225	2524.178828
998.970316	2525.550021
999.265371	2525.660927
999.560390	2522.795031
999.855373	2528.690660
1000.150320	2525.711338
1000.445232	2528.746113
1000.740108	2525.426513
1001.034948	2527.193438
1001.329752	2524.662778
1001.624521	2529.308202
1001.919254	2521.005421
1002.213951	2524.115813
1002.508613	2525.512213
1002.803239	2522.777387
1003.097829	2521.012983
1003.392384	2525.950793
1003.686903	2523.964578
1003.981386	2524.851822
1004.275834	2521.612880
1004.570246	2527.223684
1004.864623	2527.241328
1005.158964	2528.241998
1005.453270	2522.976512
1005.747540	2524.768643
1006.041775	2526.124713
1006.335974	2523.238652
1006.630138	2523.334434
1006.924266	2524.037675
1007.218359	2524.168745
1007.512416	2524.992974
1007.806438	2529.116638
1008.100425	2524.609846
1008.394376	2527.440454
1008.688292	2525.126564
1008.982172	2525.073632
1009.276017	2527.374919
1009.569827	2526.628828
1009.863602	2527.316946
1010.157341	2525.802079
1010.451045	2526.906092
1010.744714	2525.474404
1011.038347	2525.091276
1011.331945	2523.994825
1011.625508	2525.134126
1011.919036	2526.215454
1012.212528	2524.521626
1012.505986	2525.068591
1012.799408	2522.910977
1013.092795	2524.420803
1013.386147	2525.547501
1013.679464	2522.908457
1013.972745	2524.388035
1014.265992	2524.783766
1014.559204	2526.361647
1014.852380	2524.935001
1015.145521	2523.659589
1015.438628	2524.156142
1015.731699	2524.050278
1016.024736	2523.258817
1016.317737	2526.964065
1016.610703	2525.849970
1016.903635	2525.819723
1017.196531	2519.520801
1017.489393	2523.450381
1017.782219	2519.062056
1018.075011	2526.255783
1018.367768	2525.073632
1018.660490	2523.891482
1018.953177	2523.891482
1019.245829	2523.891482
