Dividing Wavelength (nm)	Counts (n)	Blue Motor Position (mm): 0.000000	Red Motor Position (mm): 7.200000	
326.493990	2097.120000
326.888308	2097.120000
327.282561	2097.120000
327.676750	2104.681731
328.070874	2036.626154
328.464933	2092.078846
328.858929	2006.379231
329.252859	2071.914231
329.646726	2069.393654
330.040528	2107.202308
330.434265	2094.599423
330.827938	2112.243462
331.221547	2175.257885
331.615091	2132.408077
332.008571	2197.943077
332.401986	2255.916346
332.795338	2255.916346
333.188625	2215.587115
333.581847	2286.163269
333.975006	2238.272308
334.368100	2230.710577
334.761129	2215.587115
335.154095	2301.286731
335.546996	2371.862885
335.939833	2313.889615
336.332606	2369.342308
336.725315	2346.657115
337.117960	2369.342308
337.510540	2379.424615
337.903056	2492.850577
338.295508	2429.836154
338.687896	2397.068654
339.080220	2394.548077
339.472480	2409.671538
339.864676	2429.836154
340.256807	2505.453462
340.648875	2412.192115
341.040879	2548.303269
341.432818	2465.124231
341.824694	2480.247692
342.216506	2558.385577
342.608253	2500.412308
342.999937	2432.356731
343.391557	2538.220962
343.783113	2515.535769
344.174605	2507.974038
344.566033	2475.206538
344.957397	2616.358846
345.348697	2472.685962
345.739934	2472.685962
346.131106	2487.809423
346.522215	2492.850577
346.913260	2376.904038
347.304241	2470.165385
347.695159	2510.494615
348.086012	2568.467885
348.476802	2460.083077
348.867528	2497.891731
349.258191	2465.124231
349.648789	2480.247692
350.039324	2487.809423
350.429796	2465.124231
350.820203	2417.233269
351.210548	2422.274423
351.600828	2475.206538
351.991045	2447.480192
352.381198	2392.027500
352.771288	2412.192115
353.161314	2394.548077
353.551276	2417.233269
353.941175	2402.109808
354.331010	2379.424615
354.720782	2485.288846
355.110490	2356.739423
355.500135	2482.768269
355.889717	2480.247692
356.279235	2495.371154
356.668689	2437.397885
357.058080	2417.233269
357.447408	2470.165385
357.836672	2424.795000
358.225873	2487.809423
358.615010	2417.233269
359.004084	2437.397885
359.393095	2429.836154
359.782043	2462.603654
360.170927	2467.644808
360.559748	2518.056346
360.948505	2457.562500
361.337199	2480.247692
361.725830	2444.959615
362.114398	2422.274423
362.502903	2467.644808
362.891344	2422.274423
363.279722	2394.548077
363.668037	2472.685962
364.056289	2465.124231
364.444478	2442.439038
364.832603	2515.535769
365.220665	2452.521346
365.608665	2429.836154
365.996601	2462.603654
366.384474	2485.288846
366.772284	2457.562500
367.160031	2429.836154
367.547715	2455.041923
367.935336	2399.589231
368.322893	2513.015192
368.710388	2447.480192
369.097820	2500.412308
369.485189	2472.685962
369.872495	2480.247692
370.259738	2495.371154
370.646918	2442.439038
371.034035	2439.918462
371.421090	2470.165385
371.808081	2389.506923
372.195010	2492.850577
372.581875	2530.659231
372.968678	2490.330000
373.355418	2520.576923
373.742096	2490.330000
374.128710	2495.371154
374.515262	2409.671538
374.901751	2470.165385
375.288177	2409.671538
375.674540	2485.288846
376.060841	2447.480192
376.447079	2510.494615
376.833254	2404.630385
377.219367	2455.041923
377.605417	2407.150962
377.991404	2467.644808
378.377329	2429.836154
378.763191	2412.192115
379.148991	2457.562500
379.534727	2376.904038
379.920402	2341.615962
380.306013	2465.124231
380.691563	2434.877308
381.077049	2497.891731
381.462474	2376.904038
381.847835	2495.371154
382.233134	2487.809423
382.618371	2412.192115
383.003545	2457.562500
383.388657	2437.397885
383.773706	2462.603654
384.158693	2422.274423
384.543618	2429.836154
384.928480	2507.974038
385.313280	2407.150962
385.698017	2515.535769
386.082692	2490.330000
386.467305	2455.041923
386.851856	2432.356731
387.236344	2492.850577
387.620770	2427.315577
388.005133	2429.836154
388.389435	2467.644808
388.773674	2455.041923
389.157851	2505.453462
389.541965	2523.097500
389.926018	2394.548077
390.310008	2497.891731
390.693936	2447.480192
391.077802	2502.932885
391.461606	2525.618077
391.845348	2497.891731
392.229027	2437.397885
392.612645	2402.109808
392.996200	2379.424615
393.379694	2492.850577
393.763125	2513.015192
394.146494	2432.356731
394.529801	2540.741538
394.913047	2455.041923
395.296230	2409.671538
395.679351	2404.630385
396.062410	2444.959615
396.445408	2515.535769
396.828343	2462.603654
397.211217	2485.288846
397.594028	2462.603654
397.976778	2402.109808
398.359466	2417.233269
398.742092	2475.206538
399.124656	2462.603654
399.507158	2409.671538
399.889598	2455.041923
400.271977	2507.974038
400.654294	2462.603654
401.036549	2450.000769
401.418742	2490.330000
401.800874	2422.274423
402.182944	2497.891731
402.564952	2364.301154
402.946898	2545.782692
403.328783	2460.083077
403.710606	2424.795000
404.092367	2402.109808
404.474067	2477.727115
404.855705	2492.850577
405.237282	2399.589231
405.618797	2518.056346
406.000250	2490.330000
406.381642	2447.480192
406.762972	2404.630385
407.144240	2379.424615
407.525447	2497.891731
407.906593	2460.083077
408.287677	2507.974038
408.668700	2502.932885
409.049661	2414.712692
409.430560	2502.932885
409.811399	2429.836154
410.192176	2497.891731
410.572891	2480.247692
410.953545	2462.603654
411.334138	2581.070769
411.714669	2419.753846
412.095139	2518.056346
412.475547	2530.659231
412.855894	2389.506923
413.236180	2470.165385
413.616405	2515.535769
413.996568	2548.303269
414.376670	2485.288846
414.756711	2540.741538
415.136691	2565.947308
415.516609	2437.397885
415.896466	2487.809423
416.276262	2472.685962
416.655997	2480.247692
417.035670	2442.439038
417.415283	2402.109808
417.794834	2502.932885
418.174324	2404.630385
418.553753	2495.371154
418.933121	2535.700385
419.312428	2434.877308
419.691674	2480.247692
420.070859	2457.562500
420.449983	2523.097500
420.829045	2427.315577
421.208047	2497.891731
421.586988	2470.165385
421.965867	2442.439038
422.344686	2439.918462
422.723444	2472.685962
423.102141	2452.521346
423.480777	2555.865000
423.859352	2495.371154
424.237866	2500.412308
424.616319	2490.330000
424.994712	2560.906154
425.373044	2482.768269
425.751314	2548.303269
426.129524	2505.453462
426.507673	2560.906154
426.885762	2480.247692
427.263789	2480.247692
427.641756	2457.562500
428.019662	2432.356731
428.397508	2576.029615
428.775292	2560.906154
429.153016	2530.659231
429.530679	2417.233269
429.908282	2495.371154
430.285824	2472.685962
430.663305	2500.412308
431.040726	2455.041923
431.418086	2417.233269
431.795385	2513.015192
432.172624	2500.412308
432.549802	2545.782692
432.926920	2502.932885
433.303977	2573.509038
433.680974	2475.206538
434.057910	2389.506923
434.434786	2472.685962
434.811601	2505.453462
435.188355	2500.412308
435.565050	2502.932885
435.941683	2460.083077
436.318257	2596.194231
436.694770	2553.344423
437.071222	2500.412308
437.447614	2455.041923
437.823946	2505.453462
438.200218	2472.685962
438.576429	2555.865000
438.952580	2480.247692
439.328670	2507.974038
439.704700	2472.685962
440.080670	2455.041923
440.456580	2513.015192
440.832429	2515.535769
441.208218	2497.891731
441.583947	2475.206538
441.959616	2538.220962
442.335224	2485.288846
442.710773	2538.220962
443.086261	2558.385577
443.461689	2487.809423
443.837057	2487.809423
444.212365	2482.768269
444.587612	2513.015192
444.962800	2487.809423
445.337927	2598.714808
445.712995	2487.809423
446.088002	2480.247692
446.462949	2555.865000
446.837837	2457.562500
447.212664	2462.603654
447.587431	2553.344423
447.962139	2429.836154
448.336786	2482.768269
448.711374	2533.179808
449.085901	2520.576923
449.460369	2434.877308
449.834776	2560.906154
450.209124	2475.206538
450.583412	2444.959615
450.957640	2465.124231
451.331808	2437.397885
451.705917	2444.959615
452.079965	2568.467885
452.453954	2513.015192
452.827883	2533.179808
453.201752	2477.727115
453.575562	2462.603654
453.949311	2563.426731
454.323001	2470.165385
454.696632	2505.453462
455.070202	2467.644808
455.443713	2555.865000
455.817164	2419.753846
456.190556	2500.412308
456.563888	2507.974038
456.937160	2528.138654
457.310373	2497.891731
457.683526	2450.000769
458.056619	2555.865000
458.429653	2442.439038
458.802628	2487.809423
459.175542	2553.344423
459.548398	2404.630385
459.921194	2518.056346
460.293930	2576.029615
460.666607	2482.768269
461.039224	2490.330000
461.411782	2427.315577
461.784280	2467.644808
462.156719	2467.644808
462.529099	2540.741538
462.901419	2429.836154
463.273680	2543.262115
463.645882	2523.097500
464.018024	2533.179808
464.390106	2490.330000
464.762130	2565.947308
465.134094	2540.741538
465.505999	2460.083077
465.877845	2520.576923
466.249631	2485.288846
466.621358	2492.850577
466.993026	2581.070769
467.364634	2450.000769
467.736184	2460.083077
468.107674	2477.727115
468.479105	2450.000769
468.850477	2520.576923
469.221790	2520.576923
469.593043	2444.959615
469.964238	2553.344423
470.335373	2540.741538
470.706449	2480.247692
471.077467	2460.083077
471.448425	2482.768269
471.819324	2444.959615
472.190164	2495.371154
472.560945	2495.371154
472.931667	2480.247692
473.302330	2535.700385
473.672934	2528.138654
474.043479	2412.192115
474.413965	2432.356731
474.784393	2404.630385
475.154761	2538.220962
475.525070	2462.603654
475.895321	2485.288846
476.265513	2439.918462
476.635645	2507.974038
477.005719	2487.809423
477.375734	2480.247692
477.745691	2452.521346
478.115588	2545.782692
478.485427	2518.056346
478.855207	2422.274423
479.224928	2525.618077
479.594591	2394.548077
479.964194	2492.850577
480.333739	2432.356731
480.703226	2520.576923
481.072653	2573.509038
481.442022	2487.809423
481.811333	2444.959615
482.180584	2475.206538
482.549777	2540.741538
482.918912	2495.371154
483.287988	2593.673654
483.657005	2568.467885
484.025964	2487.809423
484.394864	2470.165385
484.763706	2513.015192
485.132489	2434.877308
485.501213	2558.385577
485.869879	2462.603654
486.238487	2505.453462
486.607036	2369.342308
486.975527	2487.809423
487.343959	2427.315577
487.712333	2525.618077
488.080648	2558.385577
488.448905	2490.330000
488.817104	2523.097500
489.185244	2518.056346
489.553326	2583.591346
489.921350	2432.356731
490.289315	2530.659231
490.657222	2450.000769
491.025070	2487.809423
491.392861	2460.083077
491.760593	2470.165385
492.128267	2455.041923
492.495883	2455.041923
492.863440	2482.768269
493.230939	2515.535769
493.598380	2359.260000
493.965763	2437.397885
494.333088	2507.974038
494.700354	2520.576923
495.067563	2492.850577
495.434713	2535.700385
495.801805	2502.932885
496.168839	2487.809423
496.535815	2439.918462
496.902733	2490.330000
497.269593	2538.220962
497.636395	2414.712692
498.003139	2477.727115
498.369825	2520.576923
498.736453	2475.206538
499.103023	2492.850577
499.469535	2477.727115
499.835989	2507.974038
500.202385	2505.453462
500.568723	2523.097500
500.935003	2485.288846
501.301226	2558.385577
501.667390	2472.685962
502.033497	2573.509038
502.399546	2505.453462
502.765537	2528.138654
503.131470	2492.850577
503.497345	2384.465769
503.863163	2555.865000
504.228923	2442.439038
504.594625	2462.603654
504.960269	2495.371154
505.325856	2457.562500
505.691385	2492.850577
506.056856	2530.659231
506.422270	2470.165385
506.787625	2467.644808
507.152924	2502.932885
507.518164	2439.918462
507.883347	2505.453462
508.248472	2439.918462
508.613540	2492.850577
508.978550	2465.124231
509.343503	2555.865000
509.708398	2538.220962
510.073236	2510.494615
510.438016	2505.453462
510.802738	2533.179808
511.167403	2548.303269
511.532010	2578.550192
511.896561	2455.041923
512.261053	2568.467885
512.625488	2500.412308
512.989866	2487.809423
513.354186	2462.603654
513.718449	2497.891731
514.082655	2502.932885
514.446803	2500.412308
514.810894	2492.850577
515.174927	2495.371154
515.538904	2407.150962
515.902822	2555.865000
516.266684	2444.959615
516.630488	2485.288846
516.994235	2507.974038
517.357925	2563.426731
517.721558	2502.932885
518.085133	2482.768269
518.448651	2518.056346
518.812112	2381.945192
519.175516	2480.247692
519.538863	2495.371154
519.902152	2581.070769
520.265385	2447.480192
520.628560	2500.412308
520.991678	2455.041923
521.354739	2492.850577
521.717743	2460.083077
522.080690	2472.685962
522.443580	2424.795000
522.806413	2472.685962
523.169189	2450.000769
523.531908	2510.494615
523.894569	2439.918462
524.257174	2467.644808
524.619722	2505.453462
524.982213	2475.206538
525.344647	2480.247692
525.707025	2500.412308
526.069345	2492.850577
526.431608	2513.015192
526.793815	2467.644808
527.155964	2505.453462
527.518057	2455.041923
527.880093	2434.877308
528.242072	2470.165385
528.603995	2472.685962
528.965860	2472.685962
529.327669	2513.015192
529.689421	2507.974038
530.051117	2500.412308
530.412755	2560.906154
530.774337	2495.371154
531.135862	2505.453462
531.497331	2543.262115
531.858743	2555.865000
532.220098	2460.083077
532.581396	2442.439038
532.942638	2432.356731
533.303824	2470.165385
533.664953	2492.850577
534.026025	2510.494615
534.387040	2465.124231
534.747999	2540.741538
535.108902	2460.083077
535.469748	2480.247692
535.830537	2424.795000
536.191270	2513.015192
536.551947	2510.494615
536.912567	2510.494615
537.273131	2434.877308
537.633638	2462.603654
537.994089	2515.535769
538.354483	2485.288846
538.714821	2515.535769
539.075103	2381.945192
539.435328	2515.535769
539.795497	2487.809423
540.155609	2533.179808
540.515665	2417.233269
540.875665	2530.659231
541.235609	2487.809423
541.595496	2518.056346
541.955328	2545.782692
542.315102	2462.603654
542.674821	2424.795000
543.034483	2528.138654
543.394090	2492.850577
543.753640	2432.356731
544.113134	2545.782692
544.472571	2568.467885
544.831953	2482.768269
545.191278	2460.083077
545.550548	2465.124231
545.909761	2482.768269
546.268918	2588.632500
546.628019	2530.659231
546.987064	2560.906154
547.346053	2528.138654
547.704986	2384.465769
548.063863	2417.233269
548.422684	2505.453462
548.781449	2560.906154
549.140158	2442.439038
549.498811	2427.315577
549.857408	2513.015192
550.215949	2462.603654
550.574434	2535.700385
550.932864	2515.535769
551.291237	2477.727115
551.649555	2450.000769
552.007817	2525.618077
552.366022	2543.262115
552.724173	2528.138654
553.082267	2442.439038
553.440305	2505.453462
553.798288	2437.397885
554.156215	2560.906154
554.514086	2583.591346
554.871902	2455.041923
555.229661	2538.220962
555.587365	2462.603654
555.945014	2490.330000
556.302606	2444.959615
556.660143	2462.603654
557.017625	2432.356731
557.375050	2424.795000
557.732421	2444.959615
558.089735	2487.809423
558.446994	2384.465769
558.804197	2550.823846
559.161345	2412.192115
559.518437	2462.603654
559.875474	2467.644808
560.232455	2402.109808
560.589381	2439.918462
560.946251	2490.330000
561.303065	2480.247692
561.659825	2437.397885
562.016528	2535.700385
562.373177	2550.823846
562.729770	2414.712692
563.086307	2570.988462
563.442789	2558.385577
563.799216	2563.426731
564.155587	2465.124231
564.511904	2427.315577
564.868164	2485.288846
565.224370	2507.974038
565.580520	2510.494615
565.936615	2523.097500
566.292654	2507.974038
566.648638	2472.685962
567.004567	2452.521346
567.360441	2470.165385
567.716260	2520.576923
568.072023	2457.562500
568.427732	2495.371154
568.783385	2560.906154
569.138982	2576.029615
569.494525	2460.083077
569.850013	2553.344423
570.205445	2487.809423
570.560823	2495.371154
570.916145	2432.356731
571.271412	2500.412308
571.626625	2480.247692
571.981782	2462.603654
572.336884	2497.891731
572.691931	2570.988462
573.046923	2465.124231
573.401860	2550.823846
573.756743	2490.330000
574.111570	2477.727115
574.466342	2465.124231
574.821059	2528.138654
575.175722	2450.000769
575.530330	2485.288846
575.884882	2432.356731
576.239380	2462.603654
576.593823	2528.138654
576.948211	2555.865000
577.302544	2452.521346
577.656823	2485.288846
578.011047	2434.877308
578.365216	2533.179808
578.719330	2457.562500
579.073389	2490.330000
579.427394	2543.262115
579.781344	2477.727115
580.135239	2520.576923
580.489080	2417.233269
580.842866	2520.576923
581.196597	2490.330000
581.550273	2507.974038
581.903895	2394.548077
582.257463	2513.015192
582.610975	2480.247692
582.964434	2510.494615
583.317837	2467.644808
583.671186	2452.521346
584.024481	2565.947308
584.377721	2485.288846
584.730906	2520.576923
585.084037	2487.809423
585.437113	2475.206538
585.790135	2427.315577
586.143103	2518.056346
586.496016	2515.535769
586.848874	2553.344423
587.201679	2427.315577
587.554428	2427.315577
587.907124	2548.303269
588.259765	2563.426731
588.612352	2439.918462
588.964884	2457.562500
589.317362	2598.714808
589.669786	2543.262115
590.022155	2485.288846
590.374470	2540.741538
590.726731	2492.850577
591.078937	2472.685962
591.431090	2434.877308
591.783188	2482.768269
592.135232	2485.288846
592.487222	2535.700385
592.839157	2495.371154
593.191038	2548.303269
593.542866	2460.083077
593.894639	2447.480192
594.246358	2477.727115
594.598022	2462.603654
594.949633	2497.891731
595.301190	2424.795000
595.652692	2573.509038
596.004141	2553.344423
596.355535	2429.836154
596.706876	2457.562500
597.058162	2452.521346
597.409395	2586.111923
597.760573	2495.371154
598.111698	2560.906154
598.462768	2457.562500
598.813785	2500.412308
599.164748	2452.521346
599.515657	2437.397885
599.866511	2510.494615
600.217312	2407.150962
600.568060	2560.906154
600.918753	2505.453462
601.269392	2452.521346
601.619978	2485.288846
601.970510	2477.727115
602.320988	2525.618077
602.671412	2538.220962
603.021783	2475.206538
603.372100	2507.974038
603.722363	2543.262115
604.072572	2492.850577
604.422728	2563.426731
604.772830	2558.385577
605.122878	2452.521346
605.472872	2465.124231
605.822813	2555.865000
606.172701	2535.700385
606.522534	2553.344423
606.872314	2586.111923
607.222041	2568.467885
607.571714	2447.480192
607.921333	2462.603654
608.270899	2500.412308
608.620411	2533.179808
608.969870	2543.262115
609.319276	2492.850577
609.668627	2475.206538
610.017926	2581.070769
610.367171	2414.712692
610.716362	2555.865000
611.065500	2485.288846
611.414585	2543.262115
611.763616	2439.918462
612.112594	2513.015192
612.461518	2502.932885
612.810389	2487.809423
613.159207	2500.412308
613.507971	2495.371154
613.856682	2520.576923
614.205340	2490.330000
614.553945	2538.220962
614.902496	2515.535769
615.250994	2492.850577
615.599439	2510.494615
615.947830	2460.083077
616.296169	2472.685962
616.644454	2497.891731
616.992686	2535.700385
617.340864	2419.753846
617.688990	2475.206538
618.037063	2520.576923
618.385082	2558.385577
618.733048	2472.685962
619.080961	2470.165385
619.428821	2593.673654
619.776628	2550.823846
620.124382	2477.727115
620.472083	2490.330000
620.819731	2515.535769
621.167326	2480.247692
621.514868	2520.576923
621.862357	2457.562500
622.209793	2606.276538
622.557176	2412.192115
622.904506	2505.453462
623.251783	2530.659231
623.599007	2472.685962
623.946179	2427.315577
624.293297	2510.494615
624.640363	2533.179808
624.987376	2485.288846
625.334336	2545.782692
625.681243	2513.015192
626.028097	2510.494615
626.374899	2510.494615
626.721647	2518.056346
627.068343	2472.685962
627.414987	2545.782692
627.761577	2601.235385
628.108115	2475.206538
628.454600	2553.344423
628.801032	2500.412308
629.147412	2538.220962
629.493739	2485.288846
629.840014	2553.344423
630.186236	2505.453462
630.532405	2535.700385
630.878521	2502.932885
631.224585	2487.809423
631.570597	2515.535769
631.916556	2447.480192
632.262462	2548.303269
632.608316	2434.877308
632.954117	2523.097500
633.299866	2427.315577
633.645562	2502.932885
633.991206	2533.179808
634.336797	2442.439038
634.682336	2475.206538
635.027823	2523.097500
635.373257	2611.317692
635.718639	2530.659231
636.063968	2570.988462
636.409245	2477.727115
636.754470	2475.206538
637.099642	2550.823846
637.444762	2444.959615
637.789829	2545.782692
638.134845	2528.138654
638.479808	2427.315577
638.824719	2465.124231
639.169577	2467.644808
639.514383	2553.344423
639.859137	2538.220962
640.203839	2507.974038
640.548489	2513.015192
640.893086	2497.891731
641.237632	2490.330000
641.582125	2497.891731
641.926566	2513.015192
642.270955	2550.823846
642.615292	2447.480192
642.959576	2555.865000
643.303809	2543.262115
643.647990	2545.782692
643.992118	2439.918462
644.336195	2472.685962
644.680219	2497.891731
645.024192	2565.947308
645.368112	2427.315577
645.711981	2490.330000
646.055797	2485.288846
646.399562	2548.303269
646.743274	2467.644808
647.086935	2553.344423
647.430544	2404.630385
647.774101	2518.056346
648.117606	2507.974038
648.461059	2538.220962
648.804460	2470.165385
649.147810	2543.262115
649.491108	2543.262115
649.834354	2598.714808
650.177548	2578.550192
650.520690	2510.494615
650.863781	2414.712692
651.206820	2555.865000
651.549807	2472.685962
651.892742	2558.385577
652.235626	2495.371154
652.578458	2492.850577
652.921238	2513.015192
653.263967	2490.330000
653.606644	2528.138654
653.949269	2518.056346
654.291843	2480.247692
654.634365	2530.659231
654.976836	2465.124231
655.319255	2497.891731
655.661622	2523.097500
656.003938	2505.453462
656.346203	2560.906154
656.688416	2402.109808
657.030577	2523.097500
657.372687	2450.000769
657.714746	2543.262115
658.056753	2465.124231
658.398708	2555.865000
658.740612	2475.206538
659.082465	2525.618077
659.424266	2374.383462
659.766016	2518.056346
660.107715	2487.809423
660.449362	2533.179808
660.790958	2502.932885
661.132503	2513.015192
661.473996	2442.439038
661.815438	2487.809423
662.156829	2450.000769
662.498168	2485.288846
662.839456	2490.330000
663.180693	2525.618077
663.521879	2477.727115
663.863013	2480.247692
664.204097	2447.480192
664.545129	2581.070769
664.886110	2507.974038
665.227040	2578.550192
665.567918	2500.412308
665.908746	2502.932885
666.249522	2500.412308
666.590248	2497.891731
666.930922	2467.644808
667.271545	2465.124231
667.612118	2495.371154
667.952639	2460.083077
668.293109	2492.850577
668.633528	2422.274423
668.973896	2477.727115
669.314213	2482.768269
669.654480	2495.371154
669.994695	2480.247692
670.334859	2510.494615
670.674973	2502.932885
671.015035	2444.959615
671.355047	2497.891731
671.695008	2545.782692
672.034918	2470.165385
672.374777	2490.330000
672.714585	2467.644808
673.054342	2507.974038
673.394049	2452.521346
673.733705	2530.659231
674.073310	2460.083077
674.412864	2523.097500
674.752368	2513.015192
675.091820	2545.782692
675.431223	2530.659231
675.770574	2550.823846
676.109875	2470.165385
676.449125	2450.000769
676.788324	2497.891731
677.127473	2480.247692
677.466571	2450.000769
677.805619	2495.371154
678.144616	2550.823846
678.483562	2442.439038
678.822458	2560.906154
679.161303	2520.576923
679.500098	2533.179808
679.838842	2570.988462
680.177535	2465.124231
680.516179	2530.659231
680.854771	2505.453462
681.193314	2530.659231
681.531805	2500.412308
681.870247	2417.233269
682.208638	2525.618077
682.546978	2502.932885
682.885268	2515.535769
683.223508	2495.371154
683.561697	2492.850577
683.899836	2518.056346
684.237925	2480.247692
684.575963	2568.467885
684.913951	2497.891731
685.251889	2505.453462
685.589776	2457.562500
685.927614	2565.947308
686.265401	2432.356731
686.603137	2497.891731
686.940824	2528.138654
687.278460	2538.220962
687.616046	2482.768269
687.953582	2545.782692
688.291068	2412.192115
688.628504	2452.521346
688.965889	2457.562500
689.303224	2515.535769
689.640510	2482.768269
689.977745	2485.288846
690.314930	2555.865000
690.652065	2548.303269
690.989150	2588.632500
691.326185	2535.700385
691.663170	2523.097500
692.000105	2462.603654
692.336990	2518.056346
692.673825	2523.097500
693.010610	2528.138654
693.347345	2444.959615
693.684030	2460.083077
694.020665	2487.809423
694.357251	2414.712692
694.693786	2563.426731
695.030272	2583.591346
695.366707	2495.371154
695.703093	2603.755962
696.039429	2407.150962
696.375716	2434.877308
696.711952	2540.741538
697.048139	2518.056346
697.384276	2434.877308
697.720363	2558.385577
698.056400	2543.262115
698.392388	2565.947308
698.728326	2417.233269
699.064214	2472.685962
699.400053	2543.262115
699.735842	2475.206538
700.071581	2528.138654
700.407270	2513.015192
700.742910	2515.535769
701.078501	2565.947308
701.414042	2487.809423
701.749533	2477.727115
702.084974	2535.700385
702.420366	2533.179808
702.755709	2487.809423
703.091002	2528.138654
703.426246	2482.768269
703.761440	2528.138654
704.096584	2545.782692
704.431679	2467.644808
704.766725	2518.056346
705.101721	2520.576923
705.436668	2492.850577
705.771565	2548.303269
706.106413	2457.562500
706.441212	2497.891731
706.775961	2490.330000
707.110661	2515.535769
707.445311	2553.344423
707.779913	2507.974038
708.114465	2548.303269
708.448967	2485.288846
708.783421	2543.262115
709.117825	2465.124231
709.452180	2548.303269
709.786485	2533.179808
710.120742	2487.809423
710.454949	2515.535769
710.789107	2427.315577
711.123216	2386.986346
711.457275	2485.288846
711.791286	2502.932885
712.125247	2417.233269
712.459159	2543.262115
712.793023	2442.439038
713.126837	2457.562500
713.460602	2490.330000
713.794318	2452.521346
714.127985	2470.165385
714.461602	2505.453462
714.795171	2462.603654
715.128691	2520.576923
715.462162	2414.712692
715.795584	2460.083077
716.128957	2462.603654
716.462281	2535.700385
716.795556	2414.712692
717.128782	2538.220962
717.461960	2485.288846
717.795088	2535.700385
718.128167	2472.685962
718.461198	2497.891731
718.794180	2487.809423
719.127113	2482.768269
719.459997	2447.480192
719.792833	2530.659231
720.125619	2457.562500
720.458357	2507.974038
720.791046	2475.206538
721.123686	2497.891731
721.456278	2470.165385
721.788821	2513.015192
722.121315	2407.150962
722.453761	2457.562500
722.786158	2467.644808
723.118506	2414.712692
723.450805	2485.288846
723.783056	2397.068654
724.115259	2523.097500
724.447412	2513.015192
724.779518	2528.138654
725.111574	2437.397885
725.443582	2533.179808
725.775542	2505.453462
726.107453	2485.288846
726.439315	2477.727115
726.771129	2447.480192
727.102895	2520.576923
727.434612	2563.426731
727.766281	2487.809423
728.097901	2452.521346
728.429473	2457.562500
728.760996	2490.330000
729.092471	2530.659231
729.423897	2548.303269
729.755276	2480.247692
730.086606	2472.685962
730.417887	2525.618077
730.749120	2545.782692
731.080305	2447.480192
731.411442	2540.741538
731.742530	2439.918462
732.073570	2497.891731
732.404562	2533.179808
732.735506	2507.974038
733.066401	2485.288846
733.397249	2505.453462
733.728048	2462.603654
734.058798	2424.795000
734.389501	2492.850577
734.720156	2381.945192
735.050762	2518.056346
735.381320	2475.206538
735.711831	2523.097500
736.042293	2450.000769
736.372707	2535.700385
736.703073	2427.315577
737.033391	2558.385577
737.363661	2515.535769
737.693883	2465.124231
738.024056	2533.179808
738.354182	2543.262115
738.684260	2583.591346
739.014290	2513.015192
739.344272	2538.220962
739.674207	2535.700385
740.004093	2560.906154
740.333931	2485.288846
740.663722	2439.918462
740.993464	2583.591346
741.323159	2568.467885
741.652806	2379.424615
741.982405	2528.138654
742.311956	2525.618077
742.641460	2490.330000
742.970915	2487.809423
743.300323	2419.753846
743.629683	2558.385577
743.958996	2553.344423
744.288260	2480.247692
744.617477	2558.385577
744.946647	2525.618077
745.275768	2533.179808
745.604842	2520.576923
745.933869	2460.083077
746.262847	2538.220962
746.591778	2513.015192
746.920662	2470.165385
747.249498	2555.865000
747.578286	2535.700385
747.907027	2462.603654
748.235720	2424.795000
748.564365	2505.453462
748.892963	2487.809423
749.221514	2442.439038
749.550017	2364.301154
749.878473	2457.562500
750.206881	2497.891731
750.535242	2452.521346
750.863555	2399.589231
751.191821	2513.015192
751.520039	2477.727115
751.848210	2447.480192
752.176334	2540.741538
752.504411	2455.041923
752.832440	2510.494615
753.160421	2442.439038
753.488356	2452.521346
753.816243	2475.206538
754.144082	2518.056346
754.471875	2434.877308
754.799620	2460.083077
755.127318	2485.288846
755.454969	2467.644808
755.782572	2477.727115
756.110129	2513.015192
756.437638	2450.000769
756.765100	2528.138654
757.092515	2558.385577
757.419882	2523.097500
757.747203	2560.906154
758.074477	2470.165385
758.401703	2492.850577
758.728882	2502.932885
759.056014	2520.576923
759.383099	2424.795000
759.710138	2505.453462
760.037129	2510.494615
760.364073	2475.206538
760.690970	2510.494615
761.017820	2533.179808
761.344623	2452.521346
761.671379	2510.494615
761.998088	2462.603654
762.324751	2475.206538
762.651366	2485.288846
762.977935	2510.494615
763.304456	2419.753846
763.630931	2520.576923
763.957359	2518.056346
764.283740	2502.932885
764.610074	2465.124231
764.936362	2419.753846
765.262602	2591.153077
765.588796	2437.397885
765.914943	2535.700385
766.241044	2407.150962
766.567097	2570.988462
766.893104	2530.659231
767.219064	2407.150962
767.544978	2518.056346
767.870845	2513.015192
768.196665	2576.029615
768.522438	2520.576923
768.848165	2467.644808
769.173846	2457.562500
769.499479	2490.330000
769.825066	2543.262115
770.150607	2505.453462
770.476101	2492.850577
770.801548	2513.015192
771.126949	2480.247692
771.452303	2535.700385
771.777611	2523.097500
772.102872	2641.564615
772.428087	2565.947308
772.753256	2485.288846
773.078378	2492.850577
773.403453	2429.836154
773.728482	2510.494615
774.053465	2462.603654
774.378401	2548.303269
774.703291	2480.247692
775.028135	2475.206538
775.352932	2495.371154
775.677683	2409.671538
776.002388	2523.097500
776.327046	2465.124231
776.651658	2437.397885
776.976224	2623.920577
777.300743	2485.288846
777.625216	2475.206538
777.949643	2457.562500
778.274024	2513.015192
778.598359	2470.165385
778.922647	2467.644808
779.246889	2497.891731
779.571086	2518.056346
779.895236	2439.918462
780.219339	2495.371154
780.543397	2482.768269
780.867409	2492.850577
781.191374	2528.138654
781.515294	2560.906154
781.839167	2507.974038
782.162995	2429.836154
782.486776	2515.535769
782.810511	2417.233269
783.134201	2570.988462
783.457844	2497.891731
783.781441	2581.070769
784.104993	2477.727115
784.428498	2507.974038
784.751958	2455.041923
785.075372	2603.755962
785.398739	2460.083077
785.722061	2533.179808
786.045337	2518.056346
786.368568	2533.179808
786.691752	2429.836154
787.014891	2550.823846
787.337983	2576.029615
787.661030	2553.344423
787.984031	2515.535769
788.306987	2455.041923
788.629897	2555.865000
788.952760	2442.439038
789.275579	2500.412308
789.598351	2462.603654
789.921078	2457.562500
790.243759	2558.385577
790.566395	2434.877308
790.888984	2591.153077
791.211529	2460.083077
791.534027	2457.562500
791.856480	2432.356731
792.178888	2563.426731
792.501249	2530.659231
792.823566	2470.165385
793.145836	2492.850577
793.468062	2434.877308
793.790241	2515.535769
794.112375	2480.247692
794.434464	2530.659231
794.756507	2505.453462
795.078505	2543.262115
795.400457	2497.891731
795.722364	2520.576923
796.044226	2439.918462
796.366042	2452.521346
796.687812	2460.083077
797.009538	2492.850577
797.331218	2570.988462
797.652852	2510.494615
797.974442	2480.247692
798.295986	2450.000769
798.617484	2525.618077
798.938938	2465.124231
799.260346	2465.124231
799.581709	2439.918462
799.903026	2465.124231
800.224299	2558.385577
800.545526	2472.685962
800.866708	2502.932885
801.187845	2505.453462
801.508936	2422.274423
801.829983	2497.891731
802.150984	2565.947308
802.471940	2570.988462
802.792851	2402.109808
803.113717	2475.206538
803.434538	2502.932885
803.755314	2467.644808
804.076045	2545.782692
804.396731	2444.959615
804.717372	2578.550192
805.037967	2485.288846
805.358518	2437.397885
805.679024	2563.426731
805.999485	2432.356731
806.319901	2442.439038
806.640272	2502.932885
806.960598	2497.891731
807.280879	2434.877308
807.601115	2535.700385
807.921306	2500.412308
808.241453	2525.618077
808.561554	2548.303269
808.881611	2553.344423
809.201623	2507.974038
809.521590	2485.288846
809.841513	2523.097500
810.161390	2528.138654
810.481223	2424.795000
810.801011	2452.521346
811.120755	2558.385577
811.440453	2460.083077
811.760107	2477.727115
812.079716	2457.562500
812.399281	2475.206538
812.718801	2553.344423
813.038276	2550.823846
813.357707	2533.179808
813.677093	2528.138654
813.996434	2543.262115
814.315731	2399.589231
814.634983	2490.330000
814.954191	2510.494615
815.273354	2477.727115
815.592473	2444.959615
815.911547	2505.453462
816.230577	2545.782692
816.549562	2455.041923
816.868502	2507.974038
817.187399	2558.385577
817.506250	2548.303269
817.825058	2457.562500
818.143821	2447.480192
818.462539	2492.850577
818.781213	2513.015192
819.099843	2467.644808
819.418429	2462.603654
819.736970	2502.932885
820.055466	2581.070769
820.373919	2510.494615
820.692327	2452.521346
821.010691	2505.453462
821.329011	2414.712692
821.647286	2530.659231
821.965517	2475.206538
822.283704	2530.659231
822.601847	2502.932885
822.919945	2533.179808
823.237999	2475.206538
823.556010	2437.397885
823.873976	2535.700385
824.191897	2465.124231
824.509775	2495.371154
824.827609	2548.303269
825.145398	2477.727115
825.463144	2482.768269
825.780845	2553.344423
826.098502	2497.891731
826.416116	2427.315577
826.733685	2417.233269
827.051210	2570.988462
827.368692	2465.124231
827.686129	2568.467885
828.003522	2492.850577
828.320872	2553.344423
828.638177	2455.041923
828.955439	2487.809423
829.272656	2543.262115
829.589830	2475.206538
829.906960	2510.494615
830.224046	2482.768269
830.541088	2553.344423
830.858086	2540.741538
831.175041	2558.385577
831.491952	2525.618077
831.808819	2444.959615
832.125642	2495.371154
832.442421	2439.918462
832.759157	2472.685962
833.075849	2518.056346
833.392497	2553.344423
833.709101	2533.179808
834.025662	2470.165385
834.342179	2485.288846
834.658653	2497.891731
834.975083	2545.782692
835.291469	2560.906154
835.607811	2444.959615
835.924110	2412.192115
836.240366	2518.056346
836.556578	2477.727115
836.872746	2450.000769
837.188871	2427.315577
837.504952	2439.918462
837.820990	2507.974038
838.136984	2482.768269
838.452935	2550.823846
838.768842	2583.591346
839.084706	2455.041923
839.400526	2492.850577
839.716303	2490.330000
840.032037	2475.206538
840.347727	2505.453462
840.663373	2518.056346
840.978977	2530.659231
841.294537	2510.494615
841.610054	2523.097500
841.925527	2442.439038
842.240957	2513.015192
842.556344	2424.795000
842.871687	2480.247692
843.186987	2429.836154
843.502244	2565.947308
843.817458	2475.206538
844.132629	2518.056346
844.447756	2611.317692
844.762840	2460.083077
845.077881	2432.356731
845.392879	2518.056346
845.707833	2563.426731
846.022745	2450.000769
846.337613	2424.795000
846.652438	2475.206538
846.967221	2457.562500
847.281960	2470.165385
847.596656	2470.165385
847.911309	2482.768269
848.225919	2482.768269
848.540485	2412.192115
848.855009	2535.700385
849.169490	2475.206538
849.483928	2480.247692
849.798323	2475.206538
850.112675	2485.288846
850.426984	2457.562500
850.741251	2472.685962
851.055474	2460.083077
851.369654	2533.179808
851.683792	2482.768269
851.997887	2513.015192
852.311938	2460.083077
852.625947	2535.700385
852.939914	2505.453462
853.253837	2444.959615
853.567718	2450.000769
853.881555	2490.330000
854.195350	2482.768269
854.509103	2553.344423
854.822812	2472.685962
855.136479	2626.441154
855.450103	2525.618077
855.763685	2429.836154
856.077224	2510.494615
856.390720	2475.206538
856.704173	2457.562500
857.017584	2497.891731
857.330953	2439.918462
857.644278	2480.247692
857.957561	2442.439038
858.270802	2492.850577
858.584000	2467.644808
858.897155	2555.865000
859.210268	2465.124231
859.523339	2530.659231
859.836367	2500.412308
860.149352	2442.439038
860.462295	2502.932885
860.775195	2402.109808
861.088054	2490.330000
861.400869	2545.782692
861.713642	2475.206538
862.026373	2490.330000
862.339062	2460.083077
862.651708	2444.959615
862.964312	2462.603654
863.276873	2447.480192
863.589392	2510.494615
863.901869	2429.836154
864.214303	2442.439038
864.526696	2470.165385
864.839045	2513.015192
865.151353	2495.371154
865.463619	2581.070769
865.775842	2510.494615
866.088023	2439.918462
866.400162	2490.330000
866.712258	2523.097500
867.024313	2480.247692
867.336325	2485.288846
867.648296	2535.700385
867.960224	2475.206538
868.272110	2581.070769
868.583954	2480.247692
868.895755	2397.068654
869.207515	2573.509038
869.519233	2467.644808
869.830909	2515.535769
870.142542	2510.494615
870.454134	2523.097500
870.765684	2414.712692
871.077191	2472.685962
871.388657	2477.727115
871.700081	2515.535769
872.011463	2530.659231
872.322803	2538.220962
872.634101	2455.041923
872.945357	2533.179808
873.256571	2477.727115
873.567744	2495.371154
873.878874	2528.138654
874.189963	2472.685962
874.501010	2490.330000
874.812015	2462.603654
875.122979	2482.768269
875.433900	2543.262115
875.744780	2455.041923
876.055618	2465.124231
876.366415	2460.083077
876.677169	2485.288846
876.987882	2444.959615
877.298554	2543.262115
877.609183	2497.891731
877.919771	2505.453462
878.230317	2422.274423
878.540822	2457.562500
878.851285	2444.959615
879.161707	2497.891731
879.472087	2487.809423
879.782425	2606.276538
880.092722	2427.315577
880.402977	2518.056346
880.713191	2513.015192
881.023363	2533.179808
881.333494	2412.192115
881.643583	2513.015192
881.953631	2417.233269
882.263637	2495.371154
882.573602	2480.247692
882.883526	2460.083077
883.193408	2495.371154
883.503248	2447.480192
883.813048	2477.727115
884.122806	2545.782692
884.432522	2555.865000
884.742197	2447.480192
885.051831	2558.385577
885.361424	2538.220962
885.670975	2437.397885
885.980485	2513.015192
886.289954	2518.056346
886.599382	2437.397885
886.908768	2427.315577
887.218113	2558.385577
887.527417	2470.165385
887.836680	2502.932885
888.145901	2502.932885
888.455082	2477.727115
888.764221	2482.768269
889.073319	2520.576923
889.382376	2434.877308
889.691392	2439.918462
890.000366	2507.974038
890.309300	2500.412308
890.618193	2520.576923
890.927044	2518.056346
891.235855	2586.111923
891.544625	2487.809423
891.853353	2455.041923
892.162041	2545.782692
892.470687	2427.315577
892.779293	2523.097500
893.087858	2528.138654
893.396381	2457.562500
893.704864	2543.262115
894.013306	2457.562500
894.321707	2439.918462
894.630068	2482.768269
894.938387	2492.850577
895.246665	2530.659231
895.554903	2558.385577
895.863100	2576.029615
896.171256	2616.358846
896.479371	2495.371154
896.787446	2500.412308
897.095480	2523.097500
897.403473	2457.562500
897.711425	2467.644808
898.019336	2513.015192
898.327207	2520.576923
898.635038	2404.630385
898.942827	2487.809423
899.250576	2477.727115
899.558284	2550.823846
899.865952	2485.288846
900.173579	2457.562500
900.481165	2447.480192
900.788711	2467.644808
901.096216	2480.247692
901.403681	2568.467885
901.711105	2553.344423
902.018489	2447.480192
902.325832	2553.344423
902.633135	2490.330000
902.940397	2533.179808
903.247619	2434.877308
903.554800	2523.097500
903.861941	2530.659231
904.169041	2596.194231
904.476101	2470.165385
904.783121	2538.220962
905.090100	2470.165385
905.397039	2495.371154
905.703938	2482.768269
906.010796	2439.918462
906.317614	2533.179808
906.624391	2465.124231
906.931129	2467.644808
907.237826	2591.153077
907.544483	2565.947308
907.851099	2490.330000
908.157675	2407.150962
908.464211	2523.097500
908.770707	2540.741538
909.077163	2492.850577
909.383578	2485.288846
909.689954	2371.862885
909.996289	2490.330000
910.302584	2535.700385
910.608839	2515.535769
910.915054	2376.904038
911.221229	2535.700385
911.527363	2490.330000
911.833458	2452.521346
912.139513	2492.850577
912.445527	2533.179808
912.751502	2477.727115
913.057436	2470.165385
913.363331	2480.247692
913.669186	2560.906154
913.975000	2434.877308
914.280775	2497.891731
914.586510	2500.412308
914.892205	2470.165385
915.197859	2470.165385
915.503475	2356.739423
915.809050	2492.850577
916.114585	2439.918462
916.420081	2525.618077
916.725536	2465.124231
917.030952	2568.467885
917.336328	2419.753846
917.641665	2581.070769
917.946961	2457.562500
918.252218	2412.192115
918.557435	2432.356731
918.862612	2450.000769
919.167750	2525.618077
919.472848	2543.262115
919.777906	2465.124231
920.082925	2535.700385
920.387904	2409.671538
920.692843	2613.838269
920.997743	2480.247692
921.302603	2528.138654
921.607423	2472.685962
921.912204	2439.918462
922.216946	2490.330000
922.521647	2444.959615
922.826310	2538.220962
923.130932	2424.795000
923.435516	2520.576923
923.740059	2490.330000
924.044564	2543.262115
924.349028	2492.850577
924.653454	2497.891731
924.957840	2535.700385
925.262186	2495.371154
925.566493	2530.659231
925.870761	2409.671538
926.174989	2467.644808
926.479178	2462.603654
926.783328	2407.150962
927.087438	2505.453462
927.391509	2460.083077
927.695541	2523.097500
927.999533	2470.165385
928.303486	2518.056346
928.607400	2487.809423
928.911275	2520.576923
929.215110	2470.165385
929.518906	2530.659231
929.822663	2442.439038
930.126381	2513.015192
930.430060	2540.741538
930.733699	2560.906154
931.037299	2515.535769
931.340861	2490.330000
931.644383	2510.494615
931.947866	2419.753846
932.251309	2490.330000
932.554714	2442.439038
932.858080	2465.124231
933.161407	2495.371154
933.464694	2560.906154
933.767943	2444.959615
934.071153	2465.124231
934.374323	2563.426731
934.677455	2492.850577
934.980548	2480.247692
935.283602	2452.521346
935.586617	2507.974038
935.889593	2500.412308
936.192530	2480.247692
936.495428	2475.206538
936.798287	2434.877308
937.101108	2497.891731
937.403890	2455.041923
937.706632	2439.918462
938.009336	2568.467885
938.312002	2407.150962
938.614628	2351.698269
938.917216	2528.138654
939.219765	2495.371154
939.522275	2502.932885
939.824747	2523.097500
940.127179	2565.947308
940.429573	2417.233269
940.731929	2497.891731
941.034246	2475.206538
941.336524	2439.918462
941.638763	2513.015192
941.940964	2386.986346
942.243126	2432.356731
942.545250	2467.644808
942.847335	2404.630385
943.149381	2485.288846
943.451389	2533.179808
943.753359	2439.918462
944.055290	2467.644808
944.357182	2462.603654
944.659036	2497.891731
944.960851	2465.124231
945.262628	2505.453462
945.564367	2497.891731
945.866067	2404.630385
946.167729	2457.562500
946.469352	2492.850577
946.770937	2518.056346
947.072484	2422.274423
947.373992	2513.015192
947.675462	2548.303269
947.976893	2510.494615
948.278286	2502.932885
948.579641	2495.371154
948.880958	2485.288846
949.182236	2482.768269
949.483476	2525.618077
949.784678	2470.165385
950.085841	2371.862885
950.386967	2472.685962
950.688054	2485.288846
950.989103	2447.480192
951.290114	2480.247692
951.591087	2545.782692
951.892021	2500.412308
952.192917	2528.138654
952.493776	2497.891731
952.794596	2485.288846
953.095378	2432.356731
953.396122	2465.124231
953.696828	2573.509038
953.997496	2427.315577
954.298126	2457.562500
954.598718	2444.959615
954.899272	2497.891731
955.199788	2414.712692
955.500266	2442.439038
955.800706	2608.797115
956.101108	2467.644808
956.401472	2543.262115
956.701798	2457.562500
957.002087	2480.247692
957.302337	2502.932885
957.602550	2543.262115
957.902724	2545.782692
958.202861	2467.644808
958.502960	2409.671538
958.803022	2550.823846
959.103045	2515.535769
959.403031	2502.932885
959.702979	2462.603654
960.002889	2475.206538
960.302762	2530.659231
960.602596	2402.109808
960.902393	2515.535769
961.202153	2560.906154
961.501875	2497.891731
961.801559	2555.865000
962.101205	2520.576923
962.400814	2467.644808
962.700385	2485.288846
962.999918	2568.467885
963.299414	2437.397885
963.598873	2480.247692
963.898293	2386.986346
964.197677	2422.274423
964.497022	2381.945192
964.796331	2472.685962
965.095601	2475.206538
965.394835	2523.097500
965.694030	2505.453462
965.993189	2455.041923
966.292309	2414.712692
966.591393	2538.220962
966.890439	2404.630385
967.189447	2447.480192
967.488419	2507.974038
967.787353	2487.809423
968.086249	2472.685962
968.385108	2437.397885
968.683930	2487.809423
968.982714	2507.974038
969.281462	2528.138654
969.580172	2480.247692
969.878844	2487.809423
970.177480	2412.192115
970.476078	2497.891731
970.774639	2442.439038
971.073162	2525.618077
971.371649	2482.768269
971.670098	2480.247692
971.968510	2477.727115
972.266885	2460.083077
972.565223	2437.397885
972.863524	2470.165385
973.161788	2485.288846
973.460014	2548.303269
973.758204	2414.712692
974.056356	2477.727115
974.354471	2465.124231
974.652550	2462.603654
974.950591	2457.562500
975.248595	2507.974038
975.546563	2523.097500
975.844493	2497.891731
976.142386	2480.247692
976.440243	2497.891731
976.738062	2492.850577
977.035845	2581.070769
977.333590	2452.521346
977.631299	2530.659231
977.928971	2502.932885
978.226606	2495.371154
978.524204	2475.206538
978.821765	2465.124231
979.119290	2500.412308
979.416777	2470.165385
979.714228	2442.439038
980.011642	2457.562500
980.309020	2412.192115
980.606360	2384.465769
980.903664	2424.795000
981.200931	2480.247692
981.498162	2427.315577
981.795356	2424.795000
982.092513	2487.809423
982.389633	2447.480192
982.686717	2490.330000
982.983764	2573.509038
983.280775	2361.780577
983.577749	2457.562500
983.874686	2482.768269
984.171587	2505.453462
984.468451	2535.700385
984.765279	2470.165385
985.062070	2482.768269
985.358824	2490.330000
985.655543	2573.509038
985.952224	2492.850577
986.248869	2581.070769
986.545478	2510.494615
986.842050	2465.124231
987.138586	2460.083077
987.435086	2485.288846
987.731549	2465.124231
988.027975	2465.124231
988.324366	2558.385577
988.620719	2540.741538
988.917037	2507.974038
989.213318	2543.262115
989.509563	2442.439038
989.805772	2502.932885
990.101944	2520.576923
990.398080	2447.480192
990.694180	2520.576923
990.990244	2495.371154
991.286271	2424.795000
991.582262	2470.165385
991.878217	2523.097500
992.174136	2444.959615
992.470019	2467.644808
992.765865	2507.974038
993.061676	2374.383462
993.357450	2520.576923
993.653188	2467.644808
993.948890	2523.097500
994.244556	2457.562500
994.540186	2563.426731
994.835780	2495.371154
995.131337	2442.439038
995.426859	2545.782692
995.722345	2502.932885
996.017795	2565.947308
996.313208	2482.768269
996.608586	2495.371154
996.903928	2452.521346
997.199234	2404.630385
997.494504	2513.015192
997.789738	2404.630385
998.084936	2507.974038
998.380099	2530.659231
998.675225	2457.562500
998.970316	2429.836154
999.265371	2392.027500
999.560390	2497.891731
999.855373	2470.165385
1000.150320	2376.904038
1000.445232	2470.165385
1000.740108	2490.330000
1001.034948	2553.344423
1001.329752	2480.247692
1001.624521	2472.685962
1001.919254	2460.083077
1002.213951	2480.247692
1002.508613	2399.589231
1002.803239	2540.741538
1003.097829	2490.330000
1003.392384	2450.000769
1003.686903	2480.247692
1003.981386	2520.576923
1004.275834	2480.247692
1004.570246	2606.276538
1004.864623	2444.959615
1005.158964	2485.288846
1005.453270	2409.671538
1005.747540	2404.630385
1006.041775	2568.467885
1006.335974	2487.809423
1006.630138	2533.179808
1006.924266	2500.412308
1007.218359	2528.138654
1007.512416	2462.603654
1007.806438	2457.562500
1008.100425	2465.124231
1008.394376	2434.877308
1008.688292	2497.891731
1008.982172	2394.548077
1009.276017	2487.809423
1009.569827	2568.467885
1009.863602	2528.138654
1010.157341	2608.797115
1010.451045	2578.550192
1010.744714	2487.809423
1011.038347	2492.850577
1011.331945	2502.932885
1011.625508	2412.192115
1011.919036	2442.439038
1012.212528	2518.056346
1012.505986	2465.124231
1012.799408	2500.412308
1013.092795	2611.317692
1013.386147	2581.070769
1013.679464	2497.891731
1013.972745	2507.974038
1014.265992	2530.659231
1014.559204	2475.206538
1014.852380	2550.823846
1015.145521	2538.220962
1015.438628	2518.056346
1015.731699	2424.795000
1016.024736	2497.891731
1016.317737	2535.700385
1016.610703	2477.727115
1016.903635	2528.138654
1017.196531	2477.727115
1017.489393	2492.850577
1017.782219	2412.192115
1018.075011	2543.262115
1018.367768	2497.891731
1018.660490	2462.603654
1018.953177	2462.603654
1019.245829	2462.603654
