Dividing Wavelength (nm)	Counts (n)	Blue Motor Position (mm): 0.000000	Red Motor Position (mm): 32.100000	
326.493990	2129.733745
326.888308	2129.733745
327.282561	2129.733745
327.676750	2095.040524
328.070874	2093.384505
328.464933	2098.113107
328.858929	2102.703078
329.252859	2112.591301
329.646726	2123.386932
330.040528	2136.564508
330.434265	2153.364153
330.827938	2172.770075
331.221547	2188.710204
331.615091	2207.354911
332.008571	2227.300236
332.401986	2247.946282
332.795338	2269.219951
333.188625	2287.930194
333.581847	2303.424180
333.975006	2323.669454
334.368100	2340.721157
334.761129	2360.721935
335.154095	2374.678369
335.546996	2395.405073
335.939833	2411.188926
336.332606	2426.685433
336.725315	2439.845365
337.117960	2450.328444
337.510540	2456.639969
337.903056	2470.261167
338.295508	2474.972125
338.687896	2483.937817
339.080220	2494.695639
339.472480	2497.130517
339.864676	2504.520848
340.256807	2508.064779
340.648875	2512.627023
341.040879	2513.768845
341.432818	2516.281860
341.824694	2518.373939
342.216506	2514.905625
342.608253	2519.704803
342.999937	2518.610873
343.391557	2512.430418
343.783113	2516.617097
344.174605	2515.926459
344.566033	2516.216325
344.957397	2511.107116
345.348697	2511.399502
345.739934	2511.623834
346.131106	2505.135869
346.522215	2507.759789
346.913260	2504.407422
347.304241	2501.813748
347.695159	2499.474653
348.086012	2498.998264
348.476802	2495.124137
348.867528	2498.773933
349.258191	2491.917963
349.648789	2493.836122
350.039324	2491.348313
350.429796	2492.830412
350.820203	2491.078611
351.210548	2487.668271
351.600828	2486.201295
351.991045	2485.979484
352.381198	2485.119968
352.771288	2485.160297
353.161314	2486.337406
353.551276	2485.006542
353.941175	2487.945534
354.331010	2486.786069
354.720782	2488.527787
355.110490	2485.651809
355.500135	2487.277581
355.889717	2487.693477
356.279235	2486.047540
356.668689	2489.578868
357.058080	2486.337406
357.447408	2486.478558
357.836672	2482.901860
358.225873	2488.346306
358.615010	2485.772797
359.004084	2489.599033
359.393095	2490.703045
359.782043	2491.313025
360.170927	2489.689773
360.559748	2494.869559
360.948505	2493.584065
361.337199	2493.886534
361.725830	2494.105824
362.114398	2495.293016
362.502903	2496.371823
362.891344	2494.373005
363.279722	2496.457523
363.668037	2498.330311
364.056289	2497.133037
364.444478	2498.065651
364.832603	2498.942811
365.220665	2496.608757
365.608665	2499.882987
365.996601	2503.192504
366.384474	2500.964314
366.772284	2502.370796
367.160031	2503.668893
367.547715	2505.430776
367.935336	2508.480674
368.322893	2512.546365
368.710388	2514.078876
369.097820	2524.108251
369.485189	2525.560104
369.872495	2529.618232
370.259738	2534.795497
370.646918	2544.885367
371.034035	2551.559855
371.421090	2562.116031
371.808081	2570.892680
372.195010	2582.625965
372.581875	2594.497882
372.968678	2607.516662
373.355418	2617.803137
373.742096	2638.771816
374.128710	2648.639875
374.515262	2665.777277
374.901751	2679.756397
375.288177	2692.316432
375.674540	2716.337530
376.060841	2734.437793
376.447079	2755.353540
376.833254	2776.964967
377.219367	2787.619445
377.605417	2823.968685
377.991404	2832.273986
378.377329	2856.184179
378.763191	2872.898124
379.148991	2912.715678
379.534727	2937.407249
379.920402	2964.947073
380.306013	2978.066676
380.691563	3027.558204
381.077049	3048.670556
381.462474	3064.865263
381.847835	3107.095008
382.233134	3127.559572
382.618371	3128.567803
383.003545	3194.375026
383.388657	3201.838454
383.773706	3233.945563
384.158693	3251.249323
384.543618	3278.075823
384.928480	3312.857264
385.313280	3357.652958
385.698017	3355.757484
386.082692	3412.805701
386.467305	3421.398348
386.851856	3447.997996
387.236344	3473.324753
387.620770	3500.733507
388.005133	3528.948845
388.389435	3556.198802
388.773674	3568.378229
389.157851	3610.459261
389.541965	3625.345788
389.926018	3587.033019
390.310008	3661.498423
390.693936	3681.105991
391.077802	3721.195767
391.461606	3710.059858
391.845348	3773.104528
392.229027	3775.448665
392.612645	3786.607259
392.996200	3864.987119
393.379694	3903.045310
393.763125	3967.579641
394.146494	3932.001697
394.529801	3996.099969
394.913047	4046.241805
395.296230	4010.437010
395.679351	4066.754260
396.062410	4084.920058
396.445408	4071.301381
396.828343	4103.647945
397.211217	4130.734064
397.594028	4048.873288
397.976778	4112.222948
398.359466	4142.762258
398.742092	4168.714118
399.124656	4094.893981
399.507158	4172.106814
399.889598	4194.749157
400.271977	4257.171244
400.654294	4229.598653
401.036549	4240.449737
401.418742	4207.737689
401.800874	4313.896828
402.182944	4330.164631
402.564952	4396.337337
402.946898	4380.435017
403.328783	4381.342425
403.710606	4291.877068
404.092367	4491.877285
404.474067	4451.810194
404.855705	4463.288901
405.237282	4388.387437
405.618797	4492.000793
406.000250	4531.805744
406.381642	4611.183752
406.762972	4573.521292
407.144240	4585.804063
407.525447	4583.485133
407.906593	4645.791273
408.287677	4683.799053
408.668700	4614.412611
409.049661	4666.396990
409.430560	4705.486097
409.811399	4633.132936
410.192176	4794.031443
410.572891	4735.727979
410.953545	4837.773535
411.334138	4719.200556
411.714669	4784.675062
412.095139	4678.843599
412.475547	4821.402388
412.855894	4802.029234
413.236180	4811.037776
413.616405	4760.729581
413.996568	4852.914641
414.376670	4793.247544
414.756711	4746.611830
415.136691	4776.720121
415.516609	4860.526783
415.896466	4898.380808
416.276262	4928.247123
416.655997	4914.111728
417.035670	5092.528245
417.415283	5186.886042
417.794834	5126.732474
418.174324	5078.667593
418.553753	4991.904294
418.933121	5172.430533
419.312428	5237.612653
419.691674	5181.131565
420.070859	5303.805523
420.449983	5222.970621
420.829045	5329.268391
421.208047	5243.281430
421.586988	5311.117717
421.965867	5322.044418
422.344686	5457.724553
422.723444	5307.649403
423.102141	5131.816478
423.480777	5428.755562
423.859352	5197.096899
424.237866	5453.278255
424.616319	5450.172905
424.994712	5556.493360
425.373044	5434.225214
425.751314	5581.482359
426.129524	5378.079363
426.507673	5571.707562
426.885762	5657.666797
427.263789	5587.872022
427.641756	5469.422551
428.019662	5597.382159
428.397508	5601.369711
428.775292	5548.946752
429.153016	5646.815713
429.530679	5572.194033
429.908282	5653.858205
430.285824	5526.445562
430.663305	5800.248272
431.040726	5534.637437
431.418086	5531.890008
431.795385	5641.431761
432.172624	5657.172764
432.549802	5648.030631
432.926920	5658.743083
433.303977	5668.911091
433.680974	5705.151946
434.057910	5729.465431
434.434786	5731.129011
434.811601	5699.951995
435.188355	5936.177944
435.565050	5808.709848
435.941683	5792.240399
436.318257	6000.528273
436.694770	5986.251725
437.071222	6022.837899
437.447614	5954.585717
437.823946	5869.412902
438.200218	6021.118866
438.576429	5885.836982
438.952580	5984.905737
439.328670	6029.424167
439.704700	5940.072235
440.080670	5923.955667
440.456580	6192.482808
440.832429	6077.179017
441.208218	5920.502476
441.583947	6081.035500
441.959616	6083.185552
442.335224	6010.361043
442.710773	6145.237115
443.086261	6172.814747
443.461689	5965.913190
443.837057	6123.325739
444.212365	6274.346106
444.587612	6165.457183
444.962800	6316.785059
445.337927	6299.143542
445.712995	5908.224746
446.088002	6490.213355
446.462949	6318.506613
446.837837	6250.952631
447.212664	6420.584938
447.587431	6561.442338
447.962139	7105.201356
448.336786	8036.428501
448.711374	7774.560723
449.085901	6843.696542
449.460369	6771.202229
449.834776	6702.544234
450.209124	7093.697443
450.583412	7245.579847
450.957640	7393.741879
451.331808	7156.046434
451.705917	6710.577313
452.079965	6635.577546
452.453954	6846.675864
452.827883	6719.469908
453.201752	6814.793086
453.575562	6610.570903
453.949311	6814.689743
454.323001	6704.243103
454.696632	6776.631552
455.070202	6919.144971
455.443713	7072.532159
455.817164	7172.541089
456.190556	7251.109993
456.563888	7329.875501
456.937160	7370.499639
457.310373	7030.655294
457.683526	7053.499283
458.056619	6941.961233
458.429653	6928.627381
458.802628	6868.451128
459.175542	6976.664536
459.548398	7330.805594
459.921194	7490.882393
460.293930	7496.271387
460.666607	8029.509517
461.039224	8334.121238
461.411782	8460.399621
461.784280	8478.835121
462.156719	8369.164819
462.529099	8253.626614
462.901419	7836.503901
463.273680	7727.441058
463.645882	7744.696928
464.018024	7605.515711
464.390106	7772.269518
464.762130	8161.917943
465.134094	8627.075291
465.505999	9652.761055
465.877845	10875.487880
466.249631	11531.508353
466.621358	11140.471090
466.993026	10505.726807
467.364634	10259.443756
467.736184	9893.032530
468.107674	9560.437364
468.479105	9585.738915
468.850477	9354.869192
469.221790	9123.182803
469.593043	8795.207854
469.964238	8658.642996
470.335373	8666.824789
470.706449	8725.042554
471.077467	8709.725008
471.448425	10022.191933
471.819324	11087.569222
472.190164	11116.094591
472.560945	9868.610660
472.931667	9079.849044
473.302330	8937.552395
473.672934	8585.553827
474.043479	8943.478271
474.413965	8876.118373
474.784393	8764.217361
475.154761	8924.221063
475.525070	9008.461265
475.895321	8829.974172
476.265513	9003.190738
476.635645	9172.727263
477.005719	9171.981172
477.375734	9281.293552
477.745691	9513.179067
478.115588	9646.331064
478.485427	9895.066636
478.855207	10416.251367
479.224928	11225.969060
479.594591	11845.731034
479.964194	11655.112404
480.333739	11595.359608
480.703226	11506.073211
481.072653	11583.160015
481.442022	11816.255408
481.811333	11999.183757
482.180584	11800.169086
482.549777	11498.188847
482.918912	11316.760240
483.287988	11327.457569
483.657005	11334.926038
484.025964	11013.403767
484.394864	11131.744853
484.763706	11095.312434
485.132489	10843.355565
485.501213	10798.335541
485.869879	10860.987001
486.238487	10689.814622
486.607036	10795.572988
486.975527	10560.844262
487.343959	10737.186344
487.712333	10768.045768
488.080648	10686.361431
488.448905	10715.960566
488.817104	10636.068360
489.185244	10877.464012
489.553326	11008.712973
489.921350	11504.845690
490.289315	12463.559726
490.657222	12784.492183
491.025070	12659.085919
491.392861	12513.749454
491.760593	12146.009883
492.128267	11798.649178
492.495883	11475.238994
492.863440	11121.740683
493.230939	10787.549992
493.598380	10689.678511
493.965763	10538.580006
494.333088	10417.189022
494.700354	10314.427621
495.067563	10350.711326
495.434713	10153.347632
495.801805	10246.137631
496.168839	10142.960335
496.535815	10041.522237
496.902733	10013.904276
497.269593	9918.175285
497.636395	9975.326846
498.003139	9921.394062
498.369825	9763.371533
498.736453	9862.127736
499.103023	9767.379250
499.469535	9747.015509
499.835989	9699.910967
500.202385	9620.752249
500.568723	9447.558367
500.935003	9600.285164
501.301226	9365.294298
501.667390	9549.051918
502.033497	9577.153830
502.399546	9417.245909
502.765537	9298.032703
503.131470	9299.340883
503.497345	9384.029747
503.863163	9027.196713
504.228923	9214.745280
504.594625	9219.234428
504.960269	8970.050193
505.325856	9080.262419
505.691385	8864.490952
506.056856	8924.672247
506.422270	8879.745483
506.787625	8755.092872
507.152924	8766.493442
507.518164	8706.125624
507.883347	8573.911282
508.248472	8470.726425
508.613540	8565.200169
508.978550	8420.115761
509.343503	8340.878905
509.708398	8358.701904
510.073236	8375.027681
510.438016	8313.132394
510.802738	8207.835293
511.167403	8179.256992
511.532010	8032.463633
511.896561	8130.176318
512.261053	8104.647915
512.625488	7948.609080
512.989866	7866.650001
513.354186	7786.692260
513.718449	7648.093296
514.082655	7718.160294
514.446803	7569.302582
514.810894	7572.639826
515.174927	7421.392608
515.538904	7374.000721
515.902822	7378.820064
516.266684	7255.125272
516.630488	7145.850700
516.994235	7122.495035
517.357925	7067.397744
517.721558	7045.917387
518.085133	6978.680998
518.448651	6921.383243
518.812112	6801.045860
519.175516	6723.827986
519.538863	6713.433126
519.902152	6610.691890
520.265385	6600.130673
520.628560	6507.363360
520.991678	6406.676394
521.354739	6377.145315
521.717743	6284.526716
522.080690	6212.690274
522.443580	6185.097518
522.806413	6100.771617
523.169189	6053.866201
523.531908	6004.304097
523.894569	5867.371235
524.257174	5799.292973
524.619722	5773.777173
524.982213	5704.052974
525.344647	5643.884282
525.707025	5567.563734
526.069345	5533.241038
526.431608	5437.436429
526.793815	5414.383233
527.155964	5286.514366
527.518057	5246.931226
527.880093	5174.078991
528.242072	5136.938290
528.603995	5045.123755
528.965860	4969.851766
529.327669	4929.567906
529.689421	4861.605590
530.051117	4801.051250
530.412755	4762.826701
530.774337	4693.097461
531.135862	4628.421978
531.497331	4590.996452
531.858743	4499.502030
532.220098	4489.823015
532.581396	4414.583793
532.942638	4370.453533
533.303824	4314.244667
533.664953	4262.618211
534.026025	4201.239642
534.387040	4177.329449
534.747999	4137.179180
535.108902	4102.352368
535.469748	4020.078217
535.830537	3998.464270
536.191270	3954.235707
536.551947	3915.287752
536.912567	3877.368193
537.273131	3835.251873
537.633638	3789.344605
537.994089	3753.549893
538.354483	3710.521124
538.714821	3697.451932
539.075103	3664.253414
539.435328	3626.583392
539.795497	3574.162953
540.155609	3559.087383
540.515665	3540.621636
540.875665	3480.115187
541.235609	3456.905715
541.595496	3431.760440
541.955328	3412.465423
542.315102	3380.358314
542.674821	3349.594673
543.034483	3323.179027
543.394090	3297.587609
543.753640	3268.122065
544.113134	3261.961775
544.472571	3228.067577
544.831953	3216.364539
545.191278	3179.569157
545.550548	3158.529901
545.909761	3150.935403
546.268918	3126.652165
546.628019	3112.935185
546.987064	3081.201122
547.346053	3059.912329
547.704986	3047.480844
548.063863	3029.811599
548.422684	3017.619569
548.781449	2990.992194
549.140158	2983.150679
549.498811	2963.611167
549.857408	2942.085440
550.215949	2933.646549
550.574434	2914.981677
550.932864	2903.192938
551.291237	2893.692884
551.649555	2883.053529
552.007817	2874.347456
552.366022	2862.888913
552.724173	2849.426512
553.082267	2842.505008
553.440305	2833.415807
553.798288	2821.937100
554.156215	2815.181954
554.514086	2804.759368
554.871902	2791.569189
555.229661	2786.674229
555.587365	2779.470420
555.945014	2767.285951
556.302606	2764.858636
556.660143	2757.901843
557.017625	2752.737181
557.375050	2746.584453
557.732421	2743.615213
558.089735	2735.798904
558.446994	2731.597102
558.804197	2724.834395
559.161345	2720.199054
559.518437	2715.077241
559.875474	2710.204966
560.232455	2706.945860
560.589381	2702.721373
560.946251	2700.352031
561.303065	2698.935467
561.659825	2692.006401
562.016528	2685.997345
562.373177	2685.687314
562.729770	2682.604649
563.086307	2677.447548
563.442789	2674.546364
563.799216	2671.614933
564.155587	2669.797597
564.511904	2667.650066
564.868164	2665.983965
565.224370	2667.995385
565.580520	2661.270486
565.936615	2659.622028
566.292654	2656.294867
566.648638	2655.914260
567.004567	2651.911584
567.360441	2652.266985
567.716260	2647.180461
568.072023	2651.278919
568.427732	2643.192908
568.783385	2643.150058
569.138982	2642.305665
569.494525	2642.383803
569.850013	2637.433390
570.205445	2641.287352
570.560823	2639.860705
570.916145	2637.304840
571.271412	2638.489512
571.626625	2635.101856
571.981782	2633.919706
572.336884	2632.193110
572.691931	2634.728811
573.046923	2629.675054
573.401860	2627.819909
573.756743	2630.337966
574.111570	2628.129940
574.466342	2628.994498
574.821059	2625.188427
575.175722	2625.190948
575.530330	2624.618777
575.884882	2625.264044
576.239380	2623.587861
576.593823	2623.318159
576.948211	2621.152983
577.302544	2622.768673
577.656823	2618.980246
578.011047	2620.815226
578.365216	2618.413116
578.719330	2618.090482
579.073389	2617.140225
579.427394	2616.883126
579.781344	2619.426388
580.135239	2618.884464
580.489080	2615.068311
580.842866	2614.382714
581.196597	2615.257354
581.550273	2616.570575
581.903895	2614.491099
582.257463	2614.070162
582.610975	2608.083792
582.964434	2611.489092
583.317837	2613.853393
583.671186	2612.542693
584.024481	2612.048660
584.377721	2614.140738
584.730906	2611.053032
585.084037	2610.246447
585.437113	2611.557147
585.790135	2608.146807
586.143103	2609.422218
586.496016	2605.170005
586.848874	2605.001127
587.201679	2607.312496
587.554428	2599.667586
587.907124	2604.940633
588.259765	2605.520365
588.612352	2606.188318
588.964884	2604.343256
589.317362	2604.814604
589.669786	2603.753441
590.022155	2604.786877
590.374470	2604.736466
590.726731	2605.401898
591.078937	2603.347628
591.431090	2600.879983
591.783188	2603.806373
592.135232	2602.808225
592.487222	2602.906527
592.839157	2604.166816
593.191038	2601.681527
593.542866	2601.747062
593.894639	2600.834613
594.246358	2599.213882
594.598022	2601.699171
594.949633	2599.710436
595.301190	2602.866198
595.652692	2599.329828
596.004141	2601.762185
596.355535	2599.781012
596.706876	2598.908892
597.058162	2597.913264
597.409395	2597.721700
597.760573	2599.133223
598.111698	2596.942842
598.462768	2598.679520
598.813785	2597.623398
599.164748	2596.184148
599.515657	2595.440578
599.866511	2597.262955
600.217312	2597.625918
600.568060	2598.475353
600.918753	2597.053747
601.269392	2597.973758
601.619978	2596.471494
601.970510	2597.794797
602.320988	2597.300764
602.671412	2595.377564
603.021783	2594.447471
603.372100	2597.020980
603.722363	2597.288161
604.072572	2595.937132
604.422728	2596.529468
604.772830	2592.022676
605.122878	2589.542428
605.472872	2592.804055
605.822813	2591.977306
606.172701	2592.186513
606.522534	2595.249014
606.872314	2594.618870
607.222041	2593.913109
607.571714	2594.719693
607.921333	2593.068715
608.270899	2594.621391
608.620411	2598.818151
608.969870	2592.660382
609.319276	2599.100456
609.668627	2601.159767
610.017926	2601.399222
610.367171	2603.251846
610.716362	2602.677155
611.065500	2599.418049
611.414585	2598.624067
611.763616	2598.550970
612.112594	2598.636670
612.461518	2598.238419
612.810389	2597.875456
613.159207	2597.041145
613.507971	2594.732296
613.856682	2595.838829
614.205340	2594.666761
614.553945	2596.763881
614.902496	2595.092739
615.250994	2595.458222
615.599439	2596.584920
615.947830	2596.458891
616.296169	2595.120465
616.644454	2594.576020
616.992686	2594.881010
617.340864	2595.803541
617.688990	2597.522575
618.037063	2598.490476
618.385082	2594.651638
618.733048	2596.829416
619.080961	2594.313880
619.428821	2596.201792
619.776628	2594.898654
620.124382	2595.485949
620.472083	2596.814293
620.819731	2597.230188
621.167326	2594.996957
621.514868	2594.576020
621.862357	2593.739189
622.209793	2592.710793
622.557176	2591.430340
622.904506	2590.306163
623.251783	2587.959506
623.599007	2589.116451
623.946179	2587.654516
624.293297	2588.115782
624.640363	2589.030751
624.987376	2589.930597
625.334336	2590.081832
625.681243	2591.914291
626.028097	2586.830287
626.374899	2587.606625
626.721647	2586.674012
627.068343	2588.347675
627.414987	2587.553693
627.761577	2587.657037
628.108115	2587.677201
628.454600	2588.609815
628.801032	2587.467993
629.147412	2583.964392
629.493739	2587.339444
629.840014	2587.349526
630.186236	2588.324990
630.532405	2586.580750
630.878521	2586.966399
631.224585	2587.931780
631.570597	2585.012952
631.916556	2585.406162
632.262462	2584.478589
632.608316	2583.790472
632.954117	2581.786613
633.299866	2582.467169
633.645562	2584.105544
633.991206	2584.453383
634.336797	2583.372056
634.682336	2583.510688
635.027823	2580.700244
635.373257	2581.650502
635.718639	2579.387024
636.063968	2581.748804
636.409245	2579.898701
636.754470	2578.658577
637.099642	2579.649164
637.444762	2582.444484
637.789829	2577.148752
638.134845	2578.789647
638.479808	2578.363670
638.824719	2578.373752
639.169577	2577.239492
639.514383	2579.016499
639.859137	2573.902248
640.203839	2577.080696
640.548489	2576.715212
640.893086	2577.022723
641.237632	2570.990982
641.582125	2574.481981
641.926566	2574.141703
642.270955	2576.659760
642.615292	2576.727815
642.959576	2573.758576
643.303809	2577.607497
643.647990	2578.892991
643.992118	2576.954667
644.336195	2576.279153
644.680219	2576.879050
645.024192	2576.639595
645.368112	2576.929461
645.711981	2578.482137
646.055797	2577.000037
646.399562	2580.652353
646.743274	2579.041705
647.086935	2579.747466
647.430544	2577.925089
647.774101	2578.739236
648.117606	2578.961046
648.461059	2580.485995
648.804460	2579.684452
649.147810	2576.962229
649.491108	2577.010120
649.834354	2578.668659
650.177548	2577.231931
650.520690	2574.981055
650.863781	2575.344018
651.206820	2578.008268
651.549807	2577.552044
651.892742	2571.227916
652.235626	2573.632547
652.578458	2573.042732
652.921238	2573.282187
653.263967	2572.284038
653.606644	2573.985427
653.949269	2574.449214
654.291843	2573.952660
654.634365	2576.634554
654.976836	2571.860581
655.319255	2574.088771
655.661622	2574.456775
656.003938	2569.874367
656.346203	2570.854871
656.688416	2573.108267
657.030577	2571.555591
657.372687	2572.846127
657.714746	2571.076682
658.056753	2572.457958
658.398708	2567.946125
658.740612	2571.386713
659.082465	2566.980744
659.424266	2568.409911
659.766016	2567.026115
660.107715	2573.652711
660.449362	2571.338822
660.790958	2572.326888
661.132503	2572.253791
661.473996	2570.567525
661.815438	2572.137845
662.156829	2571.691702
662.498168	2572.614234
662.839456	2570.827145
663.180693	2571.200190
663.521879	2572.233627
663.863013	2573.093143
664.204097	2575.296128
664.545129	2571.101887
664.886110	2573.710685
665.227040	2573.604820
665.567918	2573.433421
665.908746	2573.135993
666.249522	2572.987279
666.590248	2570.446537
666.930922	2574.093812
667.271545	2573.715726
667.612118	2573.385530
667.952639	2574.532393
668.293109	2574.297979
668.633528	2573.385530
668.973896	2572.399985
669.314213	2574.308061
669.654480	2573.299831
669.994695	2574.608010
670.334859	2572.329408
670.674973	2571.948801
671.015035	2573.309913
671.355047	2573.420818
671.695008	2572.089954
672.034918	2574.852506
672.374777	2572.271435
672.714585	2574.262691
673.054342	2571.585838
673.394049	2571.568194
673.733705	2573.753534
674.073310	2570.209603
674.412864	2573.473750
674.752368	2570.844789
675.091820	2570.186918
675.431223	2570.197000
675.770574	2568.914027
676.109875	2564.399673
676.449125	2568.397308
676.788324	2568.341856
677.127473	2566.380847
677.466571	2564.873542
677.805619	2570.532237
678.144616	2572.102557
678.483562	2568.435117
678.822458	2570.144068
679.161303	2571.260684
679.500098	2569.173646
679.838842	2569.909655
680.177535	2567.893193
680.516179	2570.635581
680.854771	2571.046435
681.193314	2570.665828
681.531805	2571.295972
681.870247	2573.791343
682.208638	2572.788153
682.546978	2574.948288
682.885268	2572.168092
683.223508	2572.652042
683.561697	2572.828483
683.899836	2573.766137
684.237925	2572.301682
684.575963	2573.408215
684.913951	2572.737742
685.251889	2570.128945
685.589776	2568.936712
685.927614	2573.037691
686.265401	2571.996692
686.603137	2572.722618
686.940824	2570.774212
687.278460	2573.309913
687.616046	2571.810170
687.953582	2574.330747
688.291068	2571.031311
688.628504	2575.686817
688.965889	2575.006261
689.303224	2574.101374
689.640510	2574.819738
689.977745	2571.721949
690.314930	2570.262535
690.652065	2569.607185
690.989150	2570.633060
691.326185	2570.464182
691.663170	2567.189952
692.000105	2567.807493
692.336990	2568.689695
692.673825	2567.661300
693.010610	2568.351938
693.347345	2560.676781
693.684030	2560.414641
694.020665	2561.798438
694.357251	2559.958417
694.693786	2561.095197
695.030272	2563.139385
695.366707	2564.200548
695.703093	2561.778273
696.039429	2564.021587
696.375716	2566.708522
696.711952	2561.385063
697.048139	2562.262224
697.384276	2563.262893
697.720363	2563.368758
698.056400	2561.022100
698.392388	2562.216854
698.728326	2563.048644
699.064214	2560.207954
699.400053	2564.266083
699.735842	2560.134857
700.071581	2559.708880
700.407270	2560.961607
700.742910	2561.740465
701.078501	2561.311967
701.414042	2559.192162
701.749533	2558.141081
702.084974	2557.785680
702.420366	2558.173848
702.755709	2558.070505
703.091002	2555.585216
703.426246	2555.476831
703.761440	2558.549414
704.096584	2556.832902
704.431679	2557.452963
704.766725	2560.172666
705.101721	2554.143446
705.436668	2557.705021
705.771565	2558.367933
706.106413	2558.499003
706.441212	2556.558159
706.775961	2557.798282
707.110661	2558.567058
707.445311	2558.854404
707.779913	2556.497665
708.114465	2557.919270
708.448967	2557.372305
708.783421	2560.971689
709.117825	2561.722821
709.452180	2561.891699
709.786485	2561.657286
710.120742	2561.148129
710.454949	2563.207441
710.789107	2562.025290
711.123216	2560.996895
711.457275	2561.780794
711.791286	2558.254507
712.125247	2564.228274
712.459159	2563.378840
712.793023	2565.604509
713.126837	2561.243911
713.460602	2562.413459
713.794318	2563.509910
714.127985	2562.100907
714.461602	2560.465053
714.795171	2563.746844
715.128691	2561.178376
715.462162	2560.969168
715.795584	2560.623849
716.128957	2558.614949
716.462281	2558.493962
716.795556	2557.556307
717.128782	2557.059753
717.461960	2555.562531
717.795088	2556.353992
718.128167	2556.963972
718.461198	2555.431461
718.794180	2555.597819
719.127113	2557.029507
719.459997	2556.485062
719.792833	2555.940617
720.125619	2556.117058
720.458357	2555.345761
720.791046	2555.202088
721.123686	2552.862993
721.456278	2556.187634
721.788821	2554.002294
722.121315	2555.744012
722.453761	2552.189999
722.786158	2555.557490
723.118506	2551.905174
723.450805	2555.181924
723.783056	2553.636810
724.115259	2551.159083
724.447412	2551.522046
724.779518	2553.462890
725.111574	2556.361554
725.443582	2553.873744
725.775542	2553.203271
726.107453	2556.762325
726.439315	2556.631255
726.771129	2559.252655
727.102895	2556.006152
727.434612	2557.221070
727.766281	2556.026317
728.097901	2554.279557
728.429473	2550.886861
728.760996	2553.888868
729.092471	2551.383414
729.423897	2555.307953
729.755276	2555.315514
730.086606	2557.495813
730.417887	2559.098900
730.749120	2556.477500
731.080305	2558.884651
731.411442	2558.854404
731.742530	2557.659651
732.073570	2558.055381
732.404562	2559.817265
732.735506	2559.487069
733.066401	2558.882131
733.397249	2558.932542
733.728048	2555.471790
734.058798	2558.511606
734.389501	2554.967675
734.720156	2554.922304
735.050762	2557.372305
735.381320	2555.237376
735.711831	2554.768549
736.042293	2556.495144
736.372707	2554.360216
736.703073	2558.814075
737.033391	2552.472303
737.363661	2550.735626
737.693883	2553.823333
738.024056	2554.864331
738.354182	2553.830894
738.684260	2557.183262
739.014290	2553.649413
739.344272	2553.699824
739.674207	2554.947510
740.004093	2559.552604
740.333931	2556.616132
740.663722	2555.570092
740.993464	2556.442212
741.323159	2553.125133
741.652806	2556.890875
741.982405	2555.033210
742.311956	2550.652447
742.641460	2556.462377
742.970915	2553.099927
743.300323	2552.623538
743.629683	2553.430123
743.958996	2552.807540
744.288260	2550.481048
744.617477	2552.280740
744.946647	2546.054915
745.275768	2547.226983
745.604842	2547.531973
745.933869	2548.512477
746.262847	2545.006355
746.591778	2550.909546
746.920662	2547.025337
747.249498	2551.131357
747.578286	2551.799309
747.907027	2553.059598
748.235720	2554.508930
748.564365	2551.658157
748.892963	2549.840821
749.221514	2550.483568
749.550017	2550.957437
749.878473	2552.139587
750.206881	2549.258568
750.535242	2551.685883
750.863555	2550.866696
751.191821	2552.537838
751.520039	2551.509443
751.848210	2552.356357
752.176334	2552.066491
752.504411	2549.253527
752.832440	2547.184133
753.160421	2551.668239
753.488356	2548.023485
753.816243	2547.804195
754.144082	2549.941644
754.471875	2550.768393
754.799620	2548.225131
755.127318	2546.765717
755.454969	2548.918290
755.782572	2549.397200
756.110129	2549.314021
756.437638	2551.511964
756.765100	2547.844524
757.092515	2549.099772
757.419882	2551.393497
757.747203	2551.189330
758.074477	2548.426777
758.401703	2550.952396
758.728882	2552.058929
759.056014	2553.170503
759.383099	2551.345606
759.710138	2549.268650
760.037129	2552.966337
760.364073	2551.645554
760.690970	2550.581871
761.017820	2552.855431
761.344623	2548.719164
761.671379	2553.427602
761.998088	2550.125646
762.324751	2551.015410
762.651366	2555.804506
762.977935	2562.456309
763.304456	2570.653225
763.630931	2571.636250
763.957359	2570.454099
764.283740	2565.405384
764.610074	2559.971020
764.936362	2557.248797
765.262602	2552.142108
765.588796	2556.764846
765.914943	2553.014227
766.241044	2550.637323
766.567097	2544.633309
766.893104	2553.467931
767.219064	2550.186140
767.544978	2548.774617
767.870845	2547.388300
768.196665	2546.196067
768.522438	2547.877292
768.848165	2546.364946
769.173846	2544.741694
769.499479	2546.223793
769.825066	2545.432332
770.150607	2547.778989
770.476101	2544.434184
770.801548	2545.936448
771.126949	2544.676159
771.452303	2548.862837
771.777611	2545.313865
772.102872	2546.642209
772.428087	2544.945861
772.753256	2545.898639
773.078378	2545.460058
773.403453	2544.454348
773.728482	2540.844882
774.053465	2542.909235
774.378401	2543.859492
774.703291	2543.909904
775.028135	2542.642053
775.352932	2542.498381
775.677683	2543.453679
776.002388	2544.673638
776.327046	2545.649102
776.651658	2542.687424
776.976224	2541.628782
777.300743	2545.144986
777.625216	2540.192053
777.949643	2542.374872
778.274024	2541.222969
778.598359	2538.949408
778.922647	2538.485622
779.246889	2540.963349
779.571086	2538.750283
779.895236	2542.153062
780.219339	2543.310006
780.543397	2542.488298
780.867409	2541.676672
781.191374	2543.267157
781.515294	2538.962011
781.839167	2542.304296
782.162995	2544.345963
782.486776	2543.680531
782.810511	2541.782537
783.134201	2542.798329
783.457844	2542.939482
783.781441	2544.103988
784.104993	2544.023330
784.428498	2541.064172
784.751958	2542.470654
785.075372	2546.322096
785.398739	2541.759852
785.722061	2542.195911
786.045337	2542.694986
786.368568	2542.130376
786.691752	2541.127187
787.014891	2543.244471
787.337983	2541.837989
787.661030	2544.666077
787.984031	2543.526776
788.306987	2547.574822
788.629897	2545.412168
788.952760	2546.248999
789.275579	2543.241951
789.598351	2543.867054
789.921078	2543.637681
790.243759	2542.354708
790.566395	2543.922507
790.888984	2543.289842
791.211529	2541.139790
791.534027	2540.544933
791.856480	2542.006868
792.178888	2541.578370
792.501249	2542.556354
792.823566	2541.354039
793.145836	2539.851775
793.468062	2542.453010
793.790241	2542.601724
794.112375	2541.462423
794.434464	2542.803370
794.756507	2541.376724
795.078505	2542.107691
795.400457	2539.531662
795.722364	2537.651311
796.044226	2540.252547
796.366042	2541.061652
796.687812	2541.797660
797.009538	2545.787733
797.331218	2544.547610
797.652852	2541.865716
797.974442	2543.403268
798.295986	2541.623740
798.617484	2544.396375
798.938938	2543.521735
799.260346	2542.339584
799.581709	2540.363452
799.903026	2541.490150
800.224299	2539.398071
800.545526	2539.957639
800.866708	2541.142310
801.187845	2541.706919
801.508936	2541.964018
801.829983	2541.820345
802.150984	2540.212217
802.471940	2538.740200
802.792851	2538.835982
803.113717	2539.778678
803.434538	2536.559901
803.755314	2541.439738
804.076045	2539.682896
804.396731	2537.144675
804.717372	2542.533669
805.037967	2541.679193
805.358518	2542.460572
805.679024	2542.500901
805.999485	2538.505787
806.319901	2540.968390
806.640272	2538.775488
806.960598	2539.889583
807.280879	2541.248174
807.601115	2539.201466
807.921306	2539.687937
808.241453	2538.286497
808.561554	2539.778678
808.881611	2539.332536
809.201623	2540.759183
809.521590	2541.454862
809.841513	2540.862526
810.161390	2540.897814
810.481223	2542.185829
810.801011	2538.117618
811.120755	2538.800694
811.440453	2541.805222
811.760107	2539.440921
812.079716	2539.995448
812.399281	2534.760209
812.718801	2535.344983
813.038276	2534.210724
813.357707	2539.410674
813.677093	2540.696168
813.996434	2539.645087
814.315731	2537.270704
814.634983	2539.584594
814.954191	2542.163144
815.273354	2540.749100
815.592473	2541.248174
815.911547	2539.866898
816.230577	2540.572660
816.549562	2541.107022
816.868502	2542.064841
817.187399	2543.007537
817.506250	2540.222300
817.825058	2541.858154
818.143821	2540.328164
818.462539	2542.014430
818.781213	2543.350336
819.099843	2542.450490
819.418429	2546.072559
819.736970	2550.085317
820.055466	2548.648588
820.373919	2554.158569
820.692327	2556.598488
821.010691	2562.161401
821.329011	2583.644278
821.647286	2613.981942
821.965517	2647.677014
822.283704	2671.877073
822.601847	2677.210614
822.919945	2658.752429
823.237999	2638.802063
823.556010	2619.111316
823.873976	2603.448451
824.191897	2590.462439
824.509775	2580.241499
824.827609	2573.493915
825.145398	2567.714232
825.463144	2567.265569
825.780845	2570.323029
826.098502	2573.458627
826.416116	2580.838876
826.733685	2592.292378
827.051210	2599.523913
827.368692	2591.420258
827.686129	2580.959864
828.003522	2571.908472
828.320872	2561.737944
828.638177	2556.389280
828.955439	2552.610935
829.272656	2548.552806
829.589830	2544.983669
829.906960	2548.923331
830.224046	2544.028371
830.541088	2546.276725
830.858086	2544.887887
831.175041	2546.105326
831.491952	2540.895294
831.808819	2546.125491
832.125642	2541.091899
832.442421	2545.374359
832.759157	2550.339895
833.075849	2557.677295
833.392497	2561.488407
833.709101	2566.506876
834.025662	2567.487380
834.342179	2565.846485
834.658653	2558.446071
834.975083	2556.086811
835.291469	2556.651420
835.607811	2544.981149
835.924110	2542.889070
836.240366	2540.315561
836.556578	2541.782537
836.872746	2540.693647
837.188871	2538.213400
837.504952	2539.534182
837.820990	2538.168029
838.136984	2535.665097
838.452935	2536.196938
838.768842	2537.043852
839.084706	2540.602907
839.400526	2541.500232
839.716303	2547.133722
840.032037	2548.938455
840.347727	2549.374514
840.663373	2549.669422
840.978977	2542.621889
841.294537	2544.706406
841.610054	2541.472506
841.925527	2537.820190
842.240957	2539.274563
842.556344	2537.530323
842.871687	2537.217772
843.186987	2536.665766
843.502244	2535.460930
843.817458	2533.061341
844.132629	2534.818183
844.447756	2534.984541
844.762840	2531.460774
845.077881	2533.883049
845.392879	2530.664272
845.707833	2533.376413
846.022745	2531.770805
846.337613	2536.743903
846.652438	2534.150230
846.967221	2535.274407
847.281960	2535.423121
847.596656	2534.671989
847.911309	2536.270035
848.225919	2534.450178
848.540485	2535.483615
848.855009	2533.570497
849.169490	2535.949922
849.483928	2532.665610
849.798323	2535.097967
850.112675	2533.988913
850.426984	2531.685106
850.741251	2535.254243
851.055474	2535.748276
851.369654	2537.895807
851.683792	2536.040663
851.997887	2533.540250
852.311938	2534.540919
852.625947	2536.098636
852.939914	2532.358100
853.253837	2534.959335
853.567718	2531.125537
853.881555	2536.204500
854.195350	2535.095446
854.509103	2532.935312
854.822812	2530.959179
855.136479	2536.138965
855.450103	2531.753161
855.763685	2534.825744
856.077224	2534.619057
856.390720	2534.777853
856.704173	2533.935981
857.017584	2535.614685
857.330953	2533.686444
857.644278	2532.988244
857.957561	2535.952442
858.270802	2534.435055
858.584000	2534.036804
858.897155	2534.344314
859.210268	2533.247863
859.523339	2534.472864
859.836367	2535.082843
860.149352	2536.401105
860.462295	2533.419262
860.775195	2531.808614
861.088054	2531.067564
861.400869	2529.555218
861.713642	2532.310209
862.026373	2531.551515
862.339062	2532.017822
862.651708	2532.801721
862.964312	2533.560415
863.276873	2535.367668
863.589392	2535.511341
863.901869	2534.392205
864.214303	2533.671320
864.526696	2535.937319
864.839045	2534.530837
865.151353	2535.894469
865.463619	2534.041845
865.775842	2535.927237
866.088023	2532.678213
866.400162	2538.374717
866.712258	2536.549819
867.024313	2535.395395
867.336325	2534.858512
867.648296	2533.560415
867.960224	2533.709129
868.272110	2535.697864
868.583954	2534.140148
868.895755	2536.229706
869.207515	2537.598379
869.519233	2535.995292
869.830909	2534.795498
870.142542	2535.259284
870.454134	2535.042514
870.765684	2535.609644
871.077191	2534.674510
871.388657	2537.220293
871.700081	2536.181815
872.011463	2535.407998
872.322803	2540.292876
872.634101	2535.216434
872.945357	2536.562422
873.256571	2535.067720
873.567744	2536.973276
873.878874	2536.769109
874.189963	2536.131403
874.501010	2538.735159
874.812015	2534.215765
875.122979	2539.781199
875.433900	2537.444624
875.744780	2536.199459
876.055618	2536.244829
876.366415	2536.900179
876.677169	2535.929757
876.987882	2535.534027
877.298554	2533.542771
877.609183	2535.294572
877.919771	2536.254912
878.230317	2535.619726
878.540822	2541.827907
878.851285	2541.530479
879.161707	2545.805378
879.472087	2546.163299
879.782425	2547.355532
880.092722	2559.663509
880.402977	2564.992009
880.713191	2583.510688
881.023363	2603.816455
881.333494	2612.580501
881.643583	2617.828342
881.953631	2615.713578
882.263637	2609.926334
882.573602	2604.388626
882.883526	2594.881010
883.193408	2585.844742
883.503248	2578.865264
883.813048	2569.632391
884.122806	2566.073337
884.432522	2563.023438
884.742197	2554.710576
885.051831	2553.067160
885.361424	2548.076417
885.670975	2546.203629
885.980485	2546.037271
886.289954	2544.078782
886.599382	2542.972249
886.908768	2544.774462
887.218113	2542.732794
887.527417	2539.405633
887.836680	2541.268339
888.145901	2537.792463
888.455082	2536.872453
888.764221	2537.696682
889.073319	2539.635005
889.382376	2536.380940
889.691392	2535.839016
890.000366	2539.113246
890.309300	2537.933616
890.618193	2539.745911
890.927044	2541.709440
891.235855	2537.810107
891.544625	2537.560570
891.853353	2538.962011
892.162041	2538.815818
892.470687	2540.108874
892.779293	2538.651980
893.087858	2542.137938
893.396381	2541.154913
893.704864	2544.232538
894.013306	2548.081458
894.321707	2554.395504
894.630068	2563.404046
894.938387	2564.243398
895.246665	2562.718449
895.554903	2560.016390
895.863100	2553.886347
896.171256	2552.494989
896.479371	2547.973074
896.787446	2550.080276
897.095480	2543.393185
897.403473	2541.381765
897.711425	2541.573329
898.019336	2540.456713
898.327207	2541.596014
898.635038	2543.640202
898.942827	2541.273380
899.250576	2537.134593
899.558284	2536.146527
899.865952	2537.157278
900.173579	2537.149716
900.481165	2537.273225
900.788711	2535.518903
901.096216	2537.109387
901.403681	2535.418080
901.711105	2536.375899
902.018489	2534.319108
902.325832	2540.509645
902.633135	2534.704757
902.940397	2538.488143
903.247619	2541.906045
903.554800	2548.036088
903.861941	2557.294167
904.169041	2570.658266
904.476101	2574.464337
904.783121	2575.739749
905.090100	2568.450241
905.397039	2562.534447
905.703938	2555.325597
906.010796	2550.108002
906.317614	2547.710934
906.624391	2544.151879
906.931129	2543.821683
907.237826	2540.975952
907.544483	2540.081147
907.851099	2538.357073
908.157675	2537.011085
908.464211	2535.927237
908.770707	2532.824406
909.077163	2533.764582
909.383578	2532.254756
909.689954	2529.252749
909.996289	2529.076308
910.302584	2534.699716
910.608839	2532.285003
910.915054	2531.453212
911.221229	2535.758358
911.527363	2533.386495
911.833458	2531.359951
912.139513	2535.506300
912.445527	2533.469674
912.751502	2531.937163
913.057436	2534.982020
913.363331	2535.355066
913.669186	2536.592669
913.975000	2538.316743
914.280775	2538.757844
914.586510	2544.582898
914.892205	2546.919472
915.197859	2551.464073
915.503475	2557.828529
915.809050	2562.594940
916.114585	2569.584500
916.420081	2574.121539
916.725536	2571.795046
917.030952	2567.000909
917.336328	2558.393139
917.641665	2556.139743
917.946961	2552.300904
918.252218	2549.576161
918.557435	2550.750749
918.862612	2545.777651
919.167750	2542.982331
919.472848	2539.130890
919.777906	2540.731456
920.082925	2541.437218
920.387904	2536.973276
920.692843	2534.387164
920.997743	2536.436393
921.302603	2537.943698
921.607423	2536.171732
921.912204	2537.472350
922.216946	2533.898172
922.521647	2534.099818
922.826310	2532.799201
923.130932	2533.346166
923.435516	2533.890610
923.740059	2534.820703
924.044564	2533.194931
924.349028	2534.412370
924.653454	2529.116638
924.957840	2531.027235
925.262186	2527.730320
925.566493	2531.702750
925.870761	2529.953469
926.174989	2530.180321
926.479178	2531.959848
926.783328	2533.328522
927.087438	2529.217461
927.391509	2532.471526
927.695541	2530.387008
927.999533	2530.313912
928.303486	2531.027235
928.607400	2530.787780
928.911275	2532.637884
929.215110	2531.859025
929.518906	2529.550177
929.822663	2528.105886
930.126381	2530.071936
930.430060	2532.635363
930.733699	2532.136289
931.037299	2531.301978
931.340861	2529.693850
931.644383	2533.114273
931.947866	2527.773170
932.251309	2531.738038
932.554714	2528.269724
932.858080	2533.421783
933.161407	2528.194107
933.464694	2530.954138
933.767943	2530.749972
934.071153	2529.109076
934.374323	2528.100845
934.677455	2532.451361
934.980548	2527.768129
935.283602	2529.346010
935.586617	2527.972296
935.889593	2530.331556
936.192530	2533.152081
936.495428	2529.892975
936.798287	2532.300126
937.101108	2528.370547
937.403890	2530.848274
937.706632	2532.111083
938.009336	2531.538912
938.312002	2532.615198
938.614628	2531.415404
938.917216	2535.087884
939.219765	2530.518078
939.522275	2532.637884
939.824747	2538.160468
940.127179	2529.346010
940.429573	2528.698222
940.731929	2530.555887
941.034246	2528.945238
941.336524	2530.621422
941.638763	2533.038655
941.940964	2533.986392
942.243126	2530.167718
942.545250	2532.027904
942.847335	2529.348531
943.149381	2529.691329
943.451389	2529.905578
943.753359	2530.061854
944.055290	2531.483459
944.357182	2531.433048
944.659036	2529.759385
944.960851	2529.633356
945.262628	2530.412214
945.564367	2531.647297
945.866067	2530.139992
946.167729	2529.850126
946.469352	2529.013294
946.770937	2529.799714
947.072484	2531.533871
947.373992	2529.537574
947.675462	2530.742410
947.976893	2528.181504
948.278286	2528.448685
948.579641	2529.041020
948.880958	2531.869108
949.182236	2529.794673
949.483476	2527.034641
949.784678	2529.835002
950.085841	2530.397091
950.386967	2529.487162
950.688054	2529.335928
950.989103	2532.776515
951.290114	2530.749972
951.591087	2528.713345
951.892021	2529.396422
952.192917	2531.357431
952.493776	2529.855167
952.794596	2532.567307
953.095378	2530.666793
953.396122	2528.640249
953.696828	2532.569828
953.997496	2529.025897
954.298126	2531.727955
954.598718	2532.221988
954.899272	2528.385670
955.199788	2530.293747
955.500266	2529.789632
955.800706	2526.217974
956.101108	2524.579599
956.401472	2527.279137
956.701798	2525.363499
957.002087	2524.693025
957.302337	2526.596061
957.602550	2529.787111
957.902724	2528.947759
958.202861	2528.055475
958.502960	2527.637059
958.803022	2529.502286
959.103045	2529.577903
959.403031	2528.083201
959.702979	2527.170752
960.002889	2528.380629
960.302762	2528.625125
960.602596	2527.531195
960.902393	2528.756195
961.202153	2528.168901
961.501875	2530.008922
961.801559	2527.576565
962.101205	2528.453726
962.400814	2528.214271
962.700385	2527.576565
962.999918	2526.843077
963.299414	2529.416586
963.598873	2527.349713
963.898293	2525.580268
964.197677	2527.954652
964.497022	2525.950793
964.796331	2530.853315
965.095601	2526.976668
965.394835	2525.295443
965.694030	2526.762419
965.993189	2529.285516
966.292309	2524.072963
966.591393	2524.299815
966.890439	2527.803417
967.189447	2526.074301
967.488419	2523.987264
967.787353	2527.611853
968.086249	2526.316277
968.385108	2526.505320
968.683930	2528.645290
968.982714	2523.833508
969.281462	2527.669827
969.580172	2527.042203
969.878844	2527.148067
970.177480	2526.192768
970.476078	2526.154960
970.774639	2526.681760
971.073162	2523.896523
971.371649	2527.100176
971.670098	2526.757378
971.968510	2524.473735
972.266885	2520.135822
972.565223	2526.984230
972.863524	2528.040351
973.161788	2527.833664
973.460014	2529.706453
973.758204	2527.513551
974.056356	2526.878365
974.354471	2527.246370
974.652550	2525.784435
974.950591	2530.697039
975.248595	2527.059847
975.546563	2527.894158
975.844493	2527.992460
976.142386	2526.777542
976.440243	2528.418438
976.738062	2527.120341
977.035845	2528.325177
977.333590	2525.534898
977.631299	2527.904240
977.928971	2527.788294
978.226606	2529.953469
978.524204	2526.154960
978.821765	2526.175124
979.119290	2527.574045
979.416777	2526.255783
979.714228	2523.248735
980.011642	2528.017666
980.309020	2530.016484
980.606360	2527.747964
980.903664	2524.831657
981.200931	2526.948942
981.498162	2527.289219
981.795356	2528.410876
982.092513	2526.054137
982.389633	2527.052285
982.686717	2528.451205
982.983764	2528.456247
983.280775	2530.003881
983.577749	2528.773839
983.874686	2530.301309
984.171587	2529.088911
984.468451	2526.351565
984.765279	2525.907943
985.062070	2525.950793
985.358824	2527.442975
985.655543	2526.117151
985.952224	2523.354599
986.248869	2525.771832
986.545478	2523.984743
986.842050	2523.667150
987.138586	2523.432737
987.435086	2524.272089
987.731549	2521.048271
988.027975	2526.263345
988.324366	2527.947090
988.620719	2525.938190
988.917037	2524.267048
989.213318	2527.165711
989.509563	2524.420803
989.805772	2526.971627
990.101944	2525.502130
990.398080	2526.238139
990.694180	2525.575227
990.990244	2526.946421
991.286271	2526.931297
991.582262	2526.175124
991.878217	2525.247552
992.174136	2524.486338
992.470019	2526.490197
992.765865	2525.287881
993.061676	2525.945752
993.357450	2526.409538
993.653188	2525.391225
993.948890	2525.229908
994.244556	2526.049096
994.540186	2527.778211
994.835780	2525.744106
995.131337	2523.621780
995.426859	2525.678571
995.722345	2525.713859
996.017795	2529.524971
996.313208	2528.705784
996.608586	2527.770650
996.903928	2527.571524
997.199234	2527.589168
997.494504	2526.391894
997.789738	2528.398273
998.084936	2526.202851
998.380099	2525.063550
998.675225	2526.722090
998.970316	2528.357944
999.265371	2527.024559
999.560390	2522.152284
999.855373	2527.034641
1000.150320	2525.373581
1000.445232	2525.844929
1000.740108	2523.215967
1001.034948	2526.608664
1001.329752	2522.326203
1001.624521	2526.543129
1001.919254	2522.958868
1002.213951	2523.137829
1002.508613	2523.415093
1002.803239	2520.594567
1003.097829	2519.120030
1003.392384	2524.390556
1003.686903	2524.153622
1003.981386	2526.472553
1004.275834	2523.505833
1004.570246	2526.540608
1004.864623	2524.345186
1005.158964	2523.654548
1005.453270	2526.966586
1005.747540	2526.243180
1006.041775	2522.555576
1006.335974	2526.361647
1006.630138	2524.032634
1006.924266	2526.890968
1007.218359	2526.825433
1007.512416	2523.243693
1007.806438	2523.142870
1008.100425	2525.018180
1008.394376	2527.382481
1008.688292	2524.781245
1008.982172	2525.610515
1009.276017	2525.461801
1009.569827	2523.727644
1009.863602	2526.422141
1010.157341	2525.502130
1010.451045	2527.052285
1010.744714	2524.153622
1011.038347	2523.795700
1011.331945	2524.322500
1011.625508	2524.153622
1011.919036	2524.385515
1012.212528	2525.030783
1012.505986	2528.678057
1012.799408	2525.406348
1013.092795	2526.759898
1013.386147	2524.831657
1013.679464	2525.996163
1013.972745	2525.328211
1014.265992	2525.786956
1014.559204	2528.030269
1014.852380	2524.519105
1015.145521	2524.685463
1015.438628	2527.153108
1015.731699	2525.996163
1016.024736	2523.047088
1016.317737	2523.873838
1016.610703	2524.962727
1016.903635	2523.755371
1017.196531	2523.662109
1017.489393	2523.311749
1017.782219	2518.779752
1018.075011	2523.788138
1018.367768	2522.895854
1018.660490	2523.644465
1018.953177	2523.644465
1019.245829	2523.644465
