Dividing Wavelength (nm)	Counts (n)	Blue Motor Position (mm): 0.000000	Red Motor Position (mm): 47.100000	
326.493990	2128.448251
326.888308	2128.448251
327.282561	2128.448251
327.676750	2097.195617
328.070874	2093.331573
328.464933	2095.469022
328.858929	2107.393872
329.252859	2114.070880
329.646726	2125.037910
330.040528	2137.434107
330.434265	2156.698877
330.827938	2170.919972
331.221547	2190.545184
331.615091	2211.866744
332.008571	2227.161605
332.401986	2248.518453
332.795338	2267.140475
333.188625	2287.458846
333.581847	2305.095323
333.975006	2324.801193
334.368100	2342.180571
334.761129	2359.111286
335.154095	2375.409336
335.546996	2397.015722
335.939833	2422.612180
336.332606	2434.279931
336.725315	2450.177210
337.117960	2460.171297
337.510540	2468.703450
337.903056	2481.124853
338.295508	2486.844042
338.687896	2496.686895
339.080220	2505.045128
339.472480	2511.061745
339.864676	2516.702796
340.256807	2521.305370
340.648875	2522.802592
341.040879	2524.574558
341.432818	2527.334590
341.824694	2529.187214
342.216506	2528.667975
342.608253	2528.153777
342.999937	2528.673016
343.391557	2528.920033
343.783113	2526.444826
344.174605	2525.444157
344.566033	2525.303005
344.957397	2526.459950
345.348697	2520.009793
345.739934	2519.823271
346.131106	2518.119361
346.522215	2516.715399
346.913260	2514.451921
347.304241	2513.736077
347.695159	2511.563340
348.086012	2511.099554
348.476802	2509.040242
348.867528	2505.894563
349.258191	2504.641836
349.648789	2502.522031
350.039324	2501.879283
350.429796	2503.026146
350.820203	2501.491115
351.210548	2500.167812
351.600828	2498.042965
351.991045	2499.217554
352.381198	2498.053048
352.771288	2497.304436
353.161314	2496.442399
353.551276	2497.306957
353.941175	2495.043479
354.331010	2498.118583
354.720782	2496.754951
355.110490	2493.856287
355.500135	2498.247132
355.889717	2496.941473
356.279235	2494.292347
356.668689	2500.245950
357.058080	2501.685199
357.447408	2495.908037
357.836672	2494.468787
358.225873	2497.831237
358.615010	2492.676657
359.004084	2500.939108
359.393095	2498.726042
359.782043	2500.797956
360.170927	2505.334994
360.559748	2503.633605
360.948505	2503.696619
361.337199	2505.057731
361.725830	2506.156703
362.114398	2508.609224
362.502903	2506.675941
362.891344	2510.285407
363.279722	2508.163082
363.668037	2508.243740
364.056289	2507.986641
364.444478	2510.232475
364.832603	2507.729543
365.220665	2511.016375
365.608665	2508.931858
365.996601	2513.254647
366.384474	2514.214987
366.772284	2515.518125
367.160031	2515.399658
367.547715	2516.339833
367.935336	2520.902077
368.322893	2523.697397
368.710388	2525.456760
369.097820	2534.926568
369.485189	2538.034439
369.872495	2542.314378
370.259738	2547.105995
370.646918	2556.411965
371.034035	2563.819941
371.421090	2574.355952
371.808081	2583.341809
372.195010	2590.719538
372.581875	2607.400716
372.968678	2620.777417
373.355418	2627.736730
373.742096	2648.072745
374.128710	2664.522030
374.515262	2678.012158
374.901751	2695.865404
375.288177	2704.475695
375.674540	2725.250290
376.060841	2744.431880
376.447079	2768.158071
376.833254	2785.348405
377.219367	2801.049079
377.605417	2837.121055
377.991404	2844.854185
378.377329	2867.418390
378.763191	2884.744836
379.148991	2918.286153
379.534727	2948.349074
379.920402	2976.904690
380.306013	2989.994046
380.691563	3037.239740
381.077049	3062.440468
381.462474	3077.700040
381.847835	3117.515073
382.233134	3139.086171
382.618371	3140.832931
383.003545	3207.126624
383.388657	3214.348077
383.773706	3249.363932
384.158693	3261.624018
384.543618	3288.682411
384.928480	3323.655416
385.313280	3370.654093
385.698017	3370.943960
386.082692	3424.954882
386.467305	3427.677105
386.851856	3457.467804
387.236344	3481.204077
387.620770	3514.478213
388.005133	3539.247922
388.389435	3564.904874
388.773674	3578.228644
389.157851	3619.901342
389.541965	3634.775267
389.926018	3600.220678
390.310008	3673.937470
390.693936	3689.696117
391.077802	3732.356882
391.461606	3720.931107
391.845348	3784.305972
392.229027	3785.175571
392.612645	3796.671923
392.996200	3876.750651
393.379694	3912.777257
393.763125	3979.310406
394.146494	3947.349490
394.529801	4007.750075
394.913047	4056.956778
395.296230	4020.796581
395.679351	4078.656425
396.062410	4101.424796
396.445408	4084.456272
396.828343	4113.221096
397.211217	4139.286382
397.594028	4055.134401
397.976778	4125.050163
398.359466	4150.964215
398.742092	4177.352135
399.124656	4101.152574
399.507158	4181.816076
399.889598	4207.967062
400.271977	4272.002319
400.654294	4241.437803
401.036549	4249.700254
401.418742	4217.656160
401.800874	4321.176254
402.182944	4343.203576
402.564952	4408.809152
402.946898	4395.072008
403.328783	4389.869537
403.710606	4304.487514
404.092367	4495.184282
404.474067	4463.508192
404.855705	4470.137309
405.237282	4394.532604
405.618797	4506.093339
406.000250	4539.102814
406.381642	4624.615907
406.762972	4586.575360
407.144240	4597.370991
407.525447	4591.535855
407.906593	4653.736132
408.287677	4695.492009
408.668700	4627.103716
409.049661	4675.246735
409.430560	4713.798959
409.811399	4641.876817
410.192176	4806.929236
410.572891	4745.964042
410.953545	4851.331719
411.334138	4725.691041
411.714669	4793.421464
412.095139	4690.138304
412.475547	4832.984439
412.855894	4815.171522
413.236180	4822.360207
413.616405	4778.842447
413.996568	4863.914439
414.376670	4806.324297
414.756711	4761.400055
415.136691	4793.653357
415.516609	4869.686560
415.896466	4905.158639
416.276262	4938.261376
416.655997	4922.656484
417.035670	5100.263896
417.415283	5193.613462
417.794834	5138.173373
418.174324	5092.666877
418.553753	4999.798741
418.933121	5183.034601
419.312428	5251.622019
419.691674	5190.573646
420.070859	5320.852185
420.449983	5226.388524
420.829045	5342.133416
421.208047	5252.375672
421.586988	5324.902752
421.965867	5332.391386
422.344686	5465.099761
422.723444	5321.472247
423.102141	5141.911388
423.480777	5438.570689
423.859352	5208.701635
424.237866	5465.104802
424.616319	5459.269667
424.994712	5569.933076
425.373044	5446.944046
425.751314	5588.212300
426.129524	5391.607300
426.507673	5587.257001
426.885762	5669.773128
427.263789	5600.590853
427.641756	5479.716587
428.019662	5603.431543
428.397508	5608.664261
428.775292	5556.503442
429.153016	5657.371889
429.530679	5580.010342
429.908282	5667.890257
430.285824	5536.913518
430.663305	5816.047248
431.040726	5548.392226
431.418086	5548.475405
431.795385	5655.541951
432.172624	5665.087375
432.549802	5654.722763
432.926920	5674.055588
433.303977	5680.294016
433.680974	5718.339604
434.057910	5735.759311
434.434786	5746.108800
434.811601	5709.194951
435.188355	5945.269665
435.565050	5823.215769
435.941683	5797.974711
436.318257	6013.158884
436.694770	5999.913252
437.071222	6034.629158
437.447614	5966.810515
437.823946	5874.864910
438.200218	6030.467686
438.576429	5900.680659
438.952580	5994.657849
439.328670	6040.595364
439.704700	5949.652948
440.080670	5935.746925
440.456580	6206.141815
440.832429	6089.023208
441.208218	5931.620741
441.583947	6094.087047
441.959616	6090.588486
442.335224	6020.776067
442.710773	6159.768241
443.086261	6183.897723
443.461689	5978.364840
443.837057	6126.093333
444.212365	6285.492097
444.587612	6180.368916
444.962800	6330.106308
445.337927	6307.221991
445.712995	5923.043218
446.088002	6499.894891
446.462949	6322.123641
446.837837	6256.500421
447.212664	6429.235558
447.587431	6573.820891
447.962139	7111.563292
448.336786	8040.353039
448.711374	7787.579503
449.085901	6854.590475
449.460369	6775.802282
449.834776	6712.971861
450.209124	7107.278312
450.583412	7260.110973
450.957640	7395.639873
451.331808	7169.405492
451.705917	6718.128961
452.079965	6638.438401
452.453954	6850.499579
452.827883	6725.852009
453.201752	6822.911864
453.575562	6623.141020
453.949311	6824.033521
454.323001	6715.192489
454.696632	6785.226719
455.070202	6928.017402
455.443713	7077.918632
455.817164	7190.744696
456.190556	7266.866119
456.563888	7337.364135
456.937160	7382.694190
457.310373	7040.258692
457.683526	7063.581590
458.056619	6954.760723
458.429653	6941.915863
458.802628	6877.469752
459.175542	6988.168449
459.548398	7342.490988
459.921194	7505.731112
460.293930	7513.260075
460.666607	8036.408336
461.039224	8349.012807
461.411782	8474.545099
461.784280	8490.691915
462.156719	8376.401395
462.529099	8260.142305
462.901419	7853.419493
463.273680	7738.226607
463.645882	7755.381653
464.018024	7615.179603
464.390106	7783.468442
464.762130	8173.678955
465.134094	8638.841344
465.505999	9663.501234
465.877845	10894.344316
466.249631	11541.484797
466.621358	11158.120170
466.993026	10527.645744
467.364634	10266.869376
467.736184	9905.267410
468.107674	9572.664682
468.479105	9605.197769
468.850477	9366.945276
469.221790	9140.088312
469.593043	8810.719484
469.964238	8672.543978
470.335373	8682.737191
470.706449	8742.941171
471.077467	8722.622800
471.448425	10039.326815
471.819324	11111.252563
472.190164	11138.857921
472.560945	9890.186799
472.931667	9095.030479
473.302330	8956.728944
473.672934	8604.584183
474.043479	8969.125141
474.413965	8906.698012
474.784393	8782.927603
475.154761	8942.059186
475.525070	9031.373309
475.895321	8854.852266
476.265513	9033.687198
476.635645	9204.184063
477.005719	9202.301192
477.375734	9313.965270
477.745691	9545.689468
478.115588	9682.808853
478.485427	9928.383621
478.855207	10465.022010
479.224928	11281.336052
479.594591	11912.135633
479.964194	11720.861653
480.333739	11663.662201
480.703226	11574.022924
481.072653	11672.033037
481.442022	11906.182030
481.811333	12097.032553
482.180584	11904.611711
482.549777	11608.771598
482.918912	11433.097468
483.287988	11461.980759
483.657005	11467.140380
484.025964	11151.821248
484.394864	11281.038624
484.763706	11254.239850
485.132489	11009.575010
485.501213	10970.296860
485.869879	11046.652697
486.238487	10883.805783
486.607036	11000.410192
486.975527	10780.787284
487.343959	10965.984153
487.712333	11023.639829
488.080648	10947.982193
488.448905	10991.585653
488.817104	10926.769017
489.185244	11199.049298
489.553326	11348.443892
489.921350	11889.788198
490.289315	12953.900158
490.657222	13293.101756
491.025070	13213.988408
491.392861	13076.765680
491.760593	12699.957074
492.128267	12345.125378
492.495883	12013.977023
492.863440	11686.707836
493.230939	11347.370127
493.598380	11280.731114
493.965763	11147.556432
494.333088	11050.216793
494.700354	10964.234872
495.067563	11026.782989
495.434713	10857.584222
495.801805	10984.064251
496.168839	10909.127499
496.535815	10844.119300
496.902733	10841.787766
497.269593	10776.250246
497.636395	10876.884279
498.003139	10867.611077
498.369825	10735.489996
498.736453	10891.556558
499.103023	10814.868005
499.469535	10847.375885
499.835989	10841.654176
500.202385	10797.511312
500.568723	10643.798969
500.935003	10866.128978
501.301226	10670.590182
501.667390	10935.734709
502.033497	11036.295646
502.399546	10892.731146
502.765537	10800.472990
503.131470	10876.216326
503.497345	11046.428365
503.863163	10657.878912
504.228923	10975.711059
504.594625	11038.332272
504.960269	10780.729311
505.325856	10997.728299
505.691385	10798.597681
506.056856	10950.044024
506.422270	10973.964299
506.787625	10863.986487
507.152924	10986.012657
507.518164	10964.481889
507.883347	10883.462985
508.248472	10804.180758
508.613540	11031.803978
508.978550	10922.168964
509.343503	10894.256095
509.708398	11021.204952
510.073236	11120.742535
510.438016	11130.905501
510.802738	11083.095198
511.167403	11136.748198
511.532010	11029.457321
511.896561	11260.863927
512.261053	11325.342805
512.625488	11199.901253
512.989866	11183.031032
513.354186	11174.471153
513.718449	11074.323590
514.082655	11266.356264
514.446803	11159.617393
514.810894	11279.959817
515.174927	11156.698565
515.538904	11176.046513
515.902822	11334.169865
516.266684	11212.063037
516.630488	11157.936168
516.994235	11215.286855
517.357925	11276.541915
517.721558	11364.729340
518.085133	11378.451361
518.448651	11388.639532
518.812112	11271.248703
519.175516	11291.292331
519.538863	11401.718806
519.902152	11321.879532
520.265385	11479.408028
520.628560	11401.247458
520.991678	11376.858356
521.354739	11433.785586
521.717743	11371.408869
522.080690	11352.683503
522.443580	11485.722073
522.806413	11440.069384
523.169189	11461.116201
523.531908	11526.784792
523.894569	11346.389622
524.257174	11348.884993
524.619722	11473.270423
524.982213	11415.977710
525.344647	11467.427726
525.707025	11421.177660
526.069345	11510.080929
526.431608	11428.792323
526.793815	11544.300281
527.155964	11325.393216
527.518057	11382.212061
527.880093	11336.266985
528.242072	11403.271482
528.603995	11304.926132
528.965860	11229.523073
529.327669	11283.019798
529.689421	11229.765048
530.051117	11193.672907
530.412755	11310.350413
530.774337	11197.920080
531.135862	11179.078767
531.497331	11194.852538
531.858743	11046.100690
532.220098	11215.211237
532.581396	11088.655591
532.942638	11070.525081
533.303824	11032.439163
533.664953	11050.483974
534.026025	10964.519698
534.387040	11064.470655
534.747999	11060.223483
535.108902	11121.349994
535.469748	10878.144568
535.830537	10977.581327
536.191270	10961.139604
536.551947	10980.469908
536.912567	10983.512245
537.273131	10908.376367
537.633638	10879.699764
537.994089	10875.324042
538.354483	10821.232461
538.714821	10960.910232
539.075103	10975.206944
539.435328	10943.074629
539.795497	10772.517271
540.155609	10929.995356
540.515665	11017.900476
540.875665	10752.045145
541.235609	10816.178705
541.595496	10817.272635
541.955328	10970.785852
542.315102	10857.127997
542.674821	10803.611108
543.034483	10797.864193
543.394090	10805.088166
543.753640	10731.484799
544.113134	10957.630961
544.472571	10810.951028
544.831953	10952.771289
545.191278	10763.279357
545.550548	10796.767742
545.909761	10931.192630
546.268918	10906.301933
546.628019	10987.272946
546.987064	10852.885866
547.346053	10771.965265
547.704986	10871.207940
548.063863	10853.974756
548.422684	10843.930257
548.781449	10761.371280
549.140158	10868.029493
549.498811	10746.348642
549.857408	10597.735426
550.215949	10833.716879
550.574434	10680.415390
550.932864	10780.497418
551.291237	10841.318939
551.649555	10786.791298
552.007817	10800.835953
552.366022	10760.242062
552.724173	10754.686710
553.082267	10742.093908
553.440305	10876.357479
553.798288	10670.663278
554.156215	10826.225724
554.514086	10808.082612
554.871902	10666.020376
555.229661	10696.874758
555.587365	10665.869141
555.945014	10566.565972
556.302606	10698.611435
556.660143	10579.602396
557.017625	10742.598023
557.375050	10642.546243
557.732421	10770.657085
558.089735	10678.406491
558.446994	10687.316730
558.804197	10724.843079
559.161345	10722.690507
559.518437	10574.120141
559.875474	10665.975005
560.232455	10685.345639
560.589381	10637.976437
560.946251	10633.066353
561.303065	10746.215051
561.659825	10680.533857
562.016528	10611.220513
562.373177	10489.232151
562.729770	10607.923598
563.086307	10515.967911
563.442789	10612.866449
563.799216	10488.067645
564.155587	10536.296364
564.511904	10489.035546
564.868164	10479.999278
565.224370	10500.050467
565.580520	10423.503067
565.936615	10428.214025
566.292654	10292.705289
566.648638	10430.616135
567.004567	10383.564526
567.360441	10375.367609
567.716260	10276.394636
568.072023	10370.752433
568.427732	10322.997583
568.783385	10231.460311
569.138982	10306.011415
569.494525	10317.270832
569.850013	10198.876813
570.205445	10273.236353
570.560823	10177.083905
570.916145	10089.294732
571.271412	10159.744857
571.626625	10106.054047
571.981782	10084.820707
572.336884	10060.030833
572.691931	10069.863604
573.046923	10009.210962
573.401860	9967.140012
573.756743	9901.448736
574.111570	9947.998751
574.466342	9929.646430
574.821059	9953.491088
575.175722	9848.859419
575.530330	9859.501295
575.884882	9848.098205
576.239380	9782.522876
576.593823	9757.634699
576.948211	9769.657851
577.302544	9644.201176
577.656823	9666.954424
578.011047	9660.264813
578.365216	9637.705649
578.719330	9565.571779
579.073389	9573.015043
579.427394	9522.517805
579.781344	9502.315381
580.135239	9448.750600
580.489080	9451.195560
580.842866	9356.152166
581.196597	9358.264409
581.550273	9398.263445
581.903895	9373.347542
582.257463	9441.191390
582.610975	9310.801946
582.964434	9343.471143
583.317837	9261.827136
583.671186	9248.911700
584.024481	9240.056913
584.377721	9157.427361
584.730906	9134.716963
585.084037	9168.893465
585.437113	9102.292261
585.790135	9128.869224
586.143103	9020.461731
586.496016	8995.066919
586.848874	9054.560096
587.201679	9042.249598
587.554428	8932.480994
587.907124	8975.603024
588.259765	8948.138818
588.612352	8946.480278
588.964884	8825.217843
589.317362	8840.807611
589.669786	8844.643929
590.022155	8893.049088
590.374470	8909.470647
590.726731	8844.540586
591.078937	8693.590795
591.431090	8805.862333
591.783188	8679.284001
592.135232	8671.865943
592.487222	8667.379316
592.839157	8721.077687
593.191038	8662.179366
593.542866	8600.722659
593.894639	8500.963266
594.246358	8553.865134
594.598022	8569.601096
594.949633	8470.343297
595.301190	8440.116539
595.652692	8472.906724
596.004141	8576.693999
596.355535	8357.542439
596.706876	8336.225920
597.058162	8274.489429
597.409395	8352.491203
597.760573	8410.446828
598.111698	8317.084659
598.462768	8304.577556
598.813785	8269.372658
599.164748	8237.192452
599.515657	8229.923109
599.866511	8137.337277
600.217312	8262.458716
600.568060	8123.816903
600.918753	8226.359013
601.269392	8199.086371
601.619978	8106.989531
601.970510	8172.022936
602.320988	8176.204573
602.671412	8227.712563
603.021783	8157.862335
603.372100	8137.158316
603.722363	8135.577914
604.072572	8112.875078
604.422728	8121.666850
604.772830	8055.826861
605.122878	8062.559322
605.472872	8061.636790
605.822813	8089.184176
606.172701	8028.639918
606.522534	8101.766896
606.872314	8100.947708
607.222041	8072.419818
607.571714	8133.087584
607.921333	8091.056964
608.270899	8090.835153
608.620411	8178.591560
608.969870	8089.025379
609.319276	8077.713030
609.668627	8099.200948
610.017926	8131.824775
610.367171	8182.042229
610.716362	8151.828074
611.065500	8144.611662
611.414585	8181.850666
611.763616	8167.667379
612.112594	8139.729305
612.461518	8158.346286
612.810389	8223.457829
613.159207	8156.042478
613.507971	8109.855427
613.856682	8225.073519
614.205340	8181.170110
614.553945	8261.198427
614.902496	8158.212695
615.250994	8213.405768
615.599439	8193.094959
615.947830	8207.502577
616.296169	8177.661467
616.644454	8191.481790
616.992686	8190.549177
617.340864	8247.657888
617.688990	8148.087538
618.037063	8240.010458
618.385082	8188.303342
618.733048	8278.781972
619.080961	8219.853404
619.428821	8234.654232
619.776628	8239.178667
620.124382	8186.735544
620.472083	8168.751227
620.819731	8202.844551
621.167326	8095.881348
621.514868	8104.610106
621.862357	7988.502251
622.209793	8009.579315
622.557176	7941.939633
622.904506	7915.481137
623.251783	7844.743667
623.599007	7801.667007
623.946179	7801.893859
624.293297	7762.661079
624.640363	7672.358890
624.987376	7659.292220
625.334336	7606.975125
625.681243	7558.658186
626.028097	7541.934158
626.374899	7525.578134
626.721647	7514.911053
627.068343	7444.652492
627.414987	7419.802124
627.761577	7376.102882
628.108115	7408.167141
628.454600	7302.421377
628.801032	7355.333328
629.147412	7318.306053
629.493739	7303.227962
629.840014	7233.735656
630.186236	7295.898124
630.532405	7179.495361
630.878521	7228.812969
631.224585	7188.728234
631.570597	7112.614373
631.916556	7148.151987
632.262462	7142.979763
632.608316	7099.550223
632.954117	7076.040802
633.299866	7062.588483
633.645562	7055.417442
633.991206	6975.023641
634.336797	6921.438696
634.682336	6877.119392
635.027823	6844.321645
635.373257	6832.422001
635.718639	6767.045798
636.063968	6781.760926
636.409245	6675.914339
636.754470	6674.591036
637.099642	6633.608976
637.444762	6580.747437
637.789829	6587.885710
638.134845	6525.372882
638.479808	6511.686149
638.824719	6516.669330
639.169577	6444.303567
639.514383	6462.736546
639.859137	6391.961266
640.203839	6399.263377
640.548489	6387.976234
640.893086	6359.264342
641.237632	6334.388769
641.582125	6354.911306
641.926566	6326.756462
642.270955	6341.476631
642.615292	6333.670404
642.959576	6349.166911
643.303809	6343.188103
643.647990	6350.649010
643.992118	6337.572257
644.336195	6281.781808
644.680219	6307.796682
645.024192	6296.905269
645.368112	6397.549385
645.711981	6410.646303
646.055797	6493.487584
646.399562	6452.157684
646.743274	6578.108393
647.086935	6629.989427
647.430544	6623.400639
647.774101	6644.959134
648.117606	6651.288302
648.461059	6638.448483
648.804460	6603.513287
649.147810	6512.747312
649.491108	6486.122458
649.834354	6459.507687
650.177548	6376.316045
650.520690	6290.404701
650.863781	6266.655826
651.206820	6283.037055
651.549807	6210.625921
651.892742	6146.139481
652.235626	6155.523589
652.578458	6142.232587
652.921238	6049.230860
653.263967	6090.293579
653.606644	6027.130442
653.949269	6027.019536
654.291843	5970.419982
654.634365	6020.370254
654.976836	5977.795190
655.319255	5973.595908
655.661622	5951.520696
656.003938	5947.477690
656.346203	5909.379170
656.688416	5941.876968
657.030577	5890.923506
657.372687	5862.241861
657.714746	5850.493452
658.056753	5895.130349
658.398708	5836.479044
658.740612	5826.547971
659.082465	5868.863417
659.424266	5866.085741
659.766016	5858.675245
660.107715	5837.313355
660.449362	5856.542837
660.790958	5850.180901
661.132503	5834.886040
661.473996	5873.952462
661.815438	5858.516448
662.156829	5856.333629
662.498168	5847.740982
662.839456	5828.103167
663.180693	5862.486357
663.521879	5858.612230
663.863013	5845.371640
664.204097	5869.319641
664.545129	5910.523512
664.886110	5904.206946
665.227040	5942.428975
665.567918	5904.660650
665.908746	5932.321461
666.249522	5940.727585
666.590248	5924.018681
666.930922	5953.481705
667.271545	5970.661957
667.612118	5968.940403
667.952639	5941.508964
668.293109	5962.858251
668.633528	5916.467033
668.973896	5919.849647
669.314213	5912.151805
669.654480	5886.361262
669.994695	5888.125666
670.334859	5877.728286
670.674973	5871.187389
671.015035	5873.072780
671.355047	5872.205702
671.695008	5860.091809
672.034918	5830.485113
672.374777	5840.060784
672.714585	5827.778013
673.054342	5830.210370
673.394049	5826.610986
673.733705	5856.144586
674.073310	5840.277554
674.412864	5802.128622
674.752368	5792.169823
675.091820	5795.199556
675.431223	5732.054063
675.770574	5736.298715
676.109875	5683.739645
676.449125	5686.292989
676.788324	5654.488349
677.127473	5601.422643
677.466571	5593.699596
677.805619	5584.562504
678.144616	5572.572120
678.483562	5548.888779
678.822458	5516.184294
679.161303	5509.406462
679.500098	5502.489999
679.838842	5483.850333
680.177535	5487.275797
680.516179	5502.462273
680.854771	5514.195558
681.193314	5596.850317
681.531805	5701.892840
681.870247	5856.648701
682.208638	5955.868691
682.546978	5970.848480
682.885268	5948.367454
683.223508	5860.825297
683.561697	5808.281350
683.899836	5776.605260
684.237925	5733.281584
684.575963	5699.175658
684.913951	5658.778371
685.251889	5719.854471
685.589776	5690.010840
685.927614	5659.113608
686.265401	5728.943671
686.603137	5711.002205
686.940824	5788.963649
687.278460	5810.988450
687.616046	5826.782385
687.953582	5890.656325
688.291068	5871.021031
688.628504	5935.767090
688.965889	5896.342746
689.303224	5841.570610
689.640510	5791.794257
689.977745	5713.295930
690.314930	5618.118945
690.652065	5561.771448
690.989150	5473.034537
691.326185	5395.894801
691.663170	5343.499569
692.000105	5261.719450
692.336990	5189.550292
692.673825	5158.559799
693.010610	5090.915076
693.347345	5025.140621
693.684030	5008.391387
694.020665	4964.054439
694.357251	4874.563876
694.693786	4887.968304
695.030272	4853.098643
695.366707	4819.073375
695.703093	4783.558446
696.039429	4803.559224
696.375716	4788.662615
696.711952	4762.620014
697.048139	4748.769444
697.384276	4727.092482
697.720363	4741.026231
698.056400	4748.096450
698.392388	4702.453843
698.728326	4679.022560
699.064214	4662.028830
699.400053	4654.446935
699.735842	4622.985093
700.071581	4594.391669
700.407270	4568.142381
700.742910	4551.998086
701.078501	4496.847862
701.414042	4494.355012
701.749533	4463.374601
702.084974	4399.031834
702.420366	4456.228765
702.755709	4399.220877
703.091002	4342.432279
703.426246	4392.811050
703.761440	4346.379503
704.096584	4309.321981
704.431679	4333.383408
704.766725	4315.189884
705.101721	4304.427020
705.436668	4336.302236
705.771565	4283.964977
706.106413	4307.819717
706.441212	4343.080067
706.775961	4352.633054
707.110661	4332.992718
707.445311	4358.712685
707.779913	4378.655490
708.114465	4391.422212
708.448967	4416.254936
708.783421	4474.089573
709.117825	4520.962222
709.452180	4516.962066
709.786485	4565.127771
710.120742	4651.901152
710.454949	4638.312722
710.789107	4701.702711
711.123216	4776.871356
711.457275	4768.936580
711.791286	4841.017518
712.125247	4857.837328
712.459159	4759.106330
712.793023	4833.599460
713.126837	4797.338440
713.460602	4788.087923
713.794318	4707.694122
714.127985	4713.471284
714.461602	4630.438439
714.795171	4603.062453
715.128691	4537.033420
715.462162	4478.170388
715.795584	4427.854631
716.128957	4412.869801
716.462281	4356.880226
716.795556	4332.100434
717.128782	4293.490237
717.461960	4221.774782
717.795088	4233.792893
718.128167	4194.608004
718.461198	4133.599960
718.794180	4130.436636
719.127113	4112.086836
719.459997	4092.040688
719.792833	4049.876477
720.125619	4040.411711
720.458357	3999.293540
720.791046	4006.089015
721.123686	3984.545644
721.456278	3939.669292
721.788821	3957.368784
722.121315	3931.089249
722.453761	3906.241401
722.786158	3919.839914
723.118506	3937.723407
723.450805	3892.537025
723.783056	3912.313471
724.115259	3927.938527
724.447412	3930.683436
724.779518	3923.139349
725.111574	3928.979526
725.443582	3956.640337
725.775542	3941.093418
726.107453	3995.762211
726.439315	3993.392869
726.771129	4006.154550
727.102895	4043.839696
727.434612	4093.578240
727.766281	4103.625260
728.097901	4105.596351
728.429473	4111.418883
728.760996	4115.267804
729.092471	4111.663379
729.423897	4094.853652
729.755276	4104.315898
730.086606	4098.919343
730.417887	4137.274962
730.749120	4202.409190
731.080305	4263.293725
731.411442	4291.292294
731.742530	4262.633334
732.073570	4267.243469
732.404562	4320.165503
732.735506	4312.757527
733.066401	4278.006333
733.397249	4211.982341
733.728048	4132.347234
734.058798	4052.190367
734.389501	3982.148575
734.720156	3919.630706
735.050762	3874.998850
735.381320	3867.580792
735.711831	3815.891322
736.042293	3790.118422
736.372707	3807.913696
736.703073	3780.683903
737.033391	3772.857512
737.363661	3789.531128
737.693883	3816.062721
738.024056	3823.606807
738.354182	3821.620593
738.684260	3882.817680
739.014290	3904.809714
739.344272	3897.731934
739.674207	3939.966721
740.004093	3945.474181
740.333931	3942.812452
740.663722	3941.088377
740.993464	3935.172583
741.323159	3911.887494
741.652806	3881.166702
741.982405	3857.914380
742.311956	3824.189061
742.641460	3816.987772
742.970915	3791.550110
743.300323	3751.901435
743.629683	3716.782237
743.958996	3707.874518
744.288260	3678.585414
744.617477	3649.888646
744.946647	3634.903816
745.275768	3609.072944
745.604842	3604.992130
745.933869	3560.808937
746.262847	3549.627658
746.591778	3588.338678
746.920662	3558.306004
747.249498	3532.323897
747.578286	3572.421235
747.907027	3593.876386
748.235720	3591.819595
748.564365	3613.284828
748.892963	3616.904376
749.221514	3595.378649
749.550017	3573.550453
749.878473	3569.570462
750.206881	3542.108777
750.535242	3538.932850
750.863555	3540.692212
751.191821	3532.112169
751.520039	3517.276053
751.848210	3492.670181
752.176334	3526.720655
752.504411	3533.778270
752.832440	3495.697394
753.160421	3474.292655
753.488356	3485.937720
753.816243	3499.006911
754.144082	3454.120478
754.471875	3441.643622
754.799620	3459.559883
755.127318	3452.867751
755.454969	3453.593677
755.782572	3455.358081
756.110129	3435.395112
756.437638	3422.867844
756.765100	3435.989968
757.092515	3448.877678
757.419882	3450.538738
757.747203	3425.978236
758.074477	3428.874379
758.401703	3442.432562
758.728882	3464.911067
759.056014	3468.349134
759.383099	3476.472954
759.710138	3469.228816
760.037129	3489.257320
760.364073	3513.759848
760.690970	3503.032273
761.017820	3482.229951
761.344623	3497.126561
761.671379	3541.347562
761.998088	3593.974688
762.324751	3717.954305
762.651366	3960.247282
762.977935	4426.967388
763.304456	4862.480230
763.630931	4953.382317
763.957359	4607.589410
764.283740	4265.353037
764.610074	4073.690888
764.936362	3877.922720
765.262602	3721.198288
765.588796	3611.134776
765.914943	3526.927342
766.241044	3435.649690
766.567097	3409.929723
766.893104	3364.433309
767.219064	3332.164884
767.544978	3305.724032
767.870845	3252.030702
768.196665	3234.293402
768.522438	3240.299937
768.848165	3238.096953
769.173846	3201.009184
769.499479	3187.047708
769.825066	3170.023732
770.150607	3152.624189
770.476101	3165.852177
770.801548	3162.787156
771.126949	3119.150928
771.452303	3102.323556
771.777611	3105.552415
772.102872	3112.458796
772.428087	3088.142791
772.753256	3076.006213
773.078378	3071.040676
773.403453	3036.949873
773.728482	3024.921680
774.053465	3043.705019
774.378401	3033.685726
774.703291	3004.658762
775.028135	3002.274297
775.352932	3000.406549
775.677683	2988.622852
776.002388	2982.286122
776.327046	2984.567244
776.651658	2977.529793
776.976224	2963.888431
777.300743	2965.378092
777.625216	2955.182358
777.949643	2951.179682
778.274024	2949.780762
778.598359	2943.076027
778.922647	2950.236986
779.246889	2945.659618
779.571086	2932.580345
779.895236	2924.907708
780.219339	2933.124789
780.543397	2947.098868
780.867409	2949.138014
781.191374	2942.110646
781.515294	2938.309616
781.839167	2943.557457
782.162995	2933.399532
782.486776	2940.376489
782.810511	2937.661828
783.134201	2926.374684
783.457844	2932.197217
783.781441	2924.169179
784.104993	2905.718556
784.428498	2902.295613
784.751958	2918.550813
785.075372	2911.987231
785.398739	2897.065416
785.722061	2909.897673
786.045337	2921.625917
786.368568	2908.808784
786.691752	2896.757905
787.014891	2944.021243
787.337983	2975.190698
787.661030	3004.194976
787.984031	3066.964903
788.306987	3114.588684
788.629897	3109.910493
788.952760	3090.136567
789.275579	3076.293558
789.598351	3019.484796
789.921078	2972.725573
790.243759	2965.123513
790.566395	2947.691203
790.888984	2926.346958
791.211529	2908.879360
791.534027	2898.479459
791.856480	2891.663819
792.178888	2875.648074
792.501249	2865.631301
792.823566	2864.592823
793.145836	2859.972606
793.468062	2859.259282
793.790241	2852.998169
794.112375	2861.921012
794.434464	2874.470964
794.756507	2877.183105
795.078505	2883.479506
795.400457	2899.197824
795.722364	2934.503545
796.044226	2958.953141
796.366042	2960.319294
796.687812	2947.928138
797.009538	2967.860860
797.331218	2955.499951
797.652852	2942.065276
797.974442	2923.148346
798.295986	2919.755649
798.617484	2913.338260
798.938938	2902.086405
799.260346	2883.676111
799.581709	2876.255533
799.903026	2871.526930
800.224299	2867.607433
800.545526	2859.115610
800.866708	2841.491736
801.187845	2833.438492
801.508936	2835.076867
801.829983	2842.275635
802.150984	2828.140240
802.471940	2815.791933
802.792851	2817.125319
803.113717	2812.552992
803.434538	2820.618838
803.755314	2812.328661
804.076045	2809.777837
804.396731	2807.973104
804.717372	2808.280614
805.037967	2802.556384
805.358518	2808.318423
805.679024	2819.590443
805.999485	2816.754794
806.319901	2821.937100
806.640272	2813.956953
806.960598	2818.519198
807.280879	2828.467915
807.601115	2836.712722
807.921306	2820.717141
808.241453	2816.704382
808.561554	2824.858449
808.881611	2826.547235
809.201623	2821.700166
809.521590	2819.177068
809.841513	2817.188333
810.161390	2817.430308
810.481223	2814.715647
810.801011	2803.942701
811.120755	2798.800724
811.440453	2803.862043
811.760107	2802.629481
812.079716	2802.873977
812.399281	2792.504323
812.718801	2785.532407
813.038276	2779.367076
813.357707	2784.453601
813.677093	2792.272430
813.996434	2786.522994
814.315731	2782.195164
814.634983	2778.477313
814.954191	2779.127622
815.273354	2795.312246
815.592473	2799.955149
815.911547	2803.645273
816.230577	2810.740697
816.549562	2817.833601
816.868502	2817.962150
817.187399	2828.465394
817.506250	2841.824452
817.825058	2834.497135
818.143821	2847.866275
818.462539	2866.097608
818.781213	2887.681308
819.099843	2922.704724
819.418429	2979.226141
819.736970	3040.040101
820.055466	3112.005092
820.373919	3211.804815
820.692327	3345.975125
821.010691	3511.287162
821.329011	3942.777164
821.647286	4821.397347
821.965517	6182.960069
822.283704	6932.882115
822.601847	6907.310862
822.919945	6262.537203
823.237999	5751.303709
823.556010	5189.346125
823.873976	4647.923682
824.191897	4245.483329
824.509775	3956.398362
824.827609	3700.872355
825.145398	3576.801998
825.463144	3564.383115
825.780845	3655.446518
826.098502	3759.054832
826.416116	4032.434085
826.733685	4345.056200
827.051210	4403.624325
827.368692	4289.139721
827.686129	4029.774876
828.003522	3712.459447
828.320872	3462.844194
828.638177	3271.570214
828.955439	3144.255874
829.272656	3062.057340
829.589830	2999.345386
829.906960	2949.420319
830.224046	2905.108577
830.541088	2871.622712
830.858086	2858.966896
831.175041	2843.384689
831.491952	2842.799915
831.808819	2852.839373
832.125642	2878.208980
832.442421	2921.031061
832.759157	2999.476456
833.075849	3171.006757
833.392497	3444.953139
833.709101	3639.829023
834.025662	3590.317331
834.342179	3437.436779
834.658653	3264.991509
834.975083	3121.384159
835.291469	3027.001156
835.607811	2944.008640
835.924110	2889.034858
836.240366	2840.029801
836.556578	2799.723256
836.872746	2781.244906
837.188871	2756.036616
837.504952	2744.076479
837.820990	2734.336970
838.136984	2718.931203
838.452935	2713.474154
838.768842	2710.978783
839.084706	2728.337997
839.400526	2804.683751
839.716303	2937.137548
840.032037	3015.207377
840.347727	2996.794562
840.663373	2937.732404
840.978977	2863.569469
841.294537	2794.246042
841.610054	2749.382293
841.925527	2727.980075
842.240957	2706.494677
842.556344	2684.028775
842.871687	2668.925478
843.186987	2661.512461
843.502244	2657.587923
843.817458	2653.436533
844.132629	2642.565284
844.447756	2634.791825
844.762840	2626.597430
845.077881	2630.305198
845.392879	2629.670013
845.707833	2624.281019
846.022745	2614.181068
846.337613	2620.149794
846.652438	2619.930504
846.967221	2620.096862
847.281960	2616.573095
847.596656	2617.533435
847.911309	2615.310286
848.225919	2610.959770
848.540485	2611.748711
848.855009	2610.523711
849.169490	2609.518000
849.483928	2609.921293
849.798323	2611.037908
850.112675	2605.142279
850.426984	2606.553802
850.741251	2606.778133
851.055474	2606.621857
851.369654	2609.331478
851.683792	2608.645881
851.997887	2608.035901
852.311938	2606.301744
852.625947	2606.631940
852.939914	2610.710233
853.253837	2609.873402
853.567718	2606.170674
853.881555	2605.175046
854.195350	2607.867023
854.509103	2609.283587
854.822812	2603.758482
855.136479	2607.352825
855.450103	2606.465582
855.763685	2607.982969
856.077224	2607.814090
856.390720	2602.961980
856.704173	2607.294852
857.017584	2609.921293
857.330953	2612.255347
857.644278	2611.882302
857.957561	2612.787189
858.270802	2608.857609
858.584000	2607.786364
858.897155	2611.047991
859.210268	2611.337857
859.523339	2607.781323
859.836367	2603.844182
860.149352	2604.741507
860.462295	2606.147989
860.775195	2602.863677
861.088054	2602.006681
861.400869	2601.464757
861.713642	2599.465940
862.026373	2601.835282
862.339062	2603.035077
862.651708	2608.403905
862.964312	2608.335850
863.276873	2604.486929
863.589392	2609.848196
863.901869	2615.053187
864.214303	2619.446553
864.526696	2621.500823
864.839045	2623.378653
865.151353	2626.547018
865.463619	2625.682460
865.775842	2624.817902
866.088023	2623.567696
866.400162	2627.267903
866.712258	2626.360495
867.024313	2624.482666
867.336325	2621.959568
867.648296	2621.810854
867.960224	2626.438633
868.272110	2625.957203
868.583954	2620.835391
868.895755	2619.771707
869.207515	2624.235649
869.519233	2630.600106
869.830909	2626.594909
870.142542	2625.518623
870.454134	2622.844291
870.765684	2631.005919
871.077191	2634.333080
871.388657	2632.770322
871.700081	2634.121352
872.011463	2633.662607
872.322803	2636.490694
872.634101	2637.660242
872.945357	2643.344143
873.256571	2652.783703
873.567744	2649.373363
873.878874	2646.673825
874.189963	2650.477375
874.501010	2654.472490
874.812015	2657.136740
875.122979	2653.955772
875.433900	2647.354381
875.744780	2646.099133
876.055618	2652.042654
876.366415	2655.810916
876.677169	2658.555824
876.987882	2653.504588
877.298554	2648.861686
877.609183	2656.778818
877.919771	2663.687719
878.230317	2673.076868
878.540822	2678.854030
878.851285	2693.977492
879.161707	2713.401058
879.472087	2752.343971
879.782425	2796.295271
880.092722	2905.141344
880.402977	3088.505754
880.713191	3341.889269
881.023363	3631.372488
881.333494	3828.254751
881.643583	3991.573012
881.953631	3986.438597
882.263637	3809.453768
882.573602	3594.103237
882.883526	3463.008032
883.193408	3352.798326
883.503248	3248.781678
883.813048	3140.785040
884.122806	3028.485776
884.432522	2948.356636
884.742197	2887.734240
885.051831	2850.099506
885.361424	2815.771769
885.670975	2782.543003
885.980485	2753.815988
886.289954	2739.599934
886.599382	2724.952862
886.908768	2716.894577
887.218113	2697.997812
887.527417	2684.243024
887.836680	2675.942764
888.145901	2670.052176
888.455082	2665.227792
888.764221	2654.532984
889.073319	2644.531334
889.382376	2645.834473
889.691392	2645.025367
890.000366	2646.179792
890.309300	2645.413536
890.618193	2646.149545
890.927044	2651.808240
891.235855	2652.733292
891.544625	2648.692807
891.853353	2650.507622
892.162041	2658.137409
892.470687	2676.381344
892.779293	2685.450380
893.087858	2696.760209
893.396381	2718.905998
893.704864	2759.396545
894.013306	2825.130671
894.321707	2916.456214
894.630068	2963.701908
894.938387	2982.510453
895.246665	2970.797332
895.554903	2929.480035
895.863100	2886.461349
896.171256	2833.451095
896.479371	2774.494801
896.787446	2740.073803
897.095480	2722.633931
897.403473	2713.829556
897.711425	2699.318594
898.019336	2681.903928
898.327207	2667.766012
898.635038	2671.272135
898.942827	2665.217709
899.250576	2660.163952
899.558284	2650.384114
899.865952	2643.906231
900.173579	2641.652836
900.481165	2636.152937
900.788711	2631.822586
901.096216	2625.248921
901.403681	2623.857562
901.711105	2625.856380
902.018489	2621.190792
902.325832	2622.693056
902.633135	2625.811010
902.940397	2638.923051
903.247619	2674.548885
903.554800	2741.392064
903.861941	2863.256918
904.169041	2988.900115
904.476101	3048.257181
904.783121	3038.215203
905.090100	2984.521873
905.397039	2906.545306
905.703938	2838.179698
906.010796	2775.966818
906.317614	2728.174159
906.624391	2695.436906
906.931129	2670.238698
907.237826	2647.669453
907.544483	2632.273769
907.851099	2620.341358
908.157675	2608.383741
908.464211	2604.817124
908.770707	2592.105855
909.077163	2591.526122
909.383578	2587.548652
909.689954	2585.433888
909.996289	2582.852817
910.302584	2583.135122
910.608839	2581.007755
910.915054	2582.089082
911.221229	2583.944227
911.527363	2586.590833
911.833458	2581.380800
912.139513	2584.292067
912.445527	2586.800041
912.751502	2593.711462
913.057436	2594.722214
913.363331	2603.007350
913.669186	2611.257198
913.975000	2623.575258
914.280775	2640.624440
914.586510	2659.455670
914.892205	2696.951773
915.197859	2759.172214
915.503475	2838.698937
915.809050	2903.991961
916.114585	2920.398396
916.420081	2931.972886
916.725536	2935.663010
917.030952	2913.582756
917.336328	2865.240612
917.641665	2821.259065
917.946961	2773.917589
918.252218	2741.155130
918.557435	2716.176213
918.862612	2692.959179
919.167750	2676.588032
919.472848	2660.927687
919.777906	2647.160296
920.082925	2636.357103
920.387904	2625.279168
920.692843	2620.938734
920.997743	2615.542179
921.302603	2607.652773
921.607423	2605.089347
921.912204	2598.588779
922.216946	2595.312029
922.521647	2595.196082
922.826310	2589.620566
923.130932	2586.951275
923.435516	2578.240161
923.740059	2578.676221
924.044564	2580.387693
924.349028	2574.844944
924.653454	2566.184242
924.957840	2569.095508
925.262186	2561.339693
925.566493	2567.225240
925.870761	2560.049158
926.174989	2565.581824
926.479178	2559.560166
926.783328	2558.514126
927.087438	2557.248797
927.391509	2555.615463
927.695541	2555.144115
927.999533	2554.955072
928.303486	2555.461708
928.607400	2553.495658
928.911275	2550.818805
929.215110	2551.345606
929.518906	2553.833415
929.822663	2553.891388
930.126381	2551.844680
930.430060	2552.739485
930.733699	2554.513971
931.037299	2553.089845
931.340861	2552.920966
931.644383	2552.971378
931.947866	2552.250493
932.251309	2552.242931
932.554714	2552.192519
932.858080	2557.722665
933.161407	2554.728220
933.464694	2554.576985
933.767943	2552.835267
934.071153	2550.962478
934.374323	2549.646737
934.677455	2550.072714
934.980548	2550.649926
935.283602	2550.864175
935.586617	2549.868547
935.889593	2549.666901
936.192530	2548.283105
936.495428	2551.784186
936.798287	2552.169834
937.101108	2554.927345
937.403890	2554.607232
937.706632	2556.853066
938.009336	2562.731052
938.312002	2563.013356
938.614628	2568.198183
938.917216	2572.856209
939.219765	2572.563822
939.522275	2574.913000
939.824747	2570.756568
940.127179	2567.096691
940.429573	2561.327090
940.731929	2567.676423
941.034246	2561.924467
941.336524	2562.045455
941.638763	2561.506051
941.940964	2559.416493
942.243126	2559.713921
942.545250	2560.296174
942.847335	2558.824157
943.149381	2558.284754
943.451389	2554.763508
943.753359	2556.953889
944.055290	2556.333827
944.357182	2554.307283
944.659036	2552.981460
944.960851	2551.653116
945.262628	2551.315359
945.564367	2552.046326
945.866067	2552.031202
946.167729	2552.825184
946.469352	2555.000442
946.770937	2554.566903
947.072484	2553.551110
947.373992	2553.031872
947.675462	2556.192675
947.976893	2550.891902
948.278286	2551.050698
948.579641	2552.767211
948.880958	2546.299411
949.182236	2550.662529
949.483476	2548.058773
949.784678	2551.839639
950.085841	2552.293342
950.386967	2551.746377
950.688054	2547.773948
950.989103	2550.700338
951.290114	2551.343085
951.591087	2549.727395
951.892021	2555.696121
952.192917	2556.089331
952.493776	2556.167469
952.794596	2557.218550
953.095378	2556.525391
953.396122	2556.701832
953.696828	2553.173024
953.997496	2555.126471
954.298126	2551.637992
954.598718	2550.972560
954.899272	2550.949875
955.199788	2549.339226
955.500266	2551.070863
955.800706	2544.426622
956.101108	2542.793288
956.401472	2541.966539
956.701798	2539.347659
957.002087	2538.097453
957.302337	2541.711961
957.602550	2542.556354
957.902724	2538.800694
958.202861	2541.026364
958.502960	2540.857485
958.803022	2540.749100
959.103045	2540.537372
959.403031	2538.624254
959.702979	2538.525951
960.002889	2538.180632
960.302762	2537.376568
960.602596	2537.452186
960.902393	2537.769778
961.202153	2534.861032
961.501875	2537.583256
961.801559	2536.587628
962.101205	2536.418749
962.400814	2537.646270
962.700385	2533.147040
962.999918	2537.162319
963.299414	2531.392719
963.598873	2534.130065
963.898293	2534.377082
964.197677	2535.360107
964.497022	2536.091074
964.796331	2534.828265
965.095601	2537.479912
965.394835	2537.714326
965.694030	2532.519417
965.993189	2536.491846
966.292309	2534.303985
966.591393	2534.366999
966.890439	2537.749614
967.189447	2535.176105
967.488419	2534.523275
967.787353	2534.671989
968.086249	2535.327339
968.385108	2535.592000
968.683930	2536.849768
968.982714	2535.954963
969.281462	2535.319777
969.580172	2534.084695
969.878844	2534.603934
970.177480	2538.321785
970.476078	2533.963707
970.774639	2535.765920
971.073162	2537.832793
971.371649	2533.157122
971.670098	2533.646114
971.968510	2533.880528
972.266885	2532.685775
972.565223	2536.103677
972.863524	2534.603934
973.161788	2539.675334
973.460014	2535.460930
973.758204	2538.392361
974.056356	2535.483615
974.354471	2537.230375
974.652550	2536.769109
974.950591	2534.556043
975.248595	2536.063348
975.546563	2537.689120
975.844493	2534.465302
976.142386	2537.104346
976.440243	2533.562935
976.738062	2535.360107
977.035845	2533.068902
977.333590	2534.619057
977.631299	2533.376413
977.928971	2534.394726
978.226606	2534.417411
978.524204	2534.490508
978.821765	2533.676361
979.119290	2534.946732
979.416777	2536.943029
979.714228	2532.053110
980.011642	2533.368851
980.309020	2537.648791
980.606360	2533.872966
980.903664	2535.196269
981.200931	2533.310878
981.498162	2533.482277
981.795356	2538.193235
982.092513	2540.794471
982.389633	2539.783719
982.686717	2545.442414
982.983764	2547.060625
983.280775	2549.666901
983.577749	2548.623383
983.874686	2548.416695
984.171587	2546.682538
984.468451	2542.304296
984.765279	2543.025181
985.062070	2540.101312
985.358824	2535.939839
985.655543	2536.920344
985.952224	2535.894469
986.248869	2536.779192
986.545478	2529.903058
986.842050	2532.010260
987.138586	2529.434230
987.435086	2530.001360
987.731549	2529.255269
988.027975	2535.949922
988.324366	2531.745599
988.620719	2531.997657
988.917037	2530.911288
989.213318	2533.184849
989.509563	2533.653676
989.805772	2531.170908
990.101944	2530.260980
990.398080	2531.995137
990.694180	2530.775177
990.990244	2532.481608
991.286271	2533.630991
991.582262	2533.222658
991.878217	2530.969262
992.174136	2529.580424
992.470019	2530.651669
992.765865	2530.787780
993.061676	2529.197296
993.357450	2532.037986
993.653188	2530.785260
993.948890	2532.446320
994.244556	2531.992616
994.540186	2532.526978
994.835780	2533.719211
995.131337	2533.310878
995.426859	2533.419263
995.722345	2535.324819
996.017795	2538.137782
996.313208	2535.077802
996.608586	2534.213244
996.903928	2534.858512
997.199234	2536.176774
997.494504	2534.064530
997.789738	2534.709798
998.084936	2533.625950
998.380099	2532.141330
998.675225	2532.078316
998.970316	2532.927750
999.265371	2531.208717
999.560390	2531.551515
999.855373	2531.228881
1000.150320	2530.964221
1000.445232	2532.572349
1000.740108	2530.387008
1001.034948	2529.976154
1001.329752	2526.230577
1001.624521	2532.098480
1001.919254	2528.693181
1002.213951	2526.462470
1002.508613	2527.289219
1002.803239	2526.328880
1003.097829	2525.565145
1003.392384	2532.017822
1003.686903	2529.741741
1003.981386	2532.118645
1004.275834	2529.391381
1004.570246	2529.338448
1004.864623	2528.599919
1005.158964	2529.303160
1005.453270	2533.106711
1005.747540	2529.706453
1006.041775	2528.776360
1006.335974	2532.559746
1006.630138	2531.039838
1006.924266	2531.433048
1007.218359	2529.686288
1007.512416	2528.763757
1007.806438	2529.247708
1008.100425	2530.757533
1008.394376	2529.799714
1008.688292	2532.242153
1008.982172	2531.349869
1009.276017	2531.143182
1009.569827	2531.380116
1009.863602	2530.412214
1010.157341	2528.294930
1010.451045	2528.904909
1010.744714	2528.622605
1011.038347	2527.135464
1011.331945	2529.509848
1011.625508	2530.581093
1011.919036	2527.475742
1012.212528	2531.503624
1012.505986	2529.472039
1012.799408	2531.478418
1013.092795	2528.534384
1013.386147	2528.088242
1013.679464	2528.057995
1013.972745	2528.241998
1014.265992	2529.608150
1014.559204	2531.024714
1014.852380	2529.401463
1015.145521	2528.400794
1015.438628	2527.188396
1015.731699	2530.389529
1016.024736	2528.511699
1016.317737	2527.347193
1016.610703	2533.089067
1016.903635	2524.594723
1017.196531	2525.517254
1017.489393	2526.102028
1017.782219	2523.117665
1018.075011	2528.201668
1018.367768	2526.099507
1018.660490	2527.707635
1018.953177	2527.707635
1019.245829	2527.707635
