Dividing Wavelength (nm)	Counts (n)	Blue Motor Position (mm): 0.000000	Red Motor Position (mm): 49.500000	
326.493990	2079.488564
326.888308	2079.488564
327.282561	2079.488564
327.676750	2053.103165
328.070874	2056.329504
328.464933	2061.925184
328.858929	2070.532955
329.252859	2082.369584
329.646726	2096.114290
330.040528	2111.270519
330.434265	2132.304733
330.827938	2152.602939
331.221547	2171.504746
331.615091	2193.093487
332.008571	2215.574513
332.401986	2234.791391
332.795338	2255.298805
333.188625	2276.504418
333.581847	2293.548560
333.975006	2310.252423
334.368100	2331.495845
334.761129	2346.745336
335.154095	2359.622963
335.546996	2407.821435
335.939833	2495.847543
336.332606	2508.226096
336.725315	2519.298991
337.117960	2529.429189
337.510540	2533.131917
337.903056	2544.489636
338.295508	2553.404917
338.687896	2559.822306
339.080220	2563.817420
339.472480	2572.165571
339.864676	2573.577094
340.256807	2577.221848
340.648875	2580.271746
341.040879	2583.747622
341.432818	2579.631520
341.824694	2582.872982
342.216506	2579.571026
342.608253	2584.337437
342.999937	2582.928434
343.391557	2582.328537
343.783113	2582.822570
344.174605	2579.515573
344.566033	2573.680438
344.957397	2577.340315
345.348697	2573.965263
345.739934	2572.896538
346.131106	2572.745304
346.522215	2570.055848
346.913260	2566.088460
347.304241	2565.622153
347.695159	2563.885476
348.086012	2564.462688
348.476802	2559.986143
348.867528	2561.112841
349.258191	2559.852553
349.648789	2556.754764
350.039324	2556.101934
350.429796	2557.639486
350.820203	2554.219063
351.210548	2556.008673
351.600828	2552.573127
351.991045	2555.895247
352.381198	2553.447767
352.771288	2554.917263
353.161314	2554.425751
353.551276	2554.405586
353.941175	2551.630431
354.331010	2552.736964
354.720782	2556.653941
355.110490	2562.194169
355.500135	2556.033879
355.889717	2556.036399
356.279235	2555.502037
356.668689	2559.703839
357.058080	2559.489590
357.447408	2554.201419
357.836672	2555.025648
358.225873	2556.404403
358.615010	2558.405742
359.004084	2560.835578
359.393095	2561.727862
359.782043	2562.400856
360.170927	2566.839592
360.559748	2567.925961
360.948505	2566.310271
361.337199	2568.780436
361.725830	2568.520817
362.114398	2568.377144
362.502903	2569.067782
362.891344	2573.786302
363.279722	2567.429407
363.668037	2569.171126
364.056289	2572.596590
364.444478	2569.634912
364.832603	2572.024419
365.220665	2575.550706
365.608665	2575.666652
365.996601	2577.264698
366.384474	2578.182188
366.772284	2577.743608
367.160031	2578.363670
367.547715	2579.818042
367.935336	2580.889288
368.322893	2582.338619
368.710388	2582.860379
369.097820	2586.729464
369.485189	2585.837180
369.872495	2587.568817
370.259738	2588.052767
370.646918	2591.173242
371.034035	2595.816144
371.421090	2597.114241
371.808081	2598.538367
372.195010	2604.635643
372.581875	2606.331991
372.968678	2612.741818
373.355418	2618.365225
373.742096	2629.738068
374.128710	2636.959521
374.515262	2648.735657
374.901751	2661.109169
375.288177	2676.217507
375.674540	2688.084383
376.060841	2710.015923
376.447079	2730.288923
376.833254	2755.068715
377.219367	2774.174688
377.605417	2807.385809
377.991404	2832.478153
378.377329	2871.789070
378.763191	2899.906106
379.148991	2948.548199
379.534727	2995.529233
379.920402	3037.287631
380.306013	3082.932758
380.691563	3144.286121
381.077049	3193.709593
381.462474	3248.118767
381.847835	3316.280208
382.233134	3386.193450
382.618371	3439.105401
383.003545	3519.221938
383.388657	3598.960389
383.773706	3686.270653
384.158693	3752.753390
384.543618	3841.175229
384.928480	3914.536620
385.313280	4014.369110
385.698017	4109.961990
386.082692	4229.626379
386.467305	4290.684835
386.851856	4406.555756
387.236344	4555.332809
387.620770	4616.686172
388.005133	4726.177513
388.389435	4866.901322
388.773674	4947.804280
389.157851	5075.496707
389.541965	5200.605542
389.926018	5225.778544
390.310008	5397.563423
390.693936	5518.523389
391.077802	5624.992558
391.461606	5756.246560
391.845348	5862.504001
392.229027	5983.025387
392.612645	6193.183529
392.996200	6314.093083
393.379694	6476.287167
393.763125	6693.008892
394.146494	6785.572038
394.529801	6915.043992
394.913047	7145.633931
395.296230	7152.396639
395.679351	7201.825152
396.062410	7452.529295
396.445408	7352.298553
396.828343	7507.145155
397.211217	7643.412585
397.594028	7523.813731
397.976778	7726.430307
398.359466	7891.563383
398.742092	7877.949747
399.124656	8011.484871
399.507158	8205.405457
399.889598	8219.621511
400.271977	8442.165768
400.654294	8464.293913
401.036549	8667.946446
401.418742	8687.186009
401.800874	8983.870516
402.182944	9070.780008
402.564952	9422.808823
402.946898	9262.510213
403.328783	9318.295621
403.710606	9511.951546
404.092367	9763.011090
404.474067	10119.254309
404.855705	9923.037478
405.237282	9873.712308
405.618797	10301.794490
406.000250	10531.666064
406.381642	10889.572863
406.762972	10847.277583
407.144240	10664.555920
407.525447	10916.006154
407.906593	10863.802485
408.287677	11125.193874
408.668700	11267.704772
409.049661	11263.293763
409.430560	11415.682802
409.811399	11392.165820
410.192176	11552.156919
410.572891	11632.996862
410.953545	12098.363418
411.334138	11595.021850
411.714669	12168.785817
412.095139	11518.965962
412.475547	11993.580515
412.855894	11862.475227
413.236180	12178.979030
413.616405	11885.122610
413.996568	12159.494970
414.376670	12130.946916
414.756711	12018.143537
415.136691	12303.102320
415.516609	12473.387455
415.896466	12560.077658
416.276262	12845.202798
416.655997	13296.696099
417.035670	13343.382224
417.415283	13956.409217
417.794834	14049.612590
418.174324	13797.154126
418.553753	13708.530642
418.933121	14190.303632
419.312428	14033.158264
419.691674	13929.277727
420.070859	14398.195776
420.449983	14047.893557
420.829045	14611.290390
421.208047	14363.951218
421.586988	14817.695393
421.965867	15052.827411
422.344686	15068.094546
422.723444	15639.968079
423.102141	14339.375593
423.480777	15525.982550
423.859352	15020.934552
424.237866	16127.624097
424.616319	15844.386868
424.994712	16491.638254
425.373044	16286.450690
425.751314	16977.547512
426.129524	16113.483660
426.507673	17184.847319
426.885762	16912.546874
427.263789	17092.614369
427.641756	17281.884490
428.019662	17340.248448
428.397508	17394.702992
428.775292	17673.942586
429.153016	17656.732087
429.530679	17734.259992
429.908282	17770.261392
430.285824	17496.798961
430.663305	18214.928970
431.040726	17811.112382
431.418086	17659.517324
431.795385	18296.938461
432.172624	18736.839628
432.549802	18301.243606
432.926920	18515.008694
433.303977	18395.732473
433.680974	18641.350092
434.057910	18953.725190
434.434786	18983.752822
434.811601	18927.614533
435.188355	19964.058120
435.565050	19632.932450
435.941683	19594.339897
436.318257	20488.388532
436.694770	20286.835639
437.071222	20894.017414
437.447614	19970.646908
437.823946	19994.995681
438.200218	20172.557722
438.576429	19946.038516
438.952580	20250.536811
439.328670	20213.567509
439.704700	20648.072121
440.080670	20213.706141
440.456580	20838.536995
440.832429	20991.785552
441.208218	20009.312558
441.583947	20441.851120
441.959616	20561.893596
442.335224	20823.141312
442.710773	20964.913681
443.086261	21516.967918
443.461689	20843.129487
443.837057	21016.802278
444.212365	21672.028769
444.587612	21666.516268
444.962800	21270.306781
445.337927	21705.300385
445.712995	20409.696120
446.088002	22319.176812
446.462949	22508.192355
446.837837	22697.722096
447.212664	22720.147668
447.587431	25665.819890
447.962139	28632.491037
448.336786	30965.216924
448.711374	29324.696913
449.085901	25573.705406
449.460369	25590.343734
449.834776	25580.213536
450.209124	28131.586867
450.583412	27616.736346
450.957640	28125.507236
451.331808	26763.347137
451.705917	25384.488217
452.079965	25422.987509
452.453954	25814.927138
452.827883	25721.509516
453.201752	25523.220771
453.575562	25686.165987
453.949311	26821.499368
454.323001	26899.181028
454.696632	26676.881267
455.070202	28279.010371
455.443713	28460.355798
455.817164	29035.211174
456.190556	29612.705594
456.563888	29019.109728
456.937160	29468.137904
457.310373	27753.810360
457.683526	28193.479634
458.056619	28202.326859
458.429653	28181.446400
458.802628	28783.753379
459.175542	28916.900334
459.548398	30301.191098
459.921194	31910.352612
460.293930	32662.999401
460.666607	34751.473823
461.039224	36559.350059
461.411782	36903.726402
461.784280	35631.450076
462.156719	35090.519145
462.529099	34527.979308
462.901419	33194.226111
463.273680	32131.470222
463.645882	32267.024328
464.018024	32272.677982
464.390106	33203.290106
464.762130	36086.517554
465.134094	40403.822202
465.505999	45904.091573
465.877845	50441.412339
466.249631	51483.703664
466.621358	49665.679585
466.993026	47431.914069
467.364634	45288.692717
467.736184	43325.838809
468.107674	42040.626883
468.479105	41246.592220
468.850477	40525.495491
469.221790	39078.606200
469.593043	37296.404560
469.964238	36389.324543
470.335373	36337.851841
470.706449	38189.540746
471.077467	40938.572679
471.448425	45628.751312
471.819324	48422.568856
472.190164	46430.498940
472.560945	42810.446363
472.931667	39625.558789
473.302330	38522.425778
473.672934	37666.808380
474.043479	38211.192501
474.413965	37408.078720
474.784393	37048.296612
475.154761	37967.929102
475.525070	38018.257461
475.895321	37525.073819
476.265513	38162.638628
476.635645	39160.028396
477.005719	38997.642748
477.375734	39505.234008
477.745691	40230.630841
478.115588	41613.258024
478.485427	43730.013318
478.855207	47203.741364
479.224928	49853.850735
479.594591	51422.574633
479.964194	50331.495021
480.333739	50486.487816
480.703226	50545.383617
481.072653	51189.070907
481.442022	51666.790810
481.811333	51879.197307
482.180584	50618.175358
482.549777	50087.362022
482.918912	49552.341844
483.287988	49231.260673
483.657005	48418.843443
484.025964	47728.626302
484.394864	47716.093994
484.763706	47287.389230
485.132489	46393.091058
485.501213	46234.967706
485.869879	46395.475524
486.238487	45956.829604
486.607036	46168.979002
486.975527	45627.816178
487.343959	45833.863259
487.712333	45912.462409
488.080648	45798.711293
488.448905	46263.629186
488.817104	46054.317958
489.185244	47071.350582
489.553326	48837.531434
489.921350	51608.948611
490.289315	54419.895996
490.657222	54955.100176
491.025070	55189.418048
491.392861	54276.321414
491.760593	53020.055793
492.128267	51344.013291
492.495883	49782.536052
492.863440	48365.397130
493.230939	46986.404619
493.598380	45891.322330
493.965763	45544.952211
494.333088	44729.618673
494.700354	44240.757820
495.067563	43930.366416
495.434713	43787.701763
495.801805	43872.362900
496.168839	43472.274246
496.535815	43147.858352
496.902733	43150.439422
497.269593	42720.124010
497.636395	42643.836228
498.003139	43043.508988
498.369825	42510.442257
498.736453	42799.368427
499.103023	42339.436236
499.469535	42208.399003
499.835989	42304.871564
500.202385	41945.553242
500.568723	41974.451656
500.935003	42164.447703
501.301226	41954.675210
501.667390	42564.087695
502.033497	42824.294413
502.399546	42263.100564
502.765537	41549.497510
503.131470	41941.522839
503.497345	42303.485247
503.863163	40927.572881
504.228923	41588.246339
504.594625	41997.847651
504.960269	41251.267890
505.325856	41947.350413
505.691385	41306.944914
506.056856	41458.113994
506.422270	41900.225707
506.787625	41449.181069
507.152924	41658.033553
507.518164	41748.378591
507.883347	40946.358741
508.248472	41187.106604
508.613540	41692.467154
508.978550	41987.672082
509.343503	41738.593712
509.708398	41931.548916
510.073236	42481.758091
510.438016	42467.922644
510.802738	41918.522575
511.167403	42554.441447
511.532010	42765.675876
511.896561	43083.316459
512.261053	43946.956854
512.625488	43490.777801
512.989866	43356.899878
513.354186	43198.461454
513.718449	43176.915563
514.082655	43863.984502
514.446803	43531.059141
514.810894	44063.117641
515.174927	43971.598014
515.538904	43864.639852
515.902822	44545.392227
516.266684	43979.497502
516.630488	44418.150983
516.994235	44258.086787
517.357925	44845.383730
517.721558	45017.791192
518.085133	45315.988045
518.448651	45431.634635
518.812112	45201.299274
519.175516	45308.096118
519.538863	45632.517054
519.902152	45602.539832
520.265385	46063.742395
520.628560	46091.085613
520.991678	45884.259674
521.354739	46109.684950
521.717743	46419.816735
522.080690	46312.178018
522.443580	46856.267232
522.806413	46900.780621
523.169189	46846.817589
523.531908	47019.424176
523.894569	46869.369191
524.257174	47039.051909
524.619722	47338.357816
524.982213	47307.170717
525.344647	47235.603977
525.707025	47261.170188
526.069345	47678.234928
526.431608	47584.787060
526.793815	47909.296215
527.155964	47432.027495
527.518057	47580.403776
527.880093	47366.142135
528.242072	47887.989778
528.603995	47584.797142
528.965860	47571.059998
529.327669	47669.198660
529.689421	47570.699555
530.051117	47525.447638
530.412755	47663.154317
530.774337	47742.149197
531.135862	47549.327583
531.497331	47720.958707
531.858743	47633.177095
532.220098	47960.791602
532.581396	47668.697065
532.942638	47308.443609
533.303824	47640.348137
533.664953	47587.390816
534.026025	47295.979356
534.387040	47774.926780
534.747999	47744.480731
535.108902	47907.867048
535.469748	47386.137872
535.830537	47512.441461
536.191270	47696.257053
536.551947	47341.942076
536.912567	47656.174839
537.273131	47779.516750
537.633638	47261.545754
537.994089	47602.683156
538.354483	47179.019545
538.714821	47767.266747
539.075103	48106.027244
539.435328	47876.556441
539.795497	47714.947131
540.155609	47725.470540
540.515665	48192.901448
540.875665	47631.420253
541.235609	47960.249678
541.595496	47933.965101
541.955328	48605.592987
542.315102	47955.921847
542.674821	47712.507213
543.034483	47763.301879
543.394090	47740.684742
543.753640	47680.967234
544.113134	48697.473057
544.472571	47681.824230
544.831953	48942.904153
545.191278	48117.591651
545.550548	47842.319445
545.909761	48310.667843
546.268918	48506.430970
546.628019	48809.381631
546.987064	48349.837608
547.346053	47605.942262
547.704986	48492.540071
548.063863	48051.088749
548.422684	48209.852328
548.781449	48046.501299
549.140158	48464.622161
549.498811	48292.008012
549.857408	47702.316520
550.215949	48554.712621
550.574434	48475.498450
550.932864	48239.028006
551.291237	48936.632957
551.649555	48553.603567
552.007817	48774.973236
552.366022	48415.851518
552.724173	48587.452395
553.082267	48976.324482
553.440305	49254.467625
553.798288	48554.594154
554.156215	48867.059993
554.514086	49063.470909
554.871902	48790.499990
555.229661	48803.917021
555.587365	48626.843971
555.945014	48731.614272
556.302606	48645.188730
556.660143	48871.266836
557.017625	48946.344740
557.375050	48724.370133
557.732421	49081.520760
558.089735	49035.374038
558.446994	48940.008010
558.804197	49394.828472
559.161345	49318.507923
559.518437	48559.395853
559.875474	48857.769147
560.232455	49041.826715
560.589381	49199.879491
560.946251	48892.248118
561.303065	49566.247867
561.659825	49342.637406
562.016528	49021.901554
562.373177	48724.962469
562.729770	49200.295386
563.086307	48718.086335
563.442789	49158.657976
563.799216	49186.245690
564.155587	48989.673458
564.511904	49004.272639
564.868164	49069.066589
565.224370	49305.680707
565.580520	49025.258963
565.936615	49232.546168
566.292654	48930.767575
566.648638	49201.641374
567.004567	49134.289038
567.360441	49184.698056
567.716260	49033.826403
568.072023	49306.580553
568.427732	49278.977715
568.783385	48808.716199
569.138982	49214.793744
569.494525	49139.491509
569.850013	48910.736550
570.205445	48897.853881
570.560823	48820.535184
570.916145	48673.378862
571.271412	48731.836082
571.626625	48465.274990
571.981782	48496.414198
572.336884	48161.590842
572.691931	48474.643975
573.046923	48088.138709
573.401860	47896.647960
573.756743	47875.167603
574.111570	47975.695773
574.466342	47813.592430
574.821059	47918.047658
575.175722	47436.967826
575.530330	47452.502142
575.884882	47147.598033
576.239380	47091.157275
576.593823	47065.223059
576.948211	46993.815115
577.302544	46509.622370
577.656823	46489.185532
578.011047	46724.047849
578.365216	46448.170705
578.719330	46212.443830
579.073389	46070.139619
579.427394	46150.367062
579.781344	46106.448530
580.135239	45747.261277
580.489080	45796.324307
580.842866	45276.178053
581.196597	45725.811167
581.550273	45672.886614
581.903895	45524.437236
582.257463	45939.634228
582.610975	45322.886864
582.964434	45579.204331
583.317837	45206.867229
583.671186	45039.689964
584.024481	45260.626093
584.377721	44771.271207
584.730906	45049.124484
585.084037	45085.022540
585.437113	44788.922807
585.790135	44795.874558
586.143103	44383.745108
586.496016	44495.555380
586.848874	44524.479000
587.201679	44512.876784
587.554428	43991.034182
587.907124	44183.850755
588.259765	43924.185962
588.612352	44173.259291
588.964884	43539.467785
589.317362	43827.836909
589.669786	43756.053399
590.022155	43539.727405
590.374470	43938.588538
590.726731	43447.723827
591.078937	42941.712968
591.431090	43059.933067
591.783188	42694.305740
592.135232	42361.995399
592.487222	42618.007877
592.839157	42689.030173
593.191038	42357.919626
593.542866	42090.839296
593.894639	41511.580472
594.246358	41781.952676
594.598022	41743.052612
594.949633	41354.291431
595.301190	41297.129787
595.652692	41130.151648
596.004141	41450.015380
596.355535	40462.733126
596.706876	40395.569833
597.058162	40222.864944
597.409395	40683.074399
597.760573	40766.019024
598.111698	40346.368172
598.462768	40344.608809
598.813785	40367.435154
599.164748	39834.464204
599.515657	40219.512576
599.866511	39691.560096
600.217312	40336.411893
600.568060	39276.836972
600.918753	40045.179394
601.269392	39968.072425
601.619978	39619.786668
601.970510	39834.532260
602.320988	40003.357982
602.671412	40307.331997
603.021783	40056.670704
603.372100	39691.970950
603.722363	39802.548659
604.072572	39862.087207
604.422728	39884.969004
604.772830	39695.635869
605.122878	39800.839708
605.472872	39715.092202
605.822813	39985.887863
606.172701	39828.611425
606.522534	40051.256505
606.872314	40324.860089
607.222041	40080.424621
607.571714	40461.745060
607.921333	39901.216643
608.270899	40193.638854
608.620411	40529.750225
608.969870	40330.528866
609.319276	40348.291372
609.668627	40375.964786
610.017926	40864.155166
610.367171	41022.608713
610.716362	41086.422159
611.065500	41040.819882
611.414585	41210.179966
611.763616	41506.597291
612.112594	41444.638990
612.461518	41658.562874
612.810389	41955.322998
613.159207	41824.719305
613.507971	41888.799932
613.856682	42365.030174
614.205340	42262.780450
614.553945	42935.885394
614.902496	42396.912951
615.250994	42869.264026
615.599439	42944.404944
615.947830	43126.824137
616.296169	43202.411198
616.644454	43307.047908
616.992686	43478.686593
617.340864	43988.377494
617.688990	43697.543247
618.037063	44322.810161
618.385082	44273.371565
618.733048	44577.302731
619.080961	44579.644347
619.428821	44599.919867
619.776628	44694.806986
620.124382	44541.208069
620.472083	44653.469524
620.819731	44778.338905
621.167326	44445.547134
621.514868	44414.856589
621.862357	43958.271723
622.209793	43998.542981
622.557176	43668.554091
622.904506	43379.640523
623.251783	43050.395204
623.599007	42830.830269
623.946179	42611.862710
624.293297	42552.971951
624.640363	41965.357415
624.987376	41917.930239
625.334336	41708.931562
625.681243	41345.313136
626.028097	41319.512510
626.374899	41167.269664
626.721647	41146.414411
627.068343	41034.626824
627.414987	40797.362398
627.761577	40579.335014
628.108115	40918.942426
628.454600	40373.013190
628.801032	40560.181150
629.147412	40500.967757
629.493739	40508.779025
629.840014	40152.790385
630.186236	40491.848310
630.532405	40085.916958
630.878521	40303.578858
631.224585	40167.132467
631.570597	39867.183813
631.916556	40044.493797
632.262462	39991.223924
632.608316	39986.172688
632.954117	39893.649871
633.299866	39886.443542
633.645562	39794.528184
633.991206	39297.125095
634.336797	38881.492043
634.682336	38859.280719
635.027823	38604.074826
635.373257	38422.782331
635.718639	38174.011471
636.063968	38058.170797
636.409245	37471.786302
636.754470	37517.544856
637.099642	37267.675024
637.444762	36792.715153
637.789829	36944.383307
638.134845	36610.900898
638.479808	36543.467904
638.824719	36444.668850
639.169577	36071.121871
639.514383	36137.269371
639.859137	35808.810471
640.203839	36058.876908
640.548489	35706.031427
640.893086	35771.276560
641.237632	35508.501375
641.582125	35616.619002
641.926566	35552.079629
642.270955	35520.693406
642.615292	35544.054112
642.959576	35511.062281
643.303809	35505.380901
643.647990	35644.327704
643.992118	35612.150019
644.336195	35600.570488
644.680219	35685.529054
645.024192	35983.995609
645.368112	36517.884048
645.711981	36511.224684
646.055797	37381.892447
646.399562	37311.228073
646.743274	38259.915253
647.086935	38695.894402
647.430544	38590.468752
647.774101	38691.879123
648.117606	38937.829458
648.461059	39218.616686
648.804460	38821.383845
649.147810	38212.125115
649.491108	37951.593243
649.834354	37592.597554
650.177548	36751.077743
650.520690	36329.793557
650.863781	36335.777406
651.206820	36182.624632
651.549807	35739.247589
651.892742	35259.264208
652.235626	35078.939615
652.578458	34943.166218
652.921238	34328.251313
653.263967	34664.662633
653.606644	34330.721478
653.949269	34285.272956
654.291843	33861.773183
654.634365	34260.765387
654.976836	33870.461612
655.319255	33870.391036
655.661622	33857.039540
656.003938	33646.894000
656.346203	33515.216541
656.688416	33740.034359
657.030577	33531.935528
657.372687	33376.773854
657.714746	33622.111688
658.056753	33740.422528
658.398708	33206.418142
658.740612	33238.552977
659.082465	33535.297978
659.424266	33372.367885
659.766016	33479.033660
660.107715	33343.872763
660.449362	33478.153978
660.790958	33436.753502
661.132503	33454.251347
661.473996	33489.753673
661.815438	33616.344608
662.156829	33795.703821
662.498168	33559.203129
662.839456	33583.942592
663.180693	33731.998760
663.521879	33899.811209
663.863013	33845.994372
664.204097	33838.276365
664.545129	34293.215294
664.886110	34266.444246
665.227040	34331.356664
665.567918	34447.741783
665.908746	34482.969366
666.249522	34649.874408
666.590248	34676.292575
666.930922	34761.619145
667.271545	34735.195937
667.612118	34804.405938
667.952639	34579.378913
668.293109	34655.462527
668.633528	34544.176535
668.973896	34464.216273
669.314213	34498.501161
669.654480	34235.095831
669.994695	34251.729118
670.334859	34150.764889
670.674973	34058.413471
671.015035	34193.140828
671.355047	34134.265193
671.695008	34081.043211
672.034918	33989.679859
672.374777	34078.832665
672.714585	33897.278030
673.054342	34118.196515
673.394049	33881.920154
673.733705	34164.653268
674.073310	33803.250428
674.412864	33888.743356
674.752368	33517.114536
675.091820	33794.451094
675.431223	33380.279976
675.770574	33080.361569
676.109875	32943.486681
676.449125	32660.236849
676.788324	32578.068562
677.127473	32045.563919
677.466571	31977.740236
677.805619	31622.797634
678.144616	31621.650772
678.483562	31539.505170
678.822458	31212.616590
679.161303	31151.023772
679.500098	31061.155123
679.838842	30944.971650
680.177535	31094.804825
680.516179	31397.377399
680.854771	31638.286580
681.193314	32489.760149
681.531805	33629.491937
681.870247	34385.460847
682.208638	35093.914362
682.546978	35309.388401
682.885268	35390.429990
683.223508	34866.391966
683.561697	34533.247314
683.899836	34344.297306
684.237925	33838.651931
684.575963	33689.953016
684.913951	33214.544482
685.251889	33366.452091
685.589776	33373.625653
685.927614	33372.098184
686.265401	33501.847401
686.603137	33582.488219
686.940824	34099.393011
687.278460	34485.121938
687.616046	34607.511072
687.953582	35195.095361
688.291068	35053.885080
688.628504	35332.905384
688.965889	35255.770689
689.303224	34895.797016
689.640510	34539.384918
689.977745	33779.564567
690.314930	32980.428256
690.652065	32463.236118
690.989150	31732.636815
691.326185	30819.146971
691.663170	30136.350408
692.000105	29386.750996
692.336990	28702.913436
692.673825	28241.264731
693.010610	27740.163957
693.347345	27159.264237
693.684030	26496.551632
694.020665	26223.399231
694.357251	25545.353957
694.693786	25496.555587
695.030272	25260.259063
695.366707	24734.166768
695.703093	24434.386993
696.039429	24451.201761
696.375716	24179.254197
696.711952	24145.032324
697.048139	23980.690708
697.384276	23801.334016
697.720363	23932.467031
698.056400	23724.784095
698.392388	23513.874821
698.728326	23468.766576
699.064214	23265.580350
699.400053	23202.817985
699.735842	22842.015042
700.071581	22576.555442
700.407270	22274.912961
700.742910	22082.166964
701.078501	21831.891320
701.414042	21555.240358
701.749533	21243.775188
702.084974	20893.750233
702.420366	21101.092891
702.755709	20664.158443
703.091002	20360.774243
703.426246	20373.563650
703.761440	20280.882036
704.096584	20007.908597
704.431679	19964.138778
704.766725	19872.384737
705.101721	19808.997269
705.436668	19908.814636
705.771565	19578.982022
706.106413	19929.737945
706.441212	19923.950700
706.775961	20040.650891
707.110661	20109.747466
707.445311	20473.915379
707.779913	20293.542894
708.114465	20550.813140
708.448967	20836.258394
708.783421	21520.990759
709.117825	21800.991567
709.452180	22003.782063
709.786485	22410.484711
710.120742	23200.176420
710.454949	23214.699984
710.789107	23685.942005
711.123216	24383.599888
711.457275	24498.944009
711.791286	25019.203689
712.125247	25089.794966
712.459159	24783.756598
712.793023	25440.235817
713.126837	24328.217772
713.460602	24593.198462
713.794318	24219.041503
714.127985	23844.375388
714.461602	22936.322428
714.795171	22886.631774
715.128691	21882.441490
715.462162	21341.991989
715.795584	20928.249369
716.128957	20657.869603
716.462281	20259.144581
716.795556	20030.845847
717.128782	19526.019659
717.461960	18985.376074
717.795088	18907.253313
718.128167	18491.839551
718.461198	18040.416827
718.794180	17908.734327
719.127113	17547.825520
719.459997	17356.803598
719.792833	16995.375552
720.125619	16966.023434
720.458357	16651.848644
720.791046	16475.133516
721.123686	16320.488560
721.456278	16084.197077
721.788821	16042.237033
722.121315	15784.505522
722.453761	15860.652151
722.786158	15778.448575
723.118506	15799.323993
723.450805	15667.109652
723.783056	15818.800491
724.115259	15720.014041
724.447412	15641.969417
724.779518	15889.787499
725.111574	15901.548511
725.443582	16102.788852
725.775542	16090.511122
726.107453	16558.564613
726.439315	16443.883404
726.771129	16833.357909
727.102895	17200.555555
727.434612	17407.631031
727.766281	17521.009102
728.097901	17779.096014
728.429473	17819.243763
728.760996	17797.962532
729.092471	17890.472747
729.423897	17766.304086
729.755276	17628.325185
730.086606	17755.069875
730.417887	18280.315256
730.749120	18784.264283
731.080305	18958.673082
731.411442	19280.696949
731.742530	19343.920580
732.073570	19427.177756
732.404562	19736.649149
732.735506	19538.844355
733.066401	19245.038347
733.397249	18724.829079
733.728048	18090.866174
734.058798	17258.780882
734.389501	16580.430617
734.720156	16134.127185
735.050762	15605.267297
735.381320	15254.297125
735.711831	15016.062276
736.042293	14667.990768
736.372707	14695.691908
736.703073	14473.402229
737.033391	14665.364327
737.363661	14635.959276
737.693883	14733.578700
738.024056	14904.854422
738.354182	15086.351084
738.684260	15369.923550
739.014290	15582.919862
739.344272	15764.953407
739.674207	16039.776950
740.004093	16143.506252
740.333931	16142.346786
740.663722	16179.089236
740.993464	16167.018193
741.323159	15996.667523
741.652806	15715.280397
741.982405	15496.733775
742.311956	15153.461445
742.641460	15050.185847
742.970915	14747.444394
743.300323	14408.898145
743.629683	14211.904977
743.958996	13933.189663
744.288260	13663.956759
744.617477	13371.363149
744.946647	13299.070482
745.275768	13023.200900
745.604842	12840.564937
745.933869	12671.575378
746.262847	12623.709622
746.591778	12553.912326
746.920662	12449.507510
747.249498	12449.562962
747.578286	12562.769634
747.907027	12715.841750
748.235720	12927.292948
748.564365	12954.197586
748.892963	12854.717976
749.221514	12915.055547
749.550017	12771.039864
749.878473	12725.656876
750.206881	12502.255623
750.535242	12412.374370
750.863555	12330.160713
751.191821	12229.952657
751.520039	12244.135943
751.848210	12157.917089
752.176334	12190.046883
752.504411	12099.918614
752.832440	11942.110334
753.160421	11996.113694
753.488356	11875.965354
753.816243	11790.706840
754.144082	11648.357258
754.471875	11590.081520
754.799620	11528.700430
755.127318	11506.211843
755.454969	11464.042591
755.782572	11417.716908
756.110129	11437.972264
756.437638	11352.595282
756.765100	11331.185502
757.092515	11343.163284
757.419882	11364.167251
757.747203	11369.160514
758.074477	11437.886564
758.401703	11393.491643
758.728882	11549.268338
759.056014	11588.808628
759.383099	11702.998325
759.710138	11803.312245
760.037129	11892.853220
760.364073	11911.127402
760.690970	11897.712892
761.017820	11898.017882
761.344623	12081.687281
761.671379	12409.269020
761.998088	13064.193042
762.324751	14645.595442
762.651366	17525.399947
762.977935	21114.451948
763.304456	23253.947888
763.630931	23633.929900
763.957359	22453.067338
764.283740	20560.184645
764.610074	18709.236790
764.936362	16614.977645
765.262602	15111.856802
765.588796	13663.654290
765.914943	12650.712562
766.241044	11810.702577
766.567097	11186.466578
766.893104	10650.042438
767.219064	10293.932810
767.544978	9918.349205
767.870845	9614.352504
768.196665	9426.133464
768.522438	9235.855112
768.848165	9069.318074
769.173846	8901.256087
769.499479	8781.566492
769.825066	8628.605281
770.150607	8444.658618
770.476101	8381.036736
770.801548	8271.623533
771.126949	8138.169067
771.452303	8046.883854
771.777611	7889.985502
772.102872	7862.889300
772.428087	7748.802947
772.753256	7628.286603
773.078378	7541.810650
773.403453	7395.861684
773.728482	7291.802187
774.053465	7229.828762
774.378401	7144.209805
774.703291	7050.477111
775.028135	6955.164015
775.352932	6915.439723
775.677683	6837.218659
776.002388	6749.298415
776.327046	6745.777169
776.651658	6661.567215
776.976224	6586.227171
777.300743	6573.205870
777.625216	6506.909656
777.949643	6465.841896
778.274024	6468.276774
778.598359	6399.704478
778.922647	6408.539101
779.246889	6363.259457
779.571086	6371.174068
779.895236	6382.123454
780.219339	6378.922322
780.543397	6376.137084
780.867409	6426.621719
781.191374	6421.285658
781.515294	6394.302882
781.839167	6440.744512
782.162995	6407.782927
782.486776	6366.843717
782.810511	6320.853271
783.134201	6242.173462
783.457844	6235.108285
783.781441	6190.559608
784.104993	6142.010776
784.428498	6115.199399
784.751958	6098.152738
785.075372	6077.219346
785.398739	6040.040837
785.722061	6058.831738
786.045337	6059.295524
786.368568	6170.896588
786.691752	6193.841399
787.014891	6440.799965
787.337983	6723.785136
787.661030	7153.767832
787.984031	7574.908345
788.306987	7834.268149
788.629897	7910.989469
788.952760	7818.580078
789.275579	7642.880743
789.598351	7345.198088
789.921078	7078.211019
790.243759	6805.529966
790.566395	6609.986129
790.888984	6416.340286
791.211529	6284.393125
791.534027	6121.684844
791.856480	5985.591334
792.178888	5930.557058
792.501249	5865.029619
792.823566	5762.159834
793.145836	5752.266569
793.468062	5736.195371
793.790241	5699.077355
794.112375	5743.321042
794.434464	5835.402758
794.756507	5867.328385
795.078505	5988.709288
795.400457	6201.277101
795.722364	6436.484737
796.044226	6626.977338
796.366042	6777.130626
796.687812	6724.160702
797.009538	6752.020638
797.331218	6661.128635
797.652852	6594.782009
797.974442	6475.873792
798.295986	6404.309572
798.617484	6273.479027
798.938938	6164.038098
799.260346	6102.924190
799.581709	5966.029137
799.903026	5913.069295
800.224299	5838.850907
800.545526	5724.449483
800.866708	5665.286501
801.187845	5616.039469
801.508936	5536.853024
801.829983	5511.460732
802.150984	5409.027007
802.471940	5380.179004
802.792851	5365.128639
803.113717	5339.012942
803.434538	5318.399664
803.755314	5285.828769
804.076045	5278.458602
804.396731	5237.471500
804.717372	5255.168471
805.037967	5254.961784
805.358518	5286.917658
805.679024	5339.338096
805.999485	5353.745714
806.319901	5369.201892
806.640272	5386.518255
806.960598	5432.211273
807.280879	5423.290952
807.601115	5461.850738
807.921306	5420.863636
808.241453	5419.505045
808.561554	5427.694400
808.881611	5395.572167
809.201623	5393.684255
809.521590	5343.980999
809.841513	5324.449048
810.161390	5342.451009
810.481223	5255.115539
810.801011	5239.666923
811.120755	5221.954829
811.440453	5166.923073
811.760107	5140.620853
812.079716	5110.343683
812.399281	5057.918203
812.718801	5053.280342
813.038276	5017.720043
813.357707	4986.177543
813.677093	5008.063712
813.996434	4947.625319
814.315731	4968.624245
814.634983	4964.445129
814.954191	4972.579030
815.273354	5033.340058
815.592473	5078.299588
815.911547	5148.868180
816.230577	5199.471283
816.549562	5286.794150
816.868502	5336.961192
817.187399	5391.544285
817.506250	5471.118899
817.825058	5500.513867
818.143821	5655.562115
818.462539	5827.616696
818.781213	6054.423249
819.099843	6414.127220
819.418429	7050.371247
819.736970	7665.359248
820.055466	8360.252059
820.373919	9283.410837
820.692327	10753.005485
821.010691	13514.509233
821.329011	19815.207970
821.647286	29294.384455
821.965517	39365.019355
822.283704	44458.991891
822.601847	45711.963118
822.919945	41127.583180
823.237999	36100.645388
823.556010	31025.526768
823.873976	26452.953213
824.191897	22351.704857
824.509775	19360.253918
824.827609	16657.446845
825.145398	15148.145548
825.463144	14445.781747
825.780845	14773.224854
826.098502	16054.605504
826.416116	18465.930541
826.733685	20656.153090
827.051210	21068.219526
827.368692	19606.892370
827.686129	17082.106083
828.003522	14667.458926
828.320872	12508.463804
828.638177	10905.583568
828.955439	9686.004944
829.272656	8648.227972
829.589830	7820.152918
829.906960	7099.703978
830.224046	6578.506644
830.541088	6175.123595
830.858086	5919.874853
831.175041	5729.770420
831.491952	5672.969219
831.808819	5713.628646
832.125642	5964.660463
832.442421	6524.964549
832.759157	7650.364336
833.075849	9414.001927
833.392497	11214.732328
833.709101	12255.652459
834.025662	11957.279166
834.342179	10901.245655
834.658653	9622.312486
834.975083	8546.184936
835.291469	7672.056421
835.607811	6944.214629
835.924110	6440.066477
836.240366	5958.696778
836.556578	5506.797665
836.872746	5163.142208
837.188871	4898.877361
837.504952	4675.287065
837.820990	4516.145399
838.136984	4399.165424
838.452935	4360.572871
838.768842	4393.297521
839.084706	4691.093602
839.400526	5438.245535
839.716303	6322.484084
840.032037	6857.847061
840.347727	6685.863056
840.663373	6082.063895
840.978977	5517.739490
841.294537	5086.859468
841.610054	4770.027989
841.925527	4533.854973
842.240957	4328.992563
842.556344	4146.379285
842.871687	3990.078310
843.186987	3841.926361
843.502244	3724.749781
843.817458	3638.432624
844.132629	3572.557346
844.447756	3524.404244
844.762840	3478.980928
845.077881	3439.521296
845.392879	3405.208682
845.707833	3382.069786
846.022745	3352.649612
846.337613	3341.856502
846.652438	3318.271464
846.967221	3310.117397
847.281960	3289.451187
847.596656	3281.400464
847.911309	3267.577621
848.225919	3253.948861
848.540485	3246.850917
848.855009	3240.415884
849.169490	3226.172103
849.483928	3219.792523
849.798323	3217.176164
850.112675	3205.105122
850.426984	3209.669886
850.741251	3200.774770
851.055474	3195.274872
851.369654	3196.973740
851.683792	3194.387628
851.997887	3197.573638
852.311938	3195.237063
852.625947	3195.980633
852.939914	3191.310004
853.253837	3198.551622
853.567718	3191.199099
853.881555	3188.131557
854.195350	3193.608770
854.509103	3192.955941
854.822812	3189.449818
855.136479	3186.304138
855.450103	3189.444777
855.763685	3181.991431
856.077224	3184.144004
856.390720	3192.237576
856.704173	3201.808207
857.017584	3210.594938
857.330953	3214.249775
857.644278	3221.758573
857.957561	3223.616238
858.270802	3223.094479
858.584000	3217.466031
858.897155	3215.479816
859.210268	3204.537992
859.523339	3192.159438
859.836367	3192.615663
860.149352	3185.164837
860.462295	3179.392716
860.775195	3172.793846
861.088054	3171.231088
861.400869	3168.771005
861.713642	3165.796724
862.026373	3173.910462
862.339062	3177.300637
862.651708	3187.776155
862.964312	3202.667724
863.276873	3210.403374
863.589392	3245.026019
863.901869	3268.769853
864.214303	3288.952113
864.526696	3306.893579
864.839045	3325.230777
865.151353	3334.998012
865.463619	3337.609330
865.775842	3336.175122
866.088023	3343.646112
866.400162	3336.321315
866.712258	3338.773836
867.024313	3337.637056
867.336325	3339.681244
867.648296	3337.611850
867.960224	3332.651355
868.272110	3341.009588
868.583954	3340.545802
868.895755	3345.196266
869.207515	3341.503621
869.519233	3359.581199
869.830909	3366.439689
870.142542	3384.688666
870.454134	3385.636403
870.765684	3398.355234
871.077191	3419.220569
871.388657	3428.788679
871.700081	3447.246864
872.011463	3466.221767
872.322803	3488.060046
872.634101	3499.190913
872.945357	3522.891898
873.256571	3549.332750
873.567744	3567.617015
873.878874	3577.152358
874.189963	3589.253647
874.501010	3591.728854
874.812015	3585.555961
875.122979	3603.434413
875.433900	3600.261007
875.744780	3604.039352
876.055618	3612.037142
876.366415	3608.377265
876.677169	3616.317082
876.987882	3634.377016
877.298554	3653.603976
877.609183	3692.609904
877.919771	3739.558170
878.230317	3812.342349
878.540822	3915.809511
878.851285	4072.130651
879.161707	4297.707162
879.472087	4678.800749
879.782425	5316.957894
880.092722	6520.210741
880.402977	8456.296122
880.713191	10807.969186
881.023363	13131.328608
881.333494	14371.875912
881.643583	14777.436738
881.953631	14346.075286
882.263637	13532.112942
882.573602	12527.037935
882.883526	11591.077148
883.193408	10661.193471
883.503248	9758.678218
883.813048	8946.155124
884.122806	8193.168056
884.432522	7439.583612
884.742197	6784.367202
885.051831	6230.530917
885.361424	5743.046299
885.670975	5351.630950
885.980485	5032.288977
886.289954	4765.526239
886.599382	4549.389288
886.908768	4376.810428
887.218113	4213.963514
887.527417	4078.288420
887.836680	3958.180409
888.145901	3856.056715
888.455082	3784.608441
888.764221	3713.192935
889.073319	3657.021879
889.382376	3623.125160
889.691392	3599.366202
890.000366	3594.345213
890.309300	3584.633430
890.618193	3591.141560
890.927044	3585.119901
891.235855	3592.479986
891.544625	3607.157305
891.853353	3638.170484
892.162041	3699.080225
892.470687	3792.505409
892.779293	3915.822114
893.087858	4087.453238
893.396381	4369.760374
893.704864	4793.423984
894.013306	5353.080282
894.321707	5918.445685
894.630068	6252.162508
894.938387	6277.819461
895.246665	6096.254743
895.554903	5786.334687
895.863100	5451.468481
896.171256	5183.148027
896.479371	4947.879897
896.787446	4727.221032
897.095480	4535.654665
897.403473	4389.062952
897.711425	4243.865118
898.019336	4126.433960
898.327207	4002.081298
898.635038	3899.718148
898.942827	3794.219401
899.250576	3708.575238
899.558284	3625.204636
899.865952	3570.177921
900.173579	3505.580576
900.481165	3462.085501
900.788711	3419.661670
901.096216	3387.037843
901.403681	3361.517002
901.711105	3349.508973
902.018489	3347.288345
902.325832	3382.533572
902.633135	3445.164868
902.940397	3618.552834
903.247619	4039.249725
903.554800	4802.556035
903.861941	5756.980048
904.169041	6421.930926
904.476101	6606.885819
904.783121	6327.953736
905.090100	5927.426501
905.397039	5522.969687
905.703938	5171.197971
906.010796	4851.752655
906.317614	4608.131334
906.624391	4369.543604
906.931129	4181.019574
907.237826	3999.548118
907.544483	3831.158456
907.851099	3656.600942
908.157675	3497.615553
908.464211	3357.433667
908.770707	3255.657812
909.077163	3178.845751
909.383578	3118.840897
909.689954	3072.043866
909.996289	3043.631923
910.302584	3024.410003
910.608839	3012.724608
910.915054	2998.800942
911.221229	2995.791373
911.527363	2998.753051
911.833458	3010.458610
912.139513	3020.223325
912.445527	3034.459543
912.751502	3068.673854
913.057436	3112.403343
913.363331	3170.663958
913.669186	3259.481527
913.975000	3379.155999
914.280775	3570.548446
914.586510	3844.789736
914.892205	4225.848035
915.197859	4718.376327
915.503475	5299.971726
915.809050	5785.271004
916.114585	6051.950563
916.420081	6110.624552
916.725536	6041.470004
917.030952	5801.601822
917.336328	5601.457932
917.641665	5395.627620
917.946961	5179.841030
918.252218	4974.038444
918.557435	4752.212552
918.862612	4551.393147
919.167750	4383.968866
919.472848	4194.658416
919.777906	4027.370246
920.082925	3869.425855
920.387904	3715.668142
920.692843	3607.419445
920.997743	3512.071062
921.302603	3415.815270
921.607423	3348.974611
921.912204	3285.675363
922.216946	3235.026890
922.521647	3186.228521
922.826310	3142.143631
923.130932	3104.811366
923.435516	3065.250911
923.740059	3038.903320
924.044564	3009.039525
924.349028	2981.489619
924.653454	2954.343006
924.957840	2925.792431
925.262186	2909.791809
925.566493	2886.597460
925.870761	2857.938500
926.174989	2849.423991
926.479178	2834.313133
926.783328	2819.141780
927.087438	2809.107363
927.391509	2793.749488
927.695541	2780.435801
927.999533	2771.434821
928.303486	2764.014242
928.607400	2757.402769
928.911275	2753.944537
929.215110	2748.651326
929.518906	2745.639237
929.822663	2742.117991
930.126381	2742.806108
930.430060	2747.839700
930.733699	2749.112592
931.037299	2752.785072
931.340861	2751.981008
931.644383	2754.897316
931.947866	2751.096286
932.251309	2749.715009
932.554714	2747.948085
932.858080	2748.084196
933.161407	2743.968094
933.464694	2739.468864
933.767943	2736.300499
934.071153	2734.284037
934.374323	2729.588203
934.677455	2726.518140
934.980548	2724.519322
935.283602	2720.675443
935.586617	2718.333827
935.889593	2722.301215
936.192530	2720.461194
936.495428	2728.998388
936.798287	2739.173957
937.101108	2750.566964
937.403890	2772.425407
937.706632	2800.005560
938.009336	2831.341372
938.312002	2863.206506
938.614628	2886.599980
938.917216	2905.174112
939.219765	2913.628127
939.522275	2926.775456
939.824747	2926.137750
940.127179	2914.956471
940.429573	2910.452200
940.731929	2913.141655
941.034246	2904.612023
941.336524	2900.964748
941.638763	2894.706156
941.940964	2888.621483
942.243126	2870.228833
942.545250	2861.500075
942.847335	2846.414422
943.149381	2832.188286
943.451389	2821.296873
943.753359	2805.311375
944.055290	2798.347021
944.357182	2788.720937
944.659036	2786.321348
944.960851	2780.645009
945.262628	2773.206786
945.564367	2775.190480
945.866067	2776.617127
946.167729	2772.692589
946.469352	2773.065634
946.770937	2771.341559
947.072484	2763.933584
947.373992	2763.752102
947.675462	2761.503748
947.976893	2754.360433
948.278286	2752.943868
948.579641	2747.499422
948.880958	2746.284504
949.182236	2749.168044
949.483476	2743.413567
949.784678	2744.903228
950.085841	2741.384503
950.386967	2748.273239
950.688054	2752.172572
950.989103	2759.462080
951.290114	2770.255191
951.591087	2780.899587
951.892021	2791.264199
952.192917	2805.306333
952.493776	2814.758497
952.794596	2817.092551
953.095378	2816.575833
953.396122	2818.436019
953.696828	2814.947540
953.997496	2811.958136
954.298126	2800.862556
954.598718	2791.569189
954.899272	2782.535442
955.199788	2766.524737
955.500266	2758.811772
955.800706	2740.033473
956.101108	2724.206771
956.401472	2714.711758
956.701798	2701.473688
957.002087	2687.197140
957.302337	2678.324709
957.602550	2669.240550
957.902724	2659.070022
958.202861	2649.915287
958.502960	2642.313227
958.803022	2633.997843
959.103045	2627.401494
959.403031	2621.301697
959.702979	2612.182250
960.002889	2610.059924
960.302762	2607.418360
960.602596	2603.761003
960.902393	2599.455857
961.202153	2593.625763
961.501875	2592.078129
961.801559	2591.518561
962.101205	2589.993612
962.400814	2585.038157
962.700385	2584.985225
962.999918	2582.532704
963.299414	2578.535069
963.598873	2578.406519
963.898293	2577.305027
964.197677	2574.098853
964.497022	2575.462486
964.796331	2574.212279
965.095601	2570.360838
965.394835	2572.140365
965.694030	2571.734552
965.993189	2572.223544
966.292309	2572.846127
966.591393	2570.665828
966.890439	2569.566856
967.189447	2566.953018
967.488419	2569.836558
967.787353	2569.692885
968.086249	2570.149109
968.385108	2573.491394
968.683930	2571.419480
968.982714	2571.444686
969.281462	2575.349060
969.580172	2576.115315
969.878844	2576.190932
970.177480	2581.080852
970.476078	2585.708631
970.774639	2589.454208
971.073162	2590.154928
971.371649	2589.093766
971.670098	2591.231215
971.968510	2592.998139
972.266885	2591.982347
972.565223	2597.436875
972.863524	2598.593820
973.161788	2597.167173
973.460014	2600.978286
973.758204	2602.173039
974.056356	2600.945518
974.354471	2602.072216
974.652550	2601.547936
974.950591	2602.586414
975.248595	2600.396032
975.546563	2601.880652
975.844493	2600.713625
976.142386	2595.445619
976.440243	2595.521237
976.738062	2592.080649
977.035845	2589.373550
977.333590	2590.094435
977.631299	2585.214598
977.928971	2584.108064
978.226606	2581.582446
978.524204	2580.657395
978.821765	2581.090934
979.119290	2579.447518
979.416777	2578.041036
979.714228	2582.257961
980.011642	2580.186047
980.309020	2587.513364
980.606360	2588.060329
980.903664	2597.414190
981.200931	2610.889194
981.498162	2631.948614
981.795356	2661.867862
982.092513	2699.522761
982.389633	2738.301837
982.686717	2779.520832
982.983764	2809.286324
983.280775	2831.507731
983.577749	2831.820282
983.874686	2820.734785
984.171587	2807.675676
984.468451	2789.812347
984.765279	2770.328287
985.062070	2754.672984
985.358824	2736.023236
985.655543	2712.143290
985.952224	2692.076977
986.248869	2664.459016
986.545478	2639.817856
986.842050	2620.779938
987.138586	2601.421907
987.435086	2587.349526
987.731549	2576.130438
988.027975	2571.774882
988.324366	2562.773901
988.620719	2561.606874
988.917037	2556.802655
989.213318	2553.563713
989.509563	2551.164124
989.805772	2549.644216
990.101944	2547.287477
990.398080	2547.899977
990.694180	2544.837476
990.990244	2547.093392
991.286271	2546.296890
991.582262	2548.252858
991.878217	2548.479710
992.174136	2547.899977
992.470019	2549.029195
992.765865	2550.163455
993.061676	2554.498847
993.357450	2556.061605
993.653188	2560.117213
993.948890	2567.293296
994.244556	2568.503173
994.540186	2581.469020
994.835780	2593.104003
995.131337	2605.354007
995.426859	2622.327572
995.722345	2641.156282
996.017795	2661.807369
996.313208	2677.810512
996.608586	2682.332427
996.903928	2685.480627
997.199234	2686.806451
997.494504	2682.471058
997.789738	2676.842610
998.084936	2665.643687
998.380099	2653.118940
998.675225	2645.532003
998.970316	2629.773357
999.265371	2618.546707
999.560390	2602.404932
999.855373	2591.616863
1000.150320	2582.857858
1000.445232	2574.174471
1000.740108	2565.231464
1001.034948	2558.246945
1001.329752	2555.002963
1001.624521	2551.282591
1001.919254	2544.562733
1002.213951	2543.841848
1002.508613	2537.789943
1002.803239	2536.653163
1003.097829	2536.547298
1003.392384	2538.442772
1003.686903	2535.536547
1003.981386	2535.788605
1004.275834	2532.431196
1004.570246	2534.314067
1004.864623	2529.184693
1005.158964	2531.334745
1005.453270	2528.115969
1005.747540	2530.215609
1006.041775	2528.557070
1006.335974	2527.211082
1006.630138	2528.292409
1006.924266	2528.894827
1007.218359	2528.330218
1007.512416	2525.295443
1007.806438	2527.160670
1008.100425	2524.841739
1008.394376	2525.963396
1008.688292	2526.585978
1008.982172	2526.452388
1009.276017	2525.527336
1009.569827	2524.307377
1009.863602	2522.515247
1010.157341	2523.921729
1010.451045	2521.799403
1010.744714	2522.328724
1011.038347	2522.545494
1011.331945	2522.356450
1011.625508	2522.772346
1011.919036	2521.839732
1012.212528	2523.951976
1012.505986	2520.511388
1012.799408	2520.523991
1013.092795	2523.533560
1013.386147	2520.511388
1013.679464	2520.980215
1013.972745	2521.688498
1014.265992	2521.580113
1014.559204	2523.349558
1014.852380	2520.876872
1015.145521	2520.355112
1015.438628	2518.326048
1015.731699	2522.026255
1016.024736	2522.542973
1016.317737	2522.825278
1016.610703	2520.564320
1016.903635	2520.589526
1017.196531	2517.506860
1017.489393	2520.173631
1017.782219	2519.767818
1018.075011	2522.684125
1018.367768	2525.315608
1018.660490	2522.812675
1018.953177	2522.812675
1019.245829	2522.812675
