Dividing Wavelength (nm)	Counts (n)	Blue Motor Position (mm): 0.000000	Red Motor Position (mm): 17.700000	
326.493990	2127.193003
326.888308	2127.193003
327.282561	2127.193003
327.676750	2096.015987
328.070874	2095.932808
328.464933	2098.377768
328.858929	2105.783223
329.252859	2114.398555
329.646726	2124.977416
330.040528	2138.510394
330.434265	2155.819195
330.827938	2173.198573
331.221547	2192.937211
331.615091	2210.503112
332.008571	2228.721842
332.401986	2250.562641
332.795338	2267.914292
333.188625	2287.005142
333.581847	2308.278811
333.975006	2321.731130
334.368100	2341.366424
334.761129	2359.688498
335.154095	2378.257588
335.546996	2392.798797
335.939833	2413.066756
336.332606	2423.537232
336.725315	2439.200097
337.117960	2446.350974
337.510540	2455.346913
337.903056	2465.456947
338.295508	2476.121508
338.687896	2481.946561
339.080220	2490.347644
339.472480	2498.917606
339.864676	2501.564211
340.256807	2506.706188
340.648875	2509.970335
341.040879	2512.546365
341.432818	2515.185409
341.824694	2514.565347
342.216506	2516.992663
342.608253	2519.551048
342.999937	2513.239524
343.391557	2513.191633
343.783113	2514.436798
344.174605	2512.059894
344.566033	2511.701972
344.957397	2510.005623
345.348697	2507.356497
345.739934	2504.921620
346.131106	2505.912207
346.522215	2503.313492
346.913260	2502.698471
347.304241	2499.512462
347.695159	2496.830568
348.086012	2496.858294
348.476802	2492.948879
348.867528	2492.230515
349.258191	2490.564414
349.648789	2489.581389
350.039324	2490.587099
350.429796	2489.646924
350.820203	2488.656337
351.210548	2486.549135
351.600828	2484.930924
351.991045	2485.011583
352.381198	2481.344143
352.771288	2485.893785
353.161314	2483.784062
353.551276	2484.058805
353.941175	2484.643578
354.331010	2484.073928
354.720782	2482.168372
355.110490	2484.346150
355.500135	2484.729278
355.889717	2484.318424
356.279235	2480.474544
356.668689	2485.866058
357.058080	2483.892447
357.447408	2480.824904
357.836672	2484.252889
358.225873	2484.265492
358.615010	2481.991932
359.004084	2487.542242
359.393095	2486.259268
359.782043	2487.501913
360.170927	2488.426964
360.559748	2487.920328
360.948505	2489.273878
361.337199	2490.657675
361.725830	2492.898468
362.114398	2490.892089
362.502903	2491.928046
362.891344	2494.062974
363.279722	2493.636997
363.668037	2494.680516
364.056289	2494.811586
364.444478	2497.934581
364.832603	2492.371667
365.220665	2495.882831
365.608665	2498.408449
365.996601	2498.358037
366.384474	2498.395846
366.772284	2502.978255
367.160031	2499.265445
367.547715	2504.699809
367.935336	2507.301044
368.322893	2510.802126
368.710388	2513.370594
369.097820	2517.302694
369.485189	2518.578106
369.872495	2525.902902
370.259738	2537.230375
370.646918	2540.781868
371.034035	2547.199257
371.421090	2559.751730
371.808081	2568.319171
372.195010	2577.536920
372.581875	2589.698704
372.968678	2604.207145
373.355418	2615.274998
373.742096	2631.147071
374.128710	2647.039308
374.515262	2662.563542
374.901751	2677.777744
375.288177	2689.357274
375.674540	2715.820812
376.060841	2731.788666
376.447079	2750.385483
376.833254	2772.032197
377.219367	2780.781120
377.605417	2821.261585
377.991404	2829.239211
378.377329	2852.783920
378.763191	2868.330839
379.148991	2908.637384
379.534727	2930.606733
379.920402	2961.398101
380.306013	2973.527117
380.691563	3020.961854
381.077049	3042.142262
381.462474	3062.017011
381.847835	3101.050665
382.233134	3122.803244
382.618371	3118.339302
383.003545	3191.839325
383.388657	3197.240922
383.773706	3228.181003
384.158693	3245.083992
384.543618	3271.325718
384.928480	3308.463899
385.313280	3353.947709
385.698017	3350.544931
386.082692	3407.388981
386.467305	3409.165988
386.851856	3441.343673
387.236344	3462.390490
387.620770	3498.041530
388.005133	3522.251672
388.389435	3543.953839
388.773674	3561.106365
389.157851	3598.967951
389.541965	3618.787247
389.926018	3580.381217
390.310008	3655.567506
390.693936	3671.731966
391.077802	3711.965414
391.461606	3702.467881
391.845348	3765.293260
392.229027	3758.200357
392.612645	3774.982358
392.996200	3853.800798
393.379694	3895.387797
393.763125	3956.761325
394.146494	3925.115481
394.529801	3987.207373
394.913047	4031.231770
395.296230	3997.178776
395.679351	4053.377559
396.062410	4076.231630
396.445408	4057.763362
396.828343	4088.141356
397.211217	4115.552630
397.594028	4034.798386
397.976778	4100.613170
398.359466	4125.229124
398.742092	4155.425636
399.124656	4077.781784
399.507158	4157.197602
399.889598	4178.166281
400.271977	4243.136672
400.654294	4213.005695
401.036549	4219.055080
401.418742	4184.838248
401.800874	4284.781644
402.182944	4301.399807
402.564952	4362.516236
402.946898	4351.650029
403.328783	4339.175694
403.710606	4250.801746
404.092367	4429.364457
404.474067	4388.609248
404.855705	4388.793250
405.237282	4308.885921
405.618797	4403.241197
406.000250	4420.484464
406.381642	4485.830421
406.762972	4437.367288
407.144240	4433.626752
407.525447	4416.010440
407.906593	4453.725832
408.287677	4477.084019
408.668700	4390.613107
409.049661	4415.579421
409.430560	4426.843880
409.811399	4341.620653
410.192176	4456.506029
410.572891	4380.397209
410.953545	4439.918112
411.334138	4312.573525
411.714669	4338.464891
412.095139	4226.757963
412.475547	4307.287875
412.855894	4261.700721
413.236180	4232.058736
413.616405	4167.416020
413.996568	4196.732851
414.376670	4114.304944
414.756711	4050.168864
415.136691	4038.294426
415.516609	4050.672980
415.896466	4037.268552
416.276262	4014.815252
416.655997	3960.640492
417.035670	4027.730688
417.415283	4038.559087
417.794834	3955.632106
418.174324	3895.024834
418.553753	3800.861121
418.933121	3849.326774
419.312428	3834.911595
419.691674	3757.643309
420.070859	3765.373919
420.449983	3683.374510
420.829045	3683.649253
421.208047	3605.375258
421.586988	3577.381730
421.965867	3540.619116
422.344686	3535.030997
422.723444	3444.411215
423.102141	3346.171730
423.480777	3395.847260
423.859352	3282.338119
424.237866	3315.818942
424.616319	3277.866616
424.994712	3263.252311
425.373044	3193.076928
425.751314	3184.234745
426.129524	3103.639298
426.507673	3105.529730
426.885762	3086.741350
427.263789	3036.959956
427.641756	2990.914056
428.019662	2976.745893
428.397508	2950.675566
428.775292	2910.127045
429.153016	2897.161198
429.530679	2861.305991
429.908282	2844.912159
430.285824	2808.772127
430.663305	2811.491829
431.040726	2767.049017
431.418086	2748.270719
431.795385	2739.970459
432.172624	2720.332644
432.549802	2706.711447
432.926920	2688.197809
433.303977	2678.909483
433.680974	2667.511434
434.057910	2652.849238
434.434786	2643.535707
434.811601	2631.353758
435.188355	2627.063736
435.565050	2616.031171
435.941683	2606.669748
436.318257	2603.229161
436.694770	2592.025197
437.071222	2589.446646
437.447614	2580.969946
437.823946	2576.745459
438.200218	2574.640777
438.576429	2568.641804
438.952580	2568.263718
439.328670	2567.910837
439.704700	2564.820610
440.080670	2560.298695
440.456580	2557.417675
440.832429	2557.100083
441.208218	2552.628579
441.583947	2553.651933
441.959616	2552.255534
442.335224	2549.346788
442.710773	2552.144628
443.086261	2549.883671
443.461689	2547.799154
443.837057	2550.833928
444.212365	2546.768238
444.587612	2543.897301
444.962800	2547.224462
445.337927	2546.934596
445.712995	2542.689944
446.088002	2547.068187
446.462949	2545.681869
446.837837	2546.238917
447.212664	2546.672456
447.587431	2544.608103
447.962139	2547.143804
448.336786	2553.989691
448.711374	2547.302600
449.085901	2547.978115
449.460369	2547.917621
449.834776	2545.823022
450.209124	2548.353681
450.583412	2547.592467
450.957640	2545.843186
451.331808	2548.451983
451.705917	2545.434853
452.079965	2546.745553
452.453954	2544.880326
452.827883	2546.881664
453.201752	2547.158927
453.575562	2545.087013
453.949311	2544.776982
454.323001	2545.984338
454.696632	2542.886549
455.070202	2548.630944
455.443713	2547.574822
455.817164	2545.318906
456.190556	2542.342105
456.563888	2545.588608
456.937160	2547.312682
457.310373	2549.722354
457.683526	2544.676159
458.056619	2549.006510
458.429653	2547.403423
458.802628	2547.539534
459.175542	2548.096582
459.548398	2548.572971
459.921194	2550.032385
460.293930	2552.910884
460.666607	2552.005997
461.039224	2553.601522
461.411782	2555.612942
461.784280	2556.434650
462.156719	2554.637479
462.529099	2556.046482
462.901419	2551.078424
463.273680	2552.424413
463.645882	2552.026161
464.018024	2551.990873
464.390106	2552.671429
464.762130	2552.880637
465.134094	2553.669577
465.505999	2558.995557
465.877845	2564.374468
466.249631	2569.017370
466.621358	2566.673234
466.993026	2564.853377
467.364634	2567.971331
467.736184	2564.409756
468.107674	2560.873386
468.479105	2562.821792
468.850477	2560.941442
469.221790	2561.269117
469.593043	2558.435988
469.964238	2557.571431
470.335373	2559.018242
470.706449	2559.711400
471.077467	2559.164435
471.448425	2565.629715
471.819324	2571.454768
472.190164	2571.295972
472.560945	2565.549057
472.931667	2561.226267
473.302330	2563.588048
473.672934	2557.480690
474.043479	2560.149981
474.413965	2561.443037
474.784393	2555.733930
475.154761	2561.465722
475.525070	2555.862479
475.895321	2559.197203
476.265513	2563.509910
476.635645	2563.938408
477.005719	2561.813562
477.375734	2562.975547
477.745691	2566.980744
478.115588	2565.884293
478.485427	2566.332956
478.855207	2572.163050
479.224928	2572.470561
479.594591	2575.109605
479.964194	2576.218659
480.333739	2578.325861
480.703226	2574.734039
481.072653	2574.895356
481.442022	2575.575912
481.811333	2577.272260
482.180584	2575.291086
482.549777	2576.621951
482.918912	2572.735221
483.287988	2576.054821
483.657005	2572.158009
484.025964	2575.444842
484.394864	2574.338308
484.763706	2575.772517
485.132489	2572.490725
485.501213	2574.260170
485.869879	2569.826476
486.238487	2568.979562
486.607036	2569.733214
486.975527	2570.156671
487.343959	2569.282031
487.712333	2573.267063
488.080648	2567.431927
488.448905	2570.058369
488.817104	2569.156002
489.185244	2570.068451
489.553326	2569.468554
489.921350	2572.957032
490.289315	2575.623802
490.657222	2579.036664
491.025070	2575.122208
491.392861	2574.882753
491.760593	2574.650860
492.128267	2575.643967
492.495883	2573.163719
492.863440	2569.844120
493.230939	2570.181877
493.598380	2566.922771
493.965763	2566.151474
494.333088	2561.760629
494.700354	2568.306568
495.067563	2566.196845
495.434713	2563.149467
495.801805	2568.750189
496.168839	2569.397978
496.535815	2570.781774
496.902733	2567.638615
497.269593	2568.997206
497.636395	2567.293296
498.003139	2568.094839
498.369825	2569.622309
498.736453	2570.862433
499.103023	2568.440158
499.469535	2567.414283
499.835989	2569.133317
500.202385	2567.255487
500.568723	2568.992165
500.935003	2568.253636
501.301226	2570.723801
501.667390	2566.905127
502.033497	2570.401167
502.399546	2568.435117
502.765537	2570.562484
503.131470	2568.150292
503.497345	2569.070302
503.863163	2570.721280
504.228923	2568.740107
504.594625	2568.578790
504.960269	2568.848492
505.325856	2569.589541
505.691385	2567.610888
506.056856	2571.873184
506.422270	2569.239181
506.787625	2569.955025
507.152924	2570.507031
507.518164	2570.544840
507.883347	2569.077864
508.248472	2572.415108
508.613540	2570.696075
508.978550	2568.440158
509.343503	2571.306054
509.708398	2570.393605
510.073236	2571.835375
510.438016	2572.314285
510.802738	2570.617937
511.167403	2571.928637
511.532010	2570.025601
511.896561	2572.599110
512.261053	2575.243195
512.625488	2568.142730
512.989866	2569.312278
513.354186	2569.070303
513.718449	2566.597617
514.082655	2570.726322
514.446803	2572.780592
514.810894	2571.154820
515.174927	2572.914182
515.538904	2572.994841
515.902822	2571.048955
516.266684	2573.491394
516.630488	2569.733214
516.994235	2572.745304
517.357925	2573.650191
517.721558	2573.115828
518.085133	2574.076168
518.448651	2575.091961
518.812112	2573.667835
519.175516	2572.583987
519.538863	2576.110274
519.902152	2571.396795
520.265385	2575.270922
520.628560	2570.920406
520.991678	2571.830334
521.354739	2576.309399
521.717743	2571.500139
522.080690	2576.027095
522.443580	2573.841755
522.806413	2572.233627
523.169189	2575.802763
523.531908	2574.066086
523.894569	2572.843606
524.257174	2573.718246
524.619722	2573.887125
524.982213	2576.077506
525.344647	2574.913000
525.707025	2573.282187
526.069345	2572.016857
526.431608	2575.157496
526.793815	2572.236147
527.155964	2576.296797
527.518057	2576.881570
527.880093	2572.437793
528.242072	2574.618092
528.603995	2572.740262
528.965860	2571.512742
529.327669	2572.899059
529.689421	2571.830334
530.051117	2571.429562
530.412755	2574.192115
530.774337	2573.461147
531.135862	2571.827814
531.497331	2569.050138
531.858743	2569.773543
532.220098	2571.706826
532.581396	2566.237174
532.942638	2570.880077
533.303824	2572.974676
533.664953	2574.048442
534.026025	2571.898390
534.387040	2572.155489
534.747999	2570.930488
535.108902	2573.604820
535.469748	2573.554409
535.830537	2571.099367
536.191270	2572.793195
536.551947	2574.398802
536.912567	2571.716908
537.273131	2573.080540
537.633638	2570.562484
537.994089	2573.355283
538.354483	2571.212793
538.714821	2572.064748
539.075103	2571.946281
539.435328	2571.850499
539.795497	2571.454768
540.155609	2573.166240
540.515665	2570.413770
540.875665	2571.333781
541.235609	2572.175653
541.595496	2571.903431
541.955328	2571.850499
542.315102	2572.735221
542.674821	2572.936867
543.034483	2571.474933
543.394090	2571.948801
543.753640	2571.792526
544.113134	2570.998544
544.472571	2572.699933
544.831953	2573.274625
545.191278	2570.570046
545.550548	2571.578277
545.909761	2571.427042
546.268918	2571.893349
546.628019	2572.394943
546.987064	2570.139027
547.346053	2573.178843
547.704986	2573.030129
548.063863	2572.183215
548.422684	2571.563153
548.781449	2571.643812
549.140158	2572.266394
549.498811	2571.374110
549.857408	2571.968966
550.215949	2568.467885
550.574434	2567.646177
550.932864	2568.808162
551.291237	2564.818089
551.649555	2571.240519
552.007817	2570.985941
552.366022	2573.015005
552.724173	2572.742783
553.082267	2570.751527
553.440305	2573.708164
553.798288	2571.913513
554.156215	2571.343863
554.514086	2572.455437
554.871902	2572.210941
555.229661	2572.168092
555.587365	2569.612227
555.945014	2572.009295
556.302606	2571.611044
556.660143	2571.598441
557.017625	2571.626167
557.375050	2570.204562
557.732421	2571.817731
558.089735	2571.091805
558.446994	2571.505180
558.804197	2570.615416
559.161345	2571.568194
559.518437	2573.478792
559.875474	2567.752041
560.232455	2571.744635
560.589381	2568.815724
560.946251	2572.316806
561.303065	2571.762279
561.659825	2572.568863
562.016528	2571.222875
562.373177	2569.791188
562.729770	2571.003585
563.086307	2572.402505
563.442789	2570.368400
563.799216	2571.220355
564.155587	2570.779254
564.511904	2568.372103
564.868164	2570.565005
565.224370	2572.999882
565.580520	2570.078533
565.936615	2569.173646
566.292654	2566.990827
566.648638	2570.043245
567.004567	2570.885118
567.360441	2569.725652
567.716260	2571.890828
568.072023	2570.065930
568.427732	2564.646690
568.783385	2568.293965
569.138982	2566.126269
569.494525	2566.393450
569.850013	2563.199879
570.205445	2569.345045
570.560823	2568.067113
570.916145	2570.030642
571.271412	2567.951166
571.626625	2568.472926
571.981782	2567.555436
572.336884	2568.659448
572.691931	2570.413770
573.046923	2567.341187
573.401860	2568.435117
573.756743	2568.709860
574.111570	2568.538461
574.466342	2567.293296
574.821059	2567.285734
575.175722	2568.551064
575.530330	2566.711042
575.884882	2568.031825
576.239380	2566.146433
576.593823	2568.646846
576.948211	2568.445199
577.302544	2567.552915
577.656823	2569.544171
578.011047	2568.122566
578.365216	2566.834551
578.719330	2569.627350
579.073389	2563.842626
579.427394	2565.798594
579.781344	2564.999571
580.135239	2567.542833
580.489080	2566.668193
580.842866	2565.758264
581.196597	2570.673389
581.550273	2568.029304
581.903895	2568.213306
582.257463	2569.276990
582.610975	2567.532751
582.964434	2567.250446
583.317837	2563.474622
583.671186	2561.647203
584.024481	2566.153995
584.377721	2567.419325
584.730906	2567.000909
585.084037	2564.566032
585.437113	2562.126113
585.790135	2567.056362
586.143103	2567.331104
586.496016	2566.186762
586.848874	2562.605023
587.201679	2563.898079
587.554428	2562.020249
587.907124	2563.391443
588.259765	2559.209806
588.612352	2564.311453
588.964884	2566.340518
589.317362	2561.732903
589.669786	2561.435475
590.022155	2564.031669
590.374470	2566.464026
590.726731	2563.729200
591.078937	2564.868501
591.431090	2567.235322
591.783188	2564.230795
592.135232	2566.045610
592.487222	2563.325908
592.839157	2564.293809
593.191038	2563.598130
593.542866	2565.644838
593.894639	2566.257339
594.246358	2562.516802
594.598022	2562.998233
594.949633	2562.635270
595.301190	2562.088304
595.652692	2560.457491
596.004141	2564.369427
596.355535	2563.777091
596.706876	2562.171483
597.058162	2563.797256
597.409395	2563.086453
597.760573	2562.846998
598.111698	2563.333469
598.462768	2563.088973
598.813785	2561.687533
599.164748	2562.181566
599.515657	2560.974209
599.866511	2562.668037
600.217312	2560.586041
600.568060	2561.821123
600.918753	2561.604354
601.269392	2559.892882
601.619978	2560.752399
601.970510	2560.742316
602.320988	2560.991853
602.671412	2563.323387
603.021783	2562.680640
603.372100	2561.657286
603.722363	2563.209961
604.072572	2561.773232
604.422728	2563.759447
604.772830	2558.509085
605.122878	2556.066646
605.472872	2559.096380
605.822813	2557.226112
606.172701	2559.476987
606.522534	2559.308108
606.872314	2562.899930
607.222041	2560.717111
607.571714	2564.250959
607.921333	2562.279868
608.270899	2561.062430
608.620411	2562.831875
608.969870	2562.516803
609.319276	2563.235167
609.668627	2565.816238
610.017926	2568.513255
610.367171	2569.592062
610.716362	2568.354459
611.065500	2568.765313
611.414585	2565.193655
611.763616	2562.635270
612.112594	2565.433110
612.461518	2564.054354
612.810389	2561.843808
613.159207	2562.952862
613.507971	2562.501679
613.856682	2564.336659
614.205340	2560.502862
614.553945	2561.306926
614.902496	2561.707697
615.250994	2564.654252
615.599439	2563.411607
615.947830	2561.080074
616.296169	2563.409087
616.644454	2563.099056
616.992686	2560.069322
617.340864	2562.589899
617.688990	2560.182748
618.037063	2562.665517
618.385082	2562.451267
618.733048	2563.870352
619.080961	2562.294992
619.428821	2563.525033
619.776628	2561.122923
620.124382	2564.606361
620.472083	2559.545042
620.819731	2561.405228
621.167326	2563.956052
621.514868	2559.955896
621.862357	2561.702656
622.209793	2562.579817
622.557176	2560.364230
622.904506	2556.905998
623.251783	2556.764846
623.599007	2557.137891
623.946179	2556.318704
624.293297	2557.694939
624.640363	2558.619991
624.987376	2560.167625
625.334336	2559.013201
625.681243	2561.218705
626.028097	2559.492110
626.374899	2558.231822
626.721647	2556.230484
627.068343	2558.274672
627.414987	2557.876420
627.761577	2556.714434
628.108115	2559.643345
628.454600	2555.083621
628.801032	2560.094528
629.147412	2557.334496
629.493739	2558.955227
629.840014	2557.357182
630.186236	2558.788869
630.532405	2555.933056
630.878521	2557.576472
631.224585	2557.447922
631.570597	2559.910526
631.916556	2555.857438
632.262462	2557.760474
632.608316	2556.774928
632.954117	2557.596636
633.299866	2558.236863
633.645562	2554.912222
633.991206	2556.636297
634.336797	2556.396842
634.682336	2554.319886
635.027823	2554.682849
635.373257	2557.790721
635.718639	2552.031202
636.063968	2555.950700
636.409245	2555.353323
636.754470	2555.925494
637.099642	2555.048333
637.444762	2554.181255
637.789829	2555.620504
638.134845	2555.872562
638.479808	2554.264434
638.824719	2551.464073
639.169577	2554.498847
639.514383	2553.510781
639.859137	2551.973229
640.203839	2553.374670
640.548489	2552.457180
640.893086	2551.940462
641.237632	2549.540872
641.582125	2549.676984
641.926566	2548.782179
642.270955	2556.270813
642.615292	2553.926676
642.959576	2554.511450
643.303809	2552.331151
643.647990	2554.193858
643.992118	2552.686552
644.336195	2554.430792
644.680219	2553.631769
645.024192	2554.944989
645.368112	2554.521533
645.711981	2552.121943
646.055797	2553.840977
646.399562	2553.634289
646.743274	2553.543549
647.086935	2555.116389
647.430544	2554.932387
647.774101	2553.848538
648.117606	2556.575803
648.461059	2553.125133
648.804460	2557.521019
649.147810	2554.834084
649.491108	2557.682336
649.834354	2553.440205
650.177548	2556.822819
650.520690	2553.820812
650.863781	2551.728733
651.206820	2556.359033
651.549807	2554.392983
651.892742	2552.031202
652.235626	2550.594474
652.578458	2551.574978
652.921238	2551.680842
653.263967	2553.795606
653.606644	2551.655637
653.949269	2553.354505
654.291843	2550.576830
654.634365	2553.581357
654.976836	2552.031203
655.319255	2552.051367
655.661622	2550.851573
656.003938	2551.022972
656.346203	2554.869372
656.688416	2549.409802
657.030577	2551.942982
657.372687	2552.787376
657.714746	2548.199926
658.056753	2546.942158
658.398708	2550.881819
658.740612	2549.487940
659.082465	2548.557848
659.424266	2548.676315
659.766016	2543.975439
660.107715	2549.487940
660.449362	2550.569268
660.790958	2553.934238
661.132503	2550.218908
661.473996	2551.116233
661.815438	2552.812581
662.156829	2552.865513
662.498168	2552.157231
662.839456	2552.086655
663.180693	2549.460214
663.521879	2550.012220
663.863013	2551.559855
664.204097	2552.220246
664.545129	2549.621531
664.886110	2553.798127
665.227040	2550.939793
665.567918	2550.360060
665.908746	2552.200081
666.249522	2552.242931
666.590248	2554.511450
666.930922	2552.817623
667.271545	2547.403423
667.612118	2551.970709
667.952639	2551.622869
668.293109	2550.821326
668.633528	2548.162117
668.973896	2551.401058
669.314213	2550.241593
669.654480	2551.670760
669.994695	2552.046326
670.334859	2549.059442
670.674973	2550.332334
671.015035	2553.583878
671.355047	2551.769063
671.695008	2550.004659
672.034918	2550.549103
672.374777	2550.506253
672.714585	2551.796789
673.054342	2553.069680
673.394049	2551.191850
673.733705	2554.208981
674.073310	2550.473486
674.412864	2551.915256
674.752368	2549.356870
675.091820	2553.344423
675.431223	2552.497509
675.770574	2548.751932
676.109875	2547.479041
676.449125	2546.024668
676.788324	2546.286808
677.127473	2549.392158
677.466571	2546.412837
677.805619	2549.717313
678.144616	2551.869886
678.483562	2547.153886
678.822458	2545.487785
679.161303	2552.184958
679.500098	2549.714792
679.838842	2550.735626
680.177535	2547.610111
680.516179	2549.931562
680.854771	2552.739485
681.193314	2551.673281
681.531805	2552.386604
681.870247	2552.444577
682.208638	2554.188816
682.546978	2551.547252
682.885268	2552.278219
683.223508	2551.489278
683.561697	2551.557334
683.899836	2551.448949
684.237925	2551.191850
684.575963	2548.300749
684.913951	2550.299566
685.251889	2551.733774
685.589776	2547.322765
685.927614	2553.793086
686.265401	2549.603887
686.603137	2549.142621
686.940824	2550.541542
687.278460	2552.885678
687.616046	2551.244782
687.953582	2550.319731
688.291068	2553.351985
688.628504	2551.388455
688.965889	2550.838970
689.303224	2548.351160
689.640510	2553.858621
689.977745	2551.174206
690.314930	2550.728064
690.652065	2548.774617
690.989150	2550.223949
691.326185	2550.004659
691.663170	2547.950388
692.000105	2548.262940
692.336990	2549.351829
692.673825	2546.964843
693.010610	2548.182282
693.347345	2546.196067
693.684030	2544.484595
694.020665	2546.100285
694.357251	2541.185160
694.693786	2547.234545
695.030272	2547.748742
695.366707	2546.609442
695.703093	2549.046839
696.039429	2546.410316
696.375716	2547.526932
696.711952	2545.868392
697.048139	2547.073228
697.384276	2547.549617
697.720363	2549.908877
698.056400	2547.826880
698.392388	2545.966694
698.728326	2545.180274
699.064214	2546.455686
699.400053	2547.234545
699.735842	2546.798485
700.071581	2547.479041
700.407270	2545.944009
700.742910	2548.762014
701.078501	2547.632796
701.414042	2543.841848
701.749533	2545.087013
702.084974	2546.727909
702.420366	2545.404606
702.755709	2543.090716
703.091002	2543.254554
703.426246	2546.279246
703.761440	2545.334030
704.096584	2546.959802
704.431679	2545.386962
704.766725	2544.741694
705.101721	2545.744884
705.436668	2546.203629
705.771565	2545.883515
706.106413	2542.687424
706.441212	2544.955943
706.775961	2549.797971
707.110661	2546.261602
707.445311	2545.520552
707.779913	2543.272198
708.114465	2548.260419
708.448967	2547.327806
708.783421	2547.345450
709.117825	2547.123639
709.452180	2545.346632
709.786485	2545.646581
710.120742	2548.822508
710.454949	2545.631458
710.789107	2543.400747
711.123216	2542.450490
711.457275	2542.621889
711.791286	2546.276725
712.125247	2542.805891
712.459159	2544.572815
712.793023	2548.106664
713.126837	2546.284287
713.460602	2548.693959
713.794318	2545.044163
714.127985	2549.394679
714.461602	2545.076931
714.795171	2544.497198
715.128691	2545.386962
715.462162	2544.620706
715.795584	2545.719678
716.128957	2544.935778
716.462281	2546.818649
716.795556	2547.224462
717.128782	2544.633309
717.461960	2546.997610
717.795088	2543.839327
718.128167	2544.812270
718.461198	2545.263453
718.794180	2545.132383
719.127113	2543.975439
719.459997	2543.269677
719.792833	2544.683721
720.125619	2544.209852
720.458357	2544.537527
720.791046	2544.580377
721.123686	2542.614327
721.456278	2544.315717
721.788821	2540.018133
722.121315	2543.022661
722.453761	2541.724563
722.786158	2542.422763
723.118506	2543.975439
723.450805	2543.007537
723.783056	2543.221786
724.115259	2543.798998
724.447412	2541.981662
724.779518	2544.449307
725.111574	2544.731612
725.443582	2543.224307
725.775542	2541.255736
726.107453	2544.610624
726.439315	2541.013761
726.771129	2549.898794
727.102895	2542.763041
727.434612	2544.802188
727.766281	2544.771941
728.097901	2542.064841
728.429473	2541.802701
728.760996	2542.389996
729.092471	2540.766744
729.423897	2544.048535
729.755276	2545.656663
730.086606	2545.742363
730.417887	2544.436704
730.749120	2546.017106
731.080305	2543.597352
731.411442	2543.766231
731.742530	2543.098278
732.073570	2543.859492
732.404562	2546.196067
732.735506	2547.408464
733.066401	2545.462579
733.397249	2545.107178
733.728048	2545.200439
734.058798	2542.205994
734.389501	2544.136756
734.720156	2545.487785
735.050762	2545.187836
735.381320	2543.410829
735.711831	2543.110881
736.042293	2542.558874
736.372707	2540.305479
736.703073	2541.555685
737.033391	2544.587939
737.363661	2541.598535
737.693883	2541.598535
738.024056	2546.798485
738.354182	2541.449821
738.684260	2544.028371
739.014290	2544.633309
739.344272	2545.036602
739.674207	2542.032074
740.004093	2544.794626
740.333931	2546.276725
740.663722	2542.894111
740.993464	2544.351005
741.323159	2542.551313
741.652806	2545.260933
741.982405	2543.967877
742.311956	2546.238917
742.641460	2542.576518
742.970915	2543.592311
743.300323	2542.826056
743.629683	2539.924872
743.958996	2542.266488
744.288260	2543.541899
744.617477	2540.542413
744.946647	2537.789943
745.275768	2538.904038
745.604842	2538.626774
745.933869	2537.827752
746.262847	2534.341794
746.591778	2542.311858
746.920662	2540.701209
747.249498	2542.435366
747.578286	2542.450490
747.907027	2541.931251
748.235720	2540.197094
748.564365	2542.092568
748.892963	2542.846220
749.221514	2538.921682
749.550017	2542.548792
749.878473	2541.958977
750.206881	2540.980993
750.535242	2540.620551
750.863555	2543.015099
751.191821	2542.223638
751.520039	2542.455531
751.848210	2542.362269
752.176334	2540.610468
752.504411	2540.701209
752.832440	2539.002340
753.160421	2541.590973
753.488356	2543.766231
753.816243	2540.837320
754.144082	2541.507794
754.471875	2540.986034
754.799620	2541.711961
755.127318	2536.869932
755.454969	2539.713143
755.782572	2541.099460
756.110129	2540.592824
756.437638	2542.576518
756.765100	2541.737166
757.092515	2540.176929
757.419882	2538.904038
757.747203	2542.074924
758.074477	2541.883360
758.401703	2540.612989
758.728882	2540.015612
759.056014	2544.383772
759.383099	2539.340098
759.710138	2541.144831
760.037129	2542.997455
760.364073	2540.925541
760.690970	2542.445448
761.017820	2541.457382
761.344623	2542.962167
761.671379	2542.770603
761.998088	2537.633667
762.324751	2540.449152
762.651366	2543.723381
762.977935	2547.438711
763.304456	2543.380582
763.630931	2548.928372
763.957359	2545.891077
764.283740	2546.279246
764.610074	2544.257743
764.936362	2546.559030
765.262602	2543.037784
765.588796	2541.114584
765.914943	2538.994779
766.241044	2542.011909
766.567097	2543.804039
766.893104	2539.098122
767.219064	2541.593493
767.544978	2538.112577
767.870845	2540.030736
768.196665	2543.194060
768.522438	2541.734646
768.848165	2540.018133
769.173846	2537.709284
769.499479	2542.155582
769.825066	2539.571991
770.150607	2539.047711
770.476101	2538.495704
770.801548	2538.969573
771.126949	2539.461085
771.452303	2537.984027
771.777611	2539.196425
772.102872	2538.904038
772.428087	2537.157278
772.753256	2539.342618
773.078378	2536.393543
773.403453	2536.368338
773.728482	2536.801877
774.053465	2542.573998
774.378401	2534.803059
774.703291	2539.829090
775.028135	2536.123842
775.352932	2536.857329
775.677683	2536.650642
776.002388	2537.568132
776.327046	2538.261291
776.651658	2540.492001
776.976224	2538.788091
777.300743	2538.057124
777.625216	2540.176929
777.949643	2538.344470
778.274024	2540.454193
778.598359	2533.983872
778.922647	2531.606968
779.246889	2537.164840
779.571086	2531.097811
779.895236	2536.406146
780.219339	2537.822710
780.543397	2538.949408
780.867409	2537.021167
781.191374	2536.406146
781.515294	2540.093750
781.839167	2538.077289
782.162995	2534.951773
782.486776	2537.880684
782.810511	2536.045704
783.134201	2536.877494
783.457844	2538.379758
783.781441	2538.543595
784.104993	2539.793802
784.428498	2538.394881
784.751958	2539.231713
785.075372	2537.177443
785.398739	2537.729449
785.722061	2539.146013
786.045337	2538.808256
786.368568	2536.837165
786.691752	2535.677699
787.014891	2537.495035
787.337983	2537.205169
787.661030	2539.690458
787.984031	2537.348842
788.306987	2538.956970
788.629897	2538.825900
788.952760	2538.082330
789.275579	2540.360931
789.598351	2540.827238
789.921078	2537.374048
790.243759	2539.294727
790.566395	2538.120138
790.888984	2534.956814
791.211529	2535.899510
791.534027	2537.318595
791.856480	2536.701054
792.178888	2539.390509
792.501249	2537.444624
792.823566	2539.355221
793.145836	2537.069058
793.468062	2537.767258
793.790241	2536.814480
794.112375	2538.193235
794.434464	2536.270035
794.756507	2537.394212
795.078505	2535.891948
795.400457	2536.484284
795.722364	2533.172246
796.044226	2534.291382
796.366042	2535.239119
796.687812	2536.799356
797.009538	2535.899510
797.331218	2538.475540
797.652852	2535.322298
797.974442	2538.097453
798.295986	2536.368338
798.617484	2539.859337
798.938938	2534.913965
799.260346	2538.248688
799.581709	2536.784233
799.903026	2537.603420
800.224299	2535.813811
800.545526	2538.346990
800.866708	2537.111908
801.187845	2534.379602
801.508936	2535.387833
801.829983	2539.687937
802.150984	2538.349511
802.471940	2536.620395
802.792851	2535.400436
803.113717	2538.672145
803.434538	2536.829603
803.755314	2539.680376
804.076045	2535.851619
804.396731	2536.713657
804.717372	2538.069727
805.037967	2539.062834
805.358518	2535.029911
805.679024	2534.551002
805.999485	2535.284489
806.319901	2537.772299
806.640272	2535.150899
806.960598	2536.459078
807.280879	2536.461599
807.601115	2537.358924
807.921306	2538.026877
808.241453	2535.274407
808.561554	2537.091743
808.881611	2535.246681
809.201623	2537.462268
809.521590	2536.070909
809.841513	2534.956814
810.161390	2536.224665
810.481223	2536.232226
810.801011	2537.273225
811.120755	2535.823893
811.440453	2536.743903
811.760107	2536.811959
812.079716	2534.495549
812.399281	2531.324663
812.718801	2532.867256
813.038276	2532.688295
813.357707	2535.090405
813.677093	2537.696682
813.996434	2537.847916
814.315731	2537.369007
814.634983	2535.100487
814.954191	2537.863040
815.273354	2537.497556
815.592473	2534.016639
815.911547	2534.689633
816.230577	2538.609130
816.549562	2539.408153
816.868502	2536.055786
817.187399	2536.615354
817.506250	2535.987730
817.825058	2538.979655
818.143821	2539.473688
818.462539	2541.858154
818.781213	2537.956301
819.099843	2541.601055
819.418429	2538.205838
819.736970	2538.596527
820.055466	2540.411343
820.373919	2543.252033
820.692327	2542.818494
821.010691	2547.272353
821.329011	2554.463559
821.647286	2564.939077
821.965517	2577.869637
822.283704	2589.829774
822.601847	2591.894127
822.919945	2581.617734
823.237999	2574.056004
823.556010	2568.843451
823.873976	2561.324570
824.191897	2557.173179
824.509775	2551.930379
824.827609	2550.274360
825.145398	2545.389482
825.463144	2548.714123
825.780845	2545.429812
826.098502	2547.567261
826.416116	2552.444577
826.733685	2557.946997
827.051210	2561.082594
827.368692	2556.747202
827.686129	2551.068342
828.003522	2546.206149
828.320872	2538.624254
828.638177	2543.796478
828.955439	2537.169881
829.272656	2538.309182
829.589830	2533.497400
829.906960	2539.166178
830.224046	2539.299768
830.541088	2536.338091
830.858086	2536.882535
831.175041	2537.056455
831.491952	2539.103163
831.808819	2536.612833
832.125642	2535.849099
832.442421	2540.428987
832.759157	2539.012423
833.075849	2544.663556
833.392497	2543.927548
833.709101	2548.262940
834.025662	2546.296890
834.342179	2546.233876
834.658653	2544.212373
834.975083	2537.963863
835.291469	2541.406971
835.607811	2537.991589
835.924110	2539.478729
836.240366	2541.303627
836.556578	2533.830117
836.872746	2537.313554
837.188871	2535.496218
837.504952	2539.483771
837.820990	2535.372710
838.136984	2533.502442
838.452935	2536.690971
838.768842	2537.628626
839.084706	2538.541075
839.400526	2536.587628
839.716303	2538.069727
840.032037	2537.240457
840.347727	2540.812115
840.663373	2539.556867
840.978977	2540.741538
841.294537	2535.249201
841.610054	2536.297761
841.925527	2536.406146
842.240957	2532.925229
842.556344	2537.253060
842.871687	2536.655683
843.186987	2536.196938
843.502244	2534.387164
843.817458	2533.807431
844.132629	2534.127545
844.447756	2534.674510
844.762840	2533.527647
845.077881	2530.823068
845.392879	2527.952131
845.707833	2531.140661
846.022745	2530.676875
846.337613	2533.086546
846.652438	2533.000847
846.967221	2533.618388
847.281960	2530.765095
847.596656	2534.828265
847.911309	2532.189221
848.225919	2535.355066
848.540485	2533.066382
848.855009	2535.584438
849.169490	2532.705939
849.483928	2534.291382
849.798323	2532.118645
850.112675	2534.142668
850.426984	2532.476567
850.741251	2534.621578
851.055474	2532.118645
851.369654	2533.759540
851.683792	2534.835827
851.997887	2534.301464
852.311938	2533.046217
852.625947	2535.289531
852.939914	2534.278779
853.253837	2535.425642
853.567718	2534.193080
853.881555	2531.543953
854.195350	2534.825744
854.509103	2531.604447
854.822812	2532.078316
855.136479	2534.185518
855.450103	2533.736855
855.763685	2534.548481
856.077224	2534.608975
856.390720	2535.377751
856.704173	2532.169056
857.017584	2535.508821
857.330953	2533.835158
857.644278	2533.494880
857.957561	2534.180477
858.270802	2535.153419
858.584000	2532.950435
858.897155	2531.894313
859.210268	2532.103521
859.523339	2535.407998
859.836367	2534.714839
860.149352	2533.956145
860.462295	2533.948584
860.775195	2534.266176
861.088054	2530.911288
861.400869	2529.653521
861.713642	2529.958510
862.026373	2532.373223
862.339062	2536.033101
862.651708	2534.772812
862.964312	2533.396577
863.276873	2533.005888
863.589392	2534.177956
863.901869	2531.498583
864.214303	2530.306350
864.526696	2534.359438
864.839045	2534.719880
865.151353	2535.178625
865.463619	2535.438245
865.775842	2533.247863
866.088023	2532.509334
866.400162	2535.486136
866.712258	2531.433048
867.024313	2533.378933
867.336325	2533.343645
867.648296	2535.145858
867.960224	2534.611495
868.272110	2534.737524
868.583954	2533.323481
868.895755	2533.462112
869.207515	2533.242822
869.519233	2534.712318
869.830909	2531.974972
870.142542	2535.208872
870.454134	2532.922709
870.765684	2532.532019
871.077191	2533.353728
871.388657	2534.656866
871.700081	2532.015301
872.011463	2532.632843
872.322803	2534.147709
872.634101	2536.204500
872.945357	2535.460930
873.256571	2533.192411
873.567744	2535.181146
873.878874	2533.535209
874.189963	2535.337422
874.501010	2535.652494
874.812015	2534.034283
875.122979	2533.333563
875.433900	2533.671320
875.744780	2538.614172
876.055618	2534.109901
876.366415	2533.575538
876.677169	2535.256763
876.987882	2532.448840
877.298554	2528.456247
877.609183	2533.182328
877.919771	2532.867256
878.230317	2530.628984
878.540822	2538.289017
878.851285	2536.698533
879.161707	2536.154088
879.472087	2536.673327
879.782425	2539.511497
880.092722	2540.295396
880.402977	2544.376210
880.713191	2552.028682
881.023363	2560.112172
881.333494	2566.942936
881.643583	2565.160888
881.953631	2567.144582
882.263637	2564.162739
882.573602	2561.196020
882.883526	2556.812737
883.193408	2552.986501
883.503248	2548.893084
883.813048	2546.410316
884.122806	2546.233876
884.432522	2545.150028
884.742197	2539.919830
885.051831	2540.418905
885.361424	2540.867567
885.670975	2538.346990
885.980485	2535.594520
886.289954	2538.868750
886.599382	2537.404295
886.908768	2536.922864
887.218113	2537.923533
887.527417	2537.127031
887.836680	2537.293389
888.145901	2536.166691
888.455082	2535.806249
888.764221	2535.095446
889.073319	2532.950435
889.382376	2535.728111
889.691392	2534.195600
890.000366	2534.545960
890.309300	2535.586959
890.618193	2533.681402
890.927044	2534.886238
891.235855	2533.983872
891.544625	2535.294572
891.853353	2533.131917
892.162041	2532.627801
892.470687	2536.320447
892.779293	2536.068389
893.087858	2532.854653
893.396381	2531.314581
893.704864	2535.279448
894.013306	2534.452699
894.321707	2542.122815
894.630068	2542.745397
894.938387	2546.511139
895.246665	2542.752959
895.554903	2544.109029
895.863100	2540.953267
896.171256	2540.537372
896.479371	2538.289017
896.787446	2539.695499
897.095480	2536.945550
897.403473	2534.268697
897.711425	2536.509490
898.019336	2536.224665
898.327207	2533.683923
898.635038	2533.477236
898.942827	2535.937319
899.250576	2533.212575
899.558284	2531.755682
899.865952	2536.572504
900.173579	2530.921371
900.481165	2532.552184
900.788711	2531.813655
901.096216	2531.460774
901.403681	2533.431865
901.711105	2534.102339
902.018489	2531.874149
902.325832	2535.355066
902.633135	2533.212575
902.940397	2534.291382
903.247619	2534.014119
903.554800	2537.583256
903.861941	2541.686755
904.169041	2545.129863
904.476101	2547.582384
904.783121	2546.049873
905.090100	2548.136911
905.397039	2543.345294
905.703938	2541.901004
906.010796	2538.868750
906.317614	2538.152906
906.624391	2538.004192
906.931129	2535.859181
907.237826	2533.951104
907.544483	2533.598223
907.851099	2533.376413
908.157675	2533.363810
908.464211	2534.561084
908.770707	2527.785773
909.077163	2532.279962
909.383578	2529.310722
909.689954	2529.280475
909.996289	2528.657893
910.302584	2533.719211
910.608839	2532.776515
910.915054	2531.491021
911.221229	2533.141999
911.527363	2532.179139
911.833458	2531.947246
912.139513	2533.721732
912.445527	2531.828778
912.751502	2533.394057
913.057436	2531.778367
913.363331	2533.966228
913.669186	2533.028573
913.975000	2532.995806
914.280775	2533.618388
914.586510	2537.694161
914.892205	2534.553522
915.197859	2537.263142
915.503475	2543.337733
915.809050	2544.895449
916.114585	2542.886549
916.420081	2545.094575
916.725536	2545.850748
917.030952	2546.405275
917.336328	2543.683052
917.641665	2542.188350
917.946961	2540.275232
918.252218	2538.788091
918.557435	2536.827083
918.862612	2539.627443
919.167750	2536.297761
919.472848	2535.498738
919.777906	2535.501259
920.082925	2534.631660
920.387904	2533.938501
920.692843	2536.423790
920.997743	2531.491021
921.302603	2531.901875
921.607423	2531.904396
921.912204	2532.519417
922.216946	2531.695188
922.521647	2535.985210
922.826310	2530.323994
923.130932	2533.913296
923.435516	2533.031094
923.740059	2532.433717
924.044564	2531.566638
924.349028	2533.217616
924.653454	2528.017666
924.957840	2532.252235
925.262186	2527.329549
925.566493	2531.160826
925.870761	2525.562624
926.174989	2532.133768
926.479178	2532.037986
926.783328	2532.653007
927.087438	2530.243336
927.391509	2526.863242
927.695541	2530.276103
927.999533	2533.265507
928.303486	2530.157636
928.607400	2530.548325
928.911275	2530.114786
929.215110	2529.774508
929.518906	2532.007739
929.822663	2531.526309
930.126381	2530.543284
930.430060	2532.935312
930.733699	2530.112266
931.037299	2530.815507
931.340861	2531.491021
931.644383	2532.025383
931.947866	2530.598737
932.251309	2532.174097
932.554714	2530.205527
932.858080	2530.755013
933.161407	2529.061185
933.464694	2534.457740
933.767943	2530.240815
934.071153	2530.797863
934.374323	2532.320291
934.677455	2529.638397
934.980548	2532.148892
935.283602	2529.590506
935.586617	2530.417255
935.889593	2531.682585
936.192530	2529.063706
936.495428	2532.000178
936.798287	2531.054961
937.101108	2527.543798
937.403890	2529.426669
937.706632	2530.991947
938.009336	2530.883562
938.312002	2530.873480
938.614628	2530.276103
938.917216	2532.930271
939.219765	2531.274252
939.522275	2532.423635
939.824747	2534.190559
940.127179	2529.643438
940.429573	2526.515402
940.731929	2529.940866
941.034246	2526.475073
941.336524	2529.996319
941.638763	2531.112935
941.940964	2533.484798
942.243126	2530.949097
942.545250	2532.819365
942.847335	2528.705784
943.149381	2531.974972
943.451389	2532.436238
943.753359	2530.031607
944.055290	2530.056813
944.357182	2529.890455
944.659036	2530.717204
944.960851	2533.023532
945.262628	2529.288037
945.564367	2532.726104
945.866067	2530.727286
946.167729	2529.207378
946.469352	2531.138140
946.770937	2530.218130
947.072484	2533.094108
947.373992	2528.995650
947.675462	2530.248377
947.976893	2527.969775
948.278286	2528.559590
948.579641	2529.955990
948.880958	2529.217461
949.182236	2530.061854
949.483476	2530.361803
949.784678	2530.505476
950.085841	2530.134951
950.386967	2528.612522
950.688054	2529.265352
950.989103	2532.534540
951.290114	2526.475073
951.591087	2529.018335
951.892021	2532.269879
952.192917	2531.518748
952.493776	2528.297450
952.794596	2531.722914
953.095378	2532.368182
953.396122	2530.346679
953.696828	2529.746782
953.997496	2531.556556
954.298126	2528.773839
954.598718	2532.789118
954.899272	2528.705784
955.199788	2530.003881
955.500266	2532.773995
955.800706	2525.970958
956.101108	2526.028931
956.401472	2528.171421
956.701798	2526.381812
957.002087	2524.534229
957.302337	2530.659231
957.602550	2529.424148
957.902724	2527.014477
958.202861	2529.862728
958.502960	2528.846936
958.803022	2531.659900
959.103045	2526.142357
959.403031	2531.130579
959.702979	2527.395084
960.002889	2529.789632
960.302762	2528.713345
960.602596	2530.356762
960.902393	2530.376926
961.202153	2528.801566
961.501875	2529.522451
961.801559	2531.702750
962.101205	2529.101514
962.400814	2529.855167
962.700385	2529.038500
962.999918	2530.578572
963.299414	2529.335928
963.598873	2528.650331
963.898293	2531.049920
964.197677	2530.203006
964.497022	2529.550177
964.796331	2530.074457
965.095601	2527.364837
965.394835	2526.593540
965.694030	2527.256452
965.993189	2529.121679
966.292309	2527.574045
966.591393	2528.236956
966.890439	2529.406504
967.189447	2530.641587
967.488419	2529.769467
967.787353	2528.504137
968.086249	2526.321318
968.385108	2526.303674
968.683930	2527.868952
968.982714	2526.817872
969.281462	2528.947759
969.580172	2529.187214
969.878844	2530.891124
970.177480	2528.385670
970.476078	2528.796524
970.774639	2530.266021
971.073162	2528.569673
971.371649	2525.771832
971.670098	2525.814682
971.968510	2527.077491
972.266885	2523.228570
972.565223	2529.562780
972.863524	2528.851977
973.161788	2530.994468
973.460014	2530.893644
973.758204	2529.063706
974.056356	2526.898530
974.354471	2531.032276
974.652550	2529.403983
974.950591	2525.066071
975.248595	2528.178983
975.546563	2526.633869
975.844493	2528.857018
976.142386	2528.277286
976.440243	2526.480114
976.738062	2529.633356
977.035845	2528.998171
977.333590	2526.328880
977.631299	2530.863398
977.928971	2528.612522
978.226606	2527.881555
978.524204	2530.623943
978.821765	2529.018335
979.119290	2529.184693
979.416777	2526.333921
979.714228	2527.657224
980.011642	2529.600588
980.309020	2530.996988
980.606360	2530.142512
980.903664	2529.779549
981.200931	2528.458767
981.498162	2530.586134
981.795356	2527.579086
982.092513	2529.693850
982.389633	2530.250897
982.686717	2529.522451
982.983764	2527.969775
983.280775	2530.795342
983.577749	2529.610671
983.874686	2530.008922
984.171587	2530.598737
984.468451	2529.315763
984.765279	2531.299457
985.062070	2529.164529
985.358824	2528.055475
985.655543	2528.060516
985.952224	2528.849457
986.248869	2525.764270
986.545478	2523.105062
986.842050	2524.836698
987.138586	2523.677233
987.435086	2525.615556
987.731549	2522.515247
988.027975	2529.716535
988.324366	2529.618233
988.620719	2527.453057
988.917037	2526.371729
989.213318	2527.813499
989.509563	2528.632687
989.805772	2528.587317
990.101944	2528.247039
990.398080	2529.073788
990.694180	2527.937008
990.990244	2529.587986
991.286271	2527.463139
991.582262	2527.682429
991.878217	2531.143182
992.174136	2525.534898
992.470019	2529.507327
992.765865	2528.912471
993.061676	2530.407173
993.357450	2528.844415
993.653188	2528.199148
993.948890	2528.925074
994.244556	2528.539426
994.540186	2529.000691
994.835780	2529.293078
995.131337	2529.608150
995.426859	2528.857018
995.722345	2526.444826
996.017795	2530.175280
996.313208	2530.288706
996.608586	2529.429189
996.903928	2531.296937
997.199234	2528.229395
997.494504	2527.226205
997.789738	2528.287368
998.084936	2528.171421
998.380099	2526.764939
998.675225	2526.533046
998.970316	2527.100176
999.265371	2529.981196
999.560390	2529.693850
999.855373	2526.724610
1000.150320	2527.808458
1000.445232	2526.207892
1000.740108	2528.857018
1001.034948	2528.143695
1001.329752	2526.137316
1001.624521	2528.355423
1001.919254	2522.908457
1002.213951	2523.934332
1002.508613	2521.698580
1002.803239	2527.009435
1003.097829	2525.229908
1003.392384	2527.914322
1003.686903	2526.114631
1003.981386	2529.706453
1004.275834	2525.728982
1004.570246	2527.430372
1004.864623	2527.732841
1005.158964	2525.290402
1005.453270	2527.334590
1005.747540	2528.068078
1006.041775	2528.960362
1006.335974	2529.512368
1006.630138	2526.323838
1006.924266	2528.241998
1007.218359	2526.737213
1007.512416	2528.307533
1007.806438	2529.877852
1008.100425	2527.576565
1008.394376	2527.213602
1008.688292	2526.439785
1008.982172	2527.264014
1009.276017	2526.911133
1009.569827	2526.404497
1009.863602	2529.247708
1010.157341	2525.716379
1010.451045	2530.134951
1010.744714	2528.126051
1011.038347	2527.684950
1011.331945	2528.035310
1011.625508	2531.364992
1011.919036	2525.023221
1012.212528	2528.453726
1012.505986	2524.272089
1012.799408	2527.911802
1013.092795	2526.817872
1013.386147	2529.290557
1013.679464	2524.945083
1013.972745	2526.306194
1014.265992	2525.217305
1014.559204	2527.511030
1014.852380	2527.463139
1015.145521	2529.514889
1015.438628	2526.641431
1015.731699	2527.558921
1016.024736	2527.407687
1016.317737	2527.490866
1016.610703	2527.826102
1016.903635	2523.868797
1017.196531	2523.730165
1017.489393	2527.813499
1017.782219	2524.869466
1018.075011	2526.583458
1018.367768	2526.570855
1018.660490	2530.240815
1018.953177	2530.240815
1019.245829	2530.240815
