Dividing Wavelength (nm)	Counts (n)	Blue Motor Position (mm): 0.000000	Red Motor Position (mm): 31.100000	
326.493990	2126.257869
326.888308	2126.257869
327.282561	2126.257869
327.676750	2092.847622
328.070874	2095.852150
328.464933	2095.332911
328.858929	2103.343304
329.252859	2112.500560
329.646726	2126.920781
330.040528	2136.040228
330.434265	2153.434730
330.827938	2169.715136
331.221547	2187.177693
331.615091	2206.777699
332.008571	2226.914588
332.401986	2247.532907
332.795338	2267.326998
333.188625	2283.239400
333.581847	2303.134314
333.975006	2325.033086
334.368100	2341.726867
334.761129	2357.251100
335.154095	2375.558050
335.546996	2396.128479
335.939833	2408.219686
336.332606	2425.664599
336.725315	2438.373348
337.117960	2449.335337
337.510540	2458.001080
337.903056	2465.903089
338.295508	2475.493884
338.687896	2484.265492
339.080220	2494.473828
339.472480	2497.790908
339.864676	2502.045642
340.256807	2506.207114
340.648875	2507.084275
341.040879	2510.779441
341.432818	2513.438649
341.824694	2513.983094
342.216506	2515.583660
342.608253	2518.570544
342.999937	2515.767662
343.391557	2516.967457
343.783113	2516.123064
344.174605	2514.827487
344.566033	2512.140552
344.957397	2510.512259
345.348697	2509.753566
345.739934	2509.375479
346.131106	2507.220386
346.522215	2505.811383
346.913260	2503.527741
347.304241	2502.504387
347.695159	2498.423573
348.086012	2500.659324
348.476802	2496.323932
348.867528	2497.138078
349.258191	2492.248159
349.648789	2491.194558
350.039324	2491.648262
350.429796	2490.670278
350.820203	2487.759012
351.210548	2488.958806
351.600828	2487.693477
351.991045	2486.128198
352.381198	2483.395893
352.771288	2481.999493
353.161314	2482.760707
353.551276	2484.119298
353.941175	2483.844556
354.331010	2484.877992
354.720782	2481.008907
355.110490	2484.043681
355.500135	2486.574340
355.889717	2482.876654
356.279235	2483.965543
356.668689	2487.592653
357.058080	2487.597695
357.447408	2482.359936
357.836672	2481.465131
358.225873	2484.509988
358.615010	2482.838845
359.004084	2489.225987
359.393095	2488.477376
359.782043	2492.107007
360.170927	2490.085504
360.559748	2492.969044
360.948505	2492.263283
361.337199	2494.123468
361.725830	2491.514671
362.114398	2493.921822
362.502903	2493.112717
362.891344	2493.137923
363.279722	2494.206647
363.668037	2498.544560
364.056289	2494.894765
364.444478	2497.354848
364.832603	2497.990033
365.220665	2498.481546
365.608665	2498.055568
365.996601	2498.564725
366.384474	2503.016064
366.772284	2502.128821
367.160031	2505.967659
367.547715	2503.570591
367.935336	2507.520335
368.322893	2511.107116
368.710388	2515.255985
369.097820	2521.776718
369.485189	2522.769825
369.872495	2529.832482
370.259738	2536.539737
370.646918	2544.340922
371.034035	2548.643547
371.421090	2562.907492
371.808081	2571.459809
372.195010	2579.439956
372.581875	2594.397059
372.968678	2608.703854
373.355418	2619.176851
373.742096	2636.178142
374.128710	2650.805050
374.515262	2666.125117
374.901751	2679.012827
375.288177	2692.092100
375.674540	2717.295349
376.060841	2732.602813
376.447079	2756.999477
376.833254	2774.986314
377.219367	2786.013838
377.605417	2823.036072
377.991404	2834.844974
378.377329	2859.682739
378.763191	2872.068854
379.148991	2911.548651
379.534727	2934.498504
379.920402	2963.666620
380.306013	2975.588949
380.691563	3023.996628
381.077049	3048.443704
381.462474	3065.051785
381.847835	3102.817589
382.233134	3125.838018
382.618371	3128.008235
383.003545	3195.269830
383.388657	3199.075902
383.773706	3233.219637
384.158693	3250.961977
384.543618	3276.011471
384.928480	3311.788540
385.313280	3358.446939
385.698017	3358.109182
386.082692	3413.725712
386.467305	3414.590270
386.851856	3445.691668
387.236344	3470.836944
387.620770	3498.880882
388.005133	3528.782487
388.389435	3555.661919
388.773674	3563.871438
389.157851	3606.988427
389.541965	3622.190026
389.926018	3586.249120
390.310008	3657.420130
390.693936	3675.139786
391.077802	3719.496898
391.461606	3708.623129
391.845348	3769.694188
392.229027	3770.563787
392.612645	3782.697844
392.996200	3859.630893
393.379694	3899.355185
393.763125	3963.004794
394.146494	3929.713014
394.529801	3994.257427
394.913047	4040.010939
395.296230	4009.529602
395.679351	4063.779980
396.062410	4085.464503
396.445408	4068.380032
396.828343	4098.687449
397.211217	4124.596460
397.594028	4044.847926
397.976778	4107.703553
398.359466	4136.458295
398.742092	4167.602543
399.124656	4088.831994
399.507158	4165.888551
399.889598	4193.383004
400.271977	4260.059825
400.654294	4229.598653
401.036549	4236.338676
401.418742	4204.607133
401.800874	4306.975323
402.182944	4329.085824
402.564952	4392.543869
402.946898	4377.301940
403.328783	4375.078791
403.710606	4289.885812
404.092367	4482.467971
404.474067	4448.725008
404.855705	4457.282367
405.237282	4381.566756
405.618797	4495.496833
406.000250	4528.428171
406.381642	4606.624029
406.762972	4567.844953
407.144240	4577.108073
407.525447	4579.759720
407.906593	4640.109893
408.287677	4681.361655
408.668700	4610.311633
409.049661	4661.560003
409.430560	4704.883679
409.811399	4630.057832
410.192176	4789.186895
410.572891	4727.180702
410.953545	4831.590560
411.334138	4712.992375
411.714669	4780.730359
412.095139	4674.722455
412.475547	4813.412159
412.855894	4794.414571
413.236180	4808.943177
413.616405	4756.391668
413.996568	4845.859546
414.376670	4790.391730
414.756711	4745.399432
415.136691	4774.686016
415.516609	4852.360114
415.896466	4888.900918
416.276262	4923.775620
416.655997	4902.811982
417.035670	5089.042287
417.415283	5180.511503
417.794834	5126.384634
418.174324	5077.908899
418.553753	4985.827183
418.933121	5170.474566
419.312428	5233.410851
419.691674	5177.640566
420.070859	5300.775790
420.449983	5211.542326
420.829045	5330.868958
421.208047	5233.511674
421.586988	5304.599505
421.965867	5317.963604
422.344686	5444.506648
422.723444	5301.408455
423.102141	5123.065034
423.480777	5423.527886
423.859352	5192.673287
424.237866	5448.126196
424.616319	5442.013797
424.994712	5549.836516
425.373044	5424.223565
425.751314	5568.932407
426.129524	5372.052664
426.507673	5569.408796
426.885762	5648.174304
427.263789	5581.207617
427.641756	5466.090348
428.019662	5585.157361
428.397508	5589.936374
428.775292	5536.074166
429.153016	5636.814064
429.530679	5564.833949
429.908282	5649.850488
430.285824	5523.395664
430.663305	5792.555471
431.040726	5531.295152
431.418086	5528.419174
431.795385	5636.582171
432.172624	5647.702956
432.549802	5639.823633
432.926920	5653.447351
433.303977	5661.692158
433.680974	5704.824271
434.057910	5717.664089
434.434786	5722.382609
434.811601	5693.327919
435.188355	5928.235606
435.565050	5800.918745
435.941683	5787.390809
436.318257	5999.409137
436.694770	5981.744934
437.071222	6014.416652
437.447614	5946.892917
437.823946	5860.001068
438.200218	6016.448237
438.576429	5875.941197
438.952580	5977.041537
439.328670	6020.899576
439.704700	5931.197284
440.080670	5916.847640
440.456580	6188.165060
440.832429	6068.420012
441.208218	5918.876704
441.583947	6071.122071
441.959616	6075.427216
442.335224	6005.755949
442.710773	6142.535056
443.086261	6165.560526
443.461689	5963.964784
443.837057	6107.453667
444.212365	6263.910917
444.587612	6159.324619
444.962800	6313.087373
445.337927	6291.019722
445.712995	5899.155710
446.088002	6477.418906
446.462949	6307.915149
446.837837	6236.625672
447.212664	6411.742754
447.587431	6553.106790
447.962139	7095.232475
448.336786	8028.221502
448.711374	7765.685772
449.085901	6835.938206
449.460369	6761.813080
449.834776	6692.441762
450.209124	7080.093890
450.583412	7231.918320
450.957640	7381.479272
451.331808	7146.664847
451.705917	6701.286466
452.079965	6626.274097
452.453954	6831.375962
452.827883	6709.064967
453.201752	6801.595345
453.575562	6604.256858
453.949311	6805.340923
454.323001	6694.677513
454.696632	6767.096209
455.070202	6908.235914
455.443713	7059.173101
455.817164	7163.706467
456.190556	7243.157572
456.563888	7318.321176
456.937160	7355.829882
457.310373	7017.797831
457.683526	7043.555607
458.056619	6937.814884
458.429653	6921.098418
458.802628	6855.351689
459.175542	6965.707588
459.548398	7322.540622
459.921194	7482.292267
460.293930	7484.706980
460.666607	8013.801282
461.039224	8321.059608
461.411782	8446.246582
461.784280	8466.915313
462.156719	8362.986885
462.529099	8232.083243
462.901419	7819.106879
463.273680	7713.484623
463.645882	7727.791418
464.018024	7592.983403
464.390106	7759.860718
464.762130	8148.145511
465.134094	8610.784802
465.505999	9631.048806
465.877845	10855.295538
466.249631	11500.306131
466.621358	11119.273038
466.993026	10477.188835
467.364634	10227.064425
467.736184	9867.141164
468.107674	9533.993991
468.479105	9565.682684
468.850477	9323.762753
469.221790	9098.823947
469.593043	8770.387733
469.964238	8631.599727
470.335373	8635.940160
470.706449	8694.518368
471.077467	8671.369389
471.448425	9975.500766
471.819324	11029.782475
472.190164	11051.668645
472.560945	9813.798194
472.931667	9024.187144
473.302330	8884.365701
473.672934	8526.468984
474.043479	8879.705154
474.413965	8816.103437
474.784393	8690.097276
475.154761	8834.959873
475.525070	8914.098426
475.895321	8740.927230
476.265513	8909.296727
476.635645	9070.177591
477.005719	9047.210094
477.375734	9157.848297
477.745691	9385.945385
478.115588	9503.994085
478.485427	9728.569927
478.855207	10230.925949
479.224928	10998.214770
479.594591	11603.768252
479.964194	11399.409958
480.333739	11340.052892
480.703226	11230.705224
481.072653	11298.826336
481.442022	11494.511325
481.811333	11656.221458
482.180584	11456.135541
482.549777	11150.654221
482.918912	10963.665222
483.287988	10951.790784
483.657005	10934.918042
484.025964	10613.549526
484.394864	10707.078053
484.763706	10660.643985
485.132489	10412.778012
485.501213	10345.927271
485.869879	10394.052646
486.238487	10203.295385
486.607036	10281.909658
486.975527	10042.480056
487.343959	10178.424852
487.712333	10189.659063
488.080648	10092.006872
488.448905	10087.311038
488.817104	9991.725719
489.185244	10191.693169
489.553326	10281.854206
489.921350	10694.699500
490.289315	11523.820593
490.657222	11774.144129
491.025070	11635.978705
491.392861	11486.508493
491.760593	11136.241562
492.128267	10793.097782
492.495883	10469.019645
492.863440	10133.067070
493.230939	9788.904977
493.598380	9685.631899
493.965763	9508.503397
494.333088	9387.518225
494.700354	9256.929655
495.067563	9256.922094
495.434713	9056.511023
495.801805	9099.471736
496.168839	8984.104930
496.535815	8866.860294
496.902733	8815.317017
497.269593	8694.339407
497.636395	8707.222075
498.003139	8629.139643
498.369825	8476.707754
498.736453	8517.122684
499.103023	8400.845950
499.469535	8354.454732
499.835989	8285.695914
500.202385	8183.536932
500.568723	8018.199688
500.935003	8107.355015
501.301226	7879.383955
501.667390	8000.036411
502.033497	7992.608271
502.399546	7835.808222
502.765537	7701.978190
503.131470	7668.837644
503.497345	7699.833179
503.863163	7400.880153
504.228923	7500.470668
504.594625	7476.855383
504.960269	7257.910509
505.325856	7306.300545
505.691385	7115.165197
506.056856	7131.944677
506.422270	7065.676190
506.787625	6946.268899
507.152924	6921.327790
507.518164	6849.783735
507.883347	6732.851651
508.248472	6627.307533
508.613540	6666.956208
508.978550	6528.062338
509.343503	6452.182890
509.708398	6431.851917
510.073236	6408.823926
510.438016	6337.027813
510.802738	6245.112455
511.167403	6193.720412
511.532010	6073.461166
511.896561	6111.839470
512.261053	6069.995373
512.625488	5936.309014
512.989866	5854.460840
513.354186	5784.240088
513.718449	5674.370660
514.082655	5683.500190
514.446803	5576.045475
514.810894	5550.857350
515.174927	5430.656077
515.538904	5382.908789
515.902822	5354.617833
516.266684	5262.344553
516.630488	5173.342982
516.994235	5140.204958
517.357925	5083.363427
517.721558	5050.656421
518.085133	4984.738293
518.448651	4936.116365
518.812112	4845.546995
519.175516	4779.248260
519.538863	4751.836986
519.902152	4684.325853
520.265385	4654.522552
520.628560	4587.855813
520.991678	4517.178836
521.354739	4481.159792
521.717743	4416.801901
522.080690	4362.029765
522.443580	4325.284794
522.806413	4267.361937
523.169189	4226.795772
523.531908	4188.790513
523.894569	4110.594655
524.257174	4060.178075
524.619722	4033.099517
524.982213	3987.272908
525.344647	3941.431176
525.707025	3894.528280
526.069345	3864.299001
526.431608	3807.880928
526.793815	3786.395530
527.155964	3718.266857
527.518057	3685.844676
527.880093	3639.849188
528.242072	3615.114767
528.603995	3568.282447
528.965860	3528.316180
529.327669	3500.327694
529.689421	3465.367292
530.051117	3431.480656
530.412755	3405.014598
530.774337	3366.578320
531.135862	3336.462467
531.497331	3310.485402
531.858743	3264.487393
532.220098	3253.588419
532.581396	3217.975187
532.942638	3195.103472
533.303824	3168.876869
533.664953	3147.247799
534.026025	3118.518263
534.387040	3103.329267
534.747999	3082.731112
535.108902	3064.582958
535.469748	3031.724717
535.830537	3019.404137
536.191270	3001.679440
536.551947	2983.130515
536.912567	2966.736683
537.273131	2950.088272
537.633638	2937.056889
537.994089	2918.344126
538.354483	2902.524985
538.714821	2895.066598
539.075103	2881.783158
539.435328	2868.691281
539.795497	2851.601770
540.155609	2844.534072
540.515665	2835.966631
540.875665	2816.631286
541.235609	2808.356232
541.595496	2799.090591
541.955328	2792.612708
542.315102	2782.018723
542.674821	2772.306940
543.034483	2763.933584
543.394090	2756.271030
543.753640	2748.981522
544.113134	2747.403640
544.472571	2737.187742
544.831953	2732.227247
545.191278	2723.110320
545.550548	2718.464897
545.909761	2716.992880
546.268918	2711.429967
546.628019	2709.264791
546.987064	2700.765406
547.346053	2694.826926
547.704986	2690.494055
548.063863	2688.533046
548.422684	2687.552541
548.781449	2681.198167
549.140158	2680.182374
549.498811	2676.131807
549.857408	2671.622495
550.215949	2668.960766
550.574434	2661.532626
550.932864	2662.661844
551.291237	2661.404076
551.649555	2661.043634
552.007817	2661.240239
552.366022	2658.470125
552.724173	2655.142963
553.082267	2654.772438
553.440305	2653.118940
553.798288	2652.892088
554.156215	2648.884371
554.514086	2648.970070
554.871902	2645.400933
555.229661	2642.903042
555.587365	2644.380100
555.945014	2637.554378
556.302606	2639.341467
556.660143	2639.235602
557.017625	2636.364665
557.375050	2638.779378
557.732421	2638.124028
558.089735	2636.190745
558.446994	2635.303502
558.804197	2631.136989
559.161345	2633.408028
559.518437	2632.011629
559.875474	2631.668830
560.232455	2631.552884
560.589381	2628.591206
560.946251	2631.063892
561.303065	2629.402832
561.659825	2630.098511
562.016528	2627.666154
562.373177	2625.508540
562.729770	2624.046606
563.086307	2624.880917
563.442789	2625.309415
563.799216	2623.953344
564.155587	2621.926801
564.511904	2620.792541
564.868164	2621.067284
565.224370	2624.452419
565.580520	2618.448404
565.936615	2623.287912
566.292654	2618.614762
566.648638	2620.013683
567.004567	2616.283229
567.360441	2620.134670
567.716260	2617.026799
568.072023	2617.498147
568.427732	2613.543362
568.783385	2616.071500
569.138982	2614.309617
569.494525	2613.107302
569.850013	2610.899277
570.205445	2616.310955
570.560823	2614.082765
570.916145	2613.185440
571.271412	2612.756942
571.626625	2614.239041
571.981782	2613.152672
572.336884	2612.038577
572.691931	2614.370111
573.046923	2611.726026
573.401860	2611.065635
573.756743	2611.471447
574.111570	2609.583535
574.466342	2612.096551
574.821059	2606.692434
575.175722	2610.342229
575.530330	2609.666714
575.884882	2610.737960
576.239380	2608.426591
576.593823	2610.609410
576.948211	2609.964142
577.302544	2606.505911
577.656823	2605.999275
578.011047	2607.940119
578.365216	2607.458689
578.719330	2605.764861
579.073389	2606.957094
579.427394	2604.123966
579.781344	2602.856116
580.135239	2606.465582
580.489080	2607.284769
580.842866	2602.117587
581.196597	2606.377362
581.550273	2603.897114
581.903895	2602.878801
582.257463	2605.139758
582.610975	2601.205138
582.964434	2601.610951
583.317837	2604.486929
583.671186	2604.025663
584.024481	2604.643205
584.377721	2601.825200
584.730906	2601.626074
585.084037	2602.979624
585.437113	2598.409818
585.790135	2602.145313
586.143103	2596.279930
586.496016	2601.142123
586.848874	2593.598037
587.201679	2598.878645
587.554428	2593.456884
587.907124	2598.611464
588.259765	2597.998964
588.612352	2599.937287
588.964884	2599.322267
589.317362	2597.439396
589.669786	2598.770260
590.022155	2599.483584
590.374470	2597.923347
590.726731	2600.985847
591.078937	2595.707759
591.431090	2592.562079
591.783188	2596.438727
592.135232	2596.849581
592.487222	2595.785897
592.839157	2596.658017
593.191038	2595.853953
593.542866	2596.133737
593.894639	2596.879828
594.246358	2596.849581
594.598022	2595.264138
594.949633	2592.990577
595.301190	2592.410845
595.652692	2594.639035
596.004141	2597.391505
596.355535	2595.864035
596.706876	2592.751123
597.058162	2592.766246
597.409395	2593.439240
597.760573	2594.258428
598.111698	2592.806575
598.462768	2593.076277
598.813785	2593.497213
599.164748	2593.076277
599.515657	2593.759353
599.866511	2590.515371
600.217312	2593.933273
600.568060	2591.689960
600.918753	2594.926381
601.269392	2593.078798
601.619978	2592.685588
601.970510	2594.230701
602.320988	2593.439240
602.671412	2593.509816
603.021783	2590.303642
603.372100	2593.104003
603.722363	2593.003180
604.072572	2594.772625
604.422728	2593.293047
604.772830	2589.981009
605.122878	2586.762232
605.472872	2586.308528
605.822813	2588.728282
606.172701	2589.393714
606.522534	2592.907398
606.872314	2588.745926
607.222041	2589.759198
607.571714	2591.442943
607.921333	2592.483942
608.270899	2589.774321
608.620411	2591.163159
608.969870	2592.294898
609.319276	2595.803541
609.668627	2596.370671
610.017926	2599.176073
610.367171	2599.483584
610.716362	2598.734972
611.065500	2596.010229
611.414585	2594.099631
611.763616	2595.798500
612.112594	2594.669282
612.461518	2595.511154
612.810389	2596.431165
613.159207	2591.352203
613.507971	2592.335227
613.856682	2592.761205
614.205340	2590.361616
614.553945	2594.976792
614.902496	2594.008891
615.250994	2591.871441
615.599439	2592.350351
615.947830	2590.840525
616.296169	2592.985536
616.644454	2592.546956
616.992686	2589.958323
617.340864	2592.645258
617.688990	2590.432192
618.037063	2594.606267
618.385082	2593.114086
618.733048	2591.052254
619.080961	2589.181986
619.428821	2593.560228
619.776628	2593.542584
620.124382	2592.544435
620.472083	2591.236256
620.819731	2591.112748
621.167326	2588.778693
621.514868	2592.236925
621.862357	2588.206522
622.209793	2589.822212
622.557176	2588.433374
622.904506	2587.858683
623.251783	2582.517580
623.599007	2585.978332
623.946179	2585.295256
624.293297	2585.764083
624.640363	2587.271388
624.987376	2586.875658
625.334336	2591.206009
625.681243	2586.676532
626.028097	2587.800710
626.374899	2587.478076
626.721647	2586.197623
627.068343	2586.598394
627.414987	2581.610173
627.761577	2587.347006
628.108115	2585.627972
628.454600	2583.097313
628.801032	2585.718713
629.147412	2587.586461
629.493739	2583.810636
629.840014	2583.278795
630.186236	2583.750142
630.532405	2583.792992
630.878521	2586.273240
631.224585	2584.624783
631.570597	2582.575554
631.916556	2586.056470
632.262462	2583.114957
632.608316	2582.671336
632.954117	2579.878536
633.299866	2581.453897
633.645562	2579.344174
633.991206	2583.034299
634.336797	2581.549679
634.682336	2580.468351
635.027823	2580.223855
635.373257	2579.291242
635.718639	2578.779565
636.063968	2577.219328
636.409245	2578.484657
636.754470	2577.443659
637.099642	2577.967939
637.444762	2578.565316
637.789829	2577.667990
638.134845	2577.231931
638.479808	2576.160685
638.824719	2577.211766
639.169577	2578.270408
639.514383	2576.846282
639.859137	2574.842424
640.203839	2576.896694
640.548489	2573.642629
640.893086	2575.739749
641.237632	2571.341342
641.582125	2572.173133
641.926566	2569.521486
642.270955	2576.750500
642.615292	2573.319995
642.959576	2574.981055
643.303809	2575.666652
643.647990	2573.887125
643.992118	2574.537434
644.336195	2575.091961
644.680219	2576.979873
645.024192	2574.668504
645.368112	2573.899728
645.711981	2577.199163
646.055797	2573.403174
646.399562	2575.417115
646.743274	2577.501632
647.086935	2576.579101
647.430544	2578.252764
647.774101	2576.405181
648.117606	2578.114132
648.461059	2579.588670
648.804460	2580.077662
649.147810	2578.870306
649.491108	2577.433577
649.834354	2574.965932
650.177548	2573.657752
650.520690	2572.344532
650.863781	2575.303689
651.206820	2580.004565
651.549807	2572.117680
651.892742	2574.532393
652.235626	2571.842937
652.578458	2573.987948
652.921238	2571.681620
653.263967	2573.360324
653.606644	2572.455437
653.949269	2573.377968
654.291843	2572.964594
654.634365	2572.001733
654.976836	2571.137176
655.319255	2571.686661
655.661622	2575.704461
656.003938	2575.585994
656.346203	2570.481826
656.688416	2572.722618
657.030577	2570.481826
657.372687	2570.917885
657.714746	2570.958215
658.056753	2570.698595
658.398708	2565.357493
658.740612	2566.128789
659.082465	2565.690209
659.424266	2564.445044
659.766016	2568.392267
660.107715	2572.904100
660.449362	2572.246229
660.790958	2571.482495
661.132503	2569.113152
661.473996	2570.713719
661.815438	2572.200859
662.156829	2569.476115
662.498168	2571.086764
662.839456	2571.147258
663.180693	2572.710016
663.521879	2571.298493
663.863013	2569.289593
664.204097	2568.697257
664.545129	2569.745817
664.886110	2572.427711
665.227040	2570.585169
665.567918	2572.304203
665.908746	2569.617268
666.249522	2571.185067
666.590248	2570.265056
666.930922	2571.109449
667.271545	2573.559450
667.612118	2573.700602
667.952639	2573.924934
668.293109	2572.636919
668.633528	2571.104408
668.973896	2569.834037
669.314213	2569.458471
669.654480	2570.655745
669.994695	2572.168092
670.334859	2572.803277
670.674973	2570.567525
671.015035	2571.936198
671.355047	2567.729356
671.695008	2572.808318
672.034918	2570.060889
672.374777	2569.140879
672.714585	2568.929150
673.054342	2570.980900
673.394049	2571.086764
673.733705	2573.599779
674.073310	2573.083061
674.412864	2569.733214
674.752368	2571.200190
675.091820	2570.834706
675.431223	2570.869994
675.770574	2566.637946
676.109875	2565.049982
676.449125	2564.755075
676.788324	2563.822461
677.127473	2566.980744
677.466571	2561.591751
677.805619	2568.727504
678.144616	2568.908986
678.483562	2568.780436
678.822458	2569.634912
679.161303	2569.100549
679.500098	2568.750189
679.838842	2569.476115
680.177535	2567.084088
680.516179	2567.326063
680.854771	2563.744323
681.193314	2569.483677
681.531805	2568.331773
681.870247	2572.215982
682.208638	2571.376630
682.546978	2574.532393
682.885268	2571.802608
683.223508	2569.516445
683.561697	2569.745817
683.899836	2571.215313
684.237925	2571.399316
684.575963	2571.971487
684.913951	2568.092319
685.251889	2567.741958
685.589776	2566.983265
685.927614	2568.372103
686.265401	2569.244222
686.603137	2570.151630
686.940824	2569.072823
687.278460	2570.622978
687.616046	2571.406877
687.953582	2572.130283
688.291068	2571.689182
688.628504	2571.084243
688.965889	2569.629871
689.303224	2572.397464
689.640510	2567.537792
689.977745	2569.687844
690.314930	2568.896383
690.652065	2566.895045
690.989150	2567.638615
691.326185	2567.129458
691.663170	2566.564849
692.000105	2566.191804
692.336990	2563.943449
692.673825	2563.454457
693.010610	2564.049313
693.347345	2560.807851
693.684030	2555.970864
694.020665	2560.707028
694.357251	2560.104610
694.693786	2560.828016
695.030272	2564.172822
695.366707	2562.047975
695.703093	2559.965979
696.039429	2561.475804
696.375716	2559.701318
696.711952	2559.844991
697.048139	2561.448078
697.384276	2561.377502
697.720363	2562.627708
698.056400	2561.952193
698.392388	2559.557645
698.728326	2559.809703
699.064214	2560.081925
699.400053	2560.724672
699.735842	2556.701832
700.071581	2559.781977
700.407270	2559.524878
700.742910	2558.274672
701.078501	2557.727706
701.414042	2556.812737
701.749533	2555.796944
702.084974	2558.095711
702.420366	2558.110834
702.755709	2557.914229
703.091002	2555.723848
703.426246	2556.641338
703.761440	2557.057233
704.096584	2559.509754
704.431679	2557.253838
704.766725	2556.391801
705.101721	2557.145453
705.436668	2558.501523
705.771565	2554.403065
706.106413	2556.963972
706.441212	2557.291647
706.775961	2559.396328
707.110661	2556.366595
707.445311	2558.493962
707.779913	2557.573951
708.114465	2559.781977
708.448967	2557.510937
708.783421	2559.025803
709.117825	2557.606719
709.452180	2559.177038
709.786485	2558.367933
710.120742	2559.787018
710.454949	2561.367419
710.789107	2557.233673
711.123216	2560.074363
711.457275	2560.870866
711.791286	2555.156718
712.125247	2563.280537
712.459159	2560.956565
712.793023	2564.135013
713.126837	2558.665361
713.460602	2562.574776
713.794318	2561.269117
714.127985	2559.522357
714.461602	2558.095711
714.795171	2562.451267
715.128691	2559.245094
715.462162	2557.238714
715.795584	2558.536812
716.128957	2559.217367
716.462281	2556.608570
716.795556	2556.260731
717.128782	2556.795093
717.461960	2557.803324
717.795088	2556.643858
718.128167	2555.905329
718.461198	2555.658313
718.794180	2557.536143
719.127113	2553.354505
719.459997	2554.468600
719.792833	2554.549259
720.125619	2555.471790
720.458357	2553.538508
720.791046	2555.567572
721.123686	2553.714948
721.456278	2554.019938
721.788821	2553.099927
722.121315	2553.145298
722.453761	2552.563044
722.786158	2553.520863
723.118506	2554.012376
723.450805	2555.897768
723.783056	2550.158414
724.115259	2551.547252
724.447412	2551.582540
724.779518	2554.347613
725.111574	2551.297715
725.443582	2554.450956
725.775542	2555.161759
726.107453	2550.591953
726.439315	2554.105637
726.771129	2555.552448
727.102895	2552.868034
727.434612	2556.938766
727.766281	2557.359702
728.097901	2553.475493
728.429473	2551.380894
728.760996	2553.508261
729.092471	2549.742519
729.423897	2556.006152
729.755276	2555.098745
730.086606	2554.072870
730.417887	2558.607388
730.749120	2556.921122
731.080305	2557.417675
731.411442	2559.257697
731.742530	2556.550597
732.073570	2560.013870
732.404562	2560.404559
732.735506	2559.600495
733.066401	2558.841801
733.397249	2556.575803
733.728048	2557.531101
734.058798	2554.471121
734.389501	2551.980791
734.720156	2555.683518
735.050762	2554.087993
735.381320	2553.543549
735.711831	2551.758980
736.042293	2550.980122
736.372707	2553.256203
736.703073	2552.585729
737.033391	2551.078424
737.363661	2551.912735
737.693883	2551.171686
738.024056	2553.624207
738.354182	2552.414330
738.684260	2553.979608
739.014290	2554.259392
739.344272	2554.115720
739.674207	2555.928014
740.004093	2558.471277
740.333931	2556.790052
740.663722	2553.362067
740.993464	2555.126471
741.323159	2553.238559
741.652806	2554.183775
741.982405	2554.516491
742.311956	2551.766542
742.641460	2553.238559
742.970915	2551.416182
743.300323	2554.491286
743.629683	2550.914587
743.958996	2554.609753
744.288260	2552.767211
744.617477	2550.649926
744.946647	2548.567930
745.275768	2546.680018
745.604842	2546.158258
745.933869	2548.101623
746.262847	2545.197918
746.591778	2548.749411
746.920662	2548.290666
747.249498	2549.021634
747.578286	2548.749411
747.907027	2551.206974
748.235720	2551.315359
748.564365	2550.463404
748.892963	2549.261088
749.221514	2548.656150
749.550017	2550.551624
749.878473	2551.416182
750.206881	2548.716644
750.535242	2549.525749
750.863555	2549.397200
751.191821	2549.228321
751.520039	2549.240924
751.848210	2551.784186
752.176334	2547.751263
752.504411	2550.518856
752.832440	2548.862837
753.160421	2548.406613
753.488356	2547.209339
753.816243	2549.387117
754.144082	2548.159596
754.471875	2547.680687
754.799620	2546.165820
755.127318	2547.161448
755.454969	2549.891233
755.782572	2546.387631
756.110129	2548.489792
756.437638	2546.405275
756.765100	2549.182951
757.092515	2552.076573
757.419882	2548.545245
757.747203	2548.618341
758.074477	2548.245296
758.401703	2548.845193
758.728882	2548.018444
759.056014	2548.462066
759.383099	2548.378887
759.710138	2549.646737
760.037129	2549.193033
760.364073	2550.985163
760.690970	2546.400234
761.017820	2550.087838
761.344623	2551.902653
761.671379	2548.986346
761.998088	2547.007693
762.324751	2553.702345
762.651366	2552.374001
762.977935	2563.356155
763.304456	2567.089129
763.630931	2572.185736
763.957359	2568.732545
764.283740	2564.412276
764.610074	2560.838098
764.936362	2556.742161
765.262602	2556.459856
765.588796	2548.330996
765.914943	2549.165307
766.241044	2548.353681
766.567097	2548.699000
766.893104	2547.814277
767.219064	2546.281767
767.544978	2546.680018
767.870845	2544.799667
768.196665	2546.364946
768.522438	2543.488967
768.848165	2547.516849
769.173846	2544.794626
769.499479	2546.937117
769.825066	2545.555840
770.150607	2543.746066
770.476101	2544.635830
770.801548	2543.806560
771.126949	2544.247661
771.452303	2545.318906
771.777611	2544.194729
772.102872	2543.425953
772.428087	2541.621220
772.753256	2544.567774
773.078378	2541.603576
773.403453	2542.233720
773.728482	2543.539379
774.053465	2543.090716
774.378401	2544.098947
774.703291	2541.958977
775.028135	2542.148020
775.352932	2542.064841
775.677683	2540.802032
776.002388	2541.830428
776.327046	2541.485109
776.651658	2541.608617
776.976224	2542.258926
777.300743	2539.924872
777.625216	2539.090561
777.949643	2540.857485
778.274024	2543.425953
778.598359	2537.230375
778.922647	2537.747093
779.246889	2541.154913
779.571086	2535.985210
779.895236	2539.642567
780.219339	2542.216076
780.543397	2541.338915
780.867409	2539.909748
781.191374	2539.637526
781.515294	2538.916641
781.839167	2541.681714
782.162995	2541.774975
782.486776	2541.318751
782.810511	2541.590973
783.134201	2539.945036
783.457844	2542.148020
783.781441	2540.857485
784.104993	2536.849768
784.428498	2541.233051
784.751958	2541.722043
785.075372	2543.620037
785.398739	2540.890252
785.722061	2541.447300
786.045337	2539.501415
786.368568	2540.365973
786.691752	2540.428987
787.014891	2541.497712
787.337983	2541.928730
787.661030	2540.882691
787.984031	2543.514173
788.306987	2544.706406
788.629897	2545.518032
788.952760	2543.723381
789.275579	2542.228679
789.598351	2542.987372
789.921078	2541.613658
790.243759	2541.185160
790.566395	2540.809594
790.888984	2541.202804
791.211529	2539.657690
791.534027	2543.486447
791.856480	2539.766075
792.178888	2541.225489
792.501249	2540.126518
792.823566	2540.900335
793.145836	2542.546272
793.468062	2539.849254
793.790241	2539.642567
794.112375	2540.055942
794.434464	2538.014274
794.756507	2540.151723
795.078505	2539.869419
795.400457	2539.682896
795.722364	2536.882535
796.044226	2540.991076
796.366042	2538.092412
796.687812	2539.501415
797.009538	2542.004348
797.331218	2543.534338
797.652852	2540.469316
797.974442	2541.399409
798.295986	2542.163144
798.617484	2539.052752
798.938938	2538.357073
799.260346	2539.561908
799.581709	2538.989738
799.903026	2541.205325
800.224299	2542.112732
800.545526	2540.837320
800.866708	2540.260108
801.187845	2539.466127
801.508936	2541.129707
801.829983	2540.333205
802.150984	2538.785571
802.471940	2540.575180
802.792851	2538.122659
803.113717	2538.919161
803.434538	2540.103832
803.755314	2538.727598
804.076045	2540.025695
804.396731	2539.997968
804.717372	2539.098122
805.037967	2539.314892
805.358518	2538.407484
805.679024	2541.185160
805.999485	2537.905889
806.319901	2538.251208
806.640272	2537.981507
806.960598	2539.667773
807.280879	2539.486291
807.601115	2539.508976
807.921306	2539.146013
808.241453	2538.508307
808.561554	2540.595345
808.881611	2538.667104
809.201623	2540.055942
809.521590	2542.440407
809.841513	2538.541075
810.161390	2538.253729
810.481223	2540.996117
810.801011	2539.708102
811.120755	2540.486960
811.440453	2539.793802
811.760107	2540.371014
812.079716	2535.564273
812.399281	2533.641073
812.718801	2538.346990
813.038276	2533.746938
813.357707	2539.360262
813.677093	2537.699202
813.996434	2540.018133
814.315731	2539.758513
814.634983	2539.188863
814.954191	2539.166178
815.273354	2536.809438
815.592473	2538.299099
815.911547	2539.012423
816.230577	2541.986703
816.549562	2542.682383
816.868502	2538.382278
817.187399	2537.699202
817.506250	2538.455375
817.825058	2540.260108
818.143821	2539.834131
818.462539	2542.090047
818.781213	2541.837989
819.099843	2545.820501
819.418429	2543.425953
819.736970	2546.496016
820.055466	2548.870399
820.373919	2552.227807
820.692327	2555.489434
821.010691	2562.615105
821.329011	2576.720253
821.647286	2610.543875
821.965517	2642.880357
822.283704	2664.108655
822.601847	2668.441527
822.919945	2656.695639
823.237999	2633.826444
823.556010	2615.141407
823.873976	2600.816969
824.191897	2586.840370
824.509775	2578.623289
824.827609	2568.354459
825.145398	2564.820610
825.463144	2565.523851
825.780845	2565.463357
826.098502	2573.249419
826.416116	2577.748649
826.733685	2588.692994
827.051210	2592.257090
827.368692	2592.035279
827.686129	2579.175295
828.003522	2570.007957
828.320872	2559.245094
828.638177	2553.278888
828.955439	2548.242775
829.272656	2547.673125
829.589830	2538.644418
829.906960	2543.214224
830.224046	2542.783206
830.541088	2545.490305
830.858086	2544.776982
831.175041	2543.007537
831.491952	2541.064172
831.808819	2543.567105
832.125642	2544.396375
832.442421	2542.211035
832.759157	2547.554658
833.075849	2557.931873
833.392497	2561.793397
833.709101	2565.690209
834.025662	2567.290775
834.342179	2564.959242
834.658653	2558.365412
834.975083	2555.071018
835.291469	2553.321738
835.607811	2547.713454
835.924110	2545.901159
836.240366	2541.469985
836.556578	2542.077444
836.872746	2540.547454
837.188871	2537.731970
837.504952	2540.529810
837.820990	2539.803884
838.136984	2536.277597
838.452935	2537.873122
838.768842	2538.447813
839.084706	2539.211548
839.400526	2539.503935
839.716303	2545.001313
840.032037	2548.827549
840.347727	2546.964843
840.663373	2545.719678
840.978977	2544.560213
841.294537	2540.953267
841.610054	2540.045859
841.925527	2537.358924
842.240957	2538.011754
842.556344	2537.631147
842.871687	2535.428162
843.186987	2535.629808
843.502244	2533.638553
843.817458	2534.051927
844.132629	2533.656197
844.447756	2534.929088
844.762840	2529.552698
845.077881	2533.444468
845.392879	2530.387008
845.707833	2533.734335
846.022745	2529.368695
846.337613	2535.355066
846.652438	2532.413552
846.967221	2533.883049
847.281960	2535.095446
847.596656	2533.429345
847.911309	2534.427493
848.225919	2532.864736
848.540485	2534.427493
848.855009	2531.473377
849.169490	2534.755168
849.483928	2533.134437
849.798323	2531.465815
850.112675	2533.227699
850.426984	2536.774150
850.741251	2533.567977
851.055474	2534.482946
851.369654	2533.078985
851.683792	2533.278110
851.997887	2536.249870
852.311938	2534.697195
852.625947	2536.126362
852.939914	2535.128214
853.253837	2534.729963
853.567718	2532.589993
853.881555	2535.632329
854.195350	2533.066382
854.509103	2532.143851
854.822812	2534.954294
855.136479	2533.938501
855.450103	2533.794828
855.763685	2531.233922
856.077224	2530.886083
856.390720	2533.993954
856.704173	2534.568646
857.017584	2535.559232
857.330953	2534.591331
857.644278	2532.322812
857.957561	2533.588141
858.270802	2533.436907
858.584000	2534.215765
858.897155	2534.125024
859.210268	2534.752648
859.523339	2536.506969
859.836367	2534.674510
860.149352	2534.654345
860.462295	2537.190046
860.775195	2531.143182
861.088054	2529.933305
861.400869	2532.239633
861.713642	2526.149919
862.026373	2533.169725
862.339062	2533.802390
862.651708	2532.927750
862.964312	2534.125024
863.276873	2534.356917
863.589392	2531.735517
863.901869	2534.969417
864.214303	2534.820703
864.526696	2533.005888
864.839045	2533.089067
865.151353	2533.507483
865.463619	2533.182328
865.775842	2537.124511
866.088023	2532.660569
866.400162	2532.189221
866.712258	2533.517565
867.024313	2537.331198
867.336325	2533.822555
867.648296	2535.758358
867.960224	2535.425642
868.272110	2531.354910
868.583954	2534.987061
868.895755	2533.184849
869.207515	2534.641742
869.519233	2532.905065
869.830909	2535.405477
870.142542	2534.742565
870.454134	2535.042514
870.765684	2534.064530
871.077191	2534.959335
871.388657	2536.219623
871.700081	2535.413039
872.011463	2535.944881
872.322803	2533.507483
872.634101	2535.430683
872.945357	2533.860363
873.256571	2536.234747
873.567744	2537.018646
873.878874	2535.173584
874.189963	2533.436907
874.501010	2538.137782
874.812015	2536.491846
875.122979	2537.094264
875.433900	2534.818183
875.744780	2535.299613
876.055618	2536.990920
876.366415	2537.726928
876.677169	2537.996630
876.987882	2533.946063
877.298554	2534.082174
877.609183	2536.940508
877.919771	2533.956145
878.230317	2534.936650
878.540822	2540.038297
878.851285	2542.064841
879.161707	2539.244316
879.472087	2543.738504
879.782425	2546.274205
880.092722	2552.502550
880.402977	2563.083932
880.713191	2580.044894
881.023363	2597.656165
881.333494	2613.026643
881.643583	2617.208281
881.953631	2609.293669
882.263637	2607.695623
882.573602	2601.983996
882.883526	2587.233580
883.193408	2582.124370
883.503248	2575.953998
883.813048	2571.104408
884.122806	2565.009653
884.432522	2559.265258
884.742197	2554.261913
885.051831	2550.186140
885.361424	2547.060625
885.670975	2545.976777
885.980485	2543.672969
886.289954	2542.637012
886.599382	2542.072403
886.908768	2542.521066
887.218113	2540.108874
887.527417	2541.492670
887.836680	2539.531662
888.145901	2537.802546
888.455082	2536.501928
888.764221	2539.181301
889.073319	2538.772968
889.382376	2534.828265
889.691392	2536.204500
890.000366	2537.633667
890.309300	2536.121321
890.618193	2536.191897
890.927044	2535.528985
891.235855	2536.237267
891.544625	2535.554191
891.853353	2538.455375
892.162041	2538.432690
892.470687	2540.824718
892.779293	2538.866229
893.087858	2538.490663
893.396381	2539.287166
893.704864	2541.485109
894.013306	2545.240768
894.321707	2554.690411
894.630068	2558.093190
894.938387	2563.963614
895.246665	2561.087635
895.554903	2559.063612
895.863100	2552.938610
896.171256	2552.321069
896.479371	2548.275543
896.787446	2547.405944
897.095480	2545.129863
897.403473	2543.017619
897.711425	2540.890253
898.019336	2538.644418
898.327207	2538.636857
898.635038	2536.020498
898.942827	2539.448482
899.250576	2538.853626
899.558284	2538.092412
899.865952	2537.769778
900.173579	2536.658204
900.481165	2536.731301
900.788711	2536.668286
901.096216	2537.618544
901.403681	2537.109387
901.711105	2535.836496
902.018489	2535.372710
902.325832	2536.191897
902.633135	2535.483615
902.940397	2538.659542
903.247619	2542.576518
903.554800	2546.551468
903.861941	2553.110009
904.169041	2568.997206
904.476101	2572.841086
904.783121	2571.621126
905.090100	2569.355128
905.397039	2561.430434
905.703938	2549.913918
906.010796	2548.736808
906.317614	2547.295038
906.624391	2543.937630
906.931129	2540.003009
907.237826	2538.372196
907.544483	2536.872453
907.851099	2534.543440
908.157675	2538.321785
908.464211	2535.140817
908.770707	2529.285516
909.077163	2531.874149
909.383578	2530.266021
909.689954	2529.398942
909.996289	2525.590351
910.302584	2532.078316
910.608839	2534.074613
910.915054	2531.677544
911.221229	2530.457585
911.527363	2533.255425
911.833458	2533.835158
912.139513	2532.537061
912.445527	2535.619726
912.751502	2534.974458
913.057436	2537.197607
913.363331	2533.298275
913.669186	2536.711136
913.975000	2539.375386
914.280775	2538.490663
914.586510	2539.556867
914.892205	2545.137425
915.197859	2547.232024
915.503475	2553.112530
915.809050	2562.352965
916.114585	2565.710373
916.420081	2570.925447
916.725536	2565.062585
917.030952	2564.185424
917.336328	2555.146636
917.641665	2555.247459
917.946961	2552.101779
918.252218	2549.853424
918.557435	2545.550799
918.862612	2546.304452
919.167750	2543.705737
919.472848	2541.104502
919.777906	2538.344470
920.082925	2539.302289
920.387904	2537.749614
920.692843	2535.836496
920.997743	2536.885056
921.302603	2533.167205
921.607423	2534.278779
921.912204	2535.851619
922.216946	2535.967566
922.521647	2533.759540
922.826310	2533.978831
923.130932	2533.872966
923.435516	2532.542102
923.740059	2531.982534
924.044564	2531.944725
924.349028	2530.089580
924.653454	2528.249559
924.957840	2528.108407
925.262186	2528.448685
925.566493	2530.830630
925.870761	2525.363499
926.174989	2529.267872
926.479178	2533.260466
926.783328	2531.831299
927.087438	2528.529343
927.391509	2532.461443
927.695541	2529.068747
927.999533	2529.676206
928.303486	2529.046062
928.607400	2529.832482
928.911275	2526.643952
929.215110	2527.614374
929.518906	2531.236443
929.822663	2529.678726
930.126381	2528.539426
930.430060	2531.062523
930.733699	2529.018335
931.037299	2528.826771
931.340861	2530.505476
931.644383	2528.410876
931.947866	2526.976668
932.251309	2528.184024
932.554714	2528.720907
932.858080	2533.172246
933.161407	2527.962213
933.464694	2530.200486
933.767943	2528.236956
934.071153	2530.475229
934.374323	2528.254600
934.677455	2531.186031
934.980548	2530.878521
935.283602	2526.648993
935.586617	2529.875331
935.889593	2528.748633
936.192530	2529.335928
936.495428	2530.205527
936.798287	2531.806093
937.101108	2529.098994
937.403890	2530.644107
937.706632	2529.151926
938.009336	2533.711649
938.312002	2532.395908
938.614628	2532.045548
938.917216	2532.375744
939.219765	2532.138809
939.522275	2529.792152
939.824747	2535.443286
940.127179	2530.787780
940.429573	2527.775691
940.731929	2526.986750
941.034246	2526.908612
941.336524	2529.827440
941.638763	2528.002543
941.940964	2530.944056
942.243126	2530.921371
942.545250	2530.787780
942.847335	2531.042358
943.149381	2533.716691
943.451389	2531.110414
943.753359	2532.378264
944.055290	2531.526309
944.357182	2529.885414
944.659036	2530.502955
944.960851	2527.067409
945.262628	2528.869621
945.564367	2529.565300
945.866067	2528.431041
946.167729	2531.425486
946.469352	2529.189734
946.770937	2529.766947
947.072484	2527.412728
947.373992	2529.008253
947.675462	2527.677388
947.976893	2531.485980
948.278286	2530.187883
948.579641	2530.626463
948.880958	2526.671678
949.182236	2530.646628
949.483476	2531.619571
949.784678	2529.134282
950.085841	2532.368182
950.386967	2530.744930
950.688054	2529.310722
950.989103	2531.430527
951.290114	2526.550690
951.591087	2531.468336
951.892021	2528.720907
952.192917	2531.884231
952.493776	2528.655372
952.794596	2529.429189
953.095378	2530.187883
953.396122	2532.529499
953.696828	2529.419107
953.997496	2530.467667
954.298126	2529.174611
954.598718	2531.884231
954.899272	2529.903058
955.199788	2528.189065
955.500266	2529.867770
955.800706	2524.549352
956.101108	2527.382481
956.401472	2525.756709
956.701798	2524.728313
957.002087	2524.254445
957.302337	2528.955321
957.602550	2528.189065
957.902724	2529.948428
958.202861	2530.366844
958.502960	2526.769981
958.803022	2528.582275
959.103045	2527.362316
959.403031	2526.588499
959.702979	2525.398787
960.002889	2528.725948
960.302762	2530.175280
960.602596	2528.388191
960.902393	2524.975330
961.202153	2526.086904
961.501875	2527.352234
961.801559	2526.311236
962.101205	2522.421985
962.400814	2526.918695
962.700385	2527.256452
962.999918	2529.053623
963.299414	2528.302491
963.598873	2527.168232
963.898293	2526.225536
964.197677	2526.855680
964.497022	2527.581606
964.796331	2526.298633
965.095601	2527.511030
965.394835	2525.552542
965.694030	2526.943900
965.993189	2526.444826
966.292309	2526.643952
966.591393	2525.514733
966.890439	2524.415762
967.189447	2527.513551
967.488419	2526.394415
967.787353	2526.470032
968.086249	2525.106400
968.385108	2528.204189
968.683930	2527.221164
968.982714	2527.579086
969.281462	2526.442306
969.580172	2527.304343
969.878844	2528.000022
970.177480	2525.807120
970.476078	2525.164373
970.774639	2528.990609
971.073162	2526.515402
971.371649	2524.259486
971.670098	2526.051616
971.968510	2523.836029
972.266885	2523.263858
972.565223	2528.867101
972.863524	2527.984899
973.161788	2526.396935
973.460014	2523.780576
973.758204	2524.763601
974.056356	2525.055988
974.354471	2527.616894
974.652550	2525.343334
974.950591	2526.480114
975.248595	2526.747295
975.546563	2526.850639
975.844493	2527.647141
976.142386	2525.731503
976.440243	2526.699404
976.738062	2526.817872
977.035845	2527.410207
977.333590	2524.990453
977.631299	2526.719569
977.928971	2525.645803
978.226606	2525.870135
978.524204	2527.001874
978.821765	2524.950124
979.119290	2526.643952
979.416777	2526.429703
979.714228	2527.637059
980.011642	2523.581451
980.309020	2526.777542
980.606360	2525.915505
980.903664	2525.280320
981.200931	2528.123530
981.498162	2524.894671
981.795356	2526.180166
982.092513	2528.289888
982.389633	2526.008766
982.686717	2527.873993
982.983764	2526.046575
983.280775	2528.035310
983.577749	2528.108407
983.874686	2528.854498
984.171587	2529.315763
984.468451	2527.044723
984.765279	2527.642100
985.062070	2525.653365
985.358824	2528.002543
985.655543	2526.059178
985.952224	2525.701256
986.248869	2522.699249
986.545478	2523.049609
986.842050	2524.977850
987.138586	2522.364012
987.435086	2523.324352
987.731549	2521.328055
988.027975	2523.689836
988.324366	2525.696215
988.620719	2526.701925
988.917037	2525.073632
989.213318	2527.206040
989.509563	2526.591020
989.805772	2522.729496
990.101944	2525.600433
990.398080	2525.144208
990.694180	2526.223015
990.990244	2526.152439
991.286271	2526.039013
991.582262	2526.139836
991.878217	2527.029600
992.174136	2523.273940
992.470019	2524.607326
992.765865	2524.090607
993.061676	2528.698222
993.357450	2523.654548
993.653188	2526.412059
993.948890	2526.059178
994.244556	2528.829292
994.540186	2527.165711
994.835780	2524.556914
995.131337	2524.090607
995.426859	2525.020700
995.722345	2525.449198
996.017795	2524.972809
996.313208	2525.108920
996.608586	2525.524816
996.903928	2526.031452
997.199234	2526.661596
997.494504	2525.736544
997.789738	2524.652696
998.084936	2525.872655
998.380099	2525.577748
998.675225	2524.975330
998.970316	2525.875176
999.265371	2526.948942
999.560390	2526.051616
999.855373	2527.009435
1000.150320	2524.183869
1000.445232	2527.132944
1000.740108	2523.851153
1001.034948	2524.602284
1001.329752	2522.502644
1001.624521	2524.665299
1001.919254	2521.063394
1002.213951	2522.386697
1002.508613	2519.064577
1002.803239	2523.790659
1003.097829	2522.356450
1003.392384	2525.073632
1003.686903	2525.360978
1003.981386	2525.567665
1004.275834	2524.279651
1004.570246	2525.292923
1004.864623	2522.071625
1005.158964	2525.849970
1005.453270	2526.291071
1005.747540	2524.337624
1006.041775	2523.735206
1006.335974	2524.811492
1006.630138	2524.637573
1006.924266	2523.493231
1007.218359	2521.607839
1007.512416	2526.328880
1007.806438	2523.704959
1008.100425	2524.002387
1008.394376	2526.142357
1008.688292	2526.807789
1008.982172	2526.631349
1009.276017	2526.328880
1009.569827	2524.801410
1009.863602	2526.772501
1010.157341	2525.101359
1010.451045	2524.438447
1010.744714	2522.116996
1011.038347	2524.990453
1011.331945	2525.439116
1011.625508	2525.887779
1011.919036	2524.125895
1012.212528	2525.182017
1012.505986	2525.106400
1012.799408	2525.020700
1013.092795	2523.503313
1013.386147	2525.325690
1013.679464	2524.052799
1013.972745	2528.730989
1014.265992	2525.915505
1014.559204	2523.762932
1014.852380	2524.251924
1015.145521	2523.195802
1015.438628	2524.829136
1015.731699	2527.286699
1016.024736	2523.803262
1016.317737	2526.263345
1016.610703	2524.935001
1016.903635	2523.798220
1017.196531	2520.307221
1017.489393	2523.112623
1017.782219	2521.849814
1018.075011	2523.369722
1018.367768	2523.649506
1018.660490	2526.016328
1018.953177	2526.016328
1019.245829	2526.016328
