Dividing Wavelength (nm)	Counts (n)	Blue Motor Position (mm): 0.000000	Red Motor Position (mm): 12.500000	
326.493990	2083.395459
326.888308	2083.395459
327.282561	2083.395459
327.676750	2059.596171
328.070874	2064.972562
328.464933	2069.796946
328.858929	2077.560323
329.252859	2092.363671
329.646726	2106.574684
330.040528	2122.376181
330.434265	2141.711526
330.827938	2162.254228
331.221547	2183.114523
331.615091	2201.902903
332.008571	2222.231356
332.401986	2242.935375
332.795338	2263.152923
333.188625	2282.838628
333.581847	2299.741617
333.975006	2316.407672
334.368100	2337.018429
334.761129	2351.310100
335.154095	2369.579242
335.546996	2385.980636
335.939833	2400.035373
336.332606	2415.972981
336.725315	2427.058478
337.117960	2436.823193
337.510540	2442.880139
337.903056	2451.762652
338.295508	2461.446709
338.687896	2465.729169
339.080220	2473.996662
339.472480	2475.181333
339.864676	2478.420274
340.256807	2484.341109
340.648875	2486.193733
341.040879	2487.070894
341.432818	2486.866727
341.824694	2485.876141
342.216506	2489.107520
342.608253	2487.643065
342.999937	2486.712972
343.391557	2486.687766
343.783113	2484.898157
344.174605	2484.509988
344.566033	2478.909266
344.957397	2480.429174
345.348697	2481.389514
345.739934	2476.050932
346.131106	2473.157309
346.522215	2473.595890
346.913260	2472.103708
347.304241	2471.942391
347.695159	2466.029118
348.086012	2469.628502
348.476802	2465.298151
348.867528	2464.599951
349.258191	2463.110290
349.648789	2466.132462
350.039324	2460.743468
350.429796	2462.427213
350.820203	2457.920422
351.210548	2460.506534
351.600828	2458.485031
351.991045	2457.159208
352.381198	2457.338169
352.771288	2458.162397
353.161314	2455.772890
353.551276	2459.042079
353.941175	2458.485031
354.331010	2460.093159
354.720782	2462.596092
355.110490	2459.775567
355.500135	2459.110134
355.889717	2458.656430
356.279235	2462.154991
356.668689	2461.066102
357.058080	2462.865794
357.447408	2456.803806
357.836672	2459.296657
358.225873	2463.795887
358.615010	2459.155505
359.004084	2463.614405
359.393095	2466.082050
359.782043	2468.501804
360.170927	2465.673717
360.559748	2467.639767
360.948505	2467.067596
361.337199	2468.990796
361.725830	2472.938019
362.114398	2468.491722
362.502903	2470.442648
362.891344	2470.377113
363.279722	2472.570015
363.668037	2472.302834
364.056289	2472.922896
364.444478	2474.044552
364.832603	2475.801395
365.220665	2476.250057
365.608665	2475.912300
365.996601	2474.886425
366.384474	2477.459934
366.772284	2480.401447
367.160031	2479.932620
367.547715	2482.397744
367.935336	2478.873978
368.322893	2480.267857
368.710388	2479.630151
369.097820	2483.131232
369.485189	2484.121819
369.872495	2484.774648
370.259738	2484.305821
370.646918	2485.326655
371.034035	2490.405617
371.421090	2491.660865
371.808081	2492.185145
372.195010	2495.456853
372.581875	2501.501197
372.968678	2505.450941
373.355418	2507.727022
373.742096	2521.383508
374.128710	2530.273582
374.515262	2540.295396
374.901751	2551.242262
375.288177	2565.949828
375.674540	2584.483630
376.060841	2602.982144
376.447079	2624.525515
376.833254	2646.981335
377.219367	2668.524706
377.605417	2699.147195
377.991404	2725.860269
378.377329	2760.034251
378.763191	2789.724127
379.148991	2835.255828
379.534727	2883.696276
379.920402	2921.565423
380.306013	2972.085347
380.691563	3033.383257
381.077049	3079.635843
381.462474	3132.641056
381.847835	3202.715615
382.233134	3268.043927
382.618371	3326.319666
383.003545	3407.267994
383.388657	3483.235662
383.773706	3568.189186
384.158693	3636.050679
384.543618	3724.119636
384.928480	3797.982623
385.313280	3899.042634
385.698017	3992.803054
386.082692	4111.784367
386.467305	4167.254703
386.851856	4286.490595
387.236344	4431.897636
387.620770	4496.061443
388.005133	4604.698308
388.389435	4741.648814
388.773674	4826.378007
389.157851	4949.147747
389.541965	5073.402107
389.926018	5103.381849
390.310008	5270.894350
390.693936	5384.320312
391.077802	5491.437269
391.461606	5621.428462
391.845348	5726.443259
392.229027	5841.532801
392.612645	6049.505603
392.996200	6162.465258
393.379694	6324.140103
393.763125	6528.949581
394.146494	6612.219360
394.529801	6739.206025
394.913047	6951.879703
395.296230	6946.377284
395.679351	6982.476987
396.062410	7211.156328
396.445408	7102.521983
396.828343	7230.539564
397.211217	7341.533169
397.594028	7210.793365
397.976778	7369.899742
398.359466	7500.639546
398.742092	7450.306146
399.124656	7549.853811
399.507158	7687.121909
399.889598	7663.050400
400.271977	7814.574882
400.654294	7791.171325
401.036549	7911.670025
401.418742	7882.416209
401.800874	8080.967095
402.182944	8082.507167
402.564952	8320.114392
402.946898	8105.865354
403.328783	8079.298473
403.710606	8151.888568
404.092367	8272.316692
404.474067	8473.892270
404.855705	8218.930873
405.237282	8085.761232
405.618797	8300.322822
406.000250	8378.591777
406.381642	8528.223305
406.762972	8374.906693
407.144240	8133.833675
407.525447	8183.370573
407.906593	8023.439968
408.287677	8081.007424
408.668700	8041.714150
409.049661	7901.237357
409.430560	7871.615537
409.811399	7716.385808
410.192176	7672.948705
410.572891	7579.689880
410.953545	7703.049435
411.334138	7282.632328
411.714669	7440.498581
412.095139	6970.874771
412.475547	7061.544964
412.855894	6866.724533
413.236180	6868.919955
413.616405	6591.684220
413.996568	6572.648823
414.376670	6421.262973
414.756711	6242.637248
415.136691	6209.254727
415.516609	6132.412419
415.896466	6027.579104
416.276262	5978.185879
416.655997	5985.301468
417.035670	5859.181881
417.415283	5909.875724
417.794834	5793.170492
418.174324	5581.512606
418.553753	5421.584521
418.933121	5405.052057
419.312428	5233.315069
419.691674	5084.049024
420.070859	5057.235127
420.449983	4858.485116
420.829045	4844.329556
421.208047	4684.497253
421.586988	4645.007374
421.965867	4567.159356
422.344686	4461.486689
422.723444	4431.222122
423.102141	4148.988083
423.480777	4202.555383
423.859352	4046.491342
424.237866	4076.783636
424.616319	3948.188842
424.994712	3923.288063
425.373044	3814.830159
425.751314	3785.924183
426.129524	3634.608909
426.507673	3637.376502
426.885762	3545.377965
427.263789	3484.329592
427.641756	3423.397165
428.019662	3365.484390
428.397508	3305.134217
428.775292	3264.752054
429.153016	3204.457333
429.530679	3157.501506
429.908282	3110.649022
430.285824	3057.265723
430.663305	3036.387785
431.040726	2988.340547
431.418086	2946.935030
431.795385	2928.403749
432.172624	2907.142682
432.549802	2869.288658
432.926920	2847.329392
433.303977	2820.296204
433.680974	2804.459420
434.057910	2790.833181
434.434786	2770.353493
434.811601	2752.026378
435.188355	2749.059659
435.565050	2733.124572
435.941683	2719.347099
436.318257	2714.716799
436.694770	2702.272711
437.071222	2700.601568
437.447614	2682.360153
437.823946	2673.860767
438.200218	2670.536127
438.576429	2662.334169
438.952580	2657.630773
439.328670	2653.809578
439.704700	2652.453508
440.080670	2646.139462
440.456580	2647.104843
440.832429	2644.294400
441.208218	2632.523306
441.583947	2635.245529
441.959616	2629.904427
442.335224	2631.673872
442.710773	2628.381998
443.086261	2632.530868
443.461689	2621.427726
443.837057	2623.376132
444.212365	2626.872172
444.587612	2624.114661
444.962800	2616.983949
445.337927	2620.167438
445.712995	2609.480192
446.088002	2620.250617
446.462949	2619.146604
446.837837	2620.359002
447.212664	2617.808178
447.587431	2633.705457
447.962139	2646.051242
448.336786	2657.461894
448.711374	2648.521408
449.085901	2629.962400
449.460369	2625.437964
449.834776	2625.415279
450.209124	2636.591517
450.583412	2635.048924
450.957640	2637.090591
451.331808	2629.148253
451.705917	2623.177007
452.079965	2620.916049
452.453954	2621.992336
452.827883	2622.196502
453.201752	2621.137860
453.575562	2621.016872
453.949311	2626.829323
454.323001	2627.635907
454.696632	2624.669188
455.070202	2630.897534
455.443713	2632.069602
455.817164	2632.072123
456.190556	2632.896351
456.563888	2631.079015
456.937160	2630.101032
457.310373	2627.804786
457.683526	2628.853346
458.056619	2629.836371
458.429653	2629.254118
458.802628	2633.188738
459.175542	2632.157822
459.548398	2637.171250
459.921194	2642.073772
460.293930	2647.132570
460.666607	2656.690597
461.039224	2664.479180
461.411782	2664.033038
461.784280	2659.952224
462.156719	2656.178920
462.529099	2657.091369
462.901419	2651.225987
463.273680	2647.503095
463.645882	2646.204997
464.018024	2648.423105
464.390106	2649.068373
464.762130	2668.088646
465.134094	2683.048270
465.505999	2705.380582
465.877845	2725.104096
466.249631	2733.114490
466.621358	2726.555949
466.993026	2720.206615
467.364634	2712.314689
467.736184	2701.592155
468.107674	2696.717359
468.479105	2692.618901
468.850477	2691.245187
469.221790	2688.096986
469.593043	2677.676921
469.964238	2675.869667
470.335373	2676.018381
470.706449	2687.277798
471.077467	2697.188707
471.448425	2721.149311
471.819324	2734.243708
472.190164	2725.998901
472.560945	2711.775286
472.931667	2699.028728
473.302330	2691.837522
473.672934	2687.517253
474.043479	2691.033458
474.413965	2688.666636
474.784393	2683.111285
475.154761	2689.725279
475.525070	2688.296112
475.895321	2685.029444
476.265513	2686.892150
476.635645	2699.860518
477.005719	2695.210054
477.375734	2698.670806
477.745691	2701.806404
478.115588	2707.795295
478.485427	2715.508260
478.855207	2730.901423
479.224928	2744.757035
479.594591	2749.689804
479.964194	2744.497415
480.333739	2745.109915
480.703226	2744.744432
481.072653	2745.324164
481.442022	2747.844741
481.811333	2745.205697
482.180584	2740.179667
482.549777	2733.762278
482.918912	2729.361351
483.287988	2724.973026
483.657005	2720.370453
484.025964	2716.251830
484.394864	2715.578836
484.763706	2711.208156
485.132489	2703.880839
485.501213	2703.699357
485.869879	2702.592824
486.238487	2698.028059
486.607036	2697.455888
486.975527	2695.764581
487.343959	2692.520598
487.712333	2693.057481
488.080648	2689.758046
488.448905	2692.722245
488.817104	2690.322655
489.185244	2691.346010
489.553326	2699.444623
489.921350	2710.691437
490.289315	2720.128477
490.657222	2722.341544
491.025070	2718.537993
491.392861	2714.295862
491.760593	2711.830738
492.128267	2702.232381
492.495883	2695.794828
492.863440	2688.752336
493.230939	2682.181192
493.598380	2675.635254
493.965763	2673.918741
494.333088	2671.877073
494.700354	2667.826506
495.067563	2668.103770
495.434713	2662.341731
495.801805	2668.542350
496.168839	2664.761485
496.535815	2664.406083
496.902733	2661.484735
497.269593	2660.736123
497.636395	2660.284940
498.003139	2661.615805
498.369825	2660.879796
498.736453	2660.715959
499.103023	2657.608087
499.469535	2654.434681
499.835989	2657.308139
500.202385	2657.189672
500.568723	2654.419558
500.935003	2653.552479
501.301226	2652.088024
501.667390	2656.935093
502.033497	2656.433499
502.399546	2652.680360
502.765537	2649.408651
503.131470	2651.392345
503.497345	2651.346974
503.863163	2646.736839
504.228923	2647.800523
504.594625	2650.253044
504.960269	2646.797333
505.325856	2646.381438
505.691385	2643.785244
506.056856	2645.693320
506.422270	2644.793474
506.787625	2643.674338
507.152924	2642.310706
507.518164	2641.083185
507.883347	2638.676034
508.248472	2639.250726
508.613540	2639.200314
508.978550	2642.245171
509.343503	2639.865747
509.708398	2642.961015
510.073236	2637.503966
510.438016	2640.594193
510.802738	2636.664614
511.167403	2638.655870
511.532010	2637.045221
511.896561	2639.109573
512.261053	2643.321458
512.625488	2635.893317
512.989866	2630.766464
513.354186	2633.990282
513.718449	2630.211937
514.082655	2635.061527
514.446803	2633.337452
514.810894	2636.326857
515.174927	2635.691671
515.538904	2635.464819
515.902822	2632.442647
516.266684	2631.401649
516.630488	2633.975158
516.994235	2631.789818
517.357925	2631.769653
517.721558	2631.215127
518.085133	2635.053965
518.448651	2630.269910
518.812112	2629.198665
519.175516	2627.023407
519.538863	2627.928294
519.902152	2626.052985
520.265385	2627.482152
520.628560	2626.166411
520.991678	2626.335290
521.354739	2627.867800
521.717743	2627.293109
522.080690	2624.530557
522.443580	2626.413427
522.806413	2627.177162
523.169189	2623.834877
523.531908	2624.812861
523.894569	2623.025772
524.257174	2622.176338
524.619722	2623.615587
524.982213	2622.451081
525.344647	2622.262037
525.707025	2620.308590
526.069345	2622.214146
526.431608	2617.167951
526.793815	2617.583847
527.155964	2617.467900
527.518057	2617.924124
527.880093	2618.955040
528.242072	2618.072838
528.603995	2618.060236
528.965860	2613.838269
529.327669	2614.244082
529.689421	2617.052005
530.051117	2616.005965
530.412755	2616.048815
530.774337	2615.083434
531.135862	2615.325410
531.497331	2613.694596
531.858743	2608.477002
532.220098	2610.647219
532.581396	2606.349635
532.942638	2608.227465
533.303824	2611.257198
533.664953	2608.666045
534.026025	2606.694954
534.387040	2606.828545
534.747999	2609.248299
535.108902	2606.440376
535.469748	2605.167485
535.830537	2606.301744
536.191270	2604.265118
536.551947	2605.873246
536.912567	2607.254522
537.273131	2608.940788
537.633638	2604.421394
537.994089	2604.118925
538.354483	2603.443410
538.714821	2606.284100
539.075103	2604.330653
539.435328	2602.541043
539.795497	2604.605396
540.155609	2603.302258
540.515665	2605.530448
540.875665	2599.085332
541.235609	2601.537854
541.595496	2601.454675
541.955328	2603.171188
542.315102	2599.080291
542.674821	2596.534509
543.034483	2597.749427
543.394090	2600.234716
543.753640	2599.846547
544.113134	2600.844695
544.472571	2598.467791
544.831953	2599.743203
545.191278	2599.997781
545.550548	2596.511823
545.909761	2597.520054
546.268918	2597.850250
546.628019	2597.416711
546.987064	2598.861001
547.346053	2594.152563
547.704986	2595.170877
548.063863	2592.509147
548.422684	2600.096084
548.781449	2594.318922
549.140158	2593.088880
549.498811	2598.097266
549.857408	2593.756833
550.215949	2592.335227
550.574434	2589.025710
550.932864	2590.318766
551.291237	2590.412027
551.649555	2592.373036
552.007817	2594.399580
552.366022	2593.328335
552.724173	2595.990064
553.082267	2593.628283
553.440305	2590.901019
553.798288	2593.149374
554.156215	2593.119127
554.514086	2592.173911
554.871902	2592.791452
555.229661	2589.814651
555.587365	2591.195927
555.945014	2591.142995
556.302606	2590.664085
556.660143	2593.371185
557.017625	2593.078798
557.375050	2593.156936
557.732421	2590.026379
558.089735	2591.342120
558.446994	2587.233580
558.804197	2589.544949
559.161345	2588.423292
559.518437	2590.331369
559.875474	2588.745926
560.232455	2587.989753
560.589381	2589.935638
560.946251	2590.316245
561.303065	2587.122674
561.659825	2589.774321
562.016528	2586.671491
562.373177	2585.706110
562.729770	2588.783735
563.086307	2585.806933
563.442789	2585.718713
563.799216	2588.798858
564.155587	2588.468662
564.511904	2587.883889
564.868164	2584.735688
565.224370	2587.510843
565.580520	2584.672674
565.936615	2588.201481
566.292654	2585.980853
566.648638	2586.497571
567.004567	2587.029413
567.360441	2589.098807
567.716260	2586.321131
568.072023	2586.878178
568.427732	2584.077817
568.783385	2582.217632
569.138982	2578.283011
569.494525	2582.855338
569.850013	2578.519945
570.205445	2583.394741
570.560823	2583.301480
570.916145	2582.923393
571.271412	2582.338619
571.626625	2581.978177
571.981782	2582.628486
572.336884	2583.029257
572.691931	2581.766448
573.046923	2582.189905
573.401860	2581.892477
573.756743	2581.214442
574.111570	2581.532035
574.466342	2582.159658
574.821059	2580.080182
575.175722	2578.547672
575.530330	2581.852148
575.884882	2580.380131
576.239380	2578.393917
576.593823	2579.689493
576.948211	2579.190419
577.302544	2576.909297
577.656823	2577.962898
578.011047	2576.937023
578.365216	2576.405181
578.719330	2575.654049
579.073389	2577.050449
579.427394	2576.117836
579.781344	2575.734708
580.135239	2577.572208
580.489080	2575.893504
580.842866	2574.955850
581.196597	2576.163206
581.550273	2576.354770
581.903895	2574.852506
582.257463	2577.022723
582.610975	2575.016343
582.964434	2574.260170
583.317837	2575.712023
583.671186	2575.457444
584.024481	2577.110943
584.377721	2575.434759
584.730906	2574.345870
585.084037	2576.556416
585.437113	2573.561971
585.790135	2572.984758
586.143103	2574.103895
586.496016	2571.406877
586.848874	2567.079047
587.201679	2571.331260
587.554428	2569.551733
587.907124	2572.069789
588.259765	2567.663821
588.612352	2573.042732
588.964884	2571.152299
589.317362	2571.167422
589.669786	2572.594069
590.022155	2569.750858
590.374470	2567.815055
590.726731	2571.706826
591.078937	2570.055848
591.431090	2571.192628
591.783188	2566.716084
592.135232	2568.387226
592.487222	2568.898903
592.839157	2571.447207
593.191038	2566.625343
593.542866	2566.335477
593.894639	2567.159705
594.246358	2569.282031
594.598022	2567.900755
594.949633	2565.317163
595.301190	2565.917061
595.652692	2567.464695
596.004141	2568.278841
596.355535	2568.394788
596.706876	2566.920250
597.058162	2563.391443
597.409395	2564.031669
597.760573	2564.263562
598.111698	2562.892368
598.462768	2564.308933
598.813785	2567.250446
599.164748	2566.698440
599.515657	2566.587534
599.866511	2565.836402
600.217312	2562.312636
600.568060	2563.020918
600.918753	2563.666186
601.269392	2559.078736
601.619978	2563.363716
601.970510	2564.450085
602.320988	2560.868345
602.671412	2563.353634
603.021783	2561.836247
603.372100	2563.267934
603.722363	2563.404046
604.072572	2560.833057
604.422728	2561.944632
604.772830	2557.642007
605.122878	2560.046637
605.472872	2561.642162
605.822813	2557.689898
606.172701	2559.333314
606.522534	2561.397666
606.872314	2563.719118
607.222041	2562.438665
607.571714	2561.110321
607.921333	2559.756771
608.270899	2560.021431
608.620411	2561.448078
608.969870	2560.792728
609.319276	2561.979920
609.668627	2563.716597
610.017926	2562.670558
610.367171	2563.840105
610.716362	2563.333469
611.065500	2563.250290
611.414585	2562.731052
611.763616	2563.749365
612.112594	2560.843139
612.461518	2559.892882
612.810389	2559.988664
613.159207	2562.882286
613.507971	2560.404559
613.856682	2560.490259
614.205340	2561.533778
614.553945	2561.682492
614.902496	2561.012018
615.250994	2560.911195
615.599439	2563.295661
615.947830	2560.701987
616.296169	2562.231977
616.644454	2561.175856
616.992686	2558.367933
617.340864	2561.526216
617.688990	2560.606205
618.037063	2563.456978
618.385082	2561.571586
618.733048	2562.998233
619.080961	2562.352965
619.428821	2562.289951
619.776628	2563.640980
620.124382	2564.208110
620.472083	2559.802141
620.819731	2563.111659
621.167326	2560.354148
621.514868	2564.044272
621.862357	2560.117213
622.209793	2562.284909
622.557176	2560.243242
622.904506	2555.403734
623.251783	2554.967675
623.599007	2556.487582
623.946179	2555.234856
624.293297	2555.484393
624.640363	2559.691236
624.987376	2558.451112
625.334336	2557.896585
625.681243	2555.933056
626.028097	2555.285267
626.374899	2553.362067
626.721647	2553.152859
627.068343	2553.110009
627.414987	2555.464228
627.761577	2554.110678
628.108115	2556.916081
628.454600	2553.984650
628.801032	2557.102603
629.147412	2555.151677
629.493739	2553.248641
629.840014	2552.028682
630.186236	2553.203271
630.532405	2553.288970
630.878521	2554.506409
631.224585	2555.895247
631.570597	2551.663198
631.916556	2553.357026
632.262462	2551.683363
632.608316	2553.672098
632.954117	2549.929041
633.299866	2552.605894
633.645562	2550.521377
633.991206	2552.202602
634.336797	2549.989535
634.682336	2552.777293
635.027823	2550.274360
635.373257	2550.778476
635.718639	2550.783517
636.063968	2550.478527
636.409245	2548.346119
636.754470	2549.351829
637.099642	2548.908208
637.444762	2546.990049
637.789829	2546.133052
638.134845	2548.262940
638.479808	2547.000131
638.824719	2546.947199
639.169577	2546.248999
639.514383	2548.424257
639.859137	2543.768751
640.203839	2546.727909
640.548489	2546.125491
640.893086	2544.572815
641.237632	2543.201622
641.582125	2542.642053
641.926566	2540.832279
642.270955	2542.079965
642.615292	2545.558361
642.959576	2544.923176
643.303809	2542.352187
643.647990	2545.800336
643.992118	2545.482744
644.336195	2547.642878
644.680219	2543.204142
645.024192	2548.424257
645.368112	2545.886036
645.711981	2546.589277
646.055797	2543.877136
646.399562	2548.164637
646.743274	2547.242106
647.086935	2547.957950
647.430544	2545.427291
647.774101	2545.858310
648.117606	2549.553475
648.461059	2547.418547
648.804460	2548.119267
649.147810	2547.219421
649.491108	2544.910573
649.834354	2545.064328
650.177548	2546.188505
650.520690	2543.753628
650.863781	2543.252033
651.206820	2545.369318
651.549807	2542.873947
651.892742	2541.994265
652.235626	2544.633309
652.578458	2541.621220
652.921238	2541.969059
653.263967	2542.730274
653.606644	2542.571477
653.949269	2545.218083
654.291843	2542.503422
654.634365	2541.369162
654.976836	2541.971580
655.319255	2542.523586
655.661622	2542.135417
656.003938	2541.417053
656.346203	2539.584594
656.688416	2541.906045
657.030577	2542.100129
657.372687	2543.766231
657.714746	2539.972762
658.056753	2541.016281
658.398708	2537.704243
658.740612	2540.476878
659.082465	2539.100643
659.424266	2535.319777
659.766016	2535.276928
660.107715	2540.930582
660.449362	2538.926723
660.790958	2538.772968
661.132503	2539.135931
661.473996	2539.206507
661.815438	2543.120963
662.156829	2541.101981
662.498168	2539.945036
662.839456	2540.776827
663.180693	2539.153575
663.521879	2541.396888
663.863013	2541.210366
664.204097	2541.943854
664.545129	2543.057949
664.886110	2540.784388
665.227040	2538.767927
665.567918	2541.780016
665.908746	2541.737166
666.249522	2541.386806
666.590248	2541.553164
666.930922	2538.483102
667.271545	2541.006199
667.612118	2541.220448
667.952639	2538.415046
668.293109	2541.343956
668.633528	2541.774975
668.973896	2537.300951
669.314213	2540.819676
669.654480	2539.007382
669.994695	2540.814635
670.334859	2542.405119
670.674973	2540.688606
671.015035	2540.121477
671.355047	2538.558719
671.695008	2539.735828
672.034918	2539.100643
672.374777	2537.921013
672.714585	2541.714481
673.054342	2539.256919
673.394049	2538.286497
673.733705	2542.533669
674.073310	2538.669624
674.412864	2541.439738
674.752368	2537.673996
675.091820	2540.862526
675.431223	2538.757844
675.770574	2537.661393
676.109875	2535.372710
676.449125	2536.345652
676.788324	2534.979500
677.127473	2536.708615
677.466571	2533.255425
677.805619	2537.512679
678.144616	2535.526465
678.483562	2539.594676
678.822458	2536.577545
679.161303	2537.691640
679.500098	2535.612164
679.838842	2537.870601
680.177535	2537.961342
680.516179	2536.975797
680.854771	2537.200128
681.193314	2540.854964
681.531805	2539.171219
681.870247	2540.255067
682.208638	2541.054090
682.546978	2539.778678
682.885268	2540.489481
683.223508	2538.475540
683.561697	2539.440921
683.899836	2539.312371
684.237925	2538.982176
684.575963	2541.946374
684.913951	2537.641229
685.251889	2540.703730
685.589776	2536.086033
685.927614	2539.508976
686.265401	2541.016281
686.603137	2538.858668
686.940824	2538.694830
687.278460	2540.441590
687.616046	2542.337064
687.953582	2543.158772
688.291068	2542.470654
688.628504	2539.819007
688.965889	2541.036446
689.303224	2540.983514
689.640510	2536.297761
689.977745	2539.559388
690.314930	2536.696012
690.652065	2540.875129
690.989150	2535.851619
691.326185	2535.859181
691.663170	2534.341794
692.000105	2535.851619
692.336990	2532.511855
692.673825	2532.859694
693.010610	2531.654859
693.347345	2530.046731
693.684030	2529.288037
694.020665	2527.513551
694.357251	2527.526154
694.693786	2530.870959
695.030272	2533.094108
695.366707	2535.435724
695.703093	2531.846423
696.039429	2531.624612
696.375716	2531.995137
696.711952	2527.553880
697.048139	2529.446833
697.384276	2526.838036
697.720363	2530.061854
698.056400	2525.487007
698.392388	2530.565969
698.728326	2529.978675
699.064214	2528.794004
699.400053	2528.496576
699.735842	2529.943387
700.071581	2527.422810
700.407270	2529.335928
700.742910	2528.284847
701.078501	2528.524302
701.414042	2524.642614
701.749533	2527.886596
702.084974	2527.100176
702.420366	2525.718900
702.755709	2528.955321
703.091002	2527.062367
703.426246	2527.924405
703.761440	2528.998171
704.096584	2528.962883
704.431679	2526.752337
704.766725	2528.647810
705.101721	2526.810310
705.436668	2528.181504
705.771565	2525.267717
706.106413	2526.175124
706.441212	2527.639580
706.775961	2528.221833
707.110661	2530.366844
707.445311	2529.565300
707.779913	2524.597243
708.114465	2531.163346
708.448967	2527.097656
708.783421	2529.000691
709.117825	2530.694519
709.452180	2530.470187
709.786485	2527.551359
710.120742	2530.230733
710.454949	2530.626463
710.789107	2528.100845
711.123216	2531.468336
711.457275	2528.294930
711.791286	2531.387677
712.125247	2530.329035
712.459159	2530.719725
712.793023	2531.044879
713.126837	2530.223171
713.460602	2530.734848
713.794318	2530.243336
714.127985	2532.348017
714.461602	2528.690660
714.795171	2530.946577
715.128691	2528.461288
715.462162	2527.775691
715.795584	2528.126051
716.128957	2526.442306
716.462281	2529.237625
716.795556	2528.794004
717.128782	2527.304343
717.461960	2525.421472
717.795088	2525.466842
718.128167	2525.431554
718.461198	2525.232429
718.794180	2528.962882
719.127113	2523.173117
719.459997	2527.750485
719.792833	2525.058509
720.125619	2523.157994
720.458357	2521.832170
720.791046	2521.050792
721.123686	2524.246883
721.456278	2525.434075
721.788821	2524.103210
722.121315	2527.959693
722.453761	2525.073632
722.786158	2525.171935
723.118506	2523.805782
723.450805	2525.484486
723.783056	2524.317459
724.115259	2527.581606
724.447412	2523.626821
724.779518	2523.127747
725.111574	2525.476925
725.443582	2526.870804
725.775542	2523.906605
726.107453	2526.502799
726.439315	2526.480114
726.771129	2528.030269
727.102895	2523.649506
727.434612	2526.162522
727.766281	2525.204702
728.097901	2523.082377
728.429473	2524.488858
728.760996	2524.440967
729.092471	2520.907119
729.423897	2524.093128
729.755276	2526.941380
730.086606	2525.527336
730.417887	2525.824764
730.749120	2528.564631
731.080305	2529.824920
731.411442	2527.805938
731.742530	2526.477594
732.073570	2529.293078
732.404562	2527.016997
732.735506	2529.910619
733.066401	2528.509179
733.397249	2529.441792
733.728048	2530.323994
734.058798	2528.436082
734.389501	2525.875176
734.720156	2526.984230
735.050762	2525.650844
735.381320	2523.362161
735.711831	2524.070443
736.042293	2521.396111
736.372707	2526.568334
736.703073	2524.098169
737.033391	2523.455422
737.363661	2522.308559
737.693883	2523.820906
738.024056	2524.231760
738.354182	2523.704959
738.684260	2524.181348
739.014290	2522.149763
739.344272	2525.292922
739.674207	2523.896523
740.004093	2523.737727
740.333931	2526.699404
740.663722	2526.197810
740.993464	2525.028262
741.323159	2526.674199
741.652806	2522.555576
741.982405	2525.212264
742.311956	2525.161853
742.641460	2526.255783
742.970915	2524.962727
743.300323	2524.902233
743.629683	2522.255627
743.958996	2521.612880
744.288260	2521.229753
744.617477	2520.052643
744.946647	2519.654392
745.275768	2519.785462
745.604842	2522.769825
745.933869	2517.267406
746.262847	2521.055833
746.591778	2520.677746
746.920662	2524.687984
747.249498	2520.702952
747.578286	2523.778056
747.907027	2523.377284
748.235720	2522.618590
748.564365	2522.865607
748.892963	2522.066584
749.221514	2522.157325
749.550017	2521.196985
749.878473	2521.423837
750.206881	2523.246214
750.535242	2519.838394
750.863555	2524.440968
751.191821	2524.466173
751.520039	2522.661440
751.848210	2524.856863
752.176334	2519.661954
752.504411	2521.149094
752.832440	2522.174969
753.160421	2524.032634
753.488356	2521.953158
753.816243	2521.267561
754.144082	2522.326203
754.471875	2519.639268
754.799620	2521.323014
755.127318	2519.120030
755.454969	2520.042561
755.782572	2521.615401
756.110129	2521.902747
756.437638	2520.826460
756.765100	2517.658095
757.092515	2522.847963
757.419882	2520.466018
757.747203	2520.851666
758.074477	2521.834691
758.401703	2520.511388
758.728882	2521.575072
759.056014	2520.241686
759.383099	2519.367046
759.710138	2523.410052
760.037129	2519.372087
760.364073	2521.857376
760.690970	2519.057015
761.017820	2520.894516
761.344623	2520.907119
761.671379	2522.714372
761.998088	2518.444515
762.324751	2519.664474
762.651366	2525.723941
762.977935	2536.542257
763.304456	2530.593696
763.630931	2536.973276
763.957359	2533.719211
764.283740	2533.368851
764.610074	2528.821730
764.936362	2529.794673
765.262602	2526.495238
765.588796	2526.495238
765.914943	2520.367715
766.241044	2522.316121
766.567097	2522.704290
766.893104	2519.634227
767.219064	2519.777900
767.544978	2520.889475
767.870845	2519.540966
768.196665	2519.296470
768.522438	2520.392921
768.848165	2518.532735
769.173846	2516.952333
769.499479	2517.872344
769.825066	2516.912004
770.150607	2518.172293
770.476101	2518.313445
770.801548	2517.060718
771.126949	2518.812519
771.452303	2517.136336
771.777611	2514.451921
772.102872	2515.719771
772.428087	2517.136336
772.753256	2517.721109
773.078378	2518.676408
773.403453	2516.851510
773.728482	2514.376304
774.053465	2517.040554
774.378401	2517.080883
774.703291	2519.362005
775.028135	2512.523680
775.352932	2515.815553
775.677683	2515.941582
776.002388	2516.639782
776.327046	2517.950482
776.651658	2514.754390
776.976224	2516.344874
777.300743	2515.777745
777.625216	2514.051149
777.949643	2518.068949
778.274024	2517.441325
778.598359	2513.945285
778.922647	2511.278515
779.246889	2513.012672
779.571086	2510.711385
779.895236	2514.182219
780.219339	2516.682632
780.543397	2517.171624
780.867409	2514.091479
781.191374	2515.669360
781.515294	2516.914525
781.839167	2515.928979
782.162995	2515.697086
782.486776	2516.145749
782.810511	2515.679442
783.134201	2517.479134
783.457844	2513.526869
783.781441	2516.717920
784.104993	2511.086951
784.428498	2515.122395
784.751958	2517.201871
785.075372	2512.848834
785.398739	2514.330933
785.722061	2516.302025
786.045337	2514.305728
786.368568	2514.071314
786.691752	2515.024092
787.014891	2516.155831
787.337983	2516.206243
787.661030	2515.729854
787.984031	2515.278670
788.306987	2518.515091
788.629897	2519.845956
788.952760	2516.914525
789.275579	2516.470903
789.598351	2518.013496
789.921078	2513.693228
790.243759	2514.449401
790.566395	2515.558454
790.888984	2515.319000
791.211529	2513.272291
791.534027	2514.580471
791.856480	2513.352950
792.178888	2516.491068
792.501249	2515.571057
792.823566	2515.679442
793.145836	2513.050480
793.468062	2516.591891
793.790241	2514.736746
794.112375	2515.520646
794.434464	2514.424195
794.756507	2512.591735
795.078505	2515.455111
795.400457	2513.660460
795.722364	2510.779441
796.044226	2514.514936
796.366042	2511.177692
796.687812	2513.204236
797.009538	2514.603156
797.331218	2517.169103
797.652852	2515.913856
797.974442	2517.413599
798.295986	2512.805984
798.617484	2516.533918
798.938938	2513.499143
799.260346	2514.373783
799.581709	2513.879750
799.903026	2518.104237
800.224299	2516.728002
800.545526	2511.954029
800.866708	2511.649040
801.187845	2515.722292
801.508936	2512.102743
801.829983	2517.489216
802.150984	2513.514267
802.471940	2514.792199
802.792851	2513.481499
803.113717	2514.525018
803.434538	2513.743639
803.755314	2515.752539
804.076045	2512.740449
804.396731	2515.417302
804.717372	2512.866478
805.037967	2516.526356
805.358518	2513.400841
805.679024	2516.281860
805.999485	2515.245903
806.319901	2512.213649
806.640272	2513.612569
806.960598	2513.451252
807.280879	2515.621469
807.601115	2513.110974
807.921306	2514.827487
808.241453	2515.462672
808.561554	2512.654750
808.881611	2515.618948
809.201623	2514.734226
809.521590	2514.383866
809.841513	2513.846983
810.161390	2515.674401
810.481223	2512.611900
810.801011	2514.298166
811.120755	2513.529390
811.440453	2514.325892
811.760107	2513.315141
812.079716	2513.554596
812.399281	2510.061076
812.718801	2511.071828
813.038276	2507.979080
813.357707	2514.963598
813.677093	2514.051149
813.996434	2514.880419
814.315731	2511.402023
814.634983	2514.570388
814.954191	2512.264060
815.273354	2514.212466
815.592473	2514.782117
815.911547	2515.233300
816.230577	2513.688186
816.549562	2515.248423
816.868502	2512.710202
817.187399	2512.024606
817.506250	2515.281191
817.825058	2514.545183
818.143821	2514.953516
818.462539	2513.867147
818.781213	2513.710872
819.099843	2516.972498
819.418429	2518.802437
819.736970	2519.508198
820.055466	2520.743281
820.373919	2524.889630
820.692327	2526.555732
821.010691	2536.305323
821.329011	2551.058260
821.647286	2576.054821
821.965517	2598.004005
822.283704	2612.605707
822.601847	2617.125102
822.919945	2603.876949
823.237999	2590.956472
823.556010	2581.022878
823.873976	2569.503842
824.191897	2556.530432
824.509775	2553.049516
824.827609	2545.434853
825.145398	2540.610468
825.463144	2540.411343
825.780845	2541.626261
826.098502	2543.804039
826.416116	2546.559030
826.733685	2553.379711
827.051210	2552.870555
827.368692	2551.597663
827.686129	2546.135573
828.003522	2539.778678
828.320872	2528.854498
828.638177	2526.081863
828.955439	2521.746471
829.272656	2520.400483
829.589830	2518.605832
829.906960	2518.867972
830.224046	2518.875534
830.541088	2515.815553
830.858086	2515.654236
831.175041	2516.175996
831.491952	2517.784124
831.808819	2515.356808
832.125642	2515.833197
832.442421	2517.844618
832.759157	2520.166069
833.075849	2528.564631
833.392497	2531.417924
833.709101	2534.387164
834.025662	2532.395908
834.342179	2530.838192
834.658653	2526.575896
834.975083	2524.604805
835.291469	2528.574714
835.607811	2520.788652
835.924110	2516.286901
836.240366	2519.689680
836.556578	2514.391427
836.872746	2515.601304
837.188871	2513.189112
837.504952	2512.821108
837.820990	2512.347239
838.136984	2509.887156
838.452935	2512.251458
838.768842	2512.989987
839.084706	2513.791530
839.400526	2516.629700
839.716303	2513.015192
840.032037	2521.380987
840.347727	2517.438805
840.663373	2515.192971
840.978977	2516.886798
841.294537	2516.312107
841.610054	2513.496623
841.925527	2512.367404
842.240957	2510.444204
842.556344	2514.527538
842.871687	2512.380007
843.186987	2513.032836
843.502244	2508.578977
843.817458	2511.472599
844.132629	2512.130470
844.447756	2511.555778
844.762840	2502.522031
845.077881	2507.752228
845.392879	2504.026815
845.707833	2507.104439
846.022745	2505.244254
846.337613	2510.260202
846.652438	2506.743997
846.967221	2507.437156
847.281960	2507.326250
847.596656	2509.325068
847.911309	2508.158041
848.225919	2508.369769
848.540485	2508.158041
848.855009	2510.567712
849.169490	2509.224245
849.483928	2509.589728
849.798323	2508.783144
850.112675	2508.460510
850.426984	2508.452948
850.741251	2508.563853
851.055474	2508.397495
851.369654	2507.250633
851.683792	2510.512259
851.997887	2508.273987
852.311938	2508.147958
852.625947	2508.155520
852.939914	2506.227279
853.253837	2510.159379
853.567718	2506.318019
853.881555	2508.604183
854.195350	2505.569408
854.509103	2513.892353
854.822812	2508.785664
855.136479	2509.027640
855.450103	2509.196518
855.763685	2506.466733
856.077224	2508.818432
856.390720	2509.375479
856.704173	2505.221568
857.017584	2507.875736
857.330953	2509.075531
857.644278	2506.524707
857.957561	2510.986128
858.270802	2508.364728
858.584000	2508.485716
858.897155	2511.550737
859.210268	2507.096878
859.523339	2509.645181
859.836367	2509.677948
860.149352	2510.504698
860.462295	2513.622651
860.775195	2504.573780
861.088054	2507.013699
861.400869	2503.192504
861.713642	2505.206445
862.026373	2507.600993
862.339062	2508.768020
862.651708	2509.536796
862.964312	2507.411950
863.276873	2505.839110
863.589392	2509.597290
863.901869	2506.935561
864.214303	2509.357835
864.526696	2507.664008
864.839045	2507.565705
865.151353	2509.950171
865.463619	2510.212311
865.775842	2507.757269
866.088023	2509.584687
866.400162	2508.402537
866.712258	2508.596621
867.024313	2509.526714
867.336325	2510.182064
867.648296	2508.364728
867.960224	2508.470592
868.272110	2509.904800
868.583954	2509.060407
868.895755	2508.868843
869.207515	2507.933709
869.519233	2509.854389
869.830909	2508.026971
870.142542	2507.263236
870.454134	2507.797598
870.765684	2509.942609
871.077191	2511.175171
871.388657	2509.902280
871.700081	2510.171982
872.011463	2512.135511
872.322803	2510.618124
872.634101	2510.050994
872.945357	2510.114008
873.256571	2510.550068
873.567744	2511.293638
873.878874	2510.920593
874.189963	2509.405726
874.501010	2509.859430
874.812015	2508.052176
875.122979	2510.247599
875.433900	2509.425891
875.744780	2511.165089
876.055618	2510.050994
876.366415	2511.943947
876.677169	2511.149965
876.987882	2508.231137
877.298554	2505.846672
877.609183	2507.071672
877.919771	2505.075375
878.230317	2509.725839
878.540822	2514.439318
878.851285	2511.107116
879.161707	2511.306241
879.472087	2517.496778
879.782425	2520.002232
880.092722	2524.924918
880.402977	2532.683254
880.713191	2546.216232
881.023363	2552.149670
881.333494	2557.188303
881.643583	2559.721483
881.953631	2558.234342
882.263637	2555.159238
882.573602	2552.333672
882.883526	2547.295038
883.193408	2545.301262
883.503248	2540.807073
883.813048	2534.621578
884.122806	2531.367513
884.432522	2533.920857
884.742197	2526.989271
885.051831	2524.330062
885.361424	2520.040040
885.670975	2518.119361
885.980485	2517.680780
886.289954	2515.497961
886.599382	2514.222549
886.908768	2514.812364
887.218113	2513.163906
887.527417	2515.011489
887.836680	2512.347239
888.145901	2514.320851
888.455082	2507.464882
888.764221	2511.417147
889.073319	2509.831704
889.382376	2511.384379
889.691392	2510.318175
890.000366	2509.821621
890.309300	2509.574605
890.618193	2510.600480
890.927044	2509.713237
891.235855	2510.449245
891.544625	2511.381858
891.853353	2509.778772
892.162041	2510.224914
892.470687	2511.787671
892.779293	2511.069307
893.087858	2508.548730
893.396381	2510.550068
893.704864	2515.591222
894.013306	2512.430418
894.321707	2522.031296
894.630068	2521.968282
894.938387	2524.803931
895.246665	2523.273940
895.554903	2523.493231
895.863100	2520.246727
896.171256	2519.419978
896.479371	2518.661285
896.787446	2518.404186
897.095480	2515.550893
897.403473	2515.303876
897.711425	2513.657939
898.019336	2511.147445
898.327207	2512.450583
898.635038	2513.993176
898.942827	2514.071314
899.250576	2511.207939
899.558284	2511.023937
899.865952	2511.192815
900.173579	2508.198370
900.481165	2509.052845
900.788711	2505.241733
901.096216	2507.976559
901.403681	2507.555623
901.711105	2511.127280
902.018489	2507.729542
902.325832	2510.789523
902.633135	2510.545027
902.940397	2512.049811
903.247619	2514.605676
903.554800	2518.421830
903.861941	2523.518436
904.169041	2523.974661
904.476101	2527.213602
904.783121	2526.301153
905.090100	2524.100690
905.397039	2522.721934
905.703938	2519.054495
906.010796	2516.420492
906.317614	2515.747498
906.624391	2516.110461
906.931129	2513.075686
907.237826	2514.088958
907.544483	2515.034174
907.851099	2512.299348
908.157675	2510.348422
908.464211	2508.515963
908.770707	2506.234840
909.077163	2508.273987
909.383578	2505.728204
909.689954	2505.503873
909.996289	2503.684017
910.302584	2505.919768
910.608839	2508.473113
910.915054	2509.473782
911.221229	2505.604696
911.527363	2508.226096
911.833458	2506.633092
912.139513	2509.067969
912.445527	2507.890859
912.751502	2509.181395
913.057436	2510.925634
913.363331	2507.757269
913.669186	2511.515449
913.975000	2510.227434
914.280775	2508.541168
914.586510	2511.114677
914.892205	2515.858403
915.197859	2518.797396
915.503475	2519.830832
915.809050	2523.084897
916.114585	2524.151101
916.420081	2528.864580
916.725536	2525.665968
917.030952	2528.920033
917.336328	2521.968282
917.641665	2524.975330
917.946961	2523.856194
918.252218	2519.004083
918.557435	2520.236645
918.862612	2515.903773
919.167750	2515.316479
919.472848	2516.949813
919.777906	2514.469565
920.082925	2513.990656
920.387904	2509.294821
920.692843	2513.345388
920.997743	2512.034688
921.302603	2510.567712
921.607423	2507.797598
921.912204	2507.633761
922.216946	2507.999244
922.521647	2509.756086
922.826310	2507.671569
923.130932	2505.997906
923.435516	2506.799450
923.740059	2508.815911
924.044564	2505.932371
924.349028	2506.713750
924.653454	2502.990858
924.957840	2506.562515
925.262186	2504.052021
925.566493	2503.716784
925.870761	2501.075219
926.174989	2503.038749
926.479178	2506.665859
926.783328	2503.361383
927.087438	2505.975221
927.391509	2504.556136
927.695541	2506.562515
927.999533	2507.275839
928.303486	2502.809376
928.607400	2504.092350
928.911275	2506.993534
929.215110	2502.895076
929.518906	2503.868019
929.822663	2505.392968
930.126381	2505.587052
930.430060	2505.670231
930.733699	2503.941115
931.037299	2503.497494
931.340861	2501.861639
931.644383	2503.094202
931.947866	2503.457165
932.251309	2506.804491
932.554714	2504.044459
932.858080	2505.977742
933.161407	2505.539161
933.464694	2504.689727
933.767943	2503.424397
934.071153	2505.415653
934.374323	2503.210148
934.677455	2504.505725
934.980548	2505.813904
935.283602	2508.432783
935.586617	2505.518997
935.889593	2507.495129
936.192530	2504.997237
936.495428	2507.709378
936.798287	2503.684017
937.101108	2506.620489
937.403890	2506.088647
937.706632	2505.662669
938.009336	2505.425735
938.312002	2505.277021
938.614628	2502.902638
938.917216	2508.742814
939.219765	2507.845489
939.522275	2506.345746
939.824747	2507.631240
940.127179	2502.539675
940.429573	2502.496825
940.731929	2505.319871
941.034246	2498.781494
941.336524	2504.170488
941.638763	2504.319202
941.940964	2507.424553
942.243126	2505.549243
942.545250	2505.687875
942.847335	2504.982114
943.149381	2506.514624
943.451389	2504.339367
943.753359	2506.854902
944.055290	2505.234171
944.357182	2503.928513
944.659036	2504.248626
944.960851	2502.706033
945.262628	2504.790550
945.564367	2507.777433
945.866067	2505.153513
946.167729	2504.556136
946.469352	2503.036228
946.770937	2506.721312
947.072484	2505.309789
947.373992	2505.869357
947.675462	2505.980262
947.976893	2505.312309
948.278286	2505.279542
948.579641	2507.220386
948.880958	2504.442710
949.182236	2506.479336
949.483476	2505.571929
949.784678	2503.822648
950.085841	2503.515138
950.386967	2506.186949
950.688054	2506.396157
950.989103	2505.501352
951.290114	2506.335663
951.591087	2503.706702
951.892021	2506.204593
952.192917	2506.839779
952.493776	2508.067300
952.794596	2504.886332
953.095378	2504.966990
953.396122	2507.394306
953.696828	2506.025633
953.997496	2506.134017
954.298126	2504.283914
954.598718	2505.501353
954.899272	2503.925992
955.199788	2506.194511
955.500266	2507.401868
955.800706	2503.426918
956.101108	2500.130003
956.401472	2499.817452
956.701798	2501.052534
957.002087	2500.321567
957.302337	2502.078409
957.602550	2504.293996
957.902724	2503.399191
958.202861	2503.197545
958.502960	2503.449603
958.803022	2504.808194
959.103045	2502.635457
959.403031	2504.755262
959.702979	2502.093532
960.002889	2504.553616
960.302762	2503.134531
960.602596	2504.553616
960.902393	2502.514469
961.202153	2503.240395
961.501875	2506.219717
961.801559	2501.833913
962.101205	2503.547905
962.400814	2503.532782
962.700385	2503.089160
962.999918	2504.266270
963.299414	2499.988851
963.598873	2503.925992
963.898293	2501.140754
964.197677	2503.618482
964.497022	2503.126969
964.796331	2501.632267
965.095601	2504.044459
965.394835	2504.089829
965.694030	2501.735611
965.993189	2507.096878
966.292309	2503.636126
966.591393	2503.686537
966.890439	2500.944149
967.189447	2502.736280
967.488419	2499.814931
967.787353	2503.356342
968.086249	2502.305261
968.385108	2507.106960
968.683930	2501.138234
968.982714	2505.382885
969.281462	2502.282576
969.580172	2502.426249
969.878844	2502.968173
970.177480	2503.109325
970.476078	2500.997082
970.774639	2502.252329
971.073162	2502.204438
971.371649	2502.244767
971.670098	2499.028511
971.968510	2501.849037
972.266885	2499.860301
972.565223	2504.281393
972.863524	2503.557988
973.161788	2503.376506
973.460014	2501.186125
973.758204	2503.222751
974.056356	2503.421877
974.354471	2504.084788
974.652550	2502.794253
974.950591	2502.688389
975.248595	2503.149654
975.546563	2502.280055
975.844493	2501.027328
976.142386	2505.667711
976.440243	2504.798112
976.738062	2504.641836
977.035845	2501.302071
977.333590	2499.741834
977.631299	2502.143944
977.928971	2503.414315
978.226606	2503.631084
978.524204	2501.629746
978.821765	2504.102432
979.119290	2500.629077
979.416777	2503.956239
979.714228	2504.099912
980.011642	2501.501197
980.309020	2504.548574
980.606360	2501.717967
980.903664	2505.024963
981.200931	2504.157885
981.498162	2503.439521
981.795356	2501.125631
982.092513	2504.999758
982.389633	2502.723677
982.686717	2505.561846
982.983764	2504.392299
983.280775	2505.987824
983.577749	2505.413132
983.874686	2505.750890
984.171587	2506.065962
984.468451	2504.208297
984.765279	2504.104953
985.062070	2504.273832
985.358824	2504.982114
985.655543	2503.016064
985.952224	2504.982114
986.248869	2501.372648
986.545478	2497.397698
986.842050	2500.606392
987.138586	2496.684374
987.435086	2500.881135
987.731549	2496.891062
988.027975	2501.886845
988.324366	2500.555981
988.620719	2504.883811
988.917037	2503.033708
989.213318	2503.431959
989.509563	2499.819972
989.805772	2505.773575
990.101944	2499.779643
990.398080	2502.154026
990.694180	2501.710405
990.990244	2501.541526
991.286271	2504.508245
991.582262	2500.500528
991.878217	2501.312154
992.174136	2499.797287
992.470019	2502.441372
992.765865	2504.692247
993.061676	2499.356186
993.357450	2500.608913
993.653188	2500.205620
993.948890	2501.344921
994.244556	2503.588235
994.540186	2503.694099
994.835780	2501.014726
995.131337	2502.769047
995.426859	2501.241577
995.722345	2504.034377
996.017795	2503.958759
996.313208	2502.905158
996.608586	2502.385919
996.903928	2504.717453
997.199234	2503.684017
997.494504	2501.750734
997.789738	2502.887514
998.084936	2502.625374
998.380099	2503.011022
998.675225	2505.203924
998.970316	2500.613954
999.265371	2503.343739
999.560390	2502.950529
999.855373	2502.073368
1000.150320	2500.225785
1000.445232	2503.721825
1000.740108	2501.980107
1001.034948	2502.519510
1001.329752	2501.569253
1001.624521	2502.506907
1001.919254	2498.882317
1002.213951	2500.886176
1002.508613	2499.172184
1002.803239	2499.343583
1003.097829	2498.521875
1003.392384	2501.291989
1003.686903	2503.051352
1003.981386	2500.578666
1004.275834	2501.662514
1004.570246	2501.415497
1004.864623	2499.076402
1005.158964	2503.389109
1005.453270	2501.607061
1005.747540	2503.235354
1006.041775	2498.884838
1006.335974	2501.841475
1006.630138	2500.974396
1006.924266	2502.136382
1007.218359	2499.144458
1007.512416	2499.141937
1007.806438	2501.526403
1008.100425	2500.964314
1008.394376	2498.907523
1008.688292	2502.764006
1008.982172	2500.344252
1009.276017	2500.460199
1009.569827	2499.131855
1009.863602	2503.479850
1010.157341	2499.446927
1010.451045	2498.925167
1010.744714	2500.147647
1011.038347	2500.979437
1011.331945	2502.665703
1011.625508	2498.534478
1011.919036	2498.325270
1012.212528	2500.739983
1012.505986	2504.044459
1012.799408	2500.934067
1013.092795	2498.937770
1013.386147	2502.176712
1013.679464	2499.404077
1013.972745	2501.962462
1014.265992	2501.738131
1014.559204	2502.433810
1014.852380	2497.415342
1015.145521	2505.264418
1015.438628	2500.094715
1015.731699	2501.264263
1016.024736	2500.808038
1016.317737	2503.366424
1016.610703	2500.442555
1016.903635	2498.622698
1017.196531	2498.300064
1017.489393	2497.775784
1017.782219	2499.162102
1018.075011	2497.165805
1018.367768	2499.517503
1018.660490	2500.271155
1018.953177	2500.271155
1019.245829	2500.271155
