Dividing Wavelength (nm)	Counts (n)	Blue Motor Position (mm): 0.000000	Red Motor Position (mm): 9.800000	
326.493990	2066.873077
326.888308	2066.873077
327.282561	2066.873077
327.676750	2081.996538
328.070874	2061.831923
328.464933	1976.132308
328.858929	2097.120000
329.252859	2024.023269
329.646726	2024.023269
330.040528	2059.311346
330.434265	2157.613846
330.827938	2112.243462
331.221547	2119.805192
331.615091	2124.846346
332.008571	2117.284615
332.401986	2238.272308
332.795338	2271.039808
333.188625	2248.354615
333.581847	2215.587115
333.975006	2329.013077
334.368100	2243.313462
334.761129	2278.601538
335.154095	2354.218846
335.546996	2316.410192
335.939833	2349.177692
336.332606	2381.945192
336.725315	2379.424615
337.117960	2462.603654
337.510540	2361.780577
337.903056	2455.041923
338.295508	2439.918462
338.687896	2344.136538
339.080220	2409.671538
339.472480	2515.535769
339.864676	2447.480192
340.256807	2480.247692
340.648875	2442.439038
341.040879	2475.206538
341.432818	2472.685962
341.824694	2507.974038
342.216506	2550.823846
342.608253	2495.371154
342.999937	2543.262115
343.391557	2480.247692
343.783113	2371.862885
344.174605	2485.288846
344.566033	2366.821731
344.957397	2450.000769
345.348697	2460.083077
345.739934	2475.206538
346.131106	2477.727115
346.522215	2502.932885
346.913260	2505.453462
347.304241	2429.836154
347.695159	2442.439038
348.086012	2422.274423
348.476802	2495.371154
348.867528	2407.150962
349.258191	2429.836154
349.648789	2404.630385
350.039324	2455.041923
350.429796	2462.603654
350.820203	2472.685962
351.210548	2429.836154
351.600828	2452.521346
351.991045	2457.562500
352.381198	2460.083077
352.771288	2419.753846
353.161314	2399.589231
353.551276	2364.301154
353.941175	2482.768269
354.331010	2414.712692
354.720782	2399.589231
355.110490	2545.782692
355.500135	2356.739423
355.889717	2419.753846
356.279235	2457.562500
356.668689	2429.836154
357.058080	2472.685962
357.447408	2381.945192
357.836672	2485.288846
358.225873	2477.727115
358.615010	2384.465769
359.004084	2394.548077
359.393095	2439.918462
359.782043	2412.192115
360.170927	2417.233269
360.559748	2361.780577
360.948505	2376.904038
361.337199	2485.288846
361.725830	2439.918462
362.114398	2381.945192
362.502903	2344.136538
362.891344	2412.192115
363.279722	2392.027500
363.668037	2470.165385
364.056289	2535.700385
364.444478	2427.315577
364.832603	2434.877308
365.220665	2429.836154
365.608665	2354.218846
365.996601	2472.685962
366.384474	2462.603654
366.772284	2472.685962
367.160031	2490.330000
367.547715	2497.891731
367.935336	2419.753846
368.322893	2510.494615
368.710388	2455.041923
369.097820	2404.630385
369.485189	2472.685962
369.872495	2465.124231
370.259738	2475.206538
370.646918	2492.850577
371.034035	2538.220962
371.421090	2465.124231
371.808081	2457.562500
372.195010	2452.521346
372.581875	2500.412308
372.968678	2422.274423
373.355418	2513.015192
373.742096	2452.521346
374.128710	2465.124231
374.515262	2450.000769
374.901751	2495.371154
375.288177	2409.671538
375.674540	2465.124231
376.060841	2432.356731
376.447079	2424.795000
376.833254	2427.315577
377.219367	2424.795000
377.605417	2381.945192
377.991404	2465.124231
378.377329	2417.233269
378.763191	2437.397885
379.148991	2447.480192
379.534727	2444.959615
379.920402	2407.150962
380.306013	2533.179808
380.691563	2442.439038
381.077049	2523.097500
381.462474	2472.685962
381.847835	2407.150962
382.233134	2565.947308
382.618371	2369.342308
383.003545	2525.618077
383.388657	2429.836154
383.773706	2442.439038
384.158693	2462.603654
384.543618	2439.918462
384.928480	2462.603654
385.313280	2434.877308
385.698017	2480.247692
386.082692	2480.247692
386.467305	2444.959615
386.851856	2455.041923
387.236344	2412.192115
387.620770	2414.712692
388.005133	2434.877308
388.389435	2477.727115
388.773674	2392.027500
389.157851	2510.494615
389.541965	2462.603654
389.926018	2447.480192
390.310008	2543.262115
390.693936	2450.000769
391.077802	2465.124231
391.461606	2525.618077
391.845348	2432.356731
392.229027	2344.136538
392.612645	2490.330000
392.996200	2477.727115
393.379694	2447.480192
393.763125	2399.589231
394.146494	2407.150962
394.529801	2444.959615
394.913047	2558.385577
395.296230	2442.439038
395.679351	2455.041923
396.062410	2407.150962
396.445408	2518.056346
396.828343	2402.109808
397.211217	2480.247692
397.594028	2472.685962
397.976778	2432.356731
398.359466	2543.262115
398.742092	2465.124231
399.124656	2465.124231
399.507158	2485.288846
399.889598	2419.753846
400.271977	2495.371154
400.654294	2376.904038
401.036549	2513.015192
401.418742	2482.768269
401.800874	2424.795000
402.182944	2538.220962
402.564952	2457.562500
402.946898	2414.712692
403.328783	2490.330000
403.710606	2502.932885
404.092367	2437.397885
404.474067	2487.809423
404.855705	2492.850577
405.237282	2470.165385
405.618797	2450.000769
406.000250	2502.932885
406.381642	2417.233269
406.762972	2495.371154
407.144240	2510.494615
407.525447	2560.906154
407.906593	2480.247692
408.287677	2492.850577
408.668700	2497.891731
409.049661	2495.371154
409.430560	2414.712692
409.811399	2429.836154
410.192176	2434.877308
410.572891	2502.932885
410.953545	2462.603654
411.334138	2397.068654
411.714669	2480.247692
412.095139	2523.097500
412.475547	2414.712692
412.855894	2439.918462
413.236180	2538.220962
413.616405	2389.506923
413.996568	2409.671538
414.376670	2477.727115
414.756711	2500.412308
415.136691	2563.426731
415.516609	2424.795000
415.896466	2591.153077
416.276262	2482.768269
416.655997	2465.124231
417.035670	2500.412308
417.415283	2513.015192
417.794834	2460.083077
418.174324	2500.412308
418.553753	2447.480192
418.933121	2480.247692
419.312428	2475.206538
419.691674	2455.041923
420.070859	2485.288846
420.449983	2507.974038
420.829045	2485.288846
421.208047	2518.056346
421.586988	2482.768269
421.965867	2452.521346
422.344686	2578.550192
422.723444	2437.397885
423.102141	2437.397885
423.480777	2505.453462
423.859352	2455.041923
424.237866	2568.467885
424.616319	2487.809423
424.994712	2477.727115
425.373044	2447.480192
425.751314	2487.809423
426.129524	2402.109808
426.507673	2497.891731
426.885762	2452.521346
427.263789	2467.644808
427.641756	2482.768269
428.019662	2545.782692
428.397508	2432.356731
428.775292	2525.618077
429.153016	2497.891731
429.530679	2515.535769
429.908282	2452.521346
430.285824	2510.494615
430.663305	2407.150962
431.040726	2472.685962
431.418086	2412.192115
431.795385	2495.371154
432.172624	2404.630385
432.549802	2528.138654
432.926920	2434.877308
433.303977	2576.029615
433.680974	2477.727115
434.057910	2507.974038
434.434786	2442.439038
434.811601	2487.809423
435.188355	2593.673654
435.565050	2452.521346
435.941683	2513.015192
436.318257	2510.494615
436.694770	2482.768269
437.071222	2460.083077
437.447614	2455.041923
437.823946	2520.576923
438.200218	2429.836154
438.576429	2550.823846
438.952580	2505.453462
439.328670	2417.233269
439.704700	2455.041923
440.080670	2475.206538
440.456580	2560.906154
440.832429	2482.768269
441.208218	2376.904038
441.583947	2548.303269
441.959616	2427.315577
442.335224	2424.795000
442.710773	2520.576923
443.086261	2407.150962
443.461689	2452.521346
443.837057	2507.974038
444.212365	2422.274423
444.587612	2515.535769
444.962800	2487.809423
445.337927	2525.618077
445.712995	2402.109808
446.088002	2465.124231
446.462949	2427.315577
446.837837	2462.603654
447.212664	2553.344423
447.587431	2540.741538
447.962139	2452.521346
448.336786	2538.220962
448.711374	2470.165385
449.085901	2419.753846
449.460369	2515.535769
449.834776	2530.659231
450.209124	2482.768269
450.583412	2505.453462
450.957640	2480.247692
451.331808	2518.056346
451.705917	2419.753846
452.079965	2510.494615
452.453954	2482.768269
452.827883	2500.412308
453.201752	2497.891731
453.575562	2510.494615
453.949311	2439.918462
454.323001	2495.371154
454.696632	2576.029615
455.070202	2407.150962
455.443713	2470.165385
455.817164	2510.494615
456.190556	2447.480192
456.563888	2502.932885
456.937160	2457.562500
457.310373	2434.877308
457.683526	2495.371154
458.056619	2538.220962
458.429653	2545.782692
458.802628	2437.397885
459.175542	2497.891731
459.548398	2583.591346
459.921194	2513.015192
460.293930	2548.303269
460.666607	2523.097500
461.039224	2487.809423
461.411782	2429.836154
461.784280	2555.865000
462.156719	2447.480192
462.529099	2455.041923
462.901419	2492.850577
463.273680	2540.741538
463.645882	2563.426731
464.018024	2593.673654
464.390106	2407.150962
464.762130	2475.206538
465.134094	2581.070769
465.505999	2495.371154
465.877845	2560.906154
466.249631	2447.480192
466.621358	2497.891731
466.993026	2576.029615
467.364634	2477.727115
467.736184	2470.165385
468.107674	2533.179808
468.479105	2518.056346
468.850477	2578.550192
469.221790	2472.685962
469.593043	2470.165385
469.964238	2480.247692
470.335373	2538.220962
470.706449	2472.685962
471.077467	2540.741538
471.448425	2460.083077
471.819324	2470.165385
472.190164	2417.233269
472.560945	2470.165385
472.931667	2450.000769
473.302330	2475.206538
473.672934	2525.618077
474.043479	2523.097500
474.413965	2591.153077
474.784393	2555.865000
475.154761	2492.850577
475.525070	2487.809423
475.895321	2450.000769
476.265513	2500.412308
476.635645	2427.315577
477.005719	2500.412308
477.375734	2386.986346
477.745691	2570.988462
478.115588	2550.823846
478.485427	2482.768269
478.855207	2434.877308
479.224928	2507.974038
479.594591	2500.412308
479.964194	2455.041923
480.333739	2490.330000
480.703226	2467.644808
481.072653	2497.891731
481.442022	2505.453462
481.811333	2502.932885
482.180584	2485.288846
482.549777	2432.356731
482.918912	2427.315577
483.287988	2518.056346
483.657005	2480.247692
484.025964	2371.862885
484.394864	2455.041923
484.763706	2477.727115
485.132489	2457.562500
485.501213	2520.576923
485.869879	2520.576923
486.238487	2588.632500
486.607036	2533.179808
486.975527	2472.685962
487.343959	2490.330000
487.712333	2475.206538
488.080648	2447.480192
488.448905	2570.988462
488.817104	2490.330000
489.185244	2485.288846
489.553326	2472.685962
489.921350	2492.850577
490.289315	2394.548077
490.657222	2520.576923
491.025070	2432.356731
491.392861	2475.206538
491.760593	2434.877308
492.128267	2492.850577
492.495883	2545.782692
492.863440	2540.741538
493.230939	2563.426731
493.598380	2422.274423
493.965763	2520.576923
494.333088	2467.644808
494.700354	2485.288846
495.067563	2414.712692
495.434713	2480.247692
495.801805	2450.000769
496.168839	2462.603654
496.535815	2497.891731
496.902733	2472.685962
497.269593	2374.383462
497.636395	2505.453462
498.003139	2515.535769
498.369825	2397.068654
498.736453	2535.700385
499.103023	2457.562500
499.469535	2548.303269
499.835989	2412.192115
500.202385	2427.315577
500.568723	2538.220962
500.935003	2422.274423
501.301226	2518.056346
501.667390	2500.412308
502.033497	2457.562500
502.399546	2543.262115
502.765537	2550.823846
503.131470	2482.768269
503.497345	2560.906154
503.863163	2482.768269
504.228923	2429.836154
504.594625	2570.988462
504.960269	2434.877308
505.325856	2500.412308
505.691385	2495.371154
506.056856	2570.988462
506.422270	2485.288846
506.787625	2518.056346
507.152924	2515.535769
507.518164	2568.467885
507.883347	2470.165385
508.248472	2397.068654
508.613540	2578.550192
508.978550	2558.385577
509.343503	2397.068654
509.708398	2490.330000
510.073236	2452.521346
510.438016	2513.015192
510.802738	2538.220962
511.167403	2462.603654
511.532010	2555.865000
511.896561	2515.535769
512.261053	2545.782692
512.625488	2518.056346
512.989866	2470.165385
513.354186	2467.644808
513.718449	2553.344423
514.082655	2422.274423
514.446803	2472.685962
514.810894	2515.535769
515.174927	2492.850577
515.538904	2545.782692
515.902822	2520.576923
516.266684	2525.618077
516.630488	2417.233269
516.994235	2439.918462
517.357925	2528.138654
517.721558	2480.247692
518.085133	2482.768269
518.448651	2563.426731
518.812112	2389.506923
519.175516	2487.809423
519.538863	2510.494615
519.902152	2545.782692
520.265385	2460.083077
520.628560	2555.865000
520.991678	2442.439038
521.354739	2505.453462
521.717743	2492.850577
522.080690	2505.453462
522.443580	2422.274423
522.806413	2470.165385
523.169189	2578.550192
523.531908	2520.576923
523.894569	2392.027500
524.257174	2520.576923
524.619722	2475.206538
524.982213	2437.397885
525.344647	2455.041923
525.707025	2480.247692
526.069345	2485.288846
526.431608	2513.015192
526.793815	2507.974038
527.155964	2482.768269
527.518057	2555.865000
527.880093	2502.932885
528.242072	2530.659231
528.603995	2513.015192
528.965860	2470.165385
529.327669	2502.932885
529.689421	2490.330000
530.051117	2510.494615
530.412755	2460.083077
530.774337	2495.371154
531.135862	2545.782692
531.497331	2495.371154
531.858743	2505.453462
532.220098	2450.000769
532.581396	2462.603654
532.942638	2462.603654
533.303824	2492.850577
533.664953	2492.850577
534.026025	2475.206538
534.387040	2560.906154
534.747999	2460.083077
535.108902	2540.741538
535.469748	2470.165385
535.830537	2452.521346
536.191270	2535.700385
536.551947	2560.906154
536.912567	2485.288846
537.273131	2414.712692
537.633638	2535.700385
537.994089	2528.138654
538.354483	2465.124231
538.714821	2563.426731
539.075103	2462.603654
539.435328	2442.439038
539.795497	2507.974038
540.155609	2513.015192
540.515665	2429.836154
540.875665	2419.753846
541.235609	2586.111923
541.595496	2528.138654
541.955328	2470.165385
542.315102	2505.453462
542.674821	2444.959615
543.034483	2523.097500
543.394090	2487.809423
543.753640	2475.206538
544.113134	2452.521346
544.472571	2518.056346
544.831953	2500.412308
545.191278	2528.138654
545.550548	2573.509038
545.909761	2495.371154
546.268918	2497.891731
546.628019	2470.165385
546.987064	2472.685962
547.346053	2480.247692
547.704986	2523.097500
548.063863	2457.562500
548.422684	2545.782692
548.781449	2510.494615
549.140158	2550.823846
549.498811	2450.000769
549.857408	2487.809423
550.215949	2518.056346
550.574434	2465.124231
550.932864	2495.371154
551.291237	2465.124231
551.649555	2447.480192
552.007817	2447.480192
552.366022	2427.315577
552.724173	2502.932885
553.082267	2523.097500
553.440305	2492.850577
553.798288	2472.685962
554.156215	2507.974038
554.514086	2525.618077
554.871902	2520.576923
555.229661	2500.412308
555.587365	2525.618077
555.945014	2523.097500
556.302606	2523.097500
556.660143	2465.124231
557.017625	2490.330000
557.375050	2533.179808
557.732421	2460.083077
558.089735	2409.671538
558.446994	2482.768269
558.804197	2485.288846
559.161345	2465.124231
559.518437	2465.124231
559.875474	2475.206538
560.232455	2495.371154
560.589381	2513.015192
560.946251	2462.603654
561.303065	2543.262115
561.659825	2487.809423
562.016528	2593.673654
562.373177	2581.070769
562.729770	2535.700385
563.086307	2450.000769
563.442789	2507.974038
563.799216	2555.865000
564.155587	2616.358846
564.511904	2457.562500
564.868164	2475.206538
565.224370	2548.303269
565.580520	2472.685962
565.936615	2528.138654
566.292654	2427.315577
566.648638	2533.179808
567.004567	2462.603654
567.360441	2480.247692
567.716260	2518.056346
568.072023	2497.891731
568.427732	2439.918462
568.783385	2530.659231
569.138982	2500.412308
569.494525	2472.685962
569.850013	2457.562500
570.205445	2495.371154
570.560823	2444.959615
570.916145	2525.618077
571.271412	2480.247692
571.626625	2497.891731
571.981782	2462.603654
572.336884	2558.385577
572.691931	2507.974038
573.046923	2475.206538
573.401860	2533.179808
573.756743	2465.124231
574.111570	2518.056346
574.466342	2467.644808
574.821059	2513.015192
575.175722	2470.165385
575.530330	2452.521346
575.884882	2492.850577
576.239380	2507.974038
576.593823	2520.576923
576.948211	2500.412308
577.302544	2565.947308
577.656823	2570.988462
578.011047	2543.262115
578.365216	2460.083077
578.719330	2616.358846
579.073389	2482.768269
579.427394	2555.865000
579.781344	2409.671538
580.135239	2591.153077
580.489080	2507.974038
580.842866	2500.412308
581.196597	2402.109808
581.550273	2495.371154
581.903895	2535.700385
582.257463	2523.097500
582.610975	2480.247692
582.964434	2510.494615
583.317837	2513.015192
583.671186	2548.303269
584.024481	2490.330000
584.377721	2394.548077
584.730906	2485.288846
585.084037	2505.453462
585.437113	2467.644808
585.790135	2525.618077
586.143103	2472.685962
586.496016	2523.097500
586.848874	2437.397885
587.201679	2523.097500
587.554428	2553.344423
587.907124	2465.124231
588.259765	2505.453462
588.612352	2467.644808
588.964884	2596.194231
589.317362	2485.288846
589.669786	2472.685962
590.022155	2518.056346
590.374470	2462.603654
590.726731	2492.850577
591.078937	2497.891731
591.431090	2490.330000
591.783188	2518.056346
592.135232	2540.741538
592.487222	2545.782692
592.839157	2553.344423
593.191038	2475.206538
593.542866	2497.891731
593.894639	2530.659231
594.246358	2482.768269
594.598022	2505.453462
594.949633	2477.727115
595.301190	2507.974038
595.652692	2545.782692
596.004141	2480.247692
596.355535	2543.262115
596.706876	2477.727115
597.058162	2568.467885
597.409395	2533.179808
597.760573	2505.453462
598.111698	2510.494615
598.462768	2447.480192
598.813785	2497.891731
599.164748	2525.618077
599.515657	2502.932885
599.866511	2510.494615
600.217312	2563.426731
600.568060	2472.685962
600.918753	2482.768269
601.269392	2596.194231
601.619978	2555.865000
601.970510	2490.330000
602.320988	2495.371154
602.671412	2460.083077
603.021783	2422.274423
603.372100	2518.056346
603.722363	2450.000769
604.072572	2603.755962
604.422728	2404.630385
604.772830	2439.918462
605.122878	2447.480192
605.472872	2424.795000
605.822813	2480.247692
606.172701	2462.603654
606.522534	2565.947308
606.872314	2432.356731
607.222041	2523.097500
607.571714	2560.906154
607.921333	2520.576923
608.270899	2538.220962
608.620411	2525.618077
608.969870	2450.000769
609.319276	2439.918462
609.668627	2465.124231
610.017926	2417.233269
610.367171	2482.768269
610.716362	2475.206538
611.065500	2505.453462
611.414585	2528.138654
611.763616	2518.056346
612.112594	2545.782692
612.461518	2487.809423
612.810389	2422.274423
613.159207	2487.809423
613.507971	2518.056346
613.856682	2432.356731
614.205340	2497.891731
614.553945	2525.618077
614.902496	2497.891731
615.250994	2422.274423
615.599439	2455.041923
615.947830	2492.850577
616.296169	2593.673654
616.644454	2558.385577
616.992686	2490.330000
617.340864	2487.809423
617.688990	2480.247692
618.037063	2555.865000
618.385082	2477.727115
618.733048	2535.700385
619.080961	2513.015192
619.428821	2505.453462
619.776628	2507.974038
620.124382	2639.044038
620.472083	2502.932885
620.819731	2535.700385
621.167326	2437.397885
621.514868	2578.550192
621.862357	2497.891731
622.209793	2545.782692
622.557176	2513.015192
622.904506	2492.850577
623.251783	2457.562500
623.599007	2513.015192
623.946179	2477.727115
624.293297	2424.795000
624.640363	2465.124231
624.987376	2482.768269
625.334336	2490.330000
625.681243	2432.356731
626.028097	2497.891731
626.374899	2563.426731
626.721647	2419.753846
627.068343	2616.358846
627.414987	2565.947308
627.761577	2462.603654
628.108115	2480.247692
628.454600	2495.371154
628.801032	2477.727115
629.147412	2432.356731
629.493739	2545.782692
629.840014	2485.288846
630.186236	2523.097500
630.532405	2502.932885
630.878521	2576.029615
631.224585	2447.480192
631.570597	2442.439038
631.916556	2475.206538
632.262462	2500.412308
632.608316	2513.015192
632.954117	2583.591346
633.299866	2500.412308
633.645562	2472.685962
633.991206	2505.453462
634.336797	2455.041923
634.682336	2455.041923
635.027823	2510.494615
635.373257	2525.618077
635.718639	2492.850577
636.063968	2528.138654
636.409245	2553.344423
636.754470	2576.029615
637.099642	2447.480192
637.444762	2495.371154
637.789829	2417.233269
638.134845	2439.918462
638.479808	2548.303269
638.824719	2482.768269
639.169577	2447.480192
639.514383	2518.056346
639.859137	2450.000769
640.203839	2578.550192
640.548489	2480.247692
640.893086	2528.138654
641.237632	2548.303269
641.582125	2530.659231
641.926566	2472.685962
642.270955	2460.083077
642.615292	2442.439038
642.959576	2528.138654
643.303809	2500.412308
643.647990	2540.741538
643.992118	2450.000769
644.336195	2530.659231
644.680219	2437.397885
645.024192	2409.671538
645.368112	2475.206538
645.711981	2550.823846
646.055797	2434.877308
646.399562	2513.015192
646.743274	2500.412308
647.086935	2487.809423
647.430544	2495.371154
647.774101	2568.467885
648.117606	2570.988462
648.461059	2520.576923
648.804460	2548.303269
649.147810	2497.891731
649.491108	2432.356731
649.834354	2500.412308
650.177548	2444.959615
650.520690	2432.356731
650.863781	2507.974038
651.206820	2515.535769
651.549807	2510.494615
651.892742	2548.303269
652.235626	2540.741538
652.578458	2407.150962
652.921238	2422.274423
653.263967	2520.576923
653.606644	2412.192115
653.949269	2470.165385
654.291843	2447.480192
654.634365	2485.288846
654.976836	2520.576923
655.319255	2460.083077
655.661622	2520.576923
656.003938	2482.768269
656.346203	2467.644808
656.688416	2429.836154
657.030577	2515.535769
657.372687	2500.412308
657.714746	2455.041923
658.056753	2467.644808
658.398708	2460.083077
658.740612	2477.727115
659.082465	2485.288846
659.424266	2528.138654
659.766016	2462.603654
660.107715	2530.659231
660.449362	2513.015192
660.790958	2487.809423
661.132503	2492.850577
661.473996	2465.124231
661.815438	2581.070769
662.156829	2500.412308
662.498168	2528.138654
662.839456	2500.412308
663.180693	2513.015192
663.521879	2475.206538
663.863013	2510.494615
664.204097	2487.809423
664.545129	2419.753846
664.886110	2450.000769
665.227040	2462.603654
665.567918	2565.947308
665.908746	2558.385577
666.249522	2455.041923
666.590248	2475.206538
666.930922	2500.412308
667.271545	2523.097500
667.612118	2502.932885
667.952639	2563.426731
668.293109	2482.768269
668.633528	2525.618077
668.973896	2439.918462
669.314213	2490.330000
669.654480	2455.041923
669.994695	2485.288846
670.334859	2467.644808
670.674973	2555.865000
671.015035	2576.029615
671.355047	2497.891731
671.695008	2502.932885
672.034918	2502.932885
672.374777	2507.974038
672.714585	2432.356731
673.054342	2442.439038
673.394049	2389.506923
673.733705	2540.741538
674.073310	2457.562500
674.412864	2530.659231
674.752368	2389.506923
675.091820	2560.906154
675.431223	2465.124231
675.770574	2487.809423
676.109875	2510.494615
676.449125	2495.371154
676.788324	2485.288846
677.127473	2427.315577
677.466571	2432.356731
677.805619	2510.494615
678.144616	2518.056346
678.483562	2538.220962
678.822458	2528.138654
679.161303	2500.412308
679.500098	2520.576923
679.838842	2497.891731
680.177535	2507.974038
680.516179	2518.056346
680.854771	2490.330000
681.193314	2586.111923
681.531805	2533.179808
681.870247	2538.220962
682.208638	2507.974038
682.546978	2510.494615
682.885268	2513.015192
683.223508	2470.165385
683.561697	2507.974038
683.899836	2558.385577
684.237925	2475.206538
684.575963	2490.330000
684.913951	2470.165385
685.251889	2543.262115
685.589776	2568.467885
685.927614	2553.344423
686.265401	2490.330000
686.603137	2560.906154
686.940824	2460.083077
687.278460	2538.220962
687.616046	2480.247692
687.953582	2450.000769
688.291068	2550.823846
688.628504	2475.206538
688.965889	2412.192115
689.303224	2450.000769
689.640510	2545.782692
689.977745	2394.548077
690.314930	2402.109808
690.652065	2450.000769
690.989150	2500.412308
691.326185	2462.603654
691.663170	2442.439038
692.000105	2500.412308
692.336990	2490.330000
692.673825	2490.330000
693.010610	2490.330000
693.347345	2475.206538
693.684030	2424.795000
694.020665	2520.576923
694.357251	2576.029615
694.693786	2470.165385
695.030272	2538.220962
695.366707	2518.056346
695.703093	2500.412308
696.039429	2502.932885
696.375716	2485.288846
696.711952	2507.974038
697.048139	2507.974038
697.384276	2439.918462
697.720363	2515.535769
698.056400	2452.521346
698.392388	2523.097500
698.728326	2608.797115
699.064214	2414.712692
699.400053	2497.891731
699.735842	2485.288846
700.071581	2555.865000
700.407270	2487.809423
700.742910	2523.097500
701.078501	2492.850577
701.414042	2518.056346
701.749533	2467.644808
702.084974	2462.603654
702.420366	2570.988462
702.755709	2555.865000
703.091002	2447.480192
703.426246	2502.932885
703.761440	2465.124231
704.096584	2470.165385
704.431679	2482.768269
704.766725	2492.850577
705.101721	2515.535769
705.436668	2553.344423
705.771565	2505.453462
706.106413	2505.453462
706.441212	2480.247692
706.775961	2513.015192
707.110661	2525.618077
707.445311	2457.562500
707.779913	2467.644808
708.114465	2429.836154
708.448967	2480.247692
708.783421	2467.644808
709.117825	2543.262115
709.452180	2467.644808
709.786485	2540.741538
710.120742	2545.782692
710.454949	2462.603654
710.789107	2586.111923
711.123216	2518.056346
711.457275	2560.906154
711.791286	2497.891731
712.125247	2480.247692
712.459159	2452.521346
712.793023	2507.974038
713.126837	2510.494615
713.460602	2477.727115
713.794318	2424.795000
714.127985	2500.412308
714.461602	2497.891731
714.795171	2540.741538
715.128691	2583.591346
715.462162	2452.521346
715.795584	2570.988462
716.128957	2417.233269
716.462281	2525.618077
716.795556	2419.753846
717.128782	2480.247692
717.461960	2480.247692
717.795088	2513.015192
718.128167	2513.015192
718.461198	2586.111923
718.794180	2434.877308
719.127113	2495.371154
719.459997	2591.153077
719.792833	2525.618077
720.125619	2507.974038
720.458357	2497.891731
720.791046	2553.344423
721.123686	2515.535769
721.456278	2568.467885
721.788821	2507.974038
722.121315	2452.521346
722.453761	2545.782692
722.786158	2492.850577
723.118506	2578.550192
723.450805	2533.179808
723.783056	2490.330000
724.115259	2366.821731
724.447412	2520.576923
724.779518	2452.521346
725.111574	2535.700385
725.443582	2505.453462
725.775542	2422.274423
726.107453	2460.083077
726.439315	2500.412308
726.771129	2502.932885
727.102895	2528.138654
727.434612	2444.959615
727.766281	2490.330000
728.097901	2470.165385
728.429473	2565.947308
728.760996	2518.056346
729.092471	2533.179808
729.423897	2550.823846
729.755276	2495.371154
730.086606	2502.932885
730.417887	2513.015192
730.749120	2450.000769
731.080305	2485.288846
731.411442	2558.385577
731.742530	2414.712692
732.073570	2414.712692
732.404562	2475.206538
732.735506	2422.274423
733.066401	2578.550192
733.397249	2513.015192
733.728048	2482.768269
734.058798	2538.220962
734.389501	2480.247692
734.720156	2533.179808
735.050762	2455.041923
735.381320	2419.753846
735.711831	2497.891731
736.042293	2530.659231
736.372707	2485.288846
736.703073	2462.603654
737.033391	2505.453462
737.363661	2467.644808
737.693883	2495.371154
738.024056	2533.179808
738.354182	2530.659231
738.684260	2462.603654
739.014290	2523.097500
739.344272	2538.220962
739.674207	2515.535769
740.004093	2540.741538
740.333931	2545.782692
740.663722	2429.836154
740.993464	2518.056346
741.323159	2467.644808
741.652806	2515.535769
741.982405	2507.974038
742.311956	2455.041923
742.641460	2538.220962
742.970915	2492.850577
743.300323	2412.192115
743.629683	2462.603654
743.958996	2402.109808
744.288260	2513.015192
744.617477	2535.700385
744.946647	2429.836154
745.275768	2510.494615
745.604842	2510.494615
745.933869	2450.000769
746.262847	2477.727115
746.591778	2500.412308
746.920662	2480.247692
747.249498	2545.782692
747.578286	2475.206538
747.907027	2432.356731
748.235720	2500.412308
748.564365	2444.959615
748.892963	2492.850577
749.221514	2538.220962
749.550017	2414.712692
749.878473	2505.453462
750.206881	2442.439038
750.535242	2591.153077
750.863555	2422.274423
751.191821	2427.315577
751.520039	2497.891731
751.848210	2480.247692
752.176334	2475.206538
752.504411	2465.124231
752.832440	2422.274423
753.160421	2518.056346
753.488356	2470.165385
753.816243	2507.974038
754.144082	2568.467885
754.471875	2505.453462
754.799620	2523.097500
755.127318	2515.535769
755.454969	2452.521346
755.782572	2538.220962
756.110129	2568.467885
756.437638	2460.083077
756.765100	2376.904038
757.092515	2470.165385
757.419882	2543.262115
757.747203	2523.097500
758.074477	2490.330000
758.401703	2482.768269
758.728882	2450.000769
759.056014	2525.618077
759.383099	2495.371154
759.710138	2555.865000
760.037129	2434.877308
760.364073	2475.206538
760.690970	2482.768269
761.017820	2523.097500
761.344623	2417.233269
761.671379	2533.179808
761.998088	2442.439038
762.324751	2515.535769
762.651366	2520.576923
762.977935	2472.685962
763.304456	2444.959615
763.630931	2495.371154
763.957359	2487.809423
764.283740	2540.741538
764.610074	2525.618077
764.936362	2472.685962
765.262602	2497.891731
765.588796	2447.480192
765.914943	2434.877308
766.241044	2482.768269
766.567097	2530.659231
766.893104	2553.344423
767.219064	2538.220962
767.544978	2507.974038
767.870845	2460.083077
768.196665	2490.330000
768.522438	2505.453462
768.848165	2568.467885
769.173846	2467.644808
769.499479	2485.288846
769.825066	2495.371154
770.150607	2518.056346
770.476101	2507.974038
770.801548	2563.426731
771.126949	2412.192115
771.452303	2472.685962
771.777611	2457.562500
772.102872	2523.097500
772.428087	2560.906154
772.753256	2444.959615
773.078378	2480.247692
773.403453	2533.179808
773.728482	2490.330000
774.053465	2470.165385
774.378401	2402.109808
774.703291	2460.083077
775.028135	2515.535769
775.352932	2480.247692
775.677683	2475.206538
776.002388	2510.494615
776.327046	2581.070769
776.651658	2457.562500
776.976224	2525.618077
777.300743	2437.397885
777.625216	2515.535769
777.949643	2520.576923
778.274024	2523.097500
778.598359	2563.426731
778.922647	2492.850577
779.246889	2507.974038
779.571086	2495.371154
779.895236	2515.535769
780.219339	2495.371154
780.543397	2515.535769
780.867409	2371.862885
781.191374	2507.974038
781.515294	2467.644808
781.839167	2548.303269
782.162995	2543.262115
782.486776	2455.041923
782.810511	2492.850577
783.134201	2482.768269
783.457844	2548.303269
783.781441	2565.947308
784.104993	2452.521346
784.428498	2540.741538
784.751958	2495.371154
785.075372	2513.015192
785.398739	2462.603654
785.722061	2520.576923
786.045337	2465.124231
786.368568	2492.850577
786.691752	2460.083077
787.014891	2550.823846
787.337983	2495.371154
787.661030	2518.056346
787.984031	2570.988462
788.306987	2576.029615
788.629897	2545.782692
788.952760	2502.932885
789.275579	2482.768269
789.598351	2525.618077
789.921078	2553.344423
790.243759	2548.303269
790.566395	2505.453462
790.888984	2450.000769
791.211529	2497.891731
791.534027	2480.247692
791.856480	2437.397885
792.178888	2457.562500
792.501249	2485.288846
792.823566	2563.426731
793.145836	2490.330000
793.468062	2518.056346
793.790241	2447.480192
794.112375	2482.768269
794.434464	2530.659231
794.756507	2460.083077
795.078505	2487.809423
795.400457	2538.220962
795.722364	2505.453462
796.044226	2565.947308
796.366042	2550.823846
796.687812	2518.056346
797.009538	2558.385577
797.331218	2482.768269
797.652852	2477.727115
797.974442	2505.453462
798.295986	2487.809423
798.617484	2533.179808
798.938938	2510.494615
799.260346	2528.138654
799.581709	2523.097500
799.903026	2452.521346
800.224299	2550.823846
800.545526	2465.124231
800.866708	2482.768269
801.187845	2545.782692
801.508936	2550.823846
801.829983	2540.741538
802.150984	2543.262115
802.471940	2399.589231
802.792851	2523.097500
803.113717	2444.959615
803.434538	2520.576923
803.755314	2565.947308
804.076045	2606.276538
804.396731	2444.959615
804.717372	2467.644808
805.037967	2535.700385
805.358518	2452.521346
805.679024	2462.603654
805.999485	2513.015192
806.319901	2477.727115
806.640272	2518.056346
806.960598	2545.782692
807.280879	2419.753846
807.601115	2439.918462
807.921306	2528.138654
808.241453	2492.850577
808.561554	2543.262115
808.881611	2555.865000
809.201623	2490.330000
809.521590	2538.220962
809.841513	2545.782692
810.161390	2500.412308
810.481223	2518.056346
810.801011	2490.330000
811.120755	2477.727115
811.440453	2412.192115
811.760107	2505.453462
812.079716	2548.303269
812.399281	2419.753846
812.718801	2472.685962
813.038276	2460.083077
813.357707	2573.509038
813.677093	2482.768269
813.996434	2550.823846
814.315731	2480.247692
814.634983	2470.165385
814.954191	2495.371154
815.273354	2444.959615
815.592473	2495.371154
815.911547	2525.618077
816.230577	2535.700385
816.549562	2543.262115
816.868502	2578.550192
817.187399	2528.138654
817.506250	2467.644808
817.825058	2492.850577
818.143821	2460.083077
818.462539	2492.850577
818.781213	2442.439038
819.099843	2507.974038
819.418429	2475.206538
819.736970	2490.330000
820.055466	2550.823846
820.373919	2545.782692
820.692327	2538.220962
821.010691	2497.891731
821.329011	2465.124231
821.647286	2515.535769
821.965517	2482.768269
822.283704	2553.344423
822.601847	2502.932885
822.919945	2497.891731
823.237999	2457.562500
823.556010	2540.741538
823.873976	2586.111923
824.191897	2465.124231
824.509775	2482.768269
824.827609	2513.015192
825.145398	2470.165385
825.463144	2492.850577
825.780845	2518.056346
826.098502	2500.412308
826.416116	2591.153077
826.733685	2455.041923
827.051210	2490.330000
827.368692	2487.809423
827.686129	2480.247692
828.003522	2490.330000
828.320872	2427.315577
828.638177	2525.618077
828.955439	2502.932885
829.272656	2450.000769
829.589830	2530.659231
829.906960	2472.685962
830.224046	2462.603654
830.541088	2434.877308
830.858086	2434.877308
831.175041	2505.453462
831.491952	2565.947308
831.808819	2409.671538
832.125642	2492.850577
832.442421	2457.562500
832.759157	2502.932885
833.075849	2598.714808
833.392497	2475.206538
833.709101	2444.959615
834.025662	2528.138654
834.342179	2490.330000
834.658653	2432.356731
834.975083	2457.562500
835.291469	2598.714808
835.607811	2462.603654
835.924110	2515.535769
836.240366	2540.741538
836.556578	2492.850577
836.872746	2497.891731
837.188871	2434.877308
837.504952	2422.274423
837.820990	2520.576923
838.136984	2439.918462
838.452935	2538.220962
838.768842	2563.426731
839.084706	2550.823846
839.400526	2455.041923
839.716303	2505.453462
840.032037	2412.192115
840.347727	2565.947308
840.663373	2439.918462
840.978977	2427.315577
841.294537	2482.768269
841.610054	2480.247692
841.925527	2467.644808
842.240957	2570.988462
842.556344	2588.632500
842.871687	2394.548077
843.186987	2500.412308
843.502244	2447.480192
843.817458	2465.124231
844.132629	2462.603654
844.447756	2437.397885
844.762840	2500.412308
845.077881	2472.685962
845.392879	2482.768269
845.707833	2535.700385
846.022745	2386.986346
846.337613	2555.865000
846.652438	2480.247692
846.967221	2485.288846
847.281960	2397.068654
847.596656	2543.262115
847.911309	2523.097500
848.225919	2510.494615
848.540485	2467.644808
848.855009	2437.397885
849.169490	2525.618077
849.483928	2460.083077
849.798323	2555.865000
850.112675	2467.644808
850.426984	2538.220962
850.741251	2447.480192
851.055474	2444.959615
851.369654	2588.632500
851.683792	2462.603654
851.997887	2507.974038
852.311938	2523.097500
852.625947	2311.369038
852.939914	2513.015192
853.253837	2450.000769
853.567718	2482.768269
853.881555	2455.041923
854.195350	2505.453462
854.509103	2455.041923
854.822812	2470.165385
855.136479	2470.165385
855.450103	2472.685962
855.763685	2412.192115
856.077224	2492.850577
856.390720	2560.906154
856.704173	2404.630385
857.017584	2515.535769
857.330953	2510.494615
857.644278	2455.041923
857.957561	2505.453462
858.270802	2467.644808
858.584000	2513.015192
858.897155	2525.618077
859.210268	2523.097500
859.523339	2407.150962
859.836367	2472.685962
860.149352	2465.124231
860.462295	2548.303269
860.775195	2490.330000
861.088054	2412.192115
861.400869	2540.741538
861.713642	2472.685962
862.026373	2543.262115
862.339062	2520.576923
862.651708	2565.947308
862.964312	2535.700385
863.276873	2525.618077
863.589392	2540.741538
863.901869	2480.247692
864.214303	2518.056346
864.526696	2558.385577
864.839045	2518.056346
865.151353	2470.165385
865.463619	2389.506923
865.775842	2518.056346
866.088023	2442.439038
866.400162	2462.603654
866.712258	2480.247692
867.024313	2570.988462
867.336325	2558.385577
867.648296	2424.795000
867.960224	2470.165385
868.272110	2550.823846
868.583954	2525.618077
868.895755	2507.974038
869.207515	2507.974038
869.519233	2480.247692
869.830909	2540.741538
870.142542	2513.015192
870.454134	2482.768269
870.765684	2452.521346
871.077191	2525.618077
871.388657	2460.083077
871.700081	2560.906154
872.011463	2510.494615
872.322803	2480.247692
872.634101	2487.809423
872.945357	2424.795000
873.256571	2485.288846
873.567744	2570.988462
873.878874	2565.947308
874.189963	2482.768269
874.501010	2553.344423
874.812015	2507.974038
875.122979	2470.165385
875.433900	2548.303269
875.744780	2490.330000
876.055618	2550.823846
876.366415	2432.356731
876.677169	2500.412308
876.987882	2533.179808
877.298554	2424.795000
877.609183	2555.865000
877.919771	2439.918462
878.230317	2535.700385
878.540822	2495.371154
878.851285	2543.262115
879.161707	2528.138654
879.472087	2550.823846
879.782425	2513.015192
880.092722	2472.685962
880.402977	2510.494615
880.713191	2447.480192
881.023363	2530.659231
881.333494	2485.288846
881.643583	2576.029615
881.953631	2495.371154
882.263637	2523.097500
882.573602	2500.412308
882.883526	2477.727115
883.193408	2593.673654
883.503248	2497.891731
883.813048	2535.700385
884.122806	2500.412308
884.432522	2523.097500
884.742197	2505.453462
885.051831	2507.974038
885.361424	2548.303269
885.670975	2455.041923
885.980485	2495.371154
886.289954	2533.179808
886.599382	2477.727115
886.908768	2523.097500
887.218113	2578.550192
887.527417	2492.850577
887.836680	2444.959615
888.145901	2502.932885
888.455082	2525.618077
888.764221	2533.179808
889.073319	2470.165385
889.382376	2452.521346
889.691392	2394.548077
890.000366	2528.138654
890.309300	2510.494615
890.618193	2495.371154
890.927044	2414.712692
891.235855	2482.768269
891.544625	2568.467885
891.853353	2510.494615
892.162041	2533.179808
892.470687	2437.397885
892.779293	2525.618077
893.087858	2533.179808
893.396381	2535.700385
893.704864	2480.247692
894.013306	2412.192115
894.321707	2482.768269
894.630068	2470.165385
894.938387	2482.768269
895.246665	2460.083077
895.554903	2470.165385
895.863100	2495.371154
896.171256	2470.165385
896.479371	2480.247692
896.787446	2510.494615
897.095480	2475.206538
897.403473	2447.480192
897.711425	2525.618077
898.019336	2475.206538
898.327207	2495.371154
898.635038	2523.097500
898.942827	2487.809423
899.250576	2477.727115
899.558284	2492.850577
899.865952	2467.644808
900.173579	2535.700385
900.481165	2492.850577
900.788711	2528.138654
901.096216	2439.918462
901.403681	2457.562500
901.711105	2548.303269
902.018489	2505.453462
902.325832	2376.904038
902.633135	2520.576923
902.940397	2548.303269
903.247619	2507.974038
903.554800	2432.356731
903.861941	2593.673654
904.169041	2439.918462
904.476101	2492.850577
904.783121	2447.480192
905.090100	2576.029615
905.397039	2500.412308
905.703938	2414.712692
906.010796	2535.700385
906.317614	2437.397885
906.624391	2397.068654
906.931129	2555.865000
907.237826	2558.385577
907.544483	2477.727115
907.851099	2452.521346
908.157675	2422.274423
908.464211	2487.809423
908.770707	2482.768269
909.077163	2407.150962
909.383578	2460.083077
909.689954	2475.206538
909.996289	2538.220962
910.302584	2505.453462
910.608839	2513.015192
910.915054	2450.000769
911.221229	2467.644808
911.527363	2472.685962
911.833458	2573.509038
912.139513	2565.947308
912.445527	2444.959615
912.751502	2467.644808
913.057436	2520.576923
913.363331	2475.206538
913.669186	2518.056346
913.975000	2487.809423
914.280775	2487.809423
914.586510	2550.823846
914.892205	2462.603654
915.197859	2417.233269
915.503475	2477.727115
915.809050	2523.097500
916.114585	2540.741538
916.420081	2530.659231
916.725536	2497.891731
917.030952	2482.768269
917.336328	2450.000769
917.641665	2470.165385
917.946961	2424.795000
918.252218	2447.480192
918.557435	2475.206538
918.862612	2455.041923
919.167750	2520.576923
919.472848	2442.439038
919.777906	2462.603654
920.082925	2518.056346
920.387904	2548.303269
920.692843	2510.494615
920.997743	2495.371154
921.302603	2510.494615
921.607423	2412.192115
921.912204	2477.727115
922.216946	2570.988462
922.521647	2437.397885
922.826310	2429.836154
923.130932	2470.165385
923.435516	2482.768269
923.740059	2545.782692
924.044564	2507.974038
924.349028	2490.330000
924.653454	2560.906154
924.957840	2520.576923
925.262186	2513.015192
925.566493	2568.467885
925.870761	2480.247692
926.174989	2409.671538
926.479178	2530.659231
926.783328	2490.330000
927.087438	2412.192115
927.391509	2525.618077
927.695541	2515.535769
927.999533	2470.165385
928.303486	2455.041923
928.607400	2455.041923
928.911275	2487.809423
929.215110	2533.179808
929.518906	2490.330000
929.822663	2558.385577
930.126381	2513.015192
930.430060	2533.179808
930.733699	2490.330000
931.037299	2535.700385
931.340861	2422.274423
931.644383	2490.330000
931.947866	2515.535769
932.251309	2510.494615
932.554714	2518.056346
932.858080	2495.371154
933.161407	2490.330000
933.464694	2457.562500
933.767943	2505.453462
934.071153	2432.356731
934.374323	2553.344423
934.677455	2404.630385
934.980548	2447.480192
935.283602	2467.644808
935.586617	2419.753846
935.889593	2510.494615
936.192530	2472.685962
936.495428	2497.891731
936.798287	2507.974038
937.101108	2586.111923
937.403890	2570.988462
937.706632	2490.330000
938.009336	2487.809423
938.312002	2497.891731
938.614628	2538.220962
938.917216	2545.782692
939.219765	2460.083077
939.522275	2528.138654
939.824747	2518.056346
940.127179	2397.068654
940.429573	2487.809423
940.731929	2515.535769
941.034246	2513.015192
941.336524	2497.891731
941.638763	2482.768269
941.940964	2472.685962
942.243126	2543.262115
942.545250	2490.330000
942.847335	2432.356731
943.149381	2450.000769
943.451389	2591.153077
943.753359	2460.083077
944.055290	2470.165385
944.357182	2419.753846
944.659036	2455.041923
944.960851	2510.494615
945.262628	2581.070769
945.564367	2475.206538
945.866067	2480.247692
946.167729	2447.480192
946.469352	2565.947308
946.770937	2460.083077
947.072484	2518.056346
947.373992	2485.288846
947.675462	2482.768269
947.976893	2457.562500
948.278286	2500.412308
948.579641	2447.480192
948.880958	2452.521346
949.182236	2515.535769
949.483476	2497.891731
949.784678	2535.700385
950.085841	2507.974038
950.386967	2555.865000
950.688054	2407.150962
950.989103	2467.644808
951.290114	2472.685962
951.591087	2477.727115
951.892021	2457.562500
952.192917	2538.220962
952.493776	2497.891731
952.794596	2480.247692
953.095378	2528.138654
953.396122	2487.809423
953.696828	2528.138654
953.997496	2507.974038
954.298126	2525.618077
954.598718	2447.480192
954.899272	2533.179808
955.199788	2543.262115
955.500266	2452.521346
955.800706	2533.179808
956.101108	2417.233269
956.401472	2520.576923
956.701798	2374.383462
957.002087	2515.535769
957.302337	2485.288846
957.602550	2518.056346
957.902724	2581.070769
958.202861	2457.562500
958.502960	2477.727115
958.803022	2412.192115
959.103045	2507.974038
959.403031	2520.576923
959.702979	2427.315577
960.002889	2467.644808
960.302762	2500.412308
960.602596	2598.714808
960.902393	2545.782692
961.202153	2477.727115
961.501875	2513.015192
961.801559	2520.576923
962.101205	2492.850577
962.400814	2507.974038
962.700385	2502.932885
962.999918	2555.865000
963.299414	2450.000769
963.598873	2475.206538
963.898293	2573.509038
964.197677	2495.371154
964.497022	2392.027500
964.796331	2485.288846
965.095601	2477.727115
965.394835	2515.535769
965.694030	2487.809423
965.993189	2520.576923
966.292309	2452.521346
966.591393	2427.315577
966.890439	2447.480192
967.189447	2497.891731
967.488419	2515.535769
967.787353	2450.000769
968.086249	2502.932885
968.385108	2543.262115
968.683930	2543.262115
968.982714	2432.356731
969.281462	2475.206538
969.580172	2540.741538
969.878844	2510.494615
970.177480	2581.070769
970.476078	2500.412308
970.774639	2482.768269
971.073162	2470.165385
971.371649	2439.918462
971.670098	2455.041923
971.968510	2470.165385
972.266885	2424.795000
972.565223	2500.412308
972.863524	2520.576923
973.161788	2477.727115
973.460014	2470.165385
973.758204	2472.685962
974.056356	2475.206538
974.354471	2540.741538
974.652550	2492.850577
974.950591	2510.494615
975.248595	2485.288846
975.546563	2497.891731
975.844493	2419.753846
976.142386	2444.959615
976.440243	2565.947308
976.738062	2452.521346
977.035845	2467.644808
977.333590	2515.535769
977.631299	2618.879423
977.928971	2487.809423
978.226606	2591.153077
978.524204	2487.809423
978.821765	2492.850577
979.119290	2593.673654
979.416777	2487.809423
979.714228	2414.712692
980.011642	2477.727115
980.309020	2465.124231
980.606360	2505.453462
980.903664	2558.385577
981.200931	2447.480192
981.498162	2533.179808
981.795356	2402.109808
982.092513	2452.521346
982.389633	2467.644808
982.686717	2447.480192
982.983764	2525.618077
983.280775	2444.959615
983.577749	2505.453462
983.874686	2417.233269
984.171587	2432.356731
984.468451	2578.550192
984.765279	2523.097500
985.062070	2467.644808
985.358824	2573.509038
985.655543	2565.947308
985.952224	2467.644808
986.248869	2510.494615
986.545478	2482.768269
986.842050	2495.371154
987.138586	2447.480192
987.435086	2528.138654
987.731549	2414.712692
988.027975	2540.741538
988.324366	2482.768269
988.620719	2553.344423
988.917037	2482.768269
989.213318	2502.932885
989.509563	2550.823846
989.805772	2444.959615
990.101944	2586.111923
990.398080	2455.041923
990.694180	2570.988462
990.990244	2455.041923
991.286271	2462.603654
991.582262	2472.685962
991.878217	2513.015192
992.174136	2520.576923
992.470019	2588.632500
992.765865	2495.371154
993.061676	2490.330000
993.357450	2465.124231
993.653188	2560.906154
993.948890	2442.439038
994.244556	2548.303269
994.540186	2470.165385
994.835780	2462.603654
995.131337	2560.906154
995.426859	2434.877308
995.722345	2487.809423
996.017795	2505.453462
996.313208	2500.412308
996.608586	2450.000769
996.903928	2442.439038
997.199234	2452.521346
997.494504	2457.562500
997.789738	2500.412308
998.084936	2465.124231
998.380099	2470.165385
998.675225	2475.206538
998.970316	2533.179808
999.265371	2470.165385
999.560390	2477.727115
999.855373	2565.947308
1000.150320	2502.932885
1000.445232	2424.795000
1000.740108	2505.453462
1001.034948	2407.150962
1001.329752	2518.056346
1001.624521	2419.753846
1001.919254	2563.426731
1002.213951	2533.179808
1002.508613	2452.521346
1002.803239	2452.521346
1003.097829	2510.494615
1003.392384	2470.165385
1003.686903	2525.618077
1003.981386	2490.330000
1004.275834	2545.782692
1004.570246	2510.494615
1004.864623	2409.671538
1005.158964	2492.850577
1005.453270	2490.330000
1005.747540	2538.220962
1006.041775	2465.124231
1006.335974	2581.070769
1006.630138	2394.548077
1006.924266	2545.782692
1007.218359	2487.809423
1007.512416	2452.521346
1007.806438	2424.795000
1008.100425	2482.768269
1008.394376	2533.179808
1008.688292	2533.179808
1008.982172	2485.288846
1009.276017	2538.220962
1009.569827	2495.371154
1009.863602	2485.288846
1010.157341	2480.247692
1010.451045	2518.056346
1010.744714	2462.603654
1011.038347	2472.685962
1011.331945	2507.974038
1011.625508	2480.247692
1011.919036	2467.644808
1012.212528	2490.330000
1012.505986	2470.165385
1012.799408	2487.809423
1013.092795	2525.618077
1013.386147	2487.809423
1013.679464	2490.330000
1013.972745	2530.659231
1014.265992	2497.891731
1014.559204	2563.426731
1014.852380	2497.891731
1015.145521	2480.247692
1015.438628	2450.000769
1015.731699	2533.179808
1016.024736	2389.506923
1016.317737	2487.809423
1016.610703	2500.412308
1016.903635	2495.371154
1017.196531	2520.576923
1017.489393	2434.877308
1017.782219	2497.891731
1018.075011	2444.959615
1018.367768	2402.109808
1018.660490	2500.412308
1018.953177	2500.412308
1019.245829	2500.412308
