Dividing Wavelength (nm)	Counts (n)	Blue Motor Position (mm): 0.000000	Red Motor Position (mm): 6.700000	
326.493990	2129.385905
326.888308	2129.385905
327.282561	2129.385905
327.676750	2093.855853
328.070874	2095.620257
328.464933	2095.448858
328.858929	2104.815321
329.252859	2112.240941
329.646726	2125.332818
330.040528	2137.532410
330.434265	2157.583599
330.827938	2171.323264
331.221547	2190.686336
331.615091	2207.642257
332.008571	2230.458519
332.401986	2247.699265
332.795338	2265.376071
333.188625	2287.728548
333.581847	2304.026598
333.975006	2324.057623
334.368100	2341.918431
334.761129	2360.762264
335.154095	2374.174254
335.546996	2392.864332
335.939833	2407.501322
336.332606	2421.296439
336.725315	2434.438727
337.117960	2442.096240
337.510540	2454.734413
337.903056	2465.547688
338.295508	2469.172277
338.687896	2480.030923
339.080220	2490.413179
339.472480	2495.300578
339.864676	2496.172697
340.256807	2500.911382
340.648875	2505.738287
341.040879	2508.531086
341.432818	2509.493946
341.824694	2511.212980
342.216506	2514.484689
342.608253	2514.096520
342.999937	2511.893536
343.391557	2511.812877
343.783113	2509.206601
344.174605	2510.721467
344.566033	2510.280366
344.957397	2505.289624
345.348697	2507.258195
345.739934	2504.024294
346.131106	2502.549757
346.522215	2500.356855
346.913260	2499.308295
347.304241	2497.407780
347.695159	2496.699498
348.086012	2493.208499
348.476802	2491.529795
348.867528	2490.781183
349.258191	2488.220277
349.648789	2486.516367
350.039324	2483.572333
350.429796	2484.532673
350.820203	2482.773310
351.210548	2484.578043
351.600828	2482.969915
351.991045	2483.035450
352.381198	2480.862713
352.771288	2480.340954
353.161314	2478.765593
353.551276	2478.069914
353.941175	2479.970429
354.331010	2476.839872
354.720782	2478.944554
355.110490	2479.793988
355.500135	2476.116467
355.889717	2482.279277
356.279235	2477.694348
356.668689	2479.098309
357.058080	2480.489668
357.447408	2477.217959
357.836672	2476.383648
358.225873	2480.325830
358.615010	2478.558906
359.004084	2482.735502
359.393095	2478.929431
359.782043	2483.476551
360.170927	2482.243989
360.559748	2482.077631
360.948505	2487.471666
361.337199	2484.242807
361.725830	2483.201808
362.114398	2485.460245
362.502903	2486.319762
362.891344	2485.445122
363.279722	2484.515029
363.668037	2486.281953
364.056289	2486.506285
364.444478	2488.235401
364.832603	2488.280771
365.220665	2488.810092
365.608665	2488.505102
365.996601	2493.271513
366.384474	2490.483755
366.772284	2490.675319
367.160031	2496.228150
367.547715	2497.296875
367.935336	2495.945845
368.322893	2502.350631
368.710388	2503.883142
369.097820	2513.310100
369.485189	2510.416478
369.872495	2520.246727
370.259738	2524.493900
370.646918	2533.265507
371.034035	2538.377237
371.421090	2545.757487
371.808081	2557.102603
372.195010	2562.945301
372.581875	2575.054152
372.968678	2587.357088
373.355418	2590.540577
373.742096	2605.752258
374.128710	2617.092334
374.515262	2624.429733
374.901751	2633.760909
375.288177	2638.789460
375.674540	2653.555000
376.060841	2662.896258
376.447079	2674.047290
376.833254	2681.533404
377.219367	2679.416119
377.605417	2700.105014
377.991404	2698.292720
378.377329	2700.001671
378.763191	2702.796991
379.148991	2716.140925
379.534727	2722.049157
379.920402	2727.612070
380.306013	2725.013356
380.691563	2736.865108
381.077049	2734.152967
381.462474	2732.721280
381.847835	2733.137175
382.233134	2731.239181
382.618371	2718.298539
383.003545	2729.918398
383.388657	2720.080587
383.773706	2715.135215
384.158693	2704.793287
384.543618	2698.224664
384.928480	2695.378933
385.313280	2692.495393
385.698017	2680.482323
386.082692	2675.602486
386.467305	2665.714263
386.851856	2658.102121
387.236344	2646.822539
387.620770	2641.783906
388.005133	2629.216309
388.389435	2621.261368
388.773674	2611.544544
389.157851	2602.929212
389.541965	2595.344796
389.926018	2585.849783
390.310008	2577.247054
390.693936	2572.107598
391.077802	2564.747513
391.461606	2556.684188
391.845348	2556.880793
392.229027	2547.559699
392.612645	2543.499050
392.996200	2539.806404
393.379694	2537.036290
393.763125	2535.027391
394.146494	2528.236956
394.529801	2527.281658
394.913047	2523.901564
395.296230	2523.634383
395.679351	2518.489885
396.062410	2517.925276
396.445408	2515.354288
396.828343	2516.859072
397.211217	2511.701972
397.594028	2513.622651
397.976778	2507.837927
398.359466	2512.309431
398.742092	2510.451766
399.124656	2513.103412
399.507158	2512.657270
399.889598	2514.093999
400.271977	2511.182733
400.654294	2513.673063
401.036549	2514.711541
401.418742	2511.270953
401.800874	2511.419667
402.182944	2512.175840
402.564952	2513.090810
402.946898	2512.672394
403.328783	2514.623320
403.710606	2513.519308
404.092367	2512.914369
404.474067	2514.036026
404.855705	2513.859586
405.237282	2515.417302
405.618797	2512.780779
406.000250	2512.684997
406.381642	2513.945285
406.762972	2511.923782
407.144240	2513.428567
407.525447	2517.539628
407.906593	2514.280522
408.287677	2516.057529
408.668700	2515.782786
409.049661	2516.208763
409.430560	2512.488392
409.811399	2513.410923
410.192176	2516.866634
410.572891	2516.740605
410.953545	2516.841428
411.334138	2515.669360
411.714669	2514.398989
412.095139	2514.366222
412.475547	2516.150790
412.855894	2514.691376
413.236180	2517.625327
413.616405	2517.358146
413.996568	2518.651202
414.376670	2517.108609
414.756711	2518.323527
415.136691	2516.382683
415.516609	2517.645492
415.896466	2518.051305
416.276262	2516.612056
416.655997	2517.327899
417.035670	2514.555265
417.415283	2516.707838
417.794834	2513.504184
418.174324	2518.507529
418.553753	2515.896212
418.933121	2519.813188
419.312428	2518.633558
419.691674	2519.525842
420.070859	2519.863600
420.449983	2517.174144
420.829045	2520.403003
421.208047	2518.232787
421.586988	2521.068436
421.965867	2519.712365
422.344686	2518.996521
422.723444	2520.085411
423.102141	2518.250431
423.480777	2521.529701
423.859352	2523.694877
424.237866	2520.551717
424.616319	2522.369053
424.994712	2518.142046
425.373044	2521.033147
425.751314	2520.067767
426.129524	2521.829650
426.507673	2521.615401
426.885762	2520.874351
427.263789	2522.847963
427.641756	2520.672705
428.019662	2521.812006
428.397508	2523.621780
428.775292	2521.970802
429.153016	2522.548014
429.530679	2522.984074
429.908282	2521.118847
430.285824	2521.983405
430.663305	2523.135309
431.040726	2522.784948
431.418086	2522.331245
431.795385	2522.379136
432.172624	2522.820237
432.549802	2521.844773
432.926920	2524.884589
433.303977	2522.086749
433.680974	2523.856194
434.057910	2524.904754
434.434786	2524.284692
434.811601	2523.715041
435.188355	2523.198323
435.565050	2523.082377
435.941683	2526.732172
436.318257	2522.926101
436.694770	2523.170597
437.071222	2521.189423
437.447614	2520.970133
437.823946	2522.404341
438.200218	2523.687315
438.576429	2522.648837
438.952580	2526.444826
439.328670	2526.356606
439.704700	2526.021369
440.080670	2526.747295
440.456580	2524.579599
440.832429	2525.333252
441.208218	2525.567665
441.583947	2526.477594
441.959616	2526.606143
442.335224	2524.897192
442.710773	2527.105217
443.086261	2527.563962
443.461689	2524.501461
443.837057	2524.088087
444.212365	2526.669157
444.587612	2524.534229
444.962800	2527.717718
445.337927	2526.684281
445.712995	2524.226718
446.088002	2525.975999
446.462949	2526.764939
446.837837	2526.424662
447.212664	2524.955165
447.587431	2525.529857
447.962139	2528.390712
448.336786	2530.790301
448.711374	2528.569672
449.085901	2527.954652
449.460369	2528.249559
449.834776	2525.565145
450.209124	2530.273583
450.583412	2531.082688
450.957640	2529.693850
451.331808	2527.488345
451.705917	2526.855680
452.079965	2529.981196
452.453954	2528.352903
452.827883	2528.776360
453.201752	2527.523633
453.575562	2528.657893
453.949311	2529.353572
454.323001	2528.317615
454.696632	2527.574045
455.070202	2530.528161
455.443713	2525.207223
455.817164	2525.607995
456.190556	2525.325690
456.563888	2527.042203
456.937160	2522.956348
457.310373	2527.274096
457.683526	2528.199148
458.056619	2530.024045
458.429653	2529.464477
458.802628	2531.652338
459.175542	2531.521268
459.548398	2528.126051
459.921194	2528.362985
460.293930	2530.462626
460.666607	2527.823582
461.039224	2528.819210
461.411782	2526.956503
461.784280	2531.044879
462.156719	2529.436751
462.529099	2531.367513
462.901419	2530.326515
463.273680	2532.035466
463.645882	2532.423635
464.018024	2530.271062
464.390106	2530.976823
464.762130	2532.267359
465.134094	2528.587317
465.505999	2533.247863
465.877845	2533.444468
466.249631	2534.803059
466.621358	2531.891793
466.993026	2536.965714
467.364634	2534.687113
467.736184	2534.412370
468.107674	2533.021011
468.479105	2532.988244
468.850477	2530.795342
469.221790	2532.557225
469.593043	2531.291896
469.964238	2532.342976
470.335373	2532.128727
470.706449	2530.901206
471.077467	2528.857018
471.448425	2536.948070
471.819324	2532.123686
472.190164	2535.841537
472.560945	2531.793490
472.931667	2532.302647
473.302330	2531.218799
473.672934	2531.614529
474.043479	2533.444468
474.413965	2531.853984
474.784393	2528.703263
475.154761	2532.703419
475.525070	2526.127233
475.895321	2530.770136
476.265513	2525.907943
476.635645	2531.465815
477.005719	2533.177287
477.375734	2532.469005
477.745691	2531.579241
478.115588	2535.745755
478.485427	2535.559232
478.855207	2532.617719
479.224928	2536.217103
479.594591	2533.850281
479.964194	2534.845909
480.333739	2532.935312
480.703226	2534.815662
481.072653	2534.034283
481.442022	2532.186700
481.811333	2533.958666
482.180584	2535.072761
482.549777	2537.908410
482.918912	2535.062679
483.287988	2533.784746
483.657005	2533.320960
484.025964	2534.848430
484.394864	2534.162833
484.763706	2537.530323
485.132489	2531.922040
485.501213	2535.344983
485.869879	2535.375230
486.238487	2534.230888
486.607036	2535.584438
486.975527	2537.333718
487.343959	2535.163502
487.712333	2536.895138
488.080648	2534.581248
488.448905	2533.527647
488.817104	2535.576876
489.185244	2535.236598
489.553326	2536.469161
489.921350	2537.873122
490.289315	2535.776002
490.657222	2536.451517
491.025070	2537.253060
491.392861	2537.895807
491.760593	2536.915303
492.128267	2536.776671
492.495883	2536.920344
492.863440	2538.251208
493.230939	2535.884387
493.598380	2535.516382
493.965763	2531.609488
494.333088	2534.051927
494.700354	2531.992616
495.067563	2534.588810
495.434713	2532.741227
495.801805	2535.448327
496.168839	2536.769109
496.535815	2537.971424
496.902733	2535.208872
497.269593	2535.856660
497.636395	2536.181815
498.003139	2537.558050
498.369825	2537.268183
498.736453	2536.096115
499.103023	2536.895138
499.469535	2537.759696
499.835989	2533.961187
500.202385	2536.751465
500.568723	2538.102494
500.935003	2537.616023
501.301226	2537.101825
501.667390	2535.758358
502.033497	2536.186856
502.399546	2535.647453
502.765537	2536.718698
503.131470	2536.396064
503.497345	2536.658204
503.863163	2537.739531
504.228923	2536.968235
504.594625	2537.447144
504.960269	2535.889428
505.325856	2538.352032
505.691385	2538.417567
506.056856	2538.271373
506.422270	2537.686599
506.787625	2539.808925
507.152924	2535.808769
507.518164	2538.616692
507.883347	2538.021836
508.248472	2537.265663
508.613540	2538.397402
508.978550	2536.537216
509.343503	2537.855478
509.708398	2538.069727
510.073236	2535.566794
510.438016	2537.089223
510.802738	2537.850437
511.167403	2540.209697
511.532010	2538.838503
511.896561	2538.072247
512.261053	2539.952598
512.625488	2534.861033
512.989866	2533.230219
513.354186	2537.079140
513.718449	2532.849612
514.082655	2534.699716
514.446803	2538.810777
514.810894	2536.466640
515.174927	2539.508976
515.538904	2539.932433
515.902822	2538.999820
516.266684	2538.175591
516.630488	2539.413194
516.994235	2540.224820
517.357925	2538.009233
517.721558	2539.032587
518.085133	2537.583256
518.448651	2537.671476
518.812112	2538.077289
519.175516	2539.884542
519.538863	2537.369007
519.902152	2535.362627
520.265385	2536.824562
520.628560	2539.430838
520.991678	2539.120808
521.354739	2539.415715
521.717743	2537.157278
522.080690	2540.431508
522.443580	2537.437062
522.806413	2538.909079
523.169189	2538.437731
523.531908	2536.207021
523.894569	2537.845396
524.257174	2538.939326
524.619722	2538.578883
524.982213	2538.568801
525.344647	2539.123328
525.707025	2538.893956
526.069345	2537.973945
526.431608	2540.060983
526.793815	2538.006713
527.155964	2539.982845
527.518057	2539.501415
527.880093	2538.712474
528.242072	2538.689789
528.603995	2540.413863
528.965860	2539.060314
529.327669	2537.701723
529.689421	2540.081147
530.051117	2539.753472
530.412755	2539.105684
530.774337	2541.555685
531.135862	2539.690458
531.497331	2539.395550
531.858743	2535.402957
532.220098	2536.302802
532.581396	2532.204344
532.942638	2539.947557
533.303824	2542.029553
533.664953	2540.890252
534.026025	2539.360262
534.387040	2540.060983
534.747999	2540.469316
535.108902	2537.910931
535.469748	2539.017464
535.830537	2542.420243
536.191270	2541.701878
536.551947	2542.062321
536.912567	2537.308513
537.273131	2540.529810
537.633638	2539.456044
537.994089	2538.132741
538.354483	2541.212886
538.714821	2539.025026
539.075103	2539.403112
539.435328	2538.304141
539.795497	2540.945705
540.155609	2540.474357
540.515665	2537.986548
540.875665	2542.180788
541.235609	2537.711805
541.595496	2541.119625
541.955328	2538.127700
542.315102	2539.014943
542.674821	2539.307330
543.034483	2540.295396
543.394090	2537.747093
543.753640	2541.774975
544.113134	2540.998637
544.472571	2538.442772
544.831953	2541.245654
545.191278	2538.621733
545.550548	2537.101825
545.909761	2537.880684
546.268918	2542.271529
546.628019	2538.692309
546.987064	2540.832279
547.346053	2540.726415
547.704986	2538.745242
548.063863	2539.831610
548.422684	2539.763555
548.781449	2540.509645
549.140158	2538.004192
549.498811	2542.896632
549.857408	2539.793802
550.215949	2538.379758
550.574434	2533.893131
550.932864	2534.450178
551.291237	2535.229037
551.649555	2540.426466
552.007817	2539.478729
552.366022	2540.681045
552.724173	2538.906558
553.082267	2539.624923
553.440305	2538.412525
553.798288	2541.374203
554.156215	2539.556867
554.514086	2541.147351
554.871902	2538.364634
555.229661	2544.575336
555.587365	2539.876981
555.945014	2540.718853
556.302606	2538.785571
556.660143	2538.236085
557.017625	2542.463093
557.375050	2541.222969
557.732421	2540.837320
558.089735	2539.761034
558.446994	2538.704912
558.804197	2539.677855
559.161345	2541.296065
559.518437	2540.141641
559.875474	2542.906714
560.232455	2539.110725
560.589381	2540.476878
560.946251	2541.225489
561.303065	2541.648946
561.659825	2539.992927
562.016528	2541.500232
562.373177	2539.680376
562.729770	2541.255736
563.086307	2539.917310
563.442789	2541.830428
563.799216	2539.284645
564.155587	2541.122146
564.511904	2541.555685
564.868164	2540.292876
565.224370	2540.199614
565.580520	2541.205325
565.936615	2541.487629
566.292654	2540.406302
566.648638	2539.561908
567.004567	2539.887063
567.360441	2539.869419
567.716260	2538.788091
568.072023	2542.085006
568.427732	2535.592000
568.783385	2537.689120
569.138982	2535.571835
569.494525	2536.355735
569.850013	2537.114428
570.205445	2538.324305
570.560823	2538.505787
570.916145	2540.862526
571.271412	2540.895294
571.626625	2541.220448
571.981782	2541.573329
572.336884	2540.129038
572.691931	2540.791950
573.046923	2541.210366
573.401860	2542.815973
573.756743	2537.832793
574.111570	2540.010571
574.466342	2538.946888
574.821059	2539.927392
575.175722	2538.294058
575.530330	2539.382947
575.884882	2543.433515
576.239380	2538.657021
576.593823	2543.156251
576.948211	2540.640715
577.302544	2541.187681
577.656823	2538.256250
578.011047	2543.055428
578.365216	2539.453524
578.719330	2540.542413
579.073389	2541.018802
579.427394	2538.485622
579.781344	2541.477547
580.135239	2543.050387
580.489080	2541.926210
580.842866	2541.517876
581.196597	2542.279090
581.550273	2541.916127
581.903895	2540.131559
582.257463	2541.767413
582.610975	2541.646426
582.964434	2539.272042
583.317837	2540.063503
583.671186	2543.062990
584.024481	2540.590304
584.377721	2543.577188
584.730906	2540.358411
585.084037	2542.077444
585.437113	2540.449152
585.790135	2541.205325
586.143103	2540.439069
586.496016	2542.563916
586.848874	2536.769109
587.201679	2540.217258
587.554428	2534.004036
587.907124	2541.588452
588.259765	2536.509490
588.612352	2541.850592
588.964884	2539.672814
589.317362	2542.591642
589.669786	2540.842362
590.022155	2542.513504
590.374470	2540.063503
590.726731	2540.250026
591.078937	2542.606765
591.431090	2539.692978
591.783188	2538.520910
592.135232	2542.455531
592.487222	2541.162475
592.839157	2541.603576
593.191038	2540.799512
593.542866	2543.332692
593.894639	2539.037628
594.246358	2539.882022
594.598022	2542.914276
594.949633	2540.111394
595.301190	2538.679707
595.652692	2541.517876
596.004141	2541.056611
596.355535	2538.067206
596.706876	2540.555016
597.058162	2536.998482
597.409395	2540.313040
597.760573	2542.367311
598.111698	2539.539223
598.462768	2539.357742
598.813785	2539.322454
599.164748	2539.514018
599.515657	2539.249357
599.866511	2540.897814
600.217312	2540.708771
600.568060	2537.739531
600.918753	2541.439738
601.269392	2540.154244
601.619978	2540.030736
601.970510	2540.454193
602.320988	2539.592155
602.671412	2540.993596
603.021783	2539.498894
603.372100	2540.600386
603.722363	2539.892104
604.072572	2540.250026
604.422728	2539.330015
604.772830	2537.061496
605.122878	2535.002185
605.472872	2535.586959
605.822813	2535.402957
606.172701	2538.410005
606.522534	2541.391847
606.872314	2540.242464
607.222041	2540.118956
607.571714	2543.980480
607.921333	2541.064172
608.270899	2541.530479
608.620411	2541.263298
608.969870	2539.708102
609.319276	2541.490150
609.668627	2543.824204
610.017926	2546.289328
610.367171	2546.785882
610.716362	2546.082641
611.065500	2546.085162
611.414585	2543.839327
611.763616	2544.371169
612.112594	2541.331353
612.461518	2541.807742
612.810389	2543.494008
613.159207	2542.402599
613.507971	2539.909748
613.856682	2541.472506
614.205340	2538.909079
614.553945	2539.335057
614.902496	2538.644418
615.250994	2540.512166
615.599439	2540.267670
615.947830	2541.961498
616.296169	2540.091230
616.644454	2542.142979
616.992686	2538.130221
617.340864	2541.749769
617.688990	2541.046528
618.037063	2540.481919
618.385082	2541.401930
618.733048	2540.381096
619.080961	2541.222969
619.428821	2537.810108
619.776628	2540.262629
620.124382	2539.577032
620.472083	2540.872608
620.819731	2541.601055
621.167326	2537.825231
621.514868	2542.001827
621.862357	2540.111394
622.209793	2539.420756
622.557176	2542.984852
622.904506	2537.868081
623.251783	2534.919006
623.599007	2537.984027
623.946179	2537.840354
624.293297	2536.819521
624.640363	2540.096271
624.987376	2538.594007
625.334336	2538.969573
625.681243	2542.674821
626.028097	2540.665921
626.374899	2539.481250
626.721647	2539.607279
627.068343	2540.945705
627.414987	2538.047042
627.761577	2539.251877
628.108115	2539.100643
628.454600	2540.658359
628.801032	2539.070396
629.147412	2539.057793
629.493739	2536.852288
629.840014	2540.834800
630.186236	2540.509645
630.532405	2540.030736
630.878521	2537.384130
631.224585	2540.761703
631.570597	2539.493853
631.916556	2538.553678
632.262462	2541.084337
632.608316	2538.818338
632.954117	2540.214738
633.299866	2539.231713
633.645562	2537.353883
633.991206	2541.374203
634.336797	2537.507638
634.682336	2538.026877
635.027823	2538.989738
635.373257	2535.723070
635.718639	2538.135262
636.063968	2538.851106
636.409245	2538.457896
636.754470	2539.846734
637.099642	2538.528472
637.444762	2537.197607
637.789829	2539.889583
638.134845	2538.127700
638.479808	2539.382947
638.824719	2537.807587
639.169577	2539.009902
639.514383	2540.832279
639.859137	2538.185673
640.203839	2540.176929
640.548489	2537.351362
640.893086	2539.156096
641.237632	2534.659386
641.582125	2537.631147
641.926566	2532.322812
642.270955	2539.135931
642.615292	2537.807587
642.959576	2536.915303
643.303809	2540.552495
643.647990	2538.616692
643.992118	2538.188194
644.336195	2537.190046
644.680219	2537.989068
645.024192	2538.019315
645.368112	2539.887063
645.711981	2538.102494
646.055797	2539.458565
646.399562	2538.084850
646.743274	2535.039993
647.086935	2537.169881
647.430544	2537.953780
647.774101	2538.042001
648.117606	2537.532844
648.461059	2539.025026
648.804460	2540.678524
649.147810	2540.401261
649.491108	2536.499408
649.834354	2540.176929
650.177548	2536.491846
650.520690	2537.182484
650.863781	2537.197607
651.206820	2539.665252
651.549807	2535.304654
651.892742	2539.088040
652.235626	2535.133255
652.578458	2538.420087
652.921238	2537.489994
653.263967	2539.902186
653.606644	2539.110725
653.949269	2536.877494
654.291843	2537.905889
654.634365	2534.293903
654.976836	2538.105015
655.319255	2540.542413
655.661622	2538.054603
656.003938	2537.255581
656.346203	2539.753472
656.688416	2537.253060
657.030577	2537.384130
657.372687	2541.313709
657.714746	2537.472350
658.056753	2536.590148
658.398708	2536.118800
658.740612	2537.910931
659.082465	2536.287679
659.424266	2536.708615
659.766016	2534.087215
660.107715	2538.089892
660.449362	2535.433203
660.790958	2537.923533
661.132503	2538.745242
661.473996	2534.472864
661.815438	2539.380427
662.156829	2537.195087
662.498168	2536.872453
662.839456	2537.293389
663.180693	2535.902031
663.521879	2536.892618
663.863013	2535.208872
664.204097	2538.997299
664.545129	2537.568132
664.886110	2537.457227
665.227040	2539.745911
665.567918	2537.200128
665.908746	2535.738193
666.249522	2537.273225
666.590248	2538.483102
666.930922	2535.534027
667.271545	2536.907741
667.612118	2539.025026
667.952639	2539.546785
668.293109	2536.794315
668.633528	2537.535365
668.973896	2536.448996
669.314213	2537.500077
669.654480	2538.384799
669.994695	2534.924047
670.334859	2538.165509
670.674973	2535.748276
671.015035	2539.319933
671.355047	2538.767927
671.695008	2536.849768
672.034918	2537.600900
672.374777	2537.137113
672.714585	2537.895807
673.054342	2538.659542
673.394049	2538.145344
673.733705	2537.164840
674.073310	2537.326157
674.412864	2538.989738
674.752368	2539.050231
675.091820	2537.129552
675.431223	2536.668286
675.770574	2537.593338
676.109875	2531.775846
676.449125	2533.595703
676.788324	2533.956145
677.127473	2535.304654
677.466571	2531.075126
677.805619	2536.627957
678.144616	2532.595034
678.483562	2536.617875
678.822458	2534.417411
679.161303	2536.983358
679.500098	2538.246167
679.838842	2535.884387
680.177535	2536.585107
680.516179	2539.627443
680.854771	2535.907072
681.193314	2536.330529
681.531805	2532.693336
681.870247	2537.038811
682.208638	2533.593182
682.546978	2538.231044
682.885268	2537.663914
683.223508	2537.515200
683.561697	2534.737524
683.899836	2538.702392
684.237925	2537.704243
684.575963	2535.811290
684.913951	2535.967566
685.251889	2538.714995
685.589776	2535.047555
685.927614	2537.547967
686.265401	2538.662063
686.603137	2536.605272
686.940824	2536.612833
687.278460	2537.036290
687.616046	2532.589993
687.953582	2539.521579
688.291068	2535.692823
688.628504	2536.922864
688.965889	2537.830272
689.303224	2537.805066
689.640510	2537.989068
689.977745	2537.094264
690.314930	2536.138965
690.652065	2538.160468
690.989150	2537.827752
691.326185	2537.414377
691.663170	2534.402287
692.000105	2536.673327
692.336990	2536.348173
692.673825	2537.295910
693.010610	2538.430169
693.347345	2532.315250
693.684030	2531.004550
694.020665	2532.952956
694.357251	2527.742923
694.693786	2535.929757
695.030272	2534.235929
695.366707	2538.684748
695.703093	2534.840868
696.039429	2534.760209
696.375716	2536.196938
696.711952	2535.458409
697.048139	2537.079140
697.384276	2535.992772
697.720363	2535.254243
698.056400	2537.313554
698.392388	2535.874304
698.728326	2534.808100
699.064214	2536.736342
699.400053	2536.512010
699.735842	2536.302803
700.071581	2537.888245
700.407270	2535.178625
700.742910	2534.298944
701.078501	2536.401105
701.414042	2534.296423
701.749533	2534.682072
702.084974	2539.410674
702.420366	2536.993441
702.755709	2536.549819
703.091002	2537.278266
703.426246	2535.236598
703.761440	2536.080992
704.096584	2537.699202
704.431679	2538.452855
704.766725	2536.615354
705.101721	2532.809283
705.436668	2538.536034
705.771565	2534.780374
706.106413	2537.810107
706.441212	2535.027391
706.775961	2538.404964
707.110661	2534.392205
707.445311	2535.773481
707.779913	2535.208872
708.114465	2535.430683
708.448967	2536.355735
708.783421	2536.759027
709.117825	2534.263656
709.452180	2538.709953
709.786485	2533.305837
710.120742	2539.166178
710.454949	2535.125693
710.789107	2534.125024
711.123216	2532.584952
711.457275	2533.333563
711.791286	2529.822399
712.125247	2533.280631
712.459159	2534.576207
712.793023	2535.828934
713.126837	2534.480425
713.460602	2534.082174
713.794318	2535.871784
714.127985	2537.071578
714.461602	2532.282482
714.795171	2535.760878
715.128691	2536.481763
715.462162	2534.934129
715.795584	2534.714839
716.128957	2535.657535
716.462281	2534.593851
716.795556	2537.716846
717.128782	2534.319108
717.461960	2537.270704
717.795088	2534.188038
718.128167	2535.486136
718.461198	2534.810621
718.794180	2539.292207
719.127113	2536.943029
719.459997	2536.043183
719.792833	2534.170394
720.125619	2536.166691
720.458357	2535.140817
720.791046	2534.747607
721.123686	2534.306506
721.456278	2536.547298
721.788821	2533.331042
722.121315	2534.722401
722.453761	2534.762730
722.786158	2534.974458
723.118506	2534.089736
723.450805	2531.796011
723.783056	2536.403626
724.115259	2536.292720
724.447412	2536.348173
724.779518	2537.898328
725.111574	2534.964376
725.443582	2534.230888
725.775542	2533.230219
726.107453	2532.693336
726.439315	2534.127545
726.771129	2538.626774
727.102895	2534.939170
727.434612	2536.149047
727.766281	2535.483615
728.097901	2530.379447
728.429473	2533.991433
728.760996	2533.315919
729.092471	2530.704601
729.423897	2535.047555
729.755276	2534.893800
730.086606	2533.603265
730.417887	2535.884387
730.749120	2534.387164
731.080305	2535.612164
731.411442	2535.171063
731.742530	2530.145033
732.073570	2535.798687
732.404562	2533.373892
732.735506	2535.372710
733.066401	2533.517565
733.397249	2534.901362
733.728048	2536.383461
734.058798	2537.149716
734.389501	2535.158461
734.720156	2535.367668
735.050762	2537.028729
735.381320	2537.079140
735.711831	2533.159643
736.042293	2534.258615
736.372707	2534.119983
736.703073	2535.460930
737.033391	2537.893287
737.363661	2536.743903
737.693883	2534.394726
738.024056	2536.630478
738.354182	2536.307844
738.684260	2534.246012
739.014290	2535.697864
739.344272	2537.263142
739.674207	2533.116793
740.004093	2533.890610
740.333931	2535.556712
740.663722	2534.979500
740.993464	2533.993954
741.323159	2533.121834
741.652806	2534.324150
741.982405	2536.877494
742.311956	2532.821886
742.641460	2535.498738
742.970915	2533.865405
743.300323	2534.024201
743.629683	2534.112421
743.958996	2535.037473
744.288260	2532.912627
744.617477	2535.592000
744.946647	2531.387677
745.275768	2531.543953
745.604842	2531.231402
745.933869	2530.999509
746.262847	2531.339787
746.591778	2533.479756
746.920662	2532.282482
747.249498	2531.649817
747.578286	2537.336239
747.907027	2534.906403
748.235720	2532.789118
748.564365	2535.700385
748.892963	2535.125693
749.221514	2535.115611
749.550017	2535.657535
749.878473	2535.972607
750.206881	2533.777184
750.535242	2535.828934
750.863555	2534.656866
751.191821	2534.684592
751.520039	2536.625436
751.848210	2534.230888
752.176334	2532.963038
752.504411	2533.172246
752.832440	2534.828265
753.160421	2533.280631
753.488356	2534.034283
753.816243	2534.490508
754.144082	2533.943543
754.471875	2535.057637
754.799620	2535.881866
755.127318	2532.103521
755.454969	2532.579910
755.782572	2531.639735
756.110129	2534.382123
756.437638	2534.235929
756.765100	2533.630991
757.092515	2534.561084
757.419882	2532.411032
757.747203	2533.623429
758.074477	2532.055630
758.401703	2532.877338
758.728882	2533.114273
759.056014	2533.938501
759.383099	2533.469674
759.710138	2533.240302
760.037129	2533.510003
760.364073	2533.472195
760.690970	2532.559746
761.017820	2536.280117
761.344623	2532.138809
761.671379	2534.540919
761.998088	2532.418593
762.324751	2532.549663
762.651366	2530.545805
762.977935	2532.259797
763.304456	2531.561597
763.630931	2535.541588
763.957359	2536.955632
764.283740	2533.857843
764.610074	2535.100487
764.936362	2534.165353
765.262602	2532.756351
765.588796	2533.802390
765.914943	2533.215096
766.241044	2535.405477
766.567097	2534.170394
766.893104	2533.552853
767.219064	2531.491021
767.544978	2533.167205
767.870845	2530.361803
768.196665	2537.885725
768.522438	2533.328522
768.848165	2532.716022
769.173846	2533.754499
769.499479	2532.985723
769.825066	2534.004036
770.150607	2533.298275
770.476101	2532.524458
770.801548	2534.989582
771.126949	2531.780888
771.452303	2532.768954
771.777611	2533.293234
772.102872	2531.755682
772.428087	2534.679551
772.753256	2534.669469
773.078378	2533.630991
773.403453	2533.515044
773.728482	2531.213758
774.053465	2533.734335
774.378401	2532.582431
774.703291	2531.410363
775.028135	2530.235774
775.352932	2533.399098
775.677683	2533.573018
776.002388	2535.367668
776.327046	2532.627801
776.651658	2535.145858
776.976224	2533.751979
777.300743	2533.998995
777.625216	2531.337266
777.949643	2534.634181
778.274024	2533.396577
778.598359	2532.360620
778.922647	2527.662265
779.246889	2529.691329
779.571086	2528.431041
779.895236	2531.884231
780.219339	2533.557894
780.543397	2535.372710
780.867409	2532.138809
781.191374	2533.625950
781.515294	2532.211906
781.839167	2530.281144
782.162995	2534.581248
782.486776	2531.491021
782.810511	2532.756351
783.134201	2530.099663
783.457844	2530.351720
783.781441	2537.323636
784.104993	2533.449509
784.428498	2533.643594
784.751958	2529.940866
785.075372	2532.221988
785.398739	2534.603934
785.722061	2531.359951
786.045337	2533.996475
786.368568	2534.535878
786.691752	2531.962369
787.014891	2532.360620
787.337983	2529.736700
787.661030	2533.114273
787.984031	2529.991278
788.306987	2533.646114
788.629897	2533.840199
788.952760	2532.607637
789.275579	2530.147554
789.598351	2534.157792
789.921078	2528.748633
790.243759	2531.148223
790.566395	2531.627132
790.888984	2532.665610
791.211529	2531.523789
791.534027	2530.815507
791.856480	2531.599406
792.178888	2531.337266
792.501249	2530.858356
792.823566	2534.311547
793.145836	2533.779705
793.468062	2533.827596
793.790241	2533.096629
794.112375	2534.175436
794.434464	2534.707277
794.756507	2532.194262
795.078505	2533.109232
795.400457	2526.563293
795.722364	2528.758716
796.044226	2530.351720
796.366042	2528.279806
796.687812	2528.446164
797.009538	2533.147040
797.331218	2531.493542
797.652852	2532.469005
797.974442	2530.644107
798.295986	2530.082019
798.617484	2532.605116
798.938938	2529.935825
799.260346	2532.806762
799.581709	2533.252904
799.903026	2529.983716
800.224299	2529.930784
800.545526	2531.833820
800.866708	2530.760054
801.187845	2530.576052
801.508936	2531.347348
801.829983	2532.685775
802.150984	2532.703419
802.471940	2532.940353
802.792851	2530.041689
803.113717	2533.588141
803.434538	2529.845084
803.755314	2532.272400
804.076045	2535.148378
804.396731	2533.126876
804.717372	2531.959848
805.037967	2531.705270
805.358518	2533.250384
805.679024	2531.612009
805.999485	2529.134282
806.319901	2531.826258
806.640272	2529.204858
806.960598	2530.475229
807.280879	2531.085208
807.601115	2533.540250
807.921306	2531.314581
808.241453	2530.271062
808.561554	2533.187369
808.881611	2533.376413
809.201623	2533.089067
809.521590	2535.155940
809.841513	2532.088398
810.161390	2529.335928
810.481223	2529.610671
810.801011	2530.802904
811.120755	2532.073274
811.440453	2532.801721
811.760107	2532.065713
812.079716	2530.795342
812.399281	2530.893644
812.718801	2528.365506
813.038276	2527.059847
813.357707	2529.945907
813.677093	2532.894983
813.996434	2530.255938
814.315731	2532.892462
814.634983	2533.678882
814.954191	2527.692512
815.273354	2531.710311
815.592473	2530.876000
815.911547	2533.078985
816.230577	2529.867770
816.549562	2532.894982
816.868502	2532.133768
817.187399	2532.970600
817.506250	2530.936494
817.825058	2532.867256
818.143821	2533.194931
818.462539	2533.966228
818.781213	2532.617719
819.099843	2531.226361
819.418429	2532.864736
819.736970	2531.884231
820.055466	2535.655014
820.373919	2535.221475
820.692327	2533.172246
821.010691	2532.645445
821.329011	2532.128727
821.647286	2535.758358
821.965517	2535.929757
822.283704	2539.463606
822.601847	2538.639377
822.919945	2537.245498
823.237999	2536.569984
823.556010	2536.322967
823.873976	2533.051258
824.191897	2532.290044
824.509775	2533.116793
824.827609	2533.953625
825.145398	2531.584283
825.463144	2533.068902
825.780845	2529.240146
826.098502	2532.542102
826.416116	2534.568646
826.733685	2531.095291
827.051210	2534.614016
827.368692	2535.314736
827.686129	2532.330373
828.003522	2532.584952
828.320872	2529.164529
828.638177	2530.598737
828.955439	2527.873993
829.272656	2528.047913
829.589830	2527.637059
829.906960	2531.657379
830.224046	2532.988244
830.541088	2532.310209
830.858086	2533.396577
831.175041	2531.969931
831.491952	2529.519930
831.808819	2531.798532
832.125642	2529.378778
832.442421	2534.482946
832.759157	2531.470857
833.075849	2533.295754
833.392497	2532.214427
833.709101	2530.800383
834.025662	2530.109745
834.342179	2531.743079
834.658653	2531.349869
834.975083	2532.572349
835.291469	2535.997813
835.607811	2531.579241
835.924110	2528.393232
836.240366	2530.076977
836.556578	2529.789632
836.872746	2533.469674
837.188871	2531.808614
837.504952	2532.106042
837.820990	2526.505320
838.136984	2530.523120
838.452935	2527.052285
838.768842	2533.351207
839.084706	2532.489170
839.400526	2530.742410
839.716303	2531.168387
840.032037	2533.598223
840.347727	2528.063037
840.663373	2529.540095
840.978977	2531.254087
841.294537	2532.325332
841.610054	2531.279293
841.925527	2530.838192
842.240957	2529.711494
842.556344	2530.626463
842.871687	2532.494211
843.186987	2532.123686
843.502244	2531.188552
843.817458	2531.576721
844.132629	2529.744261
844.447756	2530.550846
844.762840	2523.972140
845.077881	2529.232584
845.392879	2525.907943
845.707833	2525.754188
846.022745	2525.754188
846.337613	2529.822399
846.652438	2529.807276
846.967221	2531.405322
847.281960	2531.256608
847.596656	2532.968079
847.911309	2530.049251
848.225919	2529.971113
848.540485	2530.800383
848.855009	2532.849612
849.169490	2532.264838
849.483928	2533.152081
849.798323	2529.411545
850.112675	2528.534384
850.426984	2530.823068
850.741251	2525.910464
851.055474	2528.904909
851.369654	2528.872142
851.683792	2528.680578
851.997887	2530.510517
852.311938	2531.072605
852.625947	2529.502286
852.939914	2530.634025
853.253837	2529.608150
853.567718	2531.430527
853.881555	2531.370033
854.195350	2529.063706
854.509103	2529.676206
854.822812	2531.042358
855.136479	2530.316432
855.450103	2528.501617
855.763685	2529.507327
856.077224	2528.098325
856.390720	2530.238294
856.704173	2530.109745
857.017584	2529.736700
857.330953	2528.052954
857.644278	2528.882224
857.957561	2532.058151
858.270802	2530.407173
858.584000	2529.678726
858.897155	2529.204858
859.210268	2527.561442
859.523339	2529.444313
859.836367	2530.782739
860.149352	2531.251566
860.462295	2529.240146
860.775195	2525.426513
861.088054	2527.281658
861.400869	2525.739065
861.713642	2525.895340
862.026373	2527.667306
862.339062	2527.836185
862.651708	2528.826771
862.964312	2528.667975
863.276873	2530.243336
863.589392	2530.969262
863.901869	2525.870135
864.214303	2530.903727
864.526696	2529.840043
864.839045	2527.299302
865.151353	2531.062523
865.463619	2528.325177
865.775842	2530.649148
866.088023	2528.559590
866.400162	2530.858356
866.712258	2531.007070
867.024313	2531.117976
867.336325	2529.648479
867.648296	2530.011442
867.960224	2528.458767
868.272110	2529.527492
868.583954	2526.908612
868.895755	2531.478418
869.207515	2528.703263
869.519233	2530.011443
869.830909	2528.065557
870.142542	2528.988088
870.454134	2527.563962
870.765684	2532.307688
871.077191	2528.436082
871.388657	2532.957997
871.700081	2528.741072
872.011463	2528.972965
872.322803	2525.923067
872.634101	2528.952800
872.945357	2528.756195
873.256571	2532.748789
873.567744	2530.039169
873.878874	2530.722245
874.189963	2528.738551
874.501010	2531.241484
874.812015	2529.905578
875.122979	2530.760054
875.433900	2527.914323
875.744780	2530.815507
876.055618	2530.288706
876.366415	2528.892306
876.677169	2528.315094
876.987882	2528.206709
877.298554	2525.847449
877.609183	2527.248890
877.919771	2524.516585
878.230317	2524.982892
878.540822	2531.049920
878.851285	2527.747964
879.161707	2530.424817
879.472087	2530.886083
879.782425	2527.992460
880.092722	2528.642769
880.402977	2532.960518
880.713191	2533.134437
881.023363	2534.377082
881.333494	2531.669982
881.643583	2535.503780
881.953631	2532.484128
882.263637	2534.223327
882.573602	2533.706608
882.883526	2531.765764
883.193408	2531.153264
883.503248	2530.865918
883.813048	2529.403983
884.122806	2530.870959
884.432522	2532.849612
884.742197	2529.676206
885.051831	2530.883562
885.361424	2531.092770
885.670975	2528.794004
885.980485	2527.909281
886.289954	2527.682429
886.599382	2529.950949
886.908768	2528.332738
887.218113	2529.482121
887.527417	2530.124868
887.836680	2527.369878
888.145901	2530.407173
888.455082	2530.281144
888.764221	2529.280475
889.073319	2528.463808
889.382376	2528.937677
889.691392	2530.228212
890.000366	2528.834333
890.309300	2528.206709
890.618193	2530.576052
890.927044	2530.840712
891.235855	2529.230064
891.544625	2529.177132
891.853353	2529.764426
892.162041	2532.521937
892.470687	2529.877852
892.779293	2529.817358
893.087858	2527.228726
893.396381	2529.240146
893.704864	2526.308715
894.013306	2525.950793
894.321707	2527.581606
894.630068	2528.063037
894.938387	2530.056813
895.246665	2526.923736
895.554903	2531.264169
895.863100	2528.156298
896.171256	2528.831813
896.479371	2528.758716
896.787446	2530.031607
897.095480	2526.369209
897.403473	2528.461288
897.711425	2530.855836
898.019336	2529.630835
898.327207	2529.114117
898.635038	2531.145702
898.942827	2529.227543
899.250576	2527.982378
899.558284	2529.482121
899.865952	2526.732172
900.173579	2527.949611
900.481165	2528.834333
900.788711	2529.421628
901.096216	2531.359951
901.403681	2527.740403
901.711105	2526.396935
902.018489	2529.955990
902.325832	2533.139478
902.633135	2529.530012
902.940397	2527.208561
903.247619	2529.555218
903.554800	2529.141843
903.861941	2529.557739
904.169041	2531.566638
904.476101	2529.628315
904.783121	2531.339787
905.090100	2529.456916
905.397039	2529.673685
905.703938	2530.513037
906.010796	2527.390043
906.317614	2529.313243
906.624391	2529.872811
906.931129	2526.507841
907.237826	2529.971113
907.544483	2527.500948
907.851099	2530.686957
908.157675	2526.853160
908.464211	2528.617563
908.770707	2524.244362
909.077163	2528.189065
909.383578	2524.158663
909.689954	2524.277130
909.996289	2524.871986
910.302584	2528.310053
910.608839	2528.400794
910.915054	2528.869621
911.221229	2528.630166
911.527363	2528.776360
911.833458	2525.479445
912.139513	2528.315094
912.445527	2527.014477
912.751502	2529.837523
913.057436	2525.464322
913.363331	2528.879703
913.669186	2527.604292
913.975000	2527.818541
914.280775	2531.619571
914.586510	2529.988757
914.892205	2527.032121
915.197859	2528.796524
915.503475	2529.318284
915.809050	2528.607481
916.114585	2532.905065
916.420081	2530.218130
916.725536	2529.958510
917.030952	2530.893644
917.336328	2529.862728
917.641665	2529.514889
917.946961	2527.899199
918.252218	2529.396422
918.557435	2525.474404
918.862612	2527.248890
919.167750	2531.685106
919.472848	2529.593027
919.777906	2529.179652
920.082925	2528.899868
920.387904	2527.301822
920.692843	2528.289888
920.997743	2530.737369
921.302603	2528.521782
921.607423	2527.382481
921.912204	2528.985568
922.216946	2528.491535
922.521647	2528.509179
922.826310	2527.649662
923.130932	2529.351051
923.435516	2529.560259
923.740059	2530.452543
924.044564	2529.134282
924.349028	2530.669313
924.653454	2525.018180
924.957840	2529.225022
925.262186	2523.846111
925.566493	2527.604292
925.870761	2524.912315
926.174989	2527.427851
926.479178	2528.491535
926.783328	2529.477080
927.087438	2525.766791
927.391509	2530.928932
927.695541	2530.888603
927.999533	2528.587317
928.303486	2526.470032
928.607400	2526.558252
928.911275	2530.225692
929.215110	2528.267203
929.518906	2526.732172
929.822663	2526.835516
930.126381	2526.643952
930.430060	2529.761905
930.733699	2526.918695
931.037299	2528.476411
931.340861	2527.664785
931.644383	2528.254600
931.947866	2528.862059
932.251309	2527.664785
932.554714	2525.635721
932.858080	2530.142512
933.161407	2528.451205
933.464694	2530.097142
933.767943	2531.508665
934.071153	2530.409694
934.374323	2528.063037
934.677455	2528.025228
934.980548	2523.664630
935.283602	2528.562111
935.586617	2529.061185
935.889593	2528.882224
936.192530	2527.102697
936.495428	2525.640762
936.798287	2528.173942
937.101108	2526.913653
937.403890	2528.186545
937.706632	2529.527492
938.009336	2529.429189
938.312002	2525.255114
938.614628	2527.853829
938.917216	2527.740403
939.219765	2526.754857
939.522275	2530.507996
939.824747	2530.865918
940.127179	2523.793179
940.429573	2522.295957
940.731929	2525.368540
941.034246	2521.885103
941.336524	2524.246883
941.638763	2525.345855
941.940964	2526.777542
942.243126	2526.472552
942.545250	2527.337110
942.847335	2528.529343
943.149381	2527.919364
943.451389	2529.860208
943.753359	2529.305681
944.055290	2528.002543
944.357182	2527.264014
944.659036	2528.920033
944.960851	2526.548170
945.262628	2528.148736
945.564367	2529.499765
945.866067	2526.961544
946.167729	2531.488501
946.469352	2526.550690
946.770937	2528.675537
947.072484	2527.024559
947.373992	2527.213602
947.675462	2527.828623
947.976893	2526.959024
948.278286	2527.677388
948.579641	2527.914322
948.880958	2527.682429
949.182236	2527.629497
949.483476	2528.357944
949.784678	2525.169414
950.085841	2527.137985
950.386967	2525.880217
950.688054	2525.701256
950.989103	2529.782070
951.290114	2528.105886
951.591087	2527.208561
951.892021	2526.200330
952.192917	2527.982378
952.493776	2525.960875
952.794596	2529.633356
953.095378	2529.076308
953.396122	2527.321987
953.696828	2524.839219
953.997496	2527.395084
954.298126	2526.197810
954.598718	2531.606968
954.899272	2525.144208
955.199788	2526.585978
955.500266	2526.956503
955.800706	2528.741072
956.101108	2523.717562
956.401472	2523.820906
956.701798	2523.881399
957.002087	2522.807634
957.302337	2528.015146
957.602550	2528.665454
957.902724	2528.267203
958.202861	2525.849970
958.502960	2526.230577
958.803022	2523.770494
959.103045	2525.348375
959.403031	2527.700073
959.702979	2525.562624
960.002889	2528.057995
960.302762	2528.093283
960.602596	2526.764939
960.902393	2528.536905
961.202153	2527.238808
961.501875	2527.879034
961.801559	2528.889786
962.101205	2525.111441
962.400814	2525.696215
962.700385	2526.475073
962.999918	2526.858201
963.299414	2526.132275
963.598873	2525.786956
963.898293	2527.861390
964.197677	2525.809641
964.497022	2529.398942
964.796331	2526.512882
965.095601	2525.411390
965.394835	2525.497089
965.694030	2528.347862
965.993189	2527.022038
966.292309	2527.027079
966.591393	2524.314939
966.890439	2523.490710
967.189447	2526.533046
967.488419	2523.052130
967.787353	2527.707635
968.086249	2525.406348
968.385108	2526.994312
968.683930	2529.000691
968.982714	2528.032790
969.281462	2525.824764
969.580172	2528.075639
969.878844	2525.580268
970.177480	2527.309384
970.476078	2528.869621
970.774639	2525.880217
971.073162	2526.366688
971.371649	2524.940042
971.670098	2522.810154
971.968510	2524.897192
972.266885	2521.131450
972.565223	2527.626977
972.863524	2525.998684
973.161788	2527.634538
973.460014	2526.306194
973.758204	2525.507172
974.056356	2525.555063
974.354471	2525.484486
974.652550	2524.193951
974.950591	2527.427851
975.248595	2527.712676
975.546563	2525.552542
975.844493	2527.417769
976.142386	2526.407018
976.440243	2527.405166
976.738062	2528.362985
977.035845	2525.343334
977.333590	2527.964734
977.631299	2526.152439
977.928971	2527.052285
978.226606	2523.142870
978.524204	2529.587986
978.821765	2527.299302
979.119290	2526.628828
979.416777	2524.607326
979.714228	2525.890299
980.011642	2526.248221
980.309020	2529.371216
980.606360	2526.044054
980.903664	2525.779394
981.200931	2524.960206
981.498162	2527.097656
981.795356	2527.987419
982.092513	2526.764939
982.389633	2524.161183
982.686717	2527.014477
982.983764	2526.855680
983.280775	2527.687471
983.577749	2527.730320
983.874686	2525.426513
984.171587	2525.983561
984.468451	2526.585978
984.765279	2525.353416
985.062070	2525.691174
985.358824	2527.019518
985.655543	2528.236956
985.952224	2527.372398
986.248869	2527.319466
986.545478	2523.321831
986.842050	2523.591533
987.138586	2521.869979
987.435086	2523.127747
987.731549	2518.484844
988.027975	2527.442975
988.324366	2526.419620
988.620719	2529.131761
988.917037	2526.654034
989.213318	2526.686802
989.509563	2526.585978
989.805772	2526.028931
990.101944	2525.219826
990.398080	2527.163191
990.694180	2528.083201
990.990244	2526.217974
991.286271	2525.610515
991.582262	2527.100176
991.878217	2528.380629
992.174136	2523.455422
992.470019	2527.057326
992.765865	2525.887779
993.061676	2524.438447
993.357450	2524.871986
993.653188	2525.668488
993.948890	2521.562469
994.244556	2525.955834
994.540186	2526.568334
994.835780	2526.510361
995.131337	2524.539270
995.426859	2525.650844
995.722345	2525.592871
996.017795	2525.260155
996.313208	2524.725793
996.608586	2525.179497
996.903928	2526.119672
997.199234	2527.057326
997.494504	2526.323838
997.789738	2526.071781
998.084936	2526.212933
998.380099	2527.816020
998.675225	2527.001874
998.970316	2526.719569
999.265371	2527.919364
999.560390	2524.004908
999.855373	2525.363499
1000.150320	2526.780063
1000.445232	2528.846936
1000.740108	2524.791328
1001.034948	2524.970289
1001.329752	2526.613705
1001.624521	2524.569517
1001.919254	2520.773528
1002.213951	2525.668488
1002.508613	2522.164887
1002.803239	2523.200844
1003.097829	2523.268899
1003.392384	2527.052285
1003.686903	2525.045906
1003.981386	2527.473222
1004.275834	2524.602284
1004.570246	2528.967924
1004.864623	2528.400794
1005.158964	2524.531708
1005.453270	2527.132944
1005.747540	2526.689322
1006.041775	2524.420803
1006.335974	2526.449867
1006.630138	2525.607995
1006.924266	2524.481297
1007.218359	2524.481297
1007.512416	2524.166225
1007.806438	2529.716535
1008.100425	2526.933818
1008.394376	2526.296112
1008.688292	2525.464322
1008.982172	2525.512213
1009.276017	2522.358971
1009.569827	2528.224353
1009.863602	2525.691174
1010.157341	2526.722090
1010.451045	2525.280320
1010.744714	2525.895340
1011.038347	2525.129085
1011.331945	2524.836698
1011.625508	2525.623118
1011.919036	2522.623632
1012.212528	2525.353416
1012.505986	2525.739065
1012.799408	2527.132944
1013.092795	2525.192099
1013.386147	2525.239990
1013.679464	2522.772346
1013.972745	2527.866432
1014.265992	2524.849301
1014.559204	2526.638911
1014.852380	2526.865762
1015.145521	2524.632531
1015.438628	2525.093797
1015.731699	2523.727644
1016.024736	2525.423993
1016.317737	2523.715041
1016.610703	2527.586648
1016.903635	2521.766635
1017.196531	2519.823271
1017.489393	2521.998528
1017.782219	2519.372087
1018.075011	2524.186389
1018.367768	2523.188241
1018.660490	2524.849301
1018.953177	2524.849301
1019.245829	2524.849301
