Dividing Wavelength (nm)	Counts (n)	Blue Motor Position (mm): 0.000000	Red Motor Position (mm): 36.500000	
326.493990	2077.489747
326.888308	2077.489747
327.282561	2077.489747
327.676750	2055.273382
328.070874	2057.191541
328.464933	2062.537685
328.858929	2069.134034
329.252859	2086.213464
329.646726	2098.155957
330.040528	2114.287649
330.434265	2134.306071
330.827938	2153.477579
331.221547	2170.269663
331.615091	2195.114990
332.008571	2215.203988
332.401986	2235.519838
332.795338	2255.848291
333.188625	2276.693462
333.581847	2293.510751
333.975006	2312.112609
334.368100	2330.641370
334.761129	2346.705006
335.154095	2362.398118
335.546996	2389.900133
335.939833	2432.518048
336.332606	2447.031530
336.725315	2460.050309
337.117960	2466.306381
337.510540	2470.117494
337.903056	2483.262302
338.295508	2488.643734
338.687896	2498.486587
339.080220	2504.147803
339.472480	2508.089985
339.864676	2515.082065
340.256807	2516.344874
340.648875	2518.331089
341.040879	2519.419978
341.432818	2520.791172
341.824694	2518.613394
342.216506	2520.322345
342.608253	2518.137005
342.999937	2522.605988
343.391557	2520.450894
343.783113	2516.912004
344.174605	2515.419823
344.566033	2513.294976
344.957397	2513.980573
345.348697	2512.327075
345.739934	2509.524193
346.131106	2506.620489
346.522215	2506.025633
346.913260	2503.563029
347.304241	2504.619151
347.695159	2499.504900
348.086012	2501.382730
348.476802	2500.518172
348.867528	2499.426762
349.258191	2498.640342
349.648789	2498.458861
350.039324	2495.814775
350.429796	2494.841833
350.820203	2495.613129
351.210548	2495.172028
351.600828	2494.302429
351.991045	2491.592809
352.381198	2490.945021
352.771288	2492.096924
353.161314	2494.254538
353.551276	2494.582213
353.941175	2493.805876
354.331010	2493.495845
354.720782	2494.957779
355.110490	2494.473828
355.500135	2495.217399
355.889717	2493.233705
356.279235	2496.336535
356.668689	2495.998778
357.058080	2496.780156
357.447408	2495.045999
357.836672	2495.053561
358.225873	2496.412152
358.615010	2496.613798
359.004084	2498.690754
359.393095	2499.819972
359.782043	2500.303923
360.170927	2502.529592
360.559748	2503.908348
360.948505	2503.444562
361.337199	2504.467916
361.725830	2507.177536
362.114398	2506.943123
362.502903	2509.587208
362.891344	2508.531086
363.279722	2510.749194
363.668037	2510.234996
364.056289	2512.246416
364.444478	2513.715913
364.832603	2511.918741
365.220665	2513.226921
365.608665	2513.244565
365.996601	2514.749349
366.384474	2515.341685
366.772284	2516.377642
367.160031	2516.312107
367.547715	2519.495596
367.935336	2519.346882
368.322893	2520.823940
368.710388	2520.065246
369.097820	2522.648837
369.485189	2521.711183
369.872495	2523.316790
370.259738	2526.311236
370.646918	2528.204189
371.034035	2531.029756
371.421090	2533.182328
371.808081	2535.075282
372.195010	2539.816487
372.581875	2546.100285
372.968678	2550.029864
373.355418	2557.261400
373.742096	2568.319171
374.128710	2574.913000
374.515262	2582.000862
374.901751	2596.453850
375.288177	2616.235338
375.674540	2631.981382
376.060841	2646.389000
376.447079	2669.427073
376.833254	2692.893644
377.219367	2714.484906
377.605417	2745.346850
377.991404	2770.169491
378.377329	2807.721046
378.763191	2839.341684
379.148991	2883.640823
379.534727	2933.079419
379.920402	2973.479226
380.306013	3019.358767
380.691563	3079.923189
381.077049	3133.911426
381.462474	3185.744570
381.847835	3252.524735
382.233134	3322.339675
382.618371	3380.693551
383.003545	3461.258751
383.388657	3536.087118
383.773706	3622.018627
384.158693	3690.948844
384.543618	3781.019140
384.928480	3855.371118
385.313280	3953.177064
385.698017	4057.705389
386.082692	4164.875279
386.467305	4227.325093
386.851856	4344.844471
387.236344	4492.502388
387.620770	4558.266760
388.005133	4669.081404
388.389435	4811.199093
388.773674	4889.843613
389.157851	5012.610833
389.541965	5144.182428
389.926018	5165.274616
390.310008	5335.494216
390.693936	5452.491835
391.077802	5570.079269
391.461606	5694.532755
391.845348	5805.425537
392.229027	5921.551036
392.612645	6133.168592
392.996200	6252.167549
393.379694	6417.628301
393.763125	6632.149562
394.146494	6723.399487
394.529801	6859.465271
394.913047	7087.902637
395.296230	7084.918274
395.679351	7141.336347
396.062410	7383.662092
396.445408	7288.283461
396.828343	7444.609642
397.211217	7572.342398
397.594028	7460.776622
397.976778	7665.064341
398.359466	7822.875141
398.742092	7811.366187
399.124656	7952.941952
399.507158	8135.323336
399.889598	8159.483066
400.271977	8364.763892
400.654294	8399.406701
401.036549	8596.609078
401.418742	8622.374415
401.800874	8926.595447
402.182944	9003.861212
402.564952	9360.479997
402.946898	9198.422024
403.328783	9251.467565
403.710606	9441.927399
404.092367	9692.162714
404.474067	10048.930213
404.855705	9851.553916
405.237282	9805.893665
405.618797	10236.713193
406.000250	10471.857815
406.381642	10831.135808
406.762972	10774.838722
407.144240	10592.369118
407.525447	10841.906233
407.906593	10793.924531
408.287677	11053.667462
408.668700	11191.790037
409.049661	11183.918275
409.430560	11346.566062
409.811399	11324.647126
410.192176	11477.240332
410.572891	11557.417363
410.953545	12035.553162
411.334138	11520.516117
411.714669	12097.902152
412.095139	11456.700151
412.475547	11930.490474
412.855894	11805.079169
413.236180	12118.618774
413.616405	11819.360758
413.996568	12088.893610
414.376670	12065.270763
414.756711	11961.566667
415.136691	12223.792367
415.516609	12400.131928
415.896466	12491.059220
416.276262	12775.105554
416.655997	13232.381058
417.035670	13281.043316
417.415283	13894.040062
417.794834	13977.050222
418.174324	13733.935536
418.553753	13639.353408
418.933121	14123.362150
419.312428	13953.180358
419.691674	13856.707797
420.070859	14324.179034
420.449983	13980.518536
420.829045	14540.888156
421.208047	14293.468325
421.586988	14750.088479
421.965867	14995.010418
422.344686	14987.110930
422.723444	15558.520677
423.102141	14267.730714
423.480777	15445.427432
423.859352	14953.486434
424.237866	16053.695575
424.616319	15777.725170
424.994712	16417.066986
425.373044	16212.885132
425.751314	16900.251500
426.129524	16036.238060
426.507673	17109.696318
426.885762	16837.370667
427.263789	17017.859098
427.641756	17205.674847
428.019662	17264.500071
428.397508	17311.788614
428.775292	17601.415506
429.153016	17586.715501
429.530679	17651.837127
429.908282	17693.429166
430.285824	17420.372548
430.663305	18131.442421
431.040726	17746.507475
431.418086	17592.475019
431.795385	18227.486484
432.172624	18668.421088
432.549802	18221.643787
432.926920	18437.077497
433.303977	18314.085946
433.680974	18567.708916
434.057910	18869.893322
434.434786	18918.971475
434.811601	18847.336679
435.188355	19892.062881
435.565050	19561.826975
435.941683	19518.273927
436.318257	20413.499671
436.694770	20213.050791
437.071222	20817.742236
437.447614	19881.453773
437.823946	19918.977602
438.200218	20084.423230
438.576429	19860.114569
438.952580	20181.019299
439.328670	20144.405399
439.704700	20563.705891
440.080670	20145.423712
440.456580	20748.373438
440.832429	20921.164028
441.208218	19931.749365
441.583947	20369.016529
441.959616	20494.548822
442.335224	20750.077348
442.710773	20880.174406
443.086261	21430.106317
443.461689	20770.632653
443.837057	20925.534708
444.212365	21592.093713
444.587612	21589.356367
444.962800	21190.775017
445.337927	21618.252261
445.712995	20333.279789
446.088002	22228.219273
446.462949	22433.217794
446.837837	22621.124283
447.212664	22644.144713
447.587431	25590.366419
447.962139	28577.169415
448.336786	30883.353627
448.711374	29219.654390
449.085901	25500.303685
449.460369	25500.449879
449.834776	25487.080739
450.209124	28046.517396
450.583412	27535.344396
450.957640	28031.875365
451.331808	26671.842633
451.705917	25294.465812
452.079965	25330.915875
452.453954	25733.265487
452.827883	25634.473995
453.201752	25428.033704
453.575562	25596.498983
453.949311	26734.758754
454.323001	26797.866438
454.696632	26579.229076
455.070202	28197.762094
455.443713	28378.953766
455.817164	28959.392220
456.190556	29517.158084
456.563888	28935.590412
456.937160	29375.731034
457.310373	27657.763776
457.683526	28099.457073
458.056619	28098.552186
458.429653	28079.259691
458.802628	28695.646613
459.175542	28832.042592
459.548398	30214.284126
459.921194	31834.155571
460.293930	32583.492843
460.666607	34675.642266
461.039224	36471.389486
461.411782	36823.118352
461.784280	35527.173809
462.156719	34988.317313
462.529099	34410.235598
462.901419	33083.663525
463.273680	32024.156660
463.645882	32169.780471
464.018024	32164.893072
464.390106	33105.932822
464.762130	36024.576897
465.134094	40363.555986
465.505999	45850.695672
465.877845	50404.266597
466.249631	51396.945407
466.621358	49550.222039
466.993026	47313.852767
467.364634	45160.901988
467.736184	43198.655538
468.107674	41930.001282
468.479105	41130.537297
468.850477	40406.816648
469.221790	38950.744894
469.593043	37180.001797
469.964238	36275.951513
470.335373	36212.543880
470.706449	38080.941689
471.077467	40864.019054
471.448425	45549.358180
471.819324	48327.797684
472.190164	46318.161868
472.560945	42680.656816
472.931667	39502.589923
473.302330	38400.225688
473.672934	37567.086795
474.043479	38101.635625
474.413965	37311.820408
474.784393	36933.852337
475.154761	37865.533185
475.525070	37917.215094
475.895321	37417.954341
476.265513	38058.816065
476.635645	39065.552132
477.005719	38906.392822
477.375734	39400.171321
477.745691	40141.019290
478.115588	41512.800431
478.485427	43626.803255
478.855207	47116.438662
479.224928	49775.644795
479.594591	51334.616581
479.964194	50222.117106
480.333739	50348.476147
480.703226	50426.780390
481.072653	51085.971749
481.442022	51557.062535
481.811333	51756.251127
482.180584	50464.881431
482.549777	49948.432863
482.918912	49416.424775
483.287988	49102.033215
483.657005	48257.849154
484.025964	47573.182323
484.394864	47572.884895
484.763706	47131.201681
485.132489	46237.097593
485.501213	46090.604183
485.869879	46232.379073
486.238487	45805.587427
486.607036	45996.805954
486.975527	45438.198217
487.343959	45663.915880
487.712333	45731.230408
488.080648	45619.982225
488.448905	46089.787516
488.817104	45870.693929
489.185244	46891.404074
489.553326	48645.929780
489.921350	51416.182450
490.289315	54247.972485
490.657222	54765.711588
491.025070	55002.214800
491.392861	54064.557664
491.760593	52788.813025
492.128267	51094.221598
492.495883	49534.836437
492.863440	48094.195656
493.230939	46730.379538
493.598380	45625.028420
493.965763	45288.380166
494.333088	44468.272655
494.700354	43969.858816
495.067563	43659.923636
495.434713	43512.795040
495.801805	43579.542438
496.168839	43174.049667
496.535815	42835.878984
496.902733	42845.845345
497.269593	42409.853593
497.636395	42338.523787
498.003139	42747.963782
498.369825	42169.370390
498.736453	42482.345386
499.103023	42001.555420
499.469535	41870.435008
499.835989	41967.298259
500.202385	41617.144754
500.568723	41624.119190
500.935003	41823.229644
501.301226	41612.731224
501.667390	42222.022722
502.033497	42466.780823
502.399546	41882.808520
502.765537	41160.524600
503.131470	41546.858466
503.497345	41911.157449
503.863163	40539.421679
504.228923	41202.416589
504.594625	41590.739190
504.960269	40838.420075
505.325856	41549.953735
505.691385	40901.941134
506.056856	41037.681763
506.422270	41465.849645
506.787625	41031.002234
507.152924	41230.664694
507.518164	41323.996617
507.883347	40521.830572
508.248472	40745.738462
508.613540	41254.867274
508.978550	41532.566795
509.343503	41291.433283
509.708398	41484.075936
510.073236	42010.236287
510.438016	42000.668177
510.802738	41448.213168
511.167403	42082.213881
511.532010	42296.190698
511.896561	42588.456633
512.261053	43433.648925
512.625488	42975.198832
512.989866	42842.243441
513.354186	42684.024307
513.718449	42663.118642
514.082655	43354.512892
514.446803	42989.878673
514.810894	43527.260631
515.174927	43426.024180
515.538904	43326.927698
515.902822	43981.188809
516.266684	43425.515023
516.630488	43852.286505
516.994235	43696.232547
517.357925	44264.073157
517.721558	44437.713181
518.085133	44734.685033
518.448651	44842.469943
518.812112	44606.468326
519.175516	44681.556313
519.538863	45022.449218
519.902152	44972.198997
520.265385	45414.547644
520.628560	45447.100895
520.991678	45214.441562
521.354739	45438.178052
521.717743	45747.712460
522.080690	45597.420541
522.443580	46154.634399
522.806413	46173.110228
523.169189	46122.260109
523.531908	46283.869419
523.894569	46118.101157
524.257174	46278.876156
524.619722	46533.444343
524.982213	46499.552665
525.344647	46405.184786
525.707025	46444.974613
526.069345	46838.540015
526.431608	46730.442553
526.793815	47015.920574
527.155964	46538.056998
527.518057	46686.332457
527.880093	46430.065401
528.242072	46933.049046
528.603995	46627.149310
528.965860	46586.573063
529.327669	46658.099474
529.689421	46530.820422
530.051117	46465.648385
530.412755	46585.416118
530.774337	46634.222049
531.135862	46418.843792
531.497331	46574.363388
531.858743	46439.184848
532.220098	46732.310300
532.581396	46426.776048
532.942638	46048.250929
533.303824	46327.339288
533.664953	46266.079187
534.026025	45943.115145
534.387040	46364.578292
534.747999	46290.712785
535.108902	46399.450473
535.469748	45879.042080
535.830537	45961.669112
536.191270	46099.030472
536.551947	45703.947683
536.912567	45980.591083
537.273131	46047.472071
537.633638	45499.909502
537.994089	45775.670699
538.354483	45333.362382
538.714821	45844.396750
539.075103	46127.427291
539.435328	45846.473705
539.795497	45664.339337
540.155609	45604.649555
540.515665	46011.969745
540.875665	45401.677578
541.235609	45645.187994
541.595496	45580.086533
541.955328	46151.841599
542.315102	45456.961392
542.674821	45183.350246
543.034483	45179.062745
543.394090	45083.106902
543.753640	44955.243076
544.113134	45865.665378
544.472571	44816.200491
544.831953	45934.799762
545.191278	45095.523264
545.550548	44767.772646
545.909761	45132.747144
546.268918	45231.440333
546.628019	45450.544003
546.987064	44933.387153
547.346053	44144.993541
547.704986	44901.726186
548.063863	44399.796142
548.422684	44468.991020
548.781449	44225.006735
549.140158	44522.384401
549.498811	44265.441830
549.857408	43641.858661
550.215949	44337.406822
550.574434	44176.727605
550.932864	43845.140669
551.291237	44422.745995
551.649555	43952.978512
552.007817	44075.365124
552.366022	43622.906443
552.724173	43669.983258
553.082267	43923.926342
553.440305	44068.589814
553.798288	43320.273375
554.156215	43501.681817
554.514086	43578.473713
554.871902	43192.573386
555.229661	43089.340638
555.587365	42813.115654
555.945014	42786.359730
556.302606	42590.684823
556.660143	42657.906089
557.017625	42610.022689
557.375050	42273.268571
557.732421	42454.150212
558.089735	42299.306131
558.446994	42075.395721
558.804197	42361.307282
559.161345	42150.728203
559.518437	41340.992867
559.875474	41480.363127
560.232455	41502.715603
560.589381	41505.412620
560.946251	41089.661101
561.303065	41522.476926
561.659825	41179.577641
562.016528	40752.155851
562.373177	40366.868024
562.729770	40608.286361
563.086307	40019.058655
563.442789	40248.375703
563.799216	40124.501950
564.155587	39790.749839
564.511904	39630.574737
564.868164	39536.138802
565.224370	39562.088142
565.580520	39174.955252
565.936615	39158.135443
566.292654	38747.596476
566.648638	38779.892628
567.004567	38549.597597
567.360441	38430.517982
567.716260	38111.296997
568.072023	38157.055550
568.427732	37953.539128
568.783385	37384.070225
569.138982	37505.861982
569.494525	37283.158928
569.850013	36884.131437
570.205445	36684.264810
570.560823	36443.980733
570.916145	36147.011401
571.271412	35985.419735
571.626625	35612.707066
571.981782	35426.587666
572.336884	34973.435826
572.691931	35017.976941
573.046923	34513.574211
573.401860	34190.547155
573.756743	33959.690035
574.111570	33841.384236
574.466342	33527.264899
574.821059	33384.249885
575.175722	32839.890969
575.530330	32657.998577
575.884882	32230.549060
576.239380	32006.290810
576.593823	31774.513680
576.948211	31525.155526
577.302544	30975.049694
577.656823	30788.849636
578.011047	30727.516438
578.365216	30321.277576
578.719330	29962.816249
579.073389	29659.321143
579.427394	29502.871454
579.781344	29265.680125
580.135239	28826.509925
580.489080	28657.669080
580.842866	28110.109032
581.196597	28184.040073
581.550273	27926.830322
581.903895	27639.373647
582.257463	27660.874168
582.610975	27059.640955
582.964434	27027.438064
583.317837	26586.006907
583.671186	26284.175382
584.024481	26192.499479
584.377721	25705.057711
584.730906	25658.187583
585.084037	25470.512987
585.437113	25098.501039
585.790135	24902.138014
586.143103	24478.769311
586.496016	24329.097453
586.848874	24127.809222
587.201679	23923.476133
587.554428	23438.113840
587.907124	23319.739986
588.259765	22988.732784
588.612352	22914.663110
588.964884	22387.270198
589.317362	22326.340292
589.669786	22101.283019
590.022155	21785.179988
590.374470	21788.461779
590.726731	21352.044050
591.078937	20917.952812
591.431090	20771.701378
591.783188	20421.656258
592.135232	20067.061496
592.487222	19992.911164
592.839157	19832.274797
593.191038	19499.636781
593.542866	19195.440955
593.894639	18751.562317
594.246358	18685.014046
594.598022	18474.858424
594.949633	18130.721536
595.301190	17915.282785
595.652692	17667.971339
596.004141	17620.821428
596.355535	17042.273406
596.706876	16839.215729
597.058162	16600.338134
597.409395	16598.886282
597.760573	16475.746017
598.111698	16145.890718
598.462768	15971.411342
598.813785	15823.544217
599.164748	15468.503313
599.515657	15431.186172
599.866511	15094.515233
600.217312	15145.917358
600.568060	14641.033198
600.918753	14726.180807
601.269392	14545.160534
601.619978	14294.332883
601.970510	14208.338360
602.320988	14101.791053
602.671412	14043.457341
603.021783	13817.104492
603.372100	13558.289133
603.722363	13446.529273
604.072572	13315.998677
604.422728	13180.560517
604.772830	12962.402064
605.122878	12846.722706
605.472872	12679.487469
605.822813	12609.692694
606.172701	12425.166298
606.522534	12347.431706
606.872314	12285.017180
607.222041	12078.508833
607.571714	12044.992722
607.921333	11779.555807
608.270899	11713.693133
608.620411	11673.822647
608.969870	11490.637198
609.319276	11362.402847
609.668627	11261.680593
610.017926	11248.427400
610.367171	11156.766620
610.716362	11055.547813
611.065500	10917.203428
611.414585	10845.286327
611.763616	10782.851637
612.112594	10659.106433
612.461518	10587.945505
612.810389	10530.582216
613.159207	10389.255988
613.507971	10294.378952
613.856682	10271.386250
614.205340	10145.054934
614.553945	10168.405559
614.902496	9960.591553
615.250994	9937.646742
615.599439	9846.895890
615.947830	9779.840982
616.296169	9694.068270
616.644454	9609.230692
616.992686	9546.914469
617.340864	9546.491012
617.688990	9400.206809
618.037063	9409.336339
618.385082	9307.134507
618.733048	9267.621943
619.080961	9172.402108
619.428821	9085.666536
619.776628	9010.976800
620.124382	8891.768635
620.472083	8814.941451
620.819731	8732.863904
621.167326	8592.046833
621.514868	8492.700815
621.862357	8336.644336
622.209793	8254.365143
622.557176	8117.797765
622.904506	7990.521233
623.251783	7849.837753
623.599007	7738.569405
623.946179	7629.171325
624.293297	7540.895680
624.640363	7394.193062
624.987376	7313.602656
625.334336	7215.426185
625.681243	7101.291942
626.028097	7031.141765
626.374899	6949.540608
626.721647	6877.777262
627.068343	6810.921480
627.414987	6722.308078
627.761577	6638.264481
628.108115	6614.931501
628.454600	6499.612586
628.801032	6462.149251
629.147412	6404.891826
629.493739	6351.420307
629.840014	6263.295897
630.186236	6247.015490
630.532405	6157.923178
630.878521	6126.080730
631.224585	6069.531587
631.570597	5993.165668
631.916556	5967.949816
632.262462	5917.013998
632.608316	5873.839036
632.954117	5817.105890
633.299866	5768.415906
633.645562	5710.503130
633.991206	5625.216890
634.336797	5542.400814
634.682336	5491.033977
635.027823	5422.055869
635.373257	5361.930027
635.718639	5294.255057
636.063968	5242.348817
636.409245	5157.722967
636.754470	5119.967245
637.099642	5062.853493
637.444762	4991.019571
637.789829	4962.781548
638.134845	4903.860542
638.479808	4862.066856
638.824719	4820.255526
639.169577	4760.762349
639.514383	4737.797372
639.859137	4681.384340
640.203839	4663.826001
640.548489	4614.609216
640.893086	4583.038990
641.237632	4534.288512
641.582125	4516.044576
641.926566	4478.762723
642.270955	4452.964618
642.615292	4427.526956
642.959576	4395.802975
643.303809	4370.314901
643.647990	4350.470399
643.992118	4325.476358
644.336195	4297.044250
644.680219	4275.513482
645.024192	4265.428654
645.368112	4268.624746
645.711981	4248.765120
646.055797	4270.462246
646.399562	4246.408381
646.743274	4274.434675
647.086935	4278.326446
647.430544	4249.559102
647.774101	4235.305239
648.117606	4219.770924
648.461059	4207.677196
648.804460	4162.757994
649.147810	4110.329994
649.491108	4072.274324
649.834354	4035.211761
650.177548	3976.941063
650.520690	3935.228036
650.863781	3912.469747
651.206820	3889.242631
651.549807	3849.598997
651.892742	3813.312771
652.235626	3786.082979
652.578458	3762.976850
652.921238	3727.426633
653.263967	3718.516394
653.606644	3688.932383
653.949269	3673.025022
654.291843	3643.594765
654.634365	3644.663490
654.976836	3614.194756
655.319255	3599.076336
655.661622	3584.272988
656.003938	3564.070563
656.346203	3542.938047
656.688416	3534.234494
657.030577	3513.187677
657.372687	3495.294102
657.714746	3483.487719
658.056753	3476.790546
658.398708	3446.294086
658.740612	3435.563990
659.082465	3429.234822
659.424266	3417.032709
659.766016	3406.501738
660.107715	3393.876168
660.449362	3388.169582
660.790958	3378.409908
661.132503	3367.636963
661.473996	3358.545242
661.815438	3350.517204
662.156829	3342.216944
662.498168	3324.071311
662.839456	3317.810198
663.180693	3310.427428
663.521879	3302.071716
663.863013	3294.540232
664.204097	3282.547327
664.545129	3284.783079
664.886110	3277.929630
665.227040	3268.021242
665.567918	3263.839605
665.908746	3258.364912
666.249522	3256.940786
666.590248	3246.661873
666.930922	3239.926892
667.271545	3229.973133
667.612118	3224.105230
667.952639	3214.958057
668.293109	3208.959084
668.633528	3199.141437
668.973896	3188.769262
669.314213	3182.641740
669.654480	3171.866274
669.994695	3162.595592
670.334859	3152.934220
670.674973	3143.814773
671.015035	3143.512304
671.355047	3138.682878
671.695008	3129.485293
672.034918	3122.720065
672.374777	3119.405506
672.714585	3112.819239
673.054342	3111.301851
673.394049	3099.679471
673.733705	3100.909513
674.073310	3092.916763
674.412864	3088.142791
674.752368	3074.990420
675.091820	3077.621902
675.431223	3066.362485
675.770574	3054.835887
676.109875	3044.867005
676.449125	3035.314019
676.788324	3033.274872
677.127473	3021.740712
677.466571	3012.694362
677.805619	3008.913496
678.144616	3006.148423
678.483562	2999.650376
678.822458	2993.694253
679.161303	2993.706856
679.500098	2988.580002
679.838842	2980.975422
680.177535	2979.831080
680.516179	2981.111533
680.854771	2979.528610
681.193314	2990.737616
681.531805	3003.443844
681.870247	3013.911800
682.208638	3021.634848
682.546978	3020.094775
682.885268	3018.156452
683.223508	3011.403826
683.561697	3004.177332
683.899836	2997.727176
684.237925	2990.659478
684.575963	2984.809219
684.913951	2976.977787
685.251889	2976.314875
685.589776	2973.610296
685.927614	2972.680203
686.265401	2971.906386
686.603137	2972.496201
686.940824	2974.920996
687.278460	2980.904845
687.616046	2980.539362
687.953582	2987.228973
688.291068	2982.870895
688.628504	2988.151504
688.965889	2981.282932
689.303224	2976.546768
689.640510	2969.844554
689.977745	2956.389714
690.314930	2944.240533
690.652065	2940.028649
690.989150	2925.404262
691.326185	2913.300452
691.663170	2903.775192
692.000105	2890.910167
692.336990	2884.437325
692.673825	2877.634288
693.010610	2868.192207
693.347345	2858.205681
693.684030	2846.540451
694.020665	2839.313957
694.357251	2832.616784
694.693786	2831.580827
695.030272	2828.583861
695.366707	2821.984991
695.703093	2816.457366
696.039429	2815.050884
696.375716	2811.912766
696.711952	2810.707930
697.048139	2810.269349
697.384276	2806.269194
697.720363	2806.811118
698.056400	2804.204841
698.392388	2800.802062
698.728326	2795.448357
699.064214	2794.147739
699.400053	2795.418110
699.735842	2787.468211
700.071581	2785.275309
700.407270	2779.684669
700.742910	2775.873557
701.078501	2773.899945
701.414042	2769.178904
701.749533	2766.519696
702.084974	2762.297729
702.420366	2765.014911
702.755709	2757.909405
703.091002	2752.122160
703.426246	2752.714496
703.761440	2750.372880
704.096584	2746.443301
704.431679	2746.135790
704.766725	2744.149576
705.101721	2744.212590
705.436668	2745.286356
705.771565	2740.172105
706.106413	2739.635222
706.441212	2744.631006
706.775961	2745.548496
707.110661	2745.467837
707.445311	2747.575040
707.779913	2744.353742
708.114465	2748.497571
708.448967	2750.103178
708.783421	2756.583582
709.117825	2757.080135
709.452180	2762.726227
709.786485	2762.355703
710.120742	2773.234513
710.454949	2774.053700
710.789107	2774.449431
711.123216	2784.027623
711.457275	2783.026954
711.791286	2786.800258
712.125247	2789.756894
712.459159	2788.819240
712.793023	2797.449695
713.126837	2787.425361
713.460602	2786.603653
713.794318	2782.011162
714.127985	2776.317178
714.461602	2765.970210
714.795171	2766.539860
715.128691	2757.047368
715.462162	2747.252406
715.795584	2743.751324
716.128957	2739.584811
716.462281	2735.443503
716.795556	2735.083060
717.128782	2728.781618
717.461960	2722.855742
717.795088	2721.315669
718.128167	2717.000442
718.461198	2712.352498
718.794180	2710.588094
719.127113	2707.018957
719.459997	2702.539892
719.792833	2700.450333
720.125619	2698.653162
720.458357	2694.025383
720.791046	2694.045547
721.123686	2690.773839
721.456278	2691.131761
721.788821	2689.511030
722.121315	2689.833663
722.453761	2686.141018
722.786158	2686.410720
723.118506	2684.769824
723.450805	2685.316790
723.783056	2686.740916
724.115259	2686.998014
724.447412	2684.389217
724.779518	2687.832325
725.111574	2688.835515
725.443582	2689.536235
725.775542	2689.926925
726.107453	2693.271730
726.439315	2691.482121
726.771129	2698.028059
727.102895	2700.692309
727.434612	2704.889069
727.766281	2705.234388
728.097901	2706.895449
728.429473	2705.919985
728.760996	2705.168853
729.092471	2703.532999
729.423897	2705.569625
729.755276	2706.681200
730.086606	2707.376879
730.417887	2713.640512
730.749120	2718.545555
731.080305	2718.152345
731.411442	2723.135526
731.742530	2719.974722
732.073570	2725.688870
732.404562	2727.932184
732.735506	2726.513099
733.066401	2721.902964
733.397249	2715.689742
733.728048	2710.986345
734.058798	2705.128524
734.389501	2696.361958
734.720156	2691.378777
735.050762	2683.882581
735.381320	2681.740091
735.711831	2678.508711
736.042293	2673.459996
736.372707	2675.138700
736.703073	2672.010664
737.033391	2675.486540
737.363661	2673.845644
737.693883	2673.545695
738.024056	2676.093999
738.354182	2682.087931
738.684260	2679.204391
739.014290	2686.655216
739.344272	2685.951975
739.674207	2690.244518
740.004093	2692.082018
740.333931	2692.777697
740.663722	2694.156453
740.993464	2690.544466
741.323159	2692.664271
741.652806	2687.343333
741.982405	2683.645647
742.311956	2680.263033
742.641460	2680.217662
742.970915	2677.356808
743.300323	2670.614264
743.629683	2669.848009
743.958996	2667.839109
744.288260	2668.015550
744.617477	2660.743685
744.946647	2657.628252
745.275768	2657.008190
745.604842	2650.210194
745.933869	2650.308497
746.262847	2649.277581
746.591778	2654.971564
746.920662	2651.268837
747.249498	2654.205309
747.578286	2651.440236
747.907027	2655.190854
748.235720	2658.583551
748.564365	2660.451298
748.892963	2657.093890
749.221514	2657.784528
749.550017	2653.376039
749.878473	2655.148004
750.206881	2653.156749
750.535242	2652.181285
750.863555	2653.194557
751.191821	2653.819660
751.520039	2649.496871
751.848210	2649.287663
752.176334	2651.145328
752.504411	2649.547282
752.832440	2644.339771
753.160421	2648.158445
753.488356	2649.113743
753.816243	2648.281953
754.144082	2646.860347
754.471875	2644.617034
754.799620	2640.962197
755.127318	2643.349184
755.454969	2642.943371
755.782572	2644.163330
756.110129	2644.027219
756.437638	2640.821045
756.765100	2641.002527
757.092515	2642.411529
757.419882	2642.209883
757.747203	2642.391365
758.074477	2644.511170
758.401703	2642.993782
758.728882	2645.821870
759.056014	2645.748773
759.383099	2648.902015
759.710138	2649.837149
760.037129	2650.333702
760.364073	2652.995432
760.690970	2652.947541
761.017820	2652.907212
761.344623	2652.864362
761.671379	2656.985505
761.998088	2665.857936
762.324751	2683.070956
762.651366	2717.529763
762.977935	2760.848398
763.304456	2785.189609
763.630931	2795.108079
763.957359	2784.803961
764.283740	2762.907709
764.610074	2739.788977
764.936362	2716.161089
765.262602	2695.683922
765.588796	2678.221366
765.914943	2666.228461
766.241044	2654.482572
766.567097	2645.819349
766.893104	2637.720736
767.219064	2635.366517
767.544978	2628.618932
767.870845	2624.535598
768.196665	2624.134826
768.522438	2621.596605
768.848165	2617.745163
769.173846	2614.498660
769.499479	2612.361211
769.825066	2611.504215
770.150607	2607.143617
770.476101	2605.953905
770.801548	2608.066148
771.126949	2606.271497
771.452303	2601.870570
771.777611	2602.120107
772.102872	2603.340066
772.428087	2600.070878
772.753256	2597.893100
773.078378	2598.755137
773.403453	2593.088880
773.728482	2594.034096
774.053465	2594.525609
774.378401	2590.588468
774.703291	2592.408324
775.028135	2589.038313
775.352932	2591.460587
775.677683	2585.370873
776.002388	2588.083014
776.327046	2587.929259
776.651658	2587.039495
776.976224	2587.004207
777.300743	2583.843404
777.625216	2584.095462
777.949643	2582.079000
778.274024	2583.036819
778.598359	2579.407188
778.922647	2583.210739
779.246889	2579.041705
779.571086	2580.002045
779.895236	2582.923393
780.219339	2582.303331
780.543397	2584.327355
780.867409	2582.978846
781.191374	2586.172417
781.515294	2583.097313
781.839167	2584.818867
782.162995	2583.523291
782.486776	2584.226532
782.810511	2584.987746
783.134201	2584.748291
783.457844	2583.200657
783.781441	2583.898857
784.104993	2578.575398
784.428498	2582.736871
784.751958	2580.949782
785.075372	2577.486509
785.398739	2579.613876
785.722061	2579.049267
786.045337	2579.974318
786.368568	2580.770821
786.691752	2581.620255
787.014891	2587.407500
787.337983	2589.630648
787.661030	2597.973758
787.984031	2604.310488
788.306987	2610.473299
788.629897	2609.805346
788.952760	2608.403905
789.275579	2607.367948
789.598351	2601.058944
789.921078	2597.391505
790.243759	2593.255238
790.566395	2591.140474
790.888984	2586.404310
791.211529	2586.326172
791.534027	2583.989597
791.856480	2582.482292
792.178888	2582.406675
792.501249	2579.157651
792.823566	2577.410892
793.145836	2575.331416
793.468062	2579.535738
793.790241	2576.493402
794.112375	2579.444997
794.434464	2578.638413
794.756507	2580.813670
795.078505	2582.920873
795.400457	2582.232755
795.722364	2585.098651
796.044226	2592.005032
796.366042	2593.461925
796.687812	2595.065012
797.009538	2593.892944
797.331218	2594.129878
797.652852	2591.634507
797.974442	2590.233066
798.295986	2589.900350
798.617484	2587.989753
798.938938	2585.839701
799.260346	2584.486151
799.581709	2582.575554
799.903026	2584.866758
800.224299	2580.085224
800.545526	2577.557085
800.866708	2582.562951
801.187845	2578.494740
801.508936	2576.574060
801.829983	2577.194122
802.150984	2573.047773
802.471940	2573.680438
802.792851	2574.930644
803.113717	2570.978379
803.434538	2571.006106
803.755314	2573.015005
804.076045	2572.488205
804.396731	2572.972156
804.717372	2574.882753
805.037967	2573.216652
805.358518	2572.097515
805.679024	2574.769327
805.999485	2573.007444
806.319901	2572.344532
806.640272	2571.013667
806.960598	2575.853175
807.280879	2574.925603
807.601115	2576.924420
807.921306	2575.187743
808.241453	2575.371745
808.561554	2576.886612
808.881611	2577.027764
809.201623	2573.985427
809.521590	2574.214800
809.841513	2573.388051
810.161390	2575.008782
810.481223	2574.429049
810.801011	2572.944429
811.120755	2571.616085
811.440453	2573.630026
811.760107	2570.396126
812.079716	2568.520817
812.399281	2568.586352
812.718801	2568.546023
813.038276	2565.259190
813.357707	2569.077864
813.677093	2570.696075
813.996434	2571.792526
814.315731	2570.227247
814.634983	2570.466702
814.954191	2571.553071
815.273354	2569.972669
815.592473	2572.205900
815.911547	2575.313772
816.230577	2574.683627
816.549562	2578.615727
816.868502	2579.185378
817.187399	2578.540110
817.506250	2580.160841
817.825058	2583.374577
818.143821	2589.711307
818.462539	2591.619384
818.781213	2595.238932
819.099843	2604.582711
819.418429	2617.586367
819.736970	2629.566669
820.055466	2650.860503
820.373919	2666.621671
820.692327	2698.194417
821.010691	2756.119795
821.329011	2879.164278
821.647286	3063.098338
821.965517	3266.483690
822.283704	3381.759755
822.601847	3413.093047
822.919945	3331.280161
823.237999	3234.048906
823.556010	3133.089718
823.873976	3042.684186
824.191897	2956.803089
824.509775	2892.888820
824.827609	2836.027125
825.145398	2807.327836
825.463144	2789.507357
825.780845	2794.954324
826.098502	2819.335865
826.416116	2863.400590
826.733685	2906.394071
827.051210	2917.356060
827.368692	2897.826630
827.686129	2845.159175
828.003522	2796.549849
828.320872	2749.543610
828.638177	2714.308465
828.955439	2687.053467
829.272656	2664.257369
829.589830	2641.577218
829.906960	2629.619601
830.224046	2618.334978
830.541088	2606.400047
830.858086	2604.688575
831.175041	2597.250352
831.491952	2596.295054
831.808819	2601.487442
832.125642	2606.115222
832.442421	2616.966305
832.759157	2644.521252
833.075849	2682.972653
833.392497	2719.198385
833.709101	2743.461458
834.025662	2737.472567
834.342179	2720.226780
834.658653	2688.336441
834.975083	2668.746517
835.291469	2651.704896
835.607811	2630.053141
835.924110	2620.414454
836.240366	2607.012547
836.556578	2594.714652
836.872746	2587.790627
837.188871	2582.988928
837.504952	2575.394430
837.820990	2568.278841
838.136984	2565.969993
838.452935	2563.101576
838.768842	2566.496793
839.084706	2572.039542
839.400526	2590.399424
839.716303	2615.781634
840.032037	2625.392594
840.347727	2624.911164
840.663373	2611.284925
840.978977	2598.170363
841.294537	2584.564289
841.610054	2576.377455
841.925527	2571.104408
842.240957	2565.047462
842.556344	2557.662171
842.871687	2557.707542
843.186987	2553.130174
843.502244	2549.039278
843.817458	2543.718340
844.132629	2543.546941
844.447756	2541.888401
844.762840	2538.808256
845.077881	2539.440921
845.392879	2538.808256
845.707833	2535.365148
846.022745	2533.366330
846.337613	2537.530323
846.652438	2536.927906
846.967221	2535.914634
847.281960	2536.552340
847.596656	2538.704912
847.911309	2536.219623
848.225919	2536.166691
848.540485	2536.005374
848.855009	2533.199972
849.169490	2534.417411
849.483928	2536.287679
849.798323	2533.867925
850.112675	2535.624767
850.426984	2534.266176
850.741251	2533.799870
851.055474	2532.302647
851.369654	2533.963707
851.683792	2532.559746
851.997887	2534.210724
852.311938	2532.544622
852.625947	2536.426311
852.939914	2535.226516
853.253837	2533.459592
853.567718	2534.944212
853.881555	2534.145189
854.195350	2534.107380
854.509103	2533.021011
854.822812	2534.034283
855.136479	2537.018646
855.450103	2532.809283
855.763685	2535.055117
856.077224	2533.164684
856.390720	2532.756351
856.704173	2534.140147
857.017584	2538.722556
857.330953	2534.167874
857.644278	2536.932947
857.957561	2539.082999
858.270802	2536.441434
858.584000	2535.448327
858.897155	2535.728111
859.210268	2534.976979
859.523339	2534.777853
859.836367	2535.092926
860.149352	2532.784077
860.462295	2536.839685
860.775195	2532.390867
861.088054	2530.581093
861.400869	2531.876669
861.713642	2527.286699
862.026373	2534.583769
862.339062	2533.386495
862.651708	2537.174922
862.964312	2536.524613
863.276873	2535.637370
863.589392	2535.082843
863.901869	2537.749614
864.214303	2537.182484
864.526696	2538.160468
864.839045	2537.784902
865.151353	2541.674152
865.463619	2539.403112
865.775842	2539.135931
866.088023	2543.854451
866.400162	2541.598535
866.712258	2538.175591
867.024313	2541.442259
867.336325	2539.551826
867.648296	2541.225489
867.960224	2540.237423
868.272110	2543.173895
868.583954	2542.105171
868.895755	2542.415202
869.207515	2542.584080
869.519233	2543.592311
869.830909	2543.967877
870.142542	2542.548792
870.454134	2542.480737
870.765684	2544.119112
871.077191	2544.232538
871.388657	2545.150027
871.700081	2545.137425
872.011463	2545.923845
872.322803	2546.909390
872.634101	2546.594318
872.945357	2550.312169
873.256571	2552.636141
873.567744	2548.260419
873.878874	2550.574309
874.189963	2549.840821
874.501010	2554.362736
874.812015	2551.766542
875.122979	2552.994063
875.433900	2553.513302
875.744780	2553.722510
876.055618	2553.344423
876.366415	2557.271482
876.677169	2554.957592
876.987882	2557.815927
877.298554	2554.667726
877.609183	2556.626214
877.919771	2559.635783
878.230317	2563.998902
878.540822	2570.333112
878.851285	2578.038515
879.161707	2585.955647
879.472087	2604.814604
879.782425	2628.898716
880.092722	2668.983451
880.402977	2731.854201
880.713191	2806.738021
881.023363	2877.281408
881.333494	2917.333375
881.643583	2937.145109
881.953631	2926.699839
882.263637	2908.934813
882.573602	2880.439690
882.883526	2846.994155
883.193408	2820.059270
883.503248	2786.896040
883.813048	2762.169180
884.122806	2734.359655
884.432522	2708.874102
884.742197	2683.365863
885.051831	2663.533964
885.361424	2646.484782
885.670975	2631.353758
885.980485	2616.961264
886.289954	2608.066148
886.599382	2599.123141
886.908768	2590.734661
887.218113	2583.941706
887.527417	2578.401478
887.836680	2575.331416
888.145901	2572.541137
888.455082	2563.983778
888.764221	2566.965621
889.073319	2559.524878
889.382376	2561.443037
889.691392	2560.633932
890.000366	2555.688560
890.309300	2557.699980
890.618193	2556.548076
890.927044	2558.214178
891.235855	2557.594116
891.544625	2561.672409
891.853353	2562.819272
892.162041	2565.296999
892.470687	2567.643656
892.779293	2572.387382
893.087858	2579.029102
893.396381	2588.811461
893.704864	2605.195211
894.013306	2626.418469
894.321707	2651.372180
894.630068	2666.646876
894.938387	2670.513441
895.246665	2660.751247
895.554903	2653.373518
895.863100	2640.924389
896.171256	2630.912657
896.479371	2620.976543
896.787446	2613.722323
897.095480	2601.389140
897.403473	2598.540888
897.711425	2589.726430
898.019336	2587.841039
898.327207	2580.196129
898.635038	2577.040367
898.942827	2569.692885
899.250576	2566.171639
899.558284	2564.082081
899.865952	2556.686708
900.173579	2556.197716
900.481165	2556.348951
900.788711	2555.620504
901.096216	2552.805020
901.403681	2551.569937
901.711105	2551.761501
902.018489	2550.549103
902.325832	2556.918601
902.633135	2556.805175
902.940397	2564.540826
903.247619	2585.746439
903.554800	2615.869854
903.861941	2655.692449
904.169041	2683.973322
904.476101	2692.359282
904.783121	2684.966429
905.090100	2670.863802
905.397039	2655.253869
905.703938	2638.202166
906.010796	2626.380660
906.317614	2612.756942
906.624391	2604.033225
906.931129	2594.896134
907.237826	2583.651840
907.544483	2577.993145
907.851099	2570.328070
908.157675	2564.248439
908.464211	2554.602191
908.770707	2545.825542
909.077163	2540.509645
909.383578	2535.758358
909.689954	2535.637370
909.996289	2532.542102
910.302584	2536.474202
910.608839	2536.696013
910.915054	2534.475384
911.221229	2535.569315
911.527363	2538.634336
911.833458	2535.087884
912.139513	2539.297248
912.445527	2535.556712
912.751502	2541.805222
913.057436	2542.274049
913.363331	2544.860161
913.669186	2551.058260
913.975000	2558.020093
914.280775	2564.593758
914.586510	2580.120512
914.892205	2598.387133
915.197859	2619.519650
915.503475	2644.974956
915.809050	2669.537978
916.114585	2682.488702
916.420081	2687.665967
916.725536	2686.085566
917.030952	2675.521828
917.336328	2663.443223
917.641665	2660.093376
917.946961	2646.099133
918.252218	2638.734007
918.557435	2625.647172
918.862612	2616.815071
919.167750	2608.184615
919.472848	2601.066506
919.777906	2591.195927
920.082925	2582.782241
920.387904	2574.842424
920.692843	2570.254974
920.997743	2563.898079
921.302603	2559.051009
921.607423	2556.190154
921.912204	2551.159083
922.216946	2548.383928
922.521647	2547.799154
922.826310	2545.213042
923.130932	2543.259595
923.435516	2539.428318
923.740059	2540.565098
924.044564	2536.673327
924.349028	2537.187525
924.653454	2532.542102
924.957840	2528.836854
925.262186	2527.639580
925.566493	2526.747295
925.870761	2523.531039
926.174989	2527.175793
926.479178	2528.093283
926.783328	2526.233098
927.087438	2523.157994
927.391509	2525.103879
927.695541	2525.103879
927.999533	2523.488189
928.303486	2524.110772
928.607400	2525.965917
928.911275	2522.210257
929.215110	2522.096831
929.518906	2520.997859
929.822663	2521.234794
930.126381	2521.869979
930.430060	2522.618590
930.733699	2521.507016
931.037299	2521.441481
931.340861	2520.665143
931.644383	2521.900226
931.947866	2522.542973
932.251309	2522.671522
932.554714	2521.411234
932.858080	2523.339475
933.161407	2523.021883
933.464694	2522.169928
933.767943	2520.148425
934.071153	2523.304187
934.374323	2519.417458
934.677455	2520.634896
934.980548	2520.526512
935.283602	2517.527025
935.586617	2521.804444
935.889593	2520.498785
936.192530	2521.990967
936.495428	2520.917201
936.798287	2520.687828
937.101108	2520.317304
937.403890	2524.292253
937.706632	2525.250073
938.009336	2527.213602
938.312002	2529.877852
938.614628	2531.060003
938.917216	2527.765608
939.219765	2532.463964
939.522275	2531.773326
939.824747	2536.479243
940.127179	2528.988088
940.429573	2529.010773
940.731929	2529.530012
941.034246	2528.496576
941.336524	2531.236443
941.638763	2532.957997
941.940964	2529.398942
942.243126	2530.019004
942.545250	2529.824920
942.847335	2527.420289
943.149381	2527.518592
943.451389	2525.877696
943.753359	2526.903571
944.055290	2526.548170
944.357182	2521.726306
944.659036	2526.636390
944.960851	2524.725793
945.262628	2524.067922
945.564367	2524.188910
945.866067	2523.490710
946.167729	2526.230577
946.469352	2526.714528
946.770937	2523.326873
947.072484	2523.132788
947.373992	2524.491379
947.675462	2524.168745
947.976893	2522.883251
948.278286	2521.696059
948.579641	2521.746471
948.880958	2523.195802
949.182236	2522.863086
949.483476	2522.212778
949.784678	2525.068591
950.085841	2524.463653
950.386967	2522.686646
950.688054	2521.224711
950.989103	2523.886441
951.290114	2523.309228
951.591087	2523.115144
951.892021	2524.985412
952.192917	2527.092614
952.493776	2526.591020
952.794596	2524.297295
953.095378	2526.081863
953.396122	2526.628828
953.696828	2524.410721
953.997496	2529.409025
954.298126	2521.691018
954.598718	2528.055475
954.899272	2522.016173
955.199788	2523.755371
955.500266	2522.033817
955.800706	2519.460307
956.101108	2517.983249
956.401472	2516.869154
956.701798	2513.451252
957.002087	2513.176509
957.302337	2516.133146
957.602550	2517.595081
957.902724	2514.439318
958.202861	2515.182888
958.502960	2514.663650
958.803022	2512.962260
959.103045	2511.717095
959.403031	2511.656601
959.702979	2513.199194
960.002889	2510.295490
960.302762	2509.781292
960.602596	2511.442352
960.902393	2511.893536
961.202153	2509.511590
961.501875	2510.552589
961.801559	2510.134173
962.101205	2510.819770
962.400814	2508.241220
962.700385	2509.204080
962.999918	2511.858248
963.299414	2508.291631
963.598873	2507.805160
963.898293	2507.968997
964.197677	2509.148627
964.497022	2507.628719
964.796331	2510.280366
965.095601	2507.059069
965.394835	2507.343894
965.694030	2506.872546
965.993189	2507.981600
966.292309	2506.945643
966.591393	2510.252640
966.890439	2504.304078
967.189447	2507.114522
967.488419	2507.868174
967.787353	2508.954543
968.086249	2505.556805
968.385108	2509.088133
968.683930	2509.559481
968.982714	2507.255674
969.281462	2508.284069
969.580172	2505.695437
969.878844	2509.924965
970.177480	2510.456807
970.476078	2510.582836
970.774639	2511.366735
971.073162	2509.930006
971.371649	2507.658966
971.670098	2507.835407
971.968510	2505.909686
972.266885	2506.265087
972.565223	2510.434122
972.863524	2508.578977
973.161788	2508.158041
973.460014	2510.572753
973.758204	2507.991683
974.056356	2511.593587
974.354471	2510.381189
974.652550	2509.446055
974.950591	2510.066117
975.248595	2510.156858
975.546563	2510.802126
975.844493	2510.789523
976.142386	2512.110305
976.440243	2508.405057
976.738062	2512.707682
977.035845	2507.054028
977.333590	2511.961591
977.631299	2509.846827
977.928971	2509.052845
978.226606	2508.233658
978.524204	2507.845489
978.821765	2507.658966
979.119290	2509.130983
979.416777	2506.050838
979.714228	2508.021929
980.011642	2507.316168
980.309020	2511.076869
980.606360	2507.064110
980.903664	2510.161899
981.200931	2509.972856
981.498162	2511.528052
981.795356	2513.960409
982.092513	2516.438136
982.389633	2519.782941
982.686717	2523.009280
982.983764	2526.255783
983.280775	2525.686132
983.577749	2525.920546
983.874686	2523.962058
984.171587	2524.193951
984.468451	2525.005577
984.765279	2524.214116
985.062070	2521.922911
985.358824	2518.336130
985.655543	2518.570544
985.952224	2513.680625
986.248869	2512.364883
986.545478	2507.762310
986.842050	2508.337002
987.138586	2507.394306
987.435086	2504.190653
987.731549	2503.063955
988.027975	2507.840448
988.324366	2505.375324
988.620719	2507.119563
988.917037	2503.167298
989.213318	2506.703668
989.509563	2504.916579
989.805772	2505.750890
990.101944	2504.730056
990.398080	2503.154695
990.694180	2503.305930
990.990244	2504.704850
991.286271	2501.344921
991.582262	2503.550426
991.878217	2501.475991
992.174136	2505.632422
992.470019	2506.456651
992.765865	2504.377175
993.061676	2506.607886
993.357450	2504.500683
993.653188	2505.231651
993.948890	2505.032525
994.244556	2505.589573
994.540186	2510.482013
994.835780	2507.051507
995.131337	2508.430263
995.426859	2511.376817
995.722345	2511.722136
996.017795	2511.684328
996.313208	2514.761952
996.608586	2512.443021
996.903928	2513.763804
997.199234	2517.048115
997.494504	2513.756242
997.789738	2516.100378
998.084936	2513.965450
998.380099	2513.148783
998.675225	2512.160717
998.970316	2510.567712
999.265371	2511.384379
999.560390	2507.684172
999.855373	2504.122597
1000.150320	2507.482526
1000.445232	2507.527896
1000.740108	2505.513955
1001.034948	2504.634274
1001.329752	2503.989006
1001.624521	2503.318533
1001.919254	2498.927688
1002.213951	2501.372647
1002.508613	2497.420383
1002.803239	2500.273676
1003.097829	2497.715290
1003.392384	2501.584376
1003.686903	2502.022956
1003.981386	2501.418018
1004.275834	2498.423573
1004.570246	2502.199397
1004.864623	2502.723677
1005.158964	2501.407936
1005.453270	2499.212513
1005.747540	2502.433810
1006.041775	2500.528254
1006.335974	2498.388284
1006.630138	2499.484735
1006.924266	2500.240908
1007.218359	2501.617143
1007.512416	2500.175373
1007.806438	2501.909530
1008.100425	2499.925836
1008.394376	2499.731752
1008.688292	2501.995230
1008.982172	2499.706546
1009.276017	2501.859119
1009.569827	2500.470281
1009.863602	2501.959942
1010.157341	2501.828872
1010.451045	2501.196207
1010.744714	2497.901813
1011.038347	2499.388953
1011.331945	2500.629077
1011.625508	2499.913233
1011.919036	2497.248984
1012.212528	2500.414828
1012.505986	2497.586741
1012.799408	2497.475836
1013.092795	2499.867863
1013.386147	2498.899962
1013.679464	2498.927688
1013.972745	2499.600682
1014.265992	2498.395846
1014.559204	2500.273676
1014.852380	2496.762512
1015.145521	2501.143275
1015.438628	2500.576145
1015.731699	2500.074550
1016.024736	2502.169150
1016.317737	2500.099756
1016.610703	2502.408605
1016.903635	2496.374343
1017.196531	2495.204796
1017.489393	2498.088336
1017.782219	2495.056082
1018.075011	2499.217554
1018.367768	2500.253511
1018.660490	2500.344252
1018.953177	2500.344252
1019.245829	2500.344252
