Dividing Wavelength (nm)	Counts (n)	Blue Motor Position (mm): 0.000000	Red Motor Position (mm): 6.100000	
326.493990	2084.517115
326.888308	2084.517115
327.282561	2084.517115
327.676750	2049.229038
328.070874	2155.093269
328.464933	1968.570577
328.858929	2029.064423
329.252859	2117.284615
329.646726	2112.243462
330.040528	2165.175577
330.434265	2152.572692
330.827938	2092.078846
331.221547	2112.243462
331.615091	2160.134423
332.008571	2175.257885
332.401986	2195.422500
332.795338	2200.463654
333.188625	2250.875192
333.581847	2258.436923
333.975006	2240.792885
334.368100	2286.163269
334.761129	2283.642692
335.154095	2369.342308
335.546996	2323.971923
335.939833	2419.753846
336.332606	2361.780577
336.725315	2376.904038
337.117960	2384.465769
337.510540	2326.492500
337.903056	2399.589231
338.295508	2450.000769
338.687896	2472.685962
339.080220	2392.027500
339.472480	2417.233269
339.864676	2465.124231
340.256807	2460.083077
340.648875	2505.453462
341.040879	2404.630385
341.432818	2427.315577
341.824694	2482.768269
342.216506	2470.165385
342.608253	2427.315577
342.999937	2523.097500
343.391557	2502.932885
343.783113	2535.700385
344.174605	2505.453462
344.566033	2472.685962
344.957397	2434.877308
345.348697	2576.029615
345.739934	2381.945192
346.131106	2482.768269
346.522215	2470.165385
346.913260	2381.945192
347.304241	2432.356731
347.695159	2434.877308
348.086012	2399.589231
348.476802	2429.836154
348.867528	2444.959615
349.258191	2444.959615
349.648789	2518.056346
350.039324	2409.671538
350.429796	2399.589231
350.820203	2402.109808
351.210548	2457.562500
351.600828	2457.562500
351.991045	2455.041923
352.381198	2475.206538
352.771288	2460.083077
353.161314	2427.315577
353.551276	2407.150962
353.941175	2467.644808
354.331010	2407.150962
354.720782	2429.836154
355.110490	2432.356731
355.500135	2447.480192
355.889717	2437.397885
356.279235	2422.274423
356.668689	2495.371154
357.058080	2525.618077
357.447408	2507.974038
357.836672	2412.192115
358.225873	2500.412308
358.615010	2361.780577
359.004084	2513.015192
359.393095	2492.850577
359.782043	2480.247692
360.170927	2409.671538
360.559748	2399.589231
360.948505	2434.877308
361.337199	2480.247692
361.725830	2404.630385
362.114398	2414.712692
362.502903	2470.165385
362.891344	2518.056346
363.279722	2399.589231
363.668037	2452.521346
364.056289	2477.727115
364.444478	2439.918462
364.832603	2457.562500
365.220665	2424.795000
365.608665	2485.288846
365.996601	2513.015192
366.384474	2429.836154
366.772284	2462.603654
367.160031	2442.439038
367.547715	2568.467885
367.935336	2565.947308
368.322893	2444.959615
368.710388	2444.959615
369.097820	2495.371154
369.485189	2513.015192
369.872495	2417.233269
370.259738	2452.521346
370.646918	2578.550192
371.034035	2437.397885
371.421090	2485.288846
371.808081	2442.439038
372.195010	2495.371154
372.581875	2437.397885
372.968678	2386.986346
373.355418	2422.274423
373.742096	2505.453462
374.128710	2472.685962
374.515262	2462.603654
374.901751	2462.603654
375.288177	2389.506923
375.674540	2427.315577
376.060841	2409.671538
376.447079	2460.083077
376.833254	2369.342308
377.219367	2565.947308
377.605417	2457.562500
377.991404	2460.083077
378.377329	2444.959615
378.763191	2419.753846
379.148991	2452.521346
379.534727	2427.315577
379.920402	2460.083077
380.306013	2482.768269
380.691563	2475.206538
381.077049	2475.206538
381.462474	2452.521346
381.847835	2500.412308
382.233134	2414.712692
382.618371	2482.768269
383.003545	2427.315577
383.388657	2490.330000
383.773706	2505.453462
384.158693	2432.356731
384.543618	2465.124231
384.928480	2487.809423
385.313280	2419.753846
385.698017	2502.932885
386.082692	2450.000769
386.467305	2487.809423
386.851856	2427.315577
387.236344	2379.424615
387.620770	2354.218846
388.005133	2434.877308
388.389435	2437.397885
388.773674	2407.150962
389.157851	2525.618077
389.541965	2432.356731
389.926018	2467.644808
390.310008	2543.262115
390.693936	2457.562500
391.077802	2507.974038
391.461606	2530.659231
391.845348	2422.274423
392.229027	2399.589231
392.612645	2452.521346
392.996200	2452.521346
393.379694	2444.959615
393.763125	2455.041923
394.146494	2480.247692
394.529801	2490.330000
394.913047	2520.576923
395.296230	2513.015192
395.679351	2588.632500
396.062410	2414.712692
396.445408	2354.218846
396.828343	2490.330000
397.211217	2394.548077
397.594028	2457.562500
397.976778	2482.768269
398.359466	2467.644808
398.742092	2409.671538
399.124656	2442.439038
399.507158	2477.727115
399.889598	2525.618077
400.271977	2412.192115
400.654294	2470.165385
401.036549	2455.041923
401.418742	2467.644808
401.800874	2462.603654
402.182944	2540.741538
402.564952	2364.301154
402.946898	2482.768269
403.328783	2492.850577
403.710606	2525.618077
404.092367	2480.247692
404.474067	2492.850577
404.855705	2439.918462
405.237282	2510.494615
405.618797	2558.385577
406.000250	2455.041923
406.381642	2465.124231
406.762972	2434.877308
407.144240	2540.741538
407.525447	2457.562500
407.906593	2457.562500
408.287677	2553.344423
408.668700	2487.809423
409.049661	2500.412308
409.430560	2487.809423
409.811399	2381.945192
410.192176	2495.371154
410.572891	2462.603654
410.953545	2394.548077
411.334138	2528.138654
411.714669	2505.453462
412.095139	2447.480192
412.475547	2525.618077
412.855894	2497.891731
413.236180	2563.426731
413.616405	2437.397885
413.996568	2432.356731
414.376670	2543.262115
414.756711	2472.685962
415.136691	2465.124231
415.516609	2412.192115
415.896466	2545.782692
416.276262	2455.041923
416.655997	2465.124231
417.035670	2427.315577
417.415283	2450.000769
417.794834	2523.097500
418.174324	2452.521346
418.553753	2482.768269
418.933121	2482.768269
419.312428	2540.741538
419.691674	2485.288846
420.070859	2500.412308
420.449983	2475.206538
420.829045	2424.795000
421.208047	2455.041923
421.586988	2533.179808
421.965867	2455.041923
422.344686	2482.768269
422.723444	2467.644808
423.102141	2513.015192
423.480777	2439.918462
423.859352	2457.562500
424.237866	2439.918462
424.616319	2497.891731
424.994712	2490.330000
425.373044	2555.865000
425.751314	2432.356731
426.129524	2460.083077
426.507673	2422.274423
426.885762	2424.795000
427.263789	2477.727115
427.641756	2485.288846
428.019662	2570.988462
428.397508	2505.453462
428.775292	2472.685962
429.153016	2447.480192
429.530679	2472.685962
429.908282	2460.083077
430.285824	2477.727115
430.663305	2520.576923
431.040726	2422.274423
431.418086	2429.836154
431.795385	2485.288846
432.172624	2467.644808
432.549802	2545.782692
432.926920	2439.918462
433.303977	2601.235385
433.680974	2523.097500
434.057910	2432.356731
434.434786	2497.891731
434.811601	2439.918462
435.188355	2591.153077
435.565050	2520.576923
435.941683	2520.576923
436.318257	2523.097500
436.694770	2455.041923
437.071222	2460.083077
437.447614	2480.247692
437.823946	2470.165385
438.200218	2555.865000
438.576429	2558.385577
438.952580	2434.877308
439.328670	2444.959615
439.704700	2490.330000
440.080670	2442.439038
440.456580	2563.426731
440.832429	2442.439038
441.208218	2472.685962
441.583947	2439.918462
441.959616	2450.000769
442.335224	2525.618077
442.710773	2540.741538
443.086261	2586.111923
443.461689	2485.288846
443.837057	2530.659231
444.212365	2467.644808
444.587612	2475.206538
444.962800	2502.932885
445.337927	2477.727115
445.712995	2475.206538
446.088002	2502.932885
446.462949	2472.685962
446.837837	2520.576923
447.212664	2513.015192
447.587431	2497.891731
447.962139	2510.494615
448.336786	2480.247692
448.711374	2470.165385
449.085901	2465.124231
449.460369	2487.809423
449.834776	2515.535769
450.209124	2424.795000
450.583412	2490.330000
450.957640	2447.480192
451.331808	2513.015192
451.705917	2397.068654
452.079965	2548.303269
452.453954	2465.124231
452.827883	2548.303269
453.201752	2535.700385
453.575562	2467.644808
453.949311	2487.809423
454.323001	2548.303269
454.696632	2543.262115
455.070202	2513.015192
455.443713	2417.233269
455.817164	2523.097500
456.190556	2437.397885
456.563888	2465.124231
456.937160	2470.165385
457.310373	2422.274423
457.683526	2520.576923
458.056619	2553.344423
458.429653	2386.986346
458.802628	2500.412308
459.175542	2485.288846
459.548398	2540.741538
459.921194	2399.589231
460.293930	2548.303269
460.666607	2550.823846
461.039224	2548.303269
461.411782	2434.877308
461.784280	2434.877308
462.156719	2578.550192
462.529099	2455.041923
462.901419	2472.685962
463.273680	2462.603654
463.645882	2427.315577
464.018024	2437.397885
464.390106	2492.850577
464.762130	2555.865000
465.134094	2475.206538
465.505999	2523.097500
465.877845	2482.768269
466.249631	2495.371154
466.621358	2462.603654
466.993026	2477.727115
467.364634	2490.330000
467.736184	2470.165385
468.107674	2507.974038
468.479105	2455.041923
468.850477	2437.397885
469.221790	2520.576923
469.593043	2444.959615
469.964238	2452.521346
470.335373	2507.974038
470.706449	2497.891731
471.077467	2570.988462
471.448425	2432.356731
471.819324	2565.947308
472.190164	2492.850577
472.560945	2457.562500
472.931667	2444.959615
473.302330	2444.959615
473.672934	2528.138654
474.043479	2581.070769
474.413965	2497.891731
474.784393	2507.974038
475.154761	2462.603654
475.525070	2442.439038
475.895321	2485.288846
476.265513	2437.397885
476.635645	2492.850577
477.005719	2530.659231
477.375734	2540.741538
477.745691	2518.056346
478.115588	2513.015192
478.485427	2520.576923
478.855207	2434.877308
479.224928	2404.630385
479.594591	2513.015192
479.964194	2565.947308
480.333739	2555.865000
480.703226	2553.344423
481.072653	2477.727115
481.442022	2450.000769
481.811333	2467.644808
482.180584	2482.768269
482.549777	2444.959615
482.918912	2477.727115
483.287988	2495.371154
483.657005	2412.192115
484.025964	2424.795000
484.394864	2523.097500
484.763706	2518.056346
485.132489	2472.685962
485.501213	2520.576923
485.869879	2533.179808
486.238487	2475.206538
486.607036	2518.056346
486.975527	2535.700385
487.343959	2520.576923
487.712333	2596.194231
488.080648	2487.809423
488.448905	2467.644808
488.817104	2487.809423
489.185244	2565.947308
489.553326	2482.768269
489.921350	2452.521346
490.289315	2472.685962
490.657222	2492.850577
491.025070	2407.150962
491.392861	2540.741538
491.760593	2470.165385
492.128267	2495.371154
492.495883	2500.412308
492.863440	2492.850577
493.230939	2480.247692
493.598380	2505.453462
493.965763	2402.109808
494.333088	2570.988462
494.700354	2560.906154
495.067563	2490.330000
495.434713	2432.356731
495.801805	2485.288846
496.168839	2475.206538
496.535815	2480.247692
496.902733	2475.206538
497.269593	2545.782692
497.636395	2442.439038
498.003139	2523.097500
498.369825	2490.330000
498.736453	2487.809423
499.103023	2573.509038
499.469535	2424.795000
499.835989	2525.618077
500.202385	2424.795000
500.568723	2518.056346
500.935003	2565.947308
501.301226	2472.685962
501.667390	2543.262115
502.033497	2437.397885
502.399546	2518.056346
502.765537	2462.603654
503.131470	2565.947308
503.497345	2555.865000
503.863163	2442.439038
504.228923	2371.862885
504.594625	2505.453462
504.960269	2487.809423
505.325856	2507.974038
505.691385	2455.041923
506.056856	2439.918462
506.422270	2502.932885
506.787625	2442.439038
507.152924	2477.727115
507.518164	2472.685962
507.883347	2455.041923
508.248472	2480.247692
508.613540	2495.371154
508.978550	2477.727115
509.343503	2470.165385
509.708398	2432.356731
510.073236	2545.782692
510.438016	2533.179808
510.802738	2528.138654
511.167403	2424.795000
511.532010	2434.877308
511.896561	2427.315577
512.261053	2530.659231
512.625488	2477.727115
512.989866	2513.015192
513.354186	2402.109808
513.718449	2538.220962
514.082655	2480.247692
514.446803	2432.356731
514.810894	2460.083077
515.174927	2540.741538
515.538904	2487.809423
515.902822	2540.741538
516.266684	2460.083077
516.630488	2460.083077
516.994235	2515.535769
517.357925	2548.303269
517.721558	2560.906154
518.085133	2495.371154
518.448651	2485.288846
518.812112	2502.932885
519.175516	2538.220962
519.538863	2510.494615
519.902152	2528.138654
520.265385	2563.426731
520.628560	2495.371154
520.991678	2593.673654
521.354739	2535.700385
521.717743	2447.480192
522.080690	2495.371154
522.443580	2497.891731
522.806413	2490.330000
523.169189	2427.315577
523.531908	2442.439038
523.894569	2518.056346
524.257174	2548.303269
524.619722	2520.576923
524.982213	2502.932885
525.344647	2530.659231
525.707025	2497.891731
526.069345	2608.797115
526.431608	2555.865000
526.793815	2505.453462
527.155964	2505.453462
527.518057	2462.603654
527.880093	2502.932885
528.242072	2513.015192
528.603995	2482.768269
528.965860	2502.932885
529.327669	2530.659231
529.689421	2475.206538
530.051117	2510.494615
530.412755	2495.371154
530.774337	2500.412308
531.135862	2535.700385
531.497331	2472.685962
531.858743	2540.741538
532.220098	2457.562500
532.581396	2495.371154
532.942638	2482.768269
533.303824	2480.247692
533.664953	2490.330000
534.026025	2482.768269
534.387040	2482.768269
534.747999	2434.877308
535.108902	2596.194231
535.469748	2550.823846
535.830537	2480.247692
536.191270	2581.070769
536.551947	2518.056346
536.912567	2447.480192
537.273131	2525.618077
537.633638	2550.823846
537.994089	2505.453462
538.354483	2462.603654
538.714821	2513.015192
539.075103	2462.603654
539.435328	2480.247692
539.795497	2427.315577
540.155609	2576.029615
540.515665	2419.753846
540.875665	2576.029615
541.235609	2480.247692
541.595496	2472.685962
541.955328	2507.974038
542.315102	2535.700385
542.674821	2492.850577
543.034483	2490.330000
543.394090	2444.959615
543.753640	2492.850577
544.113134	2523.097500
544.472571	2550.823846
544.831953	2500.412308
545.191278	2472.685962
545.550548	2530.659231
545.909761	2424.795000
546.268918	2530.659231
546.628019	2455.041923
546.987064	2470.165385
547.346053	2455.041923
547.704986	2543.262115
548.063863	2520.576923
548.422684	2427.315577
548.781449	2475.206538
549.140158	2563.426731
549.498811	2475.206538
549.857408	2525.618077
550.215949	2462.603654
550.574434	2437.397885
550.932864	2550.823846
551.291237	2457.562500
551.649555	2518.056346
552.007817	2515.535769
552.366022	2482.768269
552.724173	2485.288846
553.082267	2548.303269
553.440305	2467.644808
553.798288	2402.109808
554.156215	2555.865000
554.514086	2533.179808
554.871902	2492.850577
555.229661	2502.932885
555.587365	2550.823846
555.945014	2437.397885
556.302606	2455.041923
556.660143	2480.247692
557.017625	2495.371154
557.375050	2505.453462
557.732421	2558.385577
558.089735	2507.974038
558.446994	2495.371154
558.804197	2402.109808
559.161345	2513.015192
559.518437	2518.056346
559.875474	2543.262115
560.232455	2492.850577
560.589381	2465.124231
560.946251	2515.535769
561.303065	2523.097500
561.659825	2490.330000
562.016528	2414.712692
562.373177	2563.426731
562.729770	2528.138654
563.086307	2490.330000
563.442789	2535.700385
563.799216	2502.932885
564.155587	2540.741538
564.511904	2528.138654
564.868164	2475.206538
565.224370	2568.467885
565.580520	2530.659231
565.936615	2505.453462
566.292654	2538.220962
566.648638	2472.685962
567.004567	2502.932885
567.360441	2525.618077
567.716260	2447.480192
568.072023	2467.644808
568.427732	2465.124231
568.783385	2470.165385
569.138982	2487.809423
569.494525	2482.768269
569.850013	2598.714808
570.205445	2538.220962
570.560823	2490.330000
570.916145	2513.015192
571.271412	2419.753846
571.626625	2412.192115
571.981782	2447.480192
572.336884	2515.535769
572.691931	2470.165385
573.046923	2429.836154
573.401860	2520.576923
573.756743	2457.562500
574.111570	2558.385577
574.466342	2485.288846
574.821059	2470.165385
575.175722	2455.041923
575.530330	2462.603654
575.884882	2472.685962
576.239380	2447.480192
576.593823	2550.823846
576.948211	2568.467885
577.302544	2540.741538
577.656823	2480.247692
578.011047	2497.891731
578.365216	2505.453462
578.719330	2543.262115
579.073389	2510.494615
579.427394	2505.453462
579.781344	2492.850577
580.135239	2472.685962
580.489080	2475.206538
580.842866	2500.412308
581.196597	2502.932885
581.550273	2560.906154
581.903895	2480.247692
582.257463	2502.932885
582.610975	2450.000769
582.964434	2495.371154
583.317837	2470.165385
583.671186	2505.453462
584.024481	2475.206538
584.377721	2525.618077
584.730906	2502.932885
585.084037	2570.988462
585.437113	2447.480192
585.790135	2578.550192
586.143103	2442.439038
586.496016	2535.700385
586.848874	2480.247692
587.201679	2518.056346
587.554428	2528.138654
587.907124	2606.276538
588.259765	2386.986346
588.612352	2535.700385
588.964884	2507.974038
589.317362	2513.015192
589.669786	2507.974038
590.022155	2487.809423
590.374470	2467.644808
590.726731	2432.356731
591.078937	2485.288846
591.431090	2523.097500
591.783188	2477.727115
592.135232	2492.850577
592.487222	2419.753846
592.839157	2492.850577
593.191038	2485.288846
593.542866	2513.015192
593.894639	2414.712692
594.246358	2535.700385
594.598022	2540.741538
594.949633	2472.685962
595.301190	2455.041923
595.652692	2442.439038
596.004141	2568.467885
596.355535	2606.276538
596.706876	2505.453462
597.058162	2492.850577
597.409395	2465.124231
597.760573	2538.220962
598.111698	2502.932885
598.462768	2462.603654
598.813785	2485.288846
599.164748	2533.179808
599.515657	2533.179808
599.866511	2490.330000
600.217312	2555.865000
600.568060	2533.179808
600.918753	2439.918462
601.269392	2495.371154
601.619978	2490.330000
601.970510	2558.385577
602.320988	2505.453462
602.671412	2460.083077
603.021783	2507.974038
603.372100	2475.206538
603.722363	2523.097500
604.072572	2447.480192
604.422728	2450.000769
604.772830	2533.179808
605.122878	2578.550192
605.472872	2555.865000
605.822813	2497.891731
606.172701	2480.247692
606.522534	2505.453462
606.872314	2538.220962
607.222041	2447.480192
607.571714	2502.932885
607.921333	2520.576923
608.270899	2497.891731
608.620411	2578.550192
608.969870	2497.891731
609.319276	2495.371154
609.668627	2500.412308
610.017926	2487.809423
610.367171	2578.550192
610.716362	2507.974038
611.065500	2538.220962
611.414585	2565.947308
611.763616	2568.467885
612.112594	2502.932885
612.461518	2528.138654
612.810389	2487.809423
613.159207	2462.603654
613.507971	2462.603654
613.856682	2510.494615
614.205340	2578.550192
614.553945	2568.467885
614.902496	2450.000769
615.250994	2530.659231
615.599439	2500.412308
615.947830	2518.056346
616.296169	2412.192115
616.644454	2530.659231
616.992686	2465.124231
617.340864	2500.412308
617.688990	2447.480192
618.037063	2434.877308
618.385082	2530.659231
618.733048	2518.056346
619.080961	2495.371154
619.428821	2467.644808
619.776628	2583.591346
620.124382	2444.959615
620.472083	2487.809423
620.819731	2507.974038
621.167326	2462.603654
621.514868	2500.412308
621.862357	2492.850577
622.209793	2573.509038
622.557176	2528.138654
622.904506	2500.412308
623.251783	2530.659231
623.599007	2460.083077
623.946179	2424.795000
624.293297	2507.974038
624.640363	2475.206538
624.987376	2525.618077
625.334336	2500.412308
625.681243	2528.138654
626.028097	2437.397885
626.374899	2437.397885
626.721647	2558.385577
627.068343	2530.659231
627.414987	2563.426731
627.761577	2497.891731
628.108115	2507.974038
628.454600	2523.097500
628.801032	2490.330000
629.147412	2450.000769
629.493739	2583.591346
629.840014	2538.220962
630.186236	2591.153077
630.532405	2485.288846
630.878521	2475.206538
631.224585	2570.988462
631.570597	2533.179808
631.916556	2560.906154
632.262462	2442.439038
632.608316	2538.220962
632.954117	2470.165385
633.299866	2525.618077
633.645562	2424.795000
633.991206	2480.247692
634.336797	2477.727115
634.682336	2409.671538
635.027823	2502.932885
635.373257	2417.233269
635.718639	2490.330000
636.063968	2548.303269
636.409245	2470.165385
636.754470	2510.494615
637.099642	2497.891731
637.444762	2500.412308
637.789829	2407.150962
638.134845	2621.400000
638.479808	2434.877308
638.824719	2497.891731
639.169577	2460.083077
639.514383	2583.591346
639.859137	2485.288846
640.203839	2543.262115
640.548489	2598.714808
640.893086	2520.576923
641.237632	2535.700385
641.582125	2558.385577
641.926566	2424.795000
642.270955	2533.179808
642.615292	2465.124231
642.959576	2417.233269
643.303809	2558.385577
643.647990	2593.673654
643.992118	2419.753846
644.336195	2487.809423
644.680219	2457.562500
645.024192	2467.644808
645.368112	2550.823846
645.711981	2490.330000
646.055797	2502.932885
646.399562	2558.385577
646.743274	2518.056346
647.086935	2570.988462
647.430544	2475.206538
647.774101	2515.535769
648.117606	2462.603654
648.461059	2523.097500
648.804460	2520.576923
649.147810	2487.809423
649.491108	2482.768269
649.834354	2540.741538
650.177548	2535.700385
650.520690	2596.194231
650.863781	2492.850577
651.206820	2480.247692
651.549807	2520.576923
651.892742	2507.974038
652.235626	2482.768269
652.578458	2480.247692
652.921238	2460.083077
653.263967	2470.165385
653.606644	2442.439038
653.949269	2520.576923
654.291843	2500.412308
654.634365	2495.371154
654.976836	2515.535769
655.319255	2535.700385
655.661622	2535.700385
656.003938	2510.494615
656.346203	2472.685962
656.688416	2543.262115
657.030577	2487.809423
657.372687	2518.056346
657.714746	2515.535769
658.056753	2611.317692
658.398708	2505.453462
658.740612	2543.262115
659.082465	2432.356731
659.424266	2492.850577
659.766016	2475.206538
660.107715	2447.480192
660.449362	2560.906154
660.790958	2434.877308
661.132503	2444.959615
661.473996	2497.891731
661.815438	2528.138654
662.156829	2530.659231
662.498168	2573.509038
662.839456	2442.439038
663.180693	2518.056346
663.521879	2432.356731
663.863013	2460.083077
664.204097	2429.836154
664.545129	2510.494615
664.886110	2492.850577
665.227040	2480.247692
665.567918	2581.070769
665.908746	2475.206538
666.249522	2510.494615
666.590248	2475.206538
666.930922	2510.494615
667.271545	2500.412308
667.612118	2533.179808
667.952639	2434.877308
668.293109	2518.056346
668.633528	2495.371154
668.973896	2490.330000
669.314213	2535.700385
669.654480	2462.603654
669.994695	2523.097500
670.334859	2523.097500
670.674973	2510.494615
671.015035	2568.467885
671.355047	2535.700385
671.695008	2510.494615
672.034918	2535.700385
672.374777	2485.288846
672.714585	2457.562500
673.054342	2467.644808
673.394049	2450.000769
673.733705	2437.397885
674.073310	2482.768269
674.412864	2472.685962
674.752368	2507.974038
675.091820	2520.576923
675.431223	2472.685962
675.770574	2500.412308
676.109875	2439.918462
676.449125	2533.179808
676.788324	2565.947308
677.127473	2480.247692
677.466571	2505.453462
677.805619	2520.576923
678.144616	2515.535769
678.483562	2513.015192
678.822458	2429.836154
679.161303	2497.891731
679.500098	2475.206538
679.838842	2558.385577
680.177535	2530.659231
680.516179	2495.371154
680.854771	2492.850577
681.193314	2457.562500
681.531805	2492.850577
681.870247	2495.371154
682.208638	2437.397885
682.546978	2505.453462
682.885268	2447.480192
683.223508	2500.412308
683.561697	2538.220962
683.899836	2497.891731
684.237925	2523.097500
684.575963	2558.385577
684.913951	2490.330000
685.251889	2543.262115
685.589776	2492.850577
685.927614	2520.576923
686.265401	2447.480192
686.603137	2555.865000
686.940824	2500.412308
687.278460	2490.330000
687.616046	2439.918462
687.953582	2497.891731
688.291068	2442.439038
688.628504	2520.576923
688.965889	2591.153077
689.303224	2500.412308
689.640510	2467.644808
689.977745	2520.576923
690.314930	2455.041923
690.652065	2480.247692
690.989150	2475.206538
691.326185	2558.385577
691.663170	2465.124231
692.000105	2487.809423
692.336990	2490.330000
692.673825	2497.891731
693.010610	2482.768269
693.347345	2538.220962
693.684030	2462.603654
694.020665	2490.330000
694.357251	2487.809423
694.693786	2500.412308
695.030272	2402.109808
695.366707	2510.494615
695.703093	2555.865000
696.039429	2477.727115
696.375716	2510.494615
696.711952	2535.700385
697.048139	2490.330000
697.384276	2447.480192
697.720363	2442.439038
698.056400	2530.659231
698.392388	2513.015192
698.728326	2495.371154
699.064214	2502.932885
699.400053	2545.782692
699.735842	2439.918462
700.071581	2505.453462
700.407270	2492.850577
700.742910	2520.576923
701.078501	2462.603654
701.414042	2444.959615
701.749533	2487.809423
702.084974	2434.877308
702.420366	2515.535769
702.755709	2480.247692
703.091002	2472.685962
703.426246	2543.262115
703.761440	2528.138654
704.096584	2548.303269
704.431679	2470.165385
704.766725	2530.659231
705.101721	2450.000769
705.436668	2497.891731
705.771565	2492.850577
706.106413	2530.659231
706.441212	2394.548077
706.775961	2550.823846
707.110661	2533.179808
707.445311	2550.823846
707.779913	2490.330000
708.114465	2457.562500
708.448967	2480.247692
708.783421	2520.576923
709.117825	2439.918462
709.452180	2480.247692
709.786485	2558.385577
710.120742	2490.330000
710.454949	2470.165385
710.789107	2500.412308
711.123216	2510.494615
711.457275	2513.015192
711.791286	2515.535769
712.125247	2560.906154
712.459159	2470.165385
712.793023	2540.741538
713.126837	2495.371154
713.460602	2447.480192
713.794318	2565.947308
714.127985	2485.288846
714.461602	2465.124231
714.795171	2523.097500
715.128691	2457.562500
715.462162	2513.015192
715.795584	2427.315577
716.128957	2487.809423
716.462281	2460.083077
716.795556	2497.891731
717.128782	2480.247692
717.461960	2497.891731
717.795088	2477.727115
718.128167	2429.836154
718.461198	2507.974038
718.794180	2444.959615
719.127113	2573.509038
719.459997	2467.644808
719.792833	2586.111923
720.125619	2422.274423
720.458357	2442.439038
720.791046	2520.576923
721.123686	2502.932885
721.456278	2548.303269
721.788821	2515.535769
722.121315	2480.247692
722.453761	2515.535769
722.786158	2480.247692
723.118506	2543.262115
723.450805	2558.385577
723.783056	2525.618077
724.115259	2427.315577
724.447412	2500.412308
724.779518	2470.165385
725.111574	2518.056346
725.443582	2497.891731
725.775542	2558.385577
726.107453	2424.795000
726.439315	2505.453462
726.771129	2497.891731
727.102895	2568.467885
727.434612	2447.480192
727.766281	2513.015192
728.097901	2462.603654
728.429473	2568.467885
728.760996	2533.179808
729.092471	2452.521346
729.423897	2535.700385
729.755276	2515.535769
730.086606	2502.932885
730.417887	2535.700385
730.749120	2475.206538
731.080305	2402.109808
731.411442	2563.426731
731.742530	2530.659231
732.073570	2523.097500
732.404562	2477.727115
732.735506	2419.753846
733.066401	2480.247692
733.397249	2505.453462
733.728048	2525.618077
734.058798	2538.220962
734.389501	2545.782692
734.720156	2475.206538
735.050762	2513.015192
735.381320	2462.603654
735.711831	2467.644808
736.042293	2447.480192
736.372707	2548.303269
736.703073	2404.630385
737.033391	2540.741538
737.363661	2507.974038
737.693883	2427.315577
738.024056	2538.220962
738.354182	2437.397885
738.684260	2460.083077
739.014290	2492.850577
739.344272	2447.480192
739.674207	2523.097500
740.004093	2578.550192
740.333931	2525.618077
740.663722	2444.959615
740.993464	2513.015192
741.323159	2581.070769
741.652806	2639.044038
741.982405	2397.068654
742.311956	2331.533654
742.641460	2470.165385
742.970915	2485.288846
743.300323	2513.015192
743.629683	2452.521346
743.958996	2505.453462
744.288260	2560.906154
744.617477	2467.644808
744.946647	2434.877308
745.275768	2429.836154
745.604842	2477.727115
745.933869	2470.165385
746.262847	2472.685962
746.591778	2497.891731
746.920662	2485.288846
747.249498	2513.015192
747.578286	2434.877308
747.907027	2520.576923
748.235720	2543.262115
748.564365	2492.850577
748.892963	2455.041923
749.221514	2502.932885
749.550017	2505.453462
749.878473	2530.659231
750.206881	2465.124231
750.535242	2507.974038
750.863555	2535.700385
751.191821	2497.891731
751.520039	2515.535769
751.848210	2422.274423
752.176334	2568.467885
752.504411	2538.220962
752.832440	2588.632500
753.160421	2533.179808
753.488356	2555.865000
753.816243	2477.727115
754.144082	2543.262115
754.471875	2417.233269
754.799620	2475.206538
755.127318	2513.015192
755.454969	2548.303269
755.782572	2439.918462
756.110129	2432.356731
756.437638	2538.220962
756.765100	2560.906154
757.092515	2462.603654
757.419882	2500.412308
757.747203	2444.959615
758.074477	2422.274423
758.401703	2515.535769
758.728882	2424.795000
759.056014	2520.576923
759.383099	2578.550192
759.710138	2495.371154
760.037129	2472.685962
760.364073	2513.015192
760.690970	2555.865000
761.017820	2477.727115
761.344623	2518.056346
761.671379	2475.206538
761.998088	2475.206538
762.324751	2538.220962
762.651366	2528.138654
762.977935	2462.603654
763.304456	2578.550192
763.630931	2487.809423
763.957359	2437.397885
764.283740	2487.809423
764.610074	2480.247692
764.936362	2583.591346
765.262602	2487.809423
765.588796	2523.097500
765.914943	2447.480192
766.241044	2495.371154
766.567097	2555.865000
766.893104	2507.974038
767.219064	2515.535769
767.544978	2502.932885
767.870845	2477.727115
768.196665	2402.109808
768.522438	2563.426731
768.848165	2457.562500
769.173846	2475.206538
769.499479	2568.467885
769.825066	2455.041923
770.150607	2500.412308
770.476101	2467.644808
770.801548	2427.315577
771.126949	2502.932885
771.452303	2487.809423
771.777611	2369.342308
772.102872	2492.850577
772.428087	2528.138654
772.753256	2576.029615
773.078378	2472.685962
773.403453	2515.535769
773.728482	2530.659231
774.053465	2538.220962
774.378401	2558.385577
774.703291	2480.247692
775.028135	2548.303269
775.352932	2460.083077
775.677683	2528.138654
776.002388	2578.550192
776.327046	2500.412308
776.651658	2502.932885
776.976224	2505.453462
777.300743	2462.603654
777.625216	2457.562500
777.949643	2535.700385
778.274024	2434.877308
778.598359	2497.891731
778.922647	2480.247692
779.246889	2497.891731
779.571086	2487.809423
779.895236	2472.685962
780.219339	2568.467885
780.543397	2535.700385
780.867409	2553.344423
781.191374	2553.344423
781.515294	2515.535769
781.839167	2558.385577
782.162995	2457.562500
782.486776	2490.330000
782.810511	2500.412308
783.134201	2467.644808
783.457844	2507.974038
783.781441	2472.685962
784.104993	2444.959615
784.428498	2555.865000
784.751958	2482.768269
785.075372	2477.727115
785.398739	2450.000769
785.722061	2528.138654
786.045337	2472.685962
786.368568	2475.206538
786.691752	2578.550192
787.014891	2535.700385
787.337983	2538.220962
787.661030	2485.288846
787.984031	2507.974038
788.306987	2492.850577
788.629897	2518.056346
788.952760	2502.932885
789.275579	2371.862885
789.598351	2462.603654
789.921078	2460.083077
790.243759	2538.220962
790.566395	2510.494615
790.888984	2434.877308
791.211529	2495.371154
791.534027	2576.029615
791.856480	2518.056346
792.178888	2555.865000
792.501249	2442.439038
792.823566	2553.344423
793.145836	2432.356731
793.468062	2513.015192
793.790241	2507.974038
794.112375	2570.988462
794.434464	2545.782692
794.756507	2495.371154
795.078505	2505.453462
795.400457	2482.768269
795.722364	2475.206538
796.044226	2502.932885
796.366042	2427.315577
796.687812	2472.685962
797.009538	2495.371154
797.331218	2533.179808
797.652852	2586.111923
797.974442	2583.591346
798.295986	2515.535769
798.617484	2553.344423
798.938938	2455.041923
799.260346	2427.315577
799.581709	2560.906154
799.903026	2523.097500
800.224299	2540.741538
800.545526	2548.303269
800.866708	2513.015192
801.187845	2505.453462
801.508936	2439.918462
801.829983	2495.371154
802.150984	2472.685962
802.471940	2530.659231
802.792851	2507.974038
803.113717	2429.836154
803.434538	2533.179808
803.755314	2450.000769
804.076045	2540.741538
804.396731	2563.426731
804.717372	2460.083077
805.037967	2450.000769
805.358518	2510.494615
805.679024	2429.836154
805.999485	2470.165385
806.319901	2515.535769
806.640272	2525.618077
806.960598	2550.823846
807.280879	2520.576923
807.601115	2581.070769
807.921306	2497.891731
808.241453	2422.274423
808.561554	2470.165385
808.881611	2470.165385
809.201623	2369.342308
809.521590	2538.220962
809.841513	2465.124231
810.161390	2455.041923
810.481223	2555.865000
810.801011	2470.165385
811.120755	2487.809423
811.440453	2497.891731
811.760107	2518.056346
812.079716	2528.138654
812.399281	2455.041923
812.718801	2477.727115
813.038276	2386.986346
813.357707	2543.262115
813.677093	2462.603654
813.996434	2528.138654
814.315731	2492.850577
814.634983	2513.015192
814.954191	2470.165385
815.273354	2555.865000
815.592473	2487.809423
815.911547	2460.083077
816.230577	2455.041923
816.549562	2581.070769
816.868502	2553.344423
817.187399	2371.862885
817.506250	2475.206538
817.825058	2533.179808
818.143821	2495.371154
818.462539	2535.700385
818.781213	2460.083077
819.099843	2497.891731
819.418429	2495.371154
819.736970	2487.809423
820.055466	2558.385577
820.373919	2480.247692
820.692327	2502.932885
821.010691	2457.562500
821.329011	2518.056346
821.647286	2538.220962
821.965517	2450.000769
822.283704	2480.247692
822.601847	2563.426731
822.919945	2417.233269
823.237999	2507.974038
823.556010	2560.906154
823.873976	2515.535769
824.191897	2520.576923
824.509775	2563.426731
824.827609	2528.138654
825.145398	2409.671538
825.463144	2558.385577
825.780845	2545.782692
826.098502	2495.371154
826.416116	2548.303269
826.733685	2480.247692
827.051210	2507.974038
827.368692	2492.850577
827.686129	2513.015192
828.003522	2507.974038
828.320872	2550.823846
828.638177	2523.097500
828.955439	2450.000769
829.272656	2480.247692
829.589830	2543.262115
829.906960	2470.165385
830.224046	2520.576923
830.541088	2485.288846
830.858086	2505.453462
831.175041	2490.330000
831.491952	2444.959615
831.808819	2515.535769
832.125642	2518.056346
832.442421	2452.521346
832.759157	2525.618077
833.075849	2593.673654
833.392497	2558.385577
833.709101	2533.179808
834.025662	2475.206538
834.342179	2613.838269
834.658653	2525.618077
834.975083	2487.809423
835.291469	2475.206538
835.607811	2457.562500
835.924110	2510.494615
836.240366	2507.974038
836.556578	2487.809423
836.872746	2518.056346
837.188871	2507.974038
837.504952	2581.070769
837.820990	2432.356731
838.136984	2538.220962
838.452935	2477.727115
838.768842	2437.397885
839.084706	2389.506923
839.400526	2490.330000
839.716303	2407.150962
840.032037	2523.097500
840.347727	2482.768269
840.663373	2550.823846
840.978977	2530.659231
841.294537	2593.673654
841.610054	2520.576923
841.925527	2485.288846
842.240957	2439.918462
842.556344	2545.782692
842.871687	2470.165385
843.186987	2545.782692
843.502244	2518.056346
843.817458	2460.083077
844.132629	2507.974038
844.447756	2520.576923
844.762840	2533.179808
845.077881	2467.644808
845.392879	2409.671538
845.707833	2502.932885
846.022745	2450.000769
846.337613	2550.823846
846.652438	2447.480192
846.967221	2495.371154
847.281960	2525.618077
847.596656	2550.823846
847.911309	2545.782692
848.225919	2507.974038
848.540485	2538.220962
848.855009	2513.015192
849.169490	2455.041923
849.483928	2523.097500
849.798323	2442.439038
850.112675	2593.673654
850.426984	2455.041923
850.741251	2497.891731
851.055474	2485.288846
851.369654	2439.918462
851.683792	2495.371154
851.997887	2558.385577
852.311938	2507.974038
852.625947	2538.220962
852.939914	2490.330000
853.253837	2417.233269
853.567718	2502.932885
853.881555	2533.179808
854.195350	2492.850577
854.509103	2500.412308
854.822812	2528.138654
855.136479	2495.371154
855.450103	2480.247692
855.763685	2520.576923
856.077224	2384.465769
856.390720	2462.603654
856.704173	2427.315577
857.017584	2520.576923
857.330953	2480.247692
857.644278	2533.179808
857.957561	2520.576923
858.270802	2452.521346
858.584000	2525.618077
858.897155	2515.535769
859.210268	2490.330000
859.523339	2515.535769
859.836367	2439.918462
860.149352	2477.727115
860.462295	2502.932885
860.775195	2485.288846
861.088054	2442.439038
861.400869	2485.288846
861.713642	2523.097500
862.026373	2530.659231
862.339062	2487.809423
862.651708	2530.659231
862.964312	2538.220962
863.276873	2485.288846
863.589392	2530.659231
863.901869	2492.850577
864.214303	2525.618077
864.526696	2593.673654
864.839045	2518.056346
865.151353	2535.700385
865.463619	2399.589231
865.775842	2492.850577
866.088023	2485.288846
866.400162	2507.974038
866.712258	2472.685962
867.024313	2490.330000
867.336325	2490.330000
867.648296	2553.344423
867.960224	2502.932885
868.272110	2490.330000
868.583954	2510.494615
868.895755	2515.535769
869.207515	2525.618077
869.519233	2535.700385
869.830909	2550.823846
870.142542	2485.288846
870.454134	2518.056346
870.765684	2502.932885
871.077191	2467.644808
871.388657	2485.288846
871.700081	2432.356731
872.011463	2477.727115
872.322803	2455.041923
872.634101	2381.945192
872.945357	2518.056346
873.256571	2550.823846
873.567744	2437.397885
873.878874	2502.932885
874.189963	2460.083077
874.501010	2507.974038
874.812015	2444.959615
875.122979	2487.809423
875.433900	2434.877308
875.744780	2530.659231
876.055618	2482.768269
876.366415	2472.685962
876.677169	2452.521346
876.987882	2507.974038
877.298554	2525.618077
877.609183	2465.124231
877.919771	2525.618077
878.230317	2444.959615
878.540822	2477.727115
878.851285	2548.303269
879.161707	2548.303269
879.472087	2477.727115
879.782425	2558.385577
880.092722	2482.768269
880.402977	2482.768269
880.713191	2533.179808
881.023363	2477.727115
881.333494	2477.727115
881.643583	2389.506923
881.953631	2500.412308
882.263637	2444.959615
882.573602	2553.344423
882.883526	2462.603654
883.193408	2490.330000
883.503248	2475.206538
883.813048	2502.932885
884.122806	2429.836154
884.432522	2510.494615
884.742197	2495.371154
885.051831	2467.644808
885.361424	2485.288846
885.670975	2475.206538
885.980485	2444.959615
886.289954	2558.385577
886.599382	2518.056346
886.908768	2553.344423
887.218113	2452.521346
887.527417	2523.097500
887.836680	2492.850577
888.145901	2392.027500
888.455082	2444.959615
888.764221	2439.918462
889.073319	2475.206538
889.382376	2515.535769
889.691392	2424.795000
890.000366	2462.603654
890.309300	2450.000769
890.618193	2507.974038
890.927044	2467.644808
891.235855	2492.850577
891.544625	2540.741538
891.853353	2389.506923
892.162041	2452.521346
892.470687	2437.397885
892.779293	2535.700385
893.087858	2545.782692
893.396381	2505.453462
893.704864	2419.753846
894.013306	2492.850577
894.321707	2482.768269
894.630068	2477.727115
894.938387	2487.809423
895.246665	2520.576923
895.554903	2525.618077
895.863100	2470.165385
896.171256	2497.891731
896.479371	2482.768269
896.787446	2520.576923
897.095480	2472.685962
897.403473	2444.959615
897.711425	2452.521346
898.019336	2475.206538
898.327207	2460.083077
898.635038	2490.330000
898.942827	2598.714808
899.250576	2429.836154
899.558284	2482.768269
899.865952	2439.918462
900.173579	2434.877308
900.481165	2492.850577
900.788711	2470.165385
901.096216	2460.083077
901.403681	2480.247692
901.711105	2553.344423
902.018489	2444.959615
902.325832	2475.206538
902.633135	2510.494615
902.940397	2460.083077
903.247619	2530.659231
903.554800	2487.809423
903.861941	2513.015192
904.169041	2460.083077
904.476101	2434.877308
904.783121	2480.247692
905.090100	2492.850577
905.397039	2515.535769
905.703938	2495.371154
906.010796	2427.315577
906.317614	2485.288846
906.624391	2480.247692
906.931129	2502.932885
907.237826	2528.138654
907.544483	2447.480192
907.851099	2492.850577
908.157675	2465.124231
908.464211	2414.712692
908.770707	2472.685962
909.077163	2452.521346
909.383578	2414.712692
909.689954	2533.179808
909.996289	2513.015192
910.302584	2500.412308
910.608839	2515.535769
910.915054	2487.809423
911.221229	2455.041923
911.527363	2444.959615
911.833458	2565.947308
912.139513	2548.303269
912.445527	2442.439038
912.751502	2482.768269
913.057436	2558.385577
913.363331	2371.862885
913.669186	2502.932885
913.975000	2424.795000
914.280775	2460.083077
914.586510	2608.797115
914.892205	2545.782692
915.197859	2455.041923
915.503475	2477.727115
915.809050	2490.330000
916.114585	2608.797115
916.420081	2568.467885
916.725536	2578.550192
917.030952	2472.685962
917.336328	2379.424615
917.641665	2492.850577
917.946961	2502.932885
918.252218	2528.138654
918.557435	2495.371154
918.862612	2485.288846
919.167750	2490.330000
919.472848	2460.083077
919.777906	2447.480192
920.082925	2588.632500
920.387904	2507.974038
920.692843	2424.795000
920.997743	2455.041923
921.302603	2482.768269
921.607423	2417.233269
921.912204	2543.262115
922.216946	2558.385577
922.521647	2543.262115
922.826310	2485.288846
923.130932	2588.632500
923.435516	2480.247692
923.740059	2462.603654
924.044564	2530.659231
924.349028	2533.179808
924.653454	2477.727115
924.957840	2510.494615
925.262186	2510.494615
925.566493	2510.494615
925.870761	2450.000769
926.174989	2502.932885
926.479178	2495.371154
926.783328	2540.741538
927.087438	2520.576923
927.391509	2444.959615
927.695541	2505.453462
927.999533	2563.426731
928.303486	2475.206538
928.607400	2490.330000
928.911275	2432.356731
929.215110	2482.768269
929.518906	2460.083077
929.822663	2518.056346
930.126381	2545.782692
930.430060	2490.330000
930.733699	2540.741538
931.037299	2545.782692
931.340861	2513.015192
931.644383	2497.891731
931.947866	2495.371154
932.251309	2480.247692
932.554714	2447.480192
932.858080	2495.371154
933.161407	2432.356731
933.464694	2507.974038
933.767943	2424.795000
934.071153	2507.974038
934.374323	2492.850577
934.677455	2394.548077
934.980548	2507.974038
935.283602	2472.685962
935.586617	2528.138654
935.889593	2490.330000
936.192530	2528.138654
936.495428	2502.932885
936.798287	2520.576923
937.101108	2417.233269
937.403890	2450.000769
937.706632	2457.562500
938.009336	2485.288846
938.312002	2439.918462
938.614628	2538.220962
938.917216	2434.877308
939.219765	2548.303269
939.522275	2467.644808
939.824747	2495.371154
940.127179	2346.657115
940.429573	2497.891731
940.731929	2502.932885
941.034246	2492.850577
941.336524	2457.562500
941.638763	2528.138654
941.940964	2457.562500
942.243126	2545.782692
942.545250	2389.506923
942.847335	2523.097500
943.149381	2442.439038
943.451389	2507.974038
943.753359	2447.480192
944.055290	2535.700385
944.357182	2490.330000
944.659036	2475.206538
944.960851	2457.562500
945.262628	2467.644808
945.564367	2457.562500
945.866067	2601.235385
946.167729	2447.480192
946.469352	2518.056346
946.770937	2477.727115
947.072484	2457.562500
947.373992	2450.000769
947.675462	2472.685962
947.976893	2386.986346
948.278286	2462.603654
948.579641	2482.768269
948.880958	2455.041923
949.182236	2419.753846
949.483476	2533.179808
949.784678	2490.330000
950.085841	2450.000769
950.386967	2442.439038
950.688054	2450.000769
950.989103	2460.083077
951.290114	2475.206538
951.591087	2505.453462
951.892021	2510.494615
952.192917	2475.206538
952.493776	2510.494615
952.794596	2558.385577
953.095378	2477.727115
953.396122	2439.918462
953.696828	2447.480192
953.997496	2510.494615
954.298126	2472.685962
954.598718	2548.303269
954.899272	2444.959615
955.199788	2497.891731
955.500266	2444.959615
955.800706	2495.371154
956.101108	2477.727115
956.401472	2402.109808
956.701798	2477.727115
957.002087	2437.397885
957.302337	2497.891731
957.602550	2507.974038
957.902724	2460.083077
958.202861	2513.015192
958.502960	2447.480192
958.803022	2467.644808
959.103045	2513.015192
959.403031	2500.412308
959.702979	2485.288846
960.002889	2477.727115
960.302762	2447.480192
960.602596	2480.247692
960.902393	2485.288846
961.202153	2467.644808
961.501875	2462.603654
961.801559	2422.274423
962.101205	2515.535769
962.400814	2497.891731
962.700385	2518.056346
962.999918	2470.165385
963.299414	2485.288846
963.598873	2467.644808
963.898293	2462.603654
964.197677	2487.809423
964.497022	2560.906154
964.796331	2422.274423
965.095601	2487.809423
965.394835	2480.247692
965.694030	2457.562500
965.993189	2480.247692
966.292309	2475.206538
966.591393	2472.685962
966.890439	2429.836154
967.189447	2502.932885
967.488419	2505.453462
967.787353	2427.315577
968.086249	2535.700385
968.385108	2470.165385
968.683930	2434.877308
968.982714	2533.179808
969.281462	2513.015192
969.580172	2432.356731
969.878844	2495.371154
970.177480	2457.562500
970.476078	2485.288846
970.774639	2495.371154
971.073162	2409.671538
971.371649	2487.809423
971.670098	2608.797115
971.968510	2538.220962
972.266885	2452.521346
972.565223	2500.412308
972.863524	2422.274423
973.161788	2583.591346
973.460014	2477.727115
973.758204	2369.342308
974.056356	2530.659231
974.354471	2550.823846
974.652550	2500.412308
974.950591	2583.591346
975.248595	2444.959615
975.546563	2490.330000
975.844493	2555.865000
976.142386	2500.412308
976.440243	2530.659231
976.738062	2502.932885
977.035845	2480.247692
977.333590	2427.315577
977.631299	2480.247692
977.928971	2545.782692
978.226606	2525.618077
978.524204	2470.165385
978.821765	2502.932885
979.119290	2450.000769
979.416777	2482.768269
979.714228	2507.974038
980.011642	2470.165385
980.309020	2495.371154
980.606360	2505.453462
980.903664	2510.494615
981.200931	2487.809423
981.498162	2444.959615
981.795356	2462.603654
982.092513	2558.385577
982.389633	2480.247692
982.686717	2482.768269
982.983764	2427.315577
983.280775	2530.659231
983.577749	2538.220962
983.874686	2470.165385
984.171587	2515.535769
984.468451	2513.015192
984.765279	2576.029615
985.062070	2447.480192
985.358824	2429.836154
985.655543	2523.097500
985.952224	2515.535769
986.248869	2492.850577
986.545478	2507.974038
986.842050	2399.589231
987.138586	2505.453462
987.435086	2497.891731
987.731549	2505.453462
988.027975	2528.138654
988.324366	2525.618077
988.620719	2457.562500
988.917037	2462.603654
989.213318	2487.809423
989.509563	2477.727115
989.805772	2457.562500
990.101944	2502.932885
990.398080	2510.494615
990.694180	2492.850577
990.990244	2462.603654
991.286271	2482.768269
991.582262	2455.041923
991.878217	2515.535769
992.174136	2500.412308
992.470019	2535.700385
992.765865	2485.288846
993.061676	2553.344423
993.357450	2442.439038
993.653188	2540.741538
993.948890	2487.809423
994.244556	2583.591346
994.540186	2525.618077
994.835780	2515.535769
995.131337	2434.877308
995.426859	2402.109808
995.722345	2485.288846
996.017795	2487.809423
996.313208	2593.673654
996.608586	2452.521346
996.903928	2550.823846
997.199234	2482.768269
997.494504	2538.220962
997.789738	2444.959615
998.084936	2470.165385
998.380099	2460.083077
998.675225	2485.288846
998.970316	2487.809423
999.265371	2588.632500
999.560390	2515.535769
999.855373	2520.576923
1000.150320	2462.603654
1000.445232	2533.179808
1000.740108	2457.562500
1001.034948	2472.685962
1001.329752	2515.535769
1001.624521	2490.330000
1001.919254	2570.988462
1002.213951	2568.467885
1002.508613	2394.548077
1002.803239	2477.727115
1003.097829	2581.070769
1003.392384	2500.412308
1003.686903	2497.891731
1003.981386	2482.768269
1004.275834	2482.768269
1004.570246	2525.618077
1004.864623	2631.482308
1005.158964	2467.644808
1005.453270	2510.494615
1005.747540	2560.906154
1006.041775	2487.809423
1006.335974	2530.659231
1006.630138	2482.768269
1006.924266	2570.988462
1007.218359	2470.165385
1007.512416	2417.233269
1007.806438	2460.083077
1008.100425	2490.330000
1008.394376	2465.124231
1008.688292	2384.465769
1008.982172	2502.932885
1009.276017	2450.000769
1009.569827	2510.494615
1009.863602	2513.015192
1010.157341	2437.397885
1010.451045	2495.371154
1010.744714	2384.465769
1011.038347	2485.288846
1011.331945	2535.700385
1011.625508	2462.603654
1011.919036	2482.768269
1012.212528	2578.550192
1012.505986	2538.220962
1012.799408	2457.562500
1013.092795	2545.782692
1013.386147	2500.412308
1013.679464	2447.480192
1013.972745	2513.015192
1014.265992	2507.974038
1014.559204	2447.480192
1014.852380	2515.535769
1015.145521	2462.603654
1015.438628	2455.041923
1015.731699	2482.768269
1016.024736	2452.521346
1016.317737	2487.809423
1016.610703	2601.235385
1016.903635	2492.850577
1017.196531	2490.330000
1017.489393	2465.124231
1017.782219	2548.303269
1018.075011	2480.247692
1018.367768	2591.153077
1018.660490	2475.206538
1018.953177	2475.206538
1019.245829	2475.206538
