Dividing Wavelength (nm)	Counts (n)	Blue Motor Position (mm): 0.000000	Red Motor Position (mm): 24.700000	
326.493990	2129.501852
326.888308	2129.501852
327.282561	2129.501852
327.676750	2093.654207
328.070874	2092.421645
328.464933	2095.915164
328.858929	2102.904724
329.252859	2110.695827
329.646726	2126.797273
330.040528	2136.231792
330.434265	2154.223670
330.827938	2170.741011
331.221547	2189.680626
331.615091	2206.427339
332.008571	2228.626060
332.401986	2247.353946
332.795338	2269.068717
333.188625	2287.607560
333.581847	2305.957360
333.975006	2322.615853
334.368100	2341.505056
334.761129	2358.466018
335.154095	2376.120139
335.546996	2391.936759
335.939833	2409.719429
336.332606	2424.800041
336.725315	2439.711774
337.117960	2447.616303
337.510540	2453.821964
337.903056	2465.335959
338.295508	2471.642443
338.687896	2484.900677
339.080220	2490.085504
339.472480	2497.150681
339.864676	2499.346104
340.256807	2503.948677
340.648875	2508.823473
341.040879	2512.659791
341.432818	2513.247085
341.824694	2513.967970
342.216506	2512.264060
342.608253	2515.566016
342.999937	2516.662467
343.391557	2515.097189
343.783113	2512.543844
344.174605	2513.741118
344.566033	2509.677948
344.957397	2510.386231
345.348697	2508.412619
345.739934	2507.875736
346.131106	2506.159223
346.522215	2504.067144
346.913260	2500.891217
347.304241	2499.580517
347.695159	2498.131186
348.086012	2495.955928
348.476802	2494.264621
348.867528	2495.603047
349.258191	2489.470483
349.648789	2492.487614
350.039324	2487.111223
350.429796	2488.805051
350.820203	2486.536532
351.210548	2484.976295
351.600828	2483.300111
351.991045	2484.290698
352.381198	2484.998980
352.771288	2483.658033
353.161314	2481.754997
353.551276	2484.930924
353.941175	2482.596870
354.331010	2481.621407
354.720782	2483.279946
355.110490	2483.121150
355.500135	2482.246510
355.889717	2482.405306
356.279235	2483.935296
356.668689	2485.455204
357.058080	2484.434371
357.447408	2480.774493
357.836672	2481.187867
358.225873	2482.866572
358.615010	2481.213073
359.004084	2485.717344
359.393095	2486.541573
359.782043	2486.597026
360.170927	2487.471666
360.559748	2490.524084
360.948505	2492.112048
361.337199	2490.148518
361.725830	2491.665906
362.114398	2491.108858
362.502903	2493.342089
362.891344	2494.042810
363.279722	2490.584578
363.668037	2496.757471
364.056289	2494.559528
364.444478	2495.928201
364.832603	2496.084477
365.220665	2498.912564
365.608665	2497.097749
365.996601	2497.075064
366.384474	2498.327791
366.772284	2500.719818
367.160031	2500.871053
367.547715	2505.087978
367.935336	2506.123935
368.322893	2508.775582
368.710388	2510.035870
369.097820	2520.486182
369.485189	2522.482479
369.872495	2527.821061
370.259738	2530.399611
370.646918	2544.623227
371.034035	2548.189843
371.421090	2560.727193
371.808081	2569.738255
372.195010	2577.690676
372.581875	2594.568459
372.968678	2605.601024
373.355418	2615.378342
373.742096	2634.474233
374.128710	2647.745070
374.515262	2665.225271
374.901751	2678.370080
375.288177	2690.758715
375.674540	2713.184288
376.060841	2731.307236
376.447079	2752.717017
376.833254	2773.264760
377.219367	2784.640123
377.605417	2821.528767
377.991404	2831.328770
378.377329	2852.662933
378.763191	2869.432331
379.148991	2906.865419
379.534727	2931.952721
379.920402	2960.568831
380.306013	2973.232209
380.691563	3022.479241
381.077049	3045.023281
381.462474	3062.455591
381.847835	3102.245418
382.233134	3123.009931
382.618371	3124.113944
383.003545	3192.713965
383.388657	3200.515151
383.773706	3229.406004
384.158693	3245.210021
384.543618	3274.955349
384.928480	3307.266625
385.313280	3356.203626
385.698017	3352.979808
386.082692	3406.257242
386.467305	3414.186977
386.851856	3443.312244
387.236344	3465.931901
387.620770	3497.209740
388.005133	3522.387783
388.389435	3549.312586
388.773674	3561.721386
389.157851	3604.644290
389.541965	3618.605766
389.926018	3586.110488
390.310008	3659.227383
390.693936	3671.971420
391.077802	3714.644788
391.461606	3704.895196
391.845348	3769.943725
392.229027	3766.354423
392.612645	3781.225827
392.996200	3859.882951
393.379694	3899.498858
393.763125	3958.755101
394.146494	3930.091100
394.529801	3989.128053
394.913047	4038.039848
395.296230	4000.437882
395.679351	4058.716141
396.062410	4082.422167
396.445408	4062.242428
396.828343	4098.740382
397.211217	4120.336685
397.594028	4041.346845
397.976778	4105.125003
398.359466	4137.219509
398.742092	4162.533663
399.124656	4084.090788
399.507158	4162.959640
399.889598	4191.154814
400.271977	4247.557764
400.654294	4220.254874
401.036549	4233.447574
401.418742	4203.621587
401.800874	4301.699756
402.182944	4321.398065
402.564952	4385.924834
402.946898	4372.205334
403.328783	4372.729614
403.710606	4282.860964
404.092367	4474.553360
404.474067	4442.037917
404.855705	4452.246254
405.237282	4377.543916
405.618797	4486.757993
406.000250	4519.192777
406.381642	4599.657154
406.762972	4565.001742
407.144240	4573.604471
407.525447	4573.175973
407.906593	4634.519253
408.287677	4677.810162
408.668700	4605.656127
409.049661	4657.504394
409.430560	4696.165003
409.811399	4622.191112
410.192176	4784.241523
410.572891	4727.001741
410.953545	4829.228780
411.334138	4708.719997
411.714669	4773.561838
412.095139	4668.025282
412.475547	4812.620698
412.855894	4791.311741
413.236180	4798.192916
413.616405	4754.753293
413.996568	4845.814176
414.376670	4778.398825
414.756711	4736.113627
415.136691	4770.574955
415.516609	4849.153940
415.896466	4883.295155
416.276262	4915.951749
416.655997	4902.537239
417.035670	5083.076082
417.415283	5174.767108
417.794834	5116.791318
418.174324	5069.505295
418.553753	4975.686902
418.933121	5161.249254
419.312428	5228.233586
419.691674	5165.201519
420.070859	5292.672135
420.449983	5203.834401
420.829045	5317.330939
421.208047	5223.925920
421.586988	5298.227487
421.965867	5304.917098
422.344686	5436.166059
422.723444	5296.626920
423.102141	5115.014312
423.480777	5410.902316
423.859352	5183.347152
424.237866	5439.243683
424.616319	5431.939051
424.994712	5536.928642
425.373044	5416.603861
425.751314	5563.182971
426.129524	5361.640161
426.507673	5555.316250
426.885762	5635.793230
427.263789	5573.635803
427.641756	5451.264314
428.019662	5570.195216
428.397508	5572.577161
428.775292	5521.868195
429.153016	5621.292351
429.530679	5546.771495
429.908282	5632.166120
430.285824	5502.285832
430.663305	5771.160814
431.040726	5503.626779
431.418086	5502.245503
431.795385	5602.549341
432.172624	5614.141475
432.549802	5604.550679
432.926920	5616.898986
433.303977	5616.304130
433.680974	5652.711343
434.057910	5661.288866
434.434786	5664.863044
434.811601	5629.597652
435.188355	5851.405901
435.565050	5721.139965
435.941683	5694.066448
436.318257	5885.106014
436.694770	5866.647830
437.071222	5886.457044
437.447614	5810.665816
437.823946	5717.636363
438.200218	5853.624009
438.576429	5705.577923
438.952580	5784.686230
439.328670	5813.292257
439.704700	5709.298295
440.080670	5683.341393
440.456580	5917.324029
440.832429	5789.220748
441.208218	5628.314679
441.583947	5752.490901
441.959616	5735.282922
442.335224	5647.965096
442.710773	5749.181383
443.086261	5748.432772
443.461689	5545.677564
443.837057	5645.404190
444.212365	5749.136013
444.587612	5633.413806
444.962800	5738.289970
445.337927	5689.995717
445.712995	5329.278474
446.088002	5772.640393
446.462949	5603.338282
446.837837	5509.638355
447.212664	5617.400581
447.587431	5685.098236
447.962139	6055.731428
448.336786	6708.417178
448.711374	6475.697352
449.085901	5739.847687
449.460369	5629.781654
449.834776	5529.503022
450.209124	5754.187249
450.583412	5796.394310
450.957640	5861.231110
451.331808	5644.209437
451.705917	5281.402636
452.079965	5182.951422
452.453954	5270.034834
452.827883	5139.632787
453.201752	5146.657634
453.575562	4974.290502
453.949311	5034.875089
454.323001	4919.455351
454.696632	4910.855143
455.070202	4925.487092
455.443713	4957.866423
455.817164	4949.205721
456.190556	4928.816774
456.563888	4911.021501
456.937160	4870.188155
457.310373	4647.117097
457.683526	4596.745888
458.056619	4489.853262
458.429653	4428.736833
458.802628	4346.646684
459.175542	4340.665355
459.548398	4420.582767
459.921194	4431.701031
460.293930	4380.372003
460.666607	4507.588041
461.039224	4562.080393
461.411782	4546.059606
461.784280	4479.907065
462.156719	4370.708111
462.529099	4261.310031
462.901419	4069.605033
463.273680	3979.567505
463.645882	3929.002211
464.018024	3830.639217
464.390106	3825.159483
464.762130	3866.708673
465.134094	3936.286678
465.505999	4146.076816
465.877845	4368.316083
466.249631	4430.866720
466.621358	4249.135645
466.993026	4033.026421
467.364634	3906.622008
467.736184	3773.976648
468.107674	3664.944052
468.479105	3608.253756
468.850477	3531.862632
469.221790	3444.539765
469.593043	3349.745908
469.964238	3285.067904
470.335373	3247.697830
470.706449	3218.519632
471.077467	3183.365146
471.448425	3286.159314
471.819324	3354.419057
472.190164	3313.510094
472.560945	3162.172135
472.931667	3057.933676
473.302330	3017.372552
473.672934	2966.046044
474.043479	2963.903554
474.413965	2937.205603
474.784393	2901.816703
475.154761	2890.837070
475.525070	2872.903165
475.895321	2845.665811
476.265513	2836.715242
476.635645	2827.857935
477.005719	2809.558547
477.375734	2798.309212
477.745691	2791.254117
478.115588	2779.223403
478.485427	2772.135541
478.855207	2779.409926
479.224928	2789.111627
479.594591	2794.379632
479.964194	2771.767537
480.333739	2757.347316
480.703226	2739.967938
481.072653	2730.793038
481.442022	2726.523181
481.811333	2722.339023
482.180584	2708.866540
482.549777	2696.142667
482.918912	2687.005576
483.287988	2681.646830
483.657005	2673.381858
484.025964	2662.931546
484.394864	2660.116062
484.763706	2654.729589
485.132489	2647.798002
485.501213	2643.583597
485.869879	2644.700213
486.238487	2635.991620
486.607036	2636.836013
486.975527	2630.532050
487.343959	2633.123203
487.712333	2629.478449
488.080648	2622.136008
488.448905	2623.602984
488.817104	2621.452932
489.185244	2622.710700
489.553326	2621.180710
489.921350	2625.760598
490.289315	2632.467853
490.657222	2637.045221
491.025070	2633.846609
491.392861	2633.027421
491.760593	2625.367388
492.128267	2623.202212
492.495883	2617.382200
492.863440	2614.896912
493.230939	2614.448249
493.598380	2610.070007
493.965763	2601.752103
494.333088	2605.076744
494.700354	2598.505600
495.067563	2602.084819
495.434713	2600.716146
495.801805	2604.010540
496.168839	2601.550457
496.535815	2603.037597
496.902733	2599.450816
497.269593	2598.109869
497.636395	2598.409818
498.003139	2596.468974
498.369825	2596.736155
498.736453	2596.809252
499.103023	2597.116762
499.469535	2596.345465
499.835989	2596.882348
500.202385	2595.133068
500.568723	2593.424117
500.935003	2597.625918
501.301226	2593.242635
501.667390	2594.104673
502.033497	2596.826896
502.399546	2593.366143
502.765537	2592.882193
503.131470	2594.087028
503.497345	2594.460074
503.863163	2594.298757
504.228923	2594.424786
504.594625	2592.178952
504.960269	2591.120309
505.325856	2595.264138
505.691385	2593.572831
506.056856	2592.652820
506.422270	2590.883375
506.787625	2593.030907
507.152924	2589.708786
507.518164	2591.321956
507.883347	2590.636359
508.248472	2589.300453
508.613540	2589.587799
508.978550	2588.725761
509.343503	2590.134764
509.708398	2591.677357
510.073236	2593.081318
510.438016	2593.892944
510.802738	2589.355906
511.167403	2590.540577
511.532010	2591.833633
511.896561	2592.499065
512.261053	2594.354210
512.625488	2587.989753
512.989866	2586.058991
513.354186	2586.820205
513.718449	2585.040678
514.082655	2591.374888
514.446803	2590.255752
514.810894	2592.052923
515.174927	2589.696183
515.538904	2589.696183
515.902822	2592.967892
516.266684	2591.879003
516.630488	2592.176431
516.994235	2592.746082
517.357925	2593.202306
517.721558	2592.829261
518.085133	2591.616863
518.448651	2594.694487
518.812112	2589.048395
519.175516	2590.538056
519.538863	2592.844384
519.902152	2591.669795
520.265385	2593.958479
520.628560	2595.112903
520.991678	2593.333376
521.354739	2592.380598
521.717743	2594.505444
522.080690	2591.533684
522.443580	2594.815475
522.806413	2592.554518
523.169189	2592.393201
523.531908	2592.388160
523.894569	2590.908581
524.257174	2593.754312
524.619722	2592.231884
524.982213	2594.727255
525.344647	2595.158274
525.707025	2592.970413
526.069345	2592.529312
526.431608	2593.235073
526.793815	2594.228181
527.155964	2595.775815
527.518057	2595.281782
527.880093	2594.510485
528.242072	2592.254569
528.603995	2593.638366
528.965860	2591.692480
529.327669	2593.174580
529.689421	2592.652820
530.051117	2592.841863
530.412755	2592.589806
530.774337	2593.189703
531.135862	2591.760536
531.497331	2589.466811
531.858743	2587.848601
532.220098	2592.211719
532.581396	2590.679208
532.942638	2590.913622
533.303824	2591.609301
533.664953	2591.967223
534.026025	2592.494024
534.387040	2594.649117
534.747999	2593.787080
535.108902	2593.189703
535.469748	2591.047213
535.830537	2590.845567
536.191270	2593.333376
536.551947	2592.862028
536.912567	2591.092583
537.273131	2594.719693
537.633638	2589.486976
537.994089	2590.548138
538.354483	2591.203488
538.714821	2593.519899
539.075103	2592.516709
539.435328	2591.488314
539.795497	2591.200968
540.155609	2594.255907
540.515665	2595.899323
540.875665	2592.877152
541.235609	2590.379260
541.595496	2594.039137
541.955328	2593.388829
542.315102	2592.932604
542.674821	2593.386308
543.034483	2597.237750
543.394090	2593.610639
543.753640	2593.721545
544.113134	2592.405804
544.472571	2591.445464
544.831953	2592.418407
545.191278	2591.410176
545.550548	2590.061667
545.909761	2589.247521
546.268918	2591.851277
546.628019	2594.621391
546.987064	2593.439240
547.346053	2591.024527
547.704986	2594.137440
548.063863	2591.223653
548.422684	2592.418407
548.781449	2592.229363
549.140158	2592.826740
549.498811	2593.240115
549.857408	2592.178952
550.215949	2590.459918
550.574434	2588.791296
550.932864	2588.992943
551.291237	2589.587799
551.649555	2592.385639
552.007817	2594.528129
552.366022	2592.526791
552.724173	2592.299939
553.082267	2591.952100
553.440305	2593.192224
553.798288	2591.944538
554.156215	2590.636359
554.514086	2592.531832
554.871902	2591.372367
555.229661	2590.412027
555.587365	2593.214909
555.945014	2592.481421
556.302606	2589.930597
556.660143	2593.353541
557.017625	2593.351020
557.375050	2594.419745
557.732421	2595.312029
558.089735	2593.933273
558.446994	2593.121647
558.804197	2595.483428
559.161345	2592.922522
559.518437	2592.131061
559.875474	2591.445464
560.232455	2594.329004
560.589381	2593.678695
560.946251	2594.722214
561.303065	2594.510485
561.659825	2594.291195
562.016528	2593.628283
562.373177	2593.245156
562.729770	2592.889754
563.086307	2594.271031
563.442789	2593.832450
563.799216	2591.445464
564.155587	2594.371854
564.511904	2591.301791
564.868164	2591.574013
565.224370	2596.040476
565.580520	2591.503437
565.936615	2593.333376
566.292654	2591.437902
566.648638	2592.448653
567.004567	2594.538212
567.360441	2593.625763
567.716260	2588.834146
568.072023	2594.712132
568.427732	2586.716862
568.783385	2588.526636
569.138982	2588.667788
569.494525	2589.673498
569.850013	2587.185689
570.205445	2592.216760
570.560823	2592.241966
570.916145	2591.911771
571.271412	2590.913622
571.626625	2592.320104
571.981782	2589.837336
572.336884	2593.542584
572.691931	2590.510330
573.046923	2591.132912
573.401860	2590.482603
573.756743	2591.173242
574.111570	2589.454208
574.466342	2591.805906
574.821059	2590.598550
575.175722	2589.136615
575.530330	2589.514702
575.884882	2590.031420
576.239380	2588.438416
576.593823	2588.748447
576.948211	2590.734661
577.302544	2588.080494
577.656823	2586.540421
578.011047	2590.774990
578.365216	2588.947572
578.719330	2589.749116
579.073389	2590.328848
579.427394	2587.233580
579.781344	2587.833477
580.135239	2587.853642
580.489080	2587.820874
580.842866	2588.234249
581.196597	2587.619228
581.550273	2588.907243
581.903895	2586.535380
582.257463	2585.776686
582.610975	2588.718200
582.964434	2585.900195
583.317837	2583.926583
583.671186	2587.430185
584.024481	2585.827098
584.377721	2589.202150
584.730906	2586.053950
585.084037	2583.283836
585.437113	2583.908939
585.790135	2586.157293
586.143103	2586.389187
586.496016	2586.512695
586.848874	2578.940882
587.201679	2583.485482
587.554428	2581.806778
587.907124	2583.535893
588.259765	2583.150245
588.612352	2584.793661
588.964884	2584.491192
589.317362	2583.538414
589.669786	2583.122519
590.022155	2581.869792
590.374470	2583.316603
590.726731	2584.670153
591.078937	2582.447004
591.431090	2582.036150
591.783188	2581.048084
592.135232	2585.282653
592.487222	2582.668815
592.839157	2583.427509
593.191038	2584.387848
593.542866	2582.131932
593.894639	2582.351222
594.246358	2582.822570
594.598022	2580.695203
594.949633	2580.884247
595.301190	2582.383990
595.652692	2579.379462
596.004141	2582.242837
596.355535	2582.439443
596.706876	2581.148907
597.058162	2581.196798
597.409395	2577.660429
597.760573	2581.428691
598.111698	2579.255954
598.462768	2581.222004
598.813785	2580.312076
599.164748	2579.951633
599.515657	2580.790985
599.866511	2579.717219
600.217312	2579.742425
600.568060	2581.312745
600.918753	2580.387693
601.269392	2580.790985
601.619978	2578.824935
601.970510	2580.816191
602.320988	2581.932807
602.671412	2580.642271
603.021783	2581.625296
603.372100	2579.528176
603.722363	2580.241499
604.072572	2578.086406
604.422728	2580.919535
604.772830	2576.284194
605.122878	2574.905438
605.472872	2577.327712
605.822813	2572.490725
606.172701	2578.850141
606.522534	2576.879050
606.872314	2580.899370
607.222041	2578.809812
607.571714	2579.402147
607.921333	2579.606314
608.270899	2577.131108
608.620411	2578.923238
608.969870	2581.267374
609.319276	2579.611355
609.668627	2581.922724
610.017926	2587.455391
610.367171	2587.248703
610.716362	2587.319279
611.065500	2582.205029
611.414585	2584.894484
611.763616	2585.824577
612.112594	2582.401634
612.461518	2582.401634
612.810389	2582.260482
613.159207	2580.065059
613.507971	2580.175964
613.856682	2582.575554
614.205340	2579.397106
614.553945	2582.421798
614.902496	2581.539597
615.250994	2578.260326
615.599439	2581.819381
615.947830	2580.803588
616.296169	2580.123032
616.644454	2579.379462
616.992686	2577.612538
617.340864	2580.561613
617.688990	2582.197467
618.037063	2580.874164
618.385082	2577.423494
618.733048	2578.547672
619.080961	2580.067580
619.428821	2581.809298
619.776628	2580.561613
620.124382	2580.468351
620.472083	2579.029102
620.819731	2578.683783
621.167326	2579.288721
621.514868	2579.480285
621.862357	2579.838207
622.209793	2577.030284
622.557176	2577.902404
622.904506	2574.595407
623.251783	2575.800243
623.599007	2573.241857
623.946179	2575.235634
624.293297	2573.120870
624.640363	2577.481468
624.987376	2577.093299
625.334336	2574.310582
625.681243	2574.245047
626.028097	2575.437280
626.374899	2574.058524
626.721647	2574.779409
627.068343	2575.994327
627.414987	2574.358473
627.761577	2573.506518
628.108115	2573.753534
628.454600	2575.296127
628.801032	2573.473750
629.147412	2571.832855
629.493739	2571.830334
629.840014	2573.599779
630.186236	2572.702454
630.532405	2571.079202
630.878521	2572.505849
631.224585	2574.308061
631.570597	2572.914182
631.916556	2572.659604
632.262462	2570.312947
632.608316	2572.140365
632.954117	2567.182390
633.299866	2571.553071
633.645562	2571.016188
633.991206	2569.143399
634.336797	2568.402350
634.682336	2572.105077
635.027823	2571.177505
635.373257	2570.451579
635.718639	2569.846640
636.063968	2568.326732
636.409245	2567.215158
636.754470	2568.644325
637.099642	2567.310940
637.444762	2566.753892
637.789829	2567.230281
638.134845	2567.731876
638.479808	2565.670044
638.824719	2567.210117
639.169577	2565.922102
639.514383	2564.795404
639.859137	2567.351269
640.203839	2568.546023
640.548489	2564.508058
640.893086	2562.413459
641.237632	2560.185269
641.582125	2563.729200
641.926566	2562.383212
642.270955	2567.484860
642.615292	2563.202399
642.959576	2563.459498
643.303809	2566.587534
643.647990	2565.808676
643.992118	2565.912020
644.336195	2565.964952
644.680219	2562.073181
645.024192	2565.370096
645.368112	2562.915054
645.711981	2566.378326
646.055797	2570.580128
646.399562	2566.612740
646.743274	2566.128789
647.086935	2565.637277
647.430544	2568.301527
647.774101	2571.096846
648.117606	2567.857905
648.461059	2565.748182
648.804460	2568.072154
649.147810	2566.625343
649.491108	2566.204407
649.834354	2564.248439
650.177548	2565.501166
650.520690	2565.526371
650.863781	2564.006463
651.206820	2568.528378
651.549807	2562.557132
651.892742	2564.593758
652.235626	2565.039900
652.578458	2565.612071
652.921238	2561.274158
653.263967	2563.729200
653.606644	2560.525547
653.949269	2563.504869
654.291843	2560.686864
654.634365	2564.457647
654.976836	2563.275496
655.319255	2564.462688
655.661622	2562.935218
656.003938	2562.007646
656.346203	2563.406566
656.688416	2561.180897
657.030577	2563.504869
657.372687	2563.761968
657.714746	2560.729713
658.056753	2561.654765
658.398708	2556.530432
658.740612	2560.157542
659.082465	2556.631255
659.424266	2558.378015
659.766016	2555.915412
660.107715	2561.798438
660.449362	2561.543860
660.790958	2561.642162
661.132503	2561.813562
661.473996	2564.210630
661.815438	2561.478325
662.156829	2561.304405
662.498168	2560.928839
662.839456	2560.744837
663.180693	2561.818603
663.521879	2560.389436
663.863013	2562.632749
664.204097	2561.193500
664.545129	2564.974365
664.886110	2561.155691
665.227040	2560.777604
665.567918	2560.664178
665.908746	2562.058057
666.249522	2563.605692
666.590248	2563.056206
666.930922	2561.427913
667.271545	2561.352296
667.612118	2562.524364
667.952639	2561.168294
668.293109	2561.006977
668.633528	2561.823644
668.973896	2560.089487
669.314213	2560.873386
669.654480	2560.376833
669.994695	2560.089487
670.334859	2561.412790
670.674973	2563.310784
671.015035	2558.733417
671.355047	2559.829867
671.695008	2561.092677
672.034918	2561.795917
672.374777	2562.771381
672.714585	2558.483879
673.054342	2560.790207
673.394049	2560.381874
673.733705	2561.924467
674.073310	2563.157029
674.412864	2562.559652
674.752368	2560.704508
675.091820	2562.047975
675.431223	2558.625032
675.770574	2560.712069
676.109875	2557.800803
676.449125	2556.827860
676.788324	2555.081101
677.127473	2559.645865
677.466571	2557.180741
677.805619	2559.408931
678.144616	2560.613767
678.483562	2561.017059
678.822458	2555.779300
679.161303	2559.771894
679.500098	2557.783159
679.838842	2558.110834
680.177535	2557.445402
680.516179	2560.293654
680.854771	2559.136709
681.193314	2556.653941
681.531805	2559.638304
681.870247	2559.605536
682.208638	2560.800290
682.546978	2562.816751
682.885268	2563.676268
683.223508	2559.673592
683.561697	2560.354147
683.899836	2561.982440
684.237925	2558.486400
684.575963	2561.954714
684.913951	2558.546894
685.251889	2559.976061
685.589776	2558.435988
685.927614	2560.028993
686.265401	2557.533622
686.603137	2560.165104
686.940824	2561.412790
687.278460	2561.281720
687.616046	2560.646534
687.953582	2563.855229
688.291068	2560.092008
688.628504	2561.662327
688.965889	2558.471277
689.303224	2563.361196
689.640510	2557.374826
689.977745	2560.097049
690.314930	2558.937583
690.652065	2558.246945
690.989150	2556.457336
691.326185	2558.990515
691.663170	2553.956923
692.000105	2555.892726
692.336990	2555.625545
692.673825	2557.430278
693.010610	2558.022614
693.347345	2553.031872
693.684030	2549.021634
694.020665	2554.130843
694.357251	2549.339226
694.693786	2550.947354
695.030272	2554.531615
695.366707	2554.844166
695.703093	2555.507078
696.039429	2553.498178
696.375716	2553.036913
696.711952	2552.005997
697.048139	2551.093548
697.384276	2554.309804
697.720363	2553.997253
698.056400	2554.221584
698.392388	2553.959444
698.728326	2552.615976
699.064214	2552.855431
699.400053	2552.789896
699.735842	2553.866183
700.071581	2552.961295
700.407270	2548.436860
700.742910	2554.481203
701.078501	2551.927859
701.414042	2549.981973
701.749533	2551.078424
702.084974	2550.309648
702.420366	2550.846531
702.755709	2549.210677
703.091002	2548.840152
703.426246	2551.181768
703.761440	2549.505584
704.096584	2551.733774
704.431679	2550.077755
704.766725	2549.641696
705.101721	2551.030533
705.436668	2552.091696
705.771565	2551.335523
706.106413	2549.956768
706.441212	2551.106151
706.775961	2549.427447
707.110661	2551.151521
707.445311	2550.904505
707.779913	2550.609597
708.114465	2550.551624
708.448967	2550.687735
708.783421	2551.416182
709.117825	2547.471479
709.452180	2550.455842
709.786485	2551.637992
710.120742	2552.510112
710.454949	2553.291491
710.789107	2550.957437
711.123216	2548.724206
711.457275	2549.845862
711.791286	2550.990204
712.125247	2548.772097
712.459159	2556.230484
712.793023	2557.576472
713.126837	2553.445246
713.460602	2555.270144
713.794318	2550.992725
714.127985	2555.156718
714.461602	2550.355019
714.795171	2553.994732
715.128691	2552.036244
715.462162	2550.294525
715.795584	2549.654298
716.128957	2549.382076
716.462281	2550.249155
716.795556	2547.587425
717.128782	2552.331151
717.461960	2551.164124
717.795088	2549.515667
718.128167	2549.795451
718.461198	2550.385266
718.794180	2552.076573
719.127113	2546.702703
719.459997	2548.320913
719.792833	2547.100954
720.125619	2546.319575
720.458357	2550.118085
720.791046	2545.835624
721.123686	2549.296377
721.456278	2547.685728
721.788821	2545.969215
722.121315	2547.045501
722.453761	2543.902342
722.786158	2547.804195
723.118506	2548.192364
723.450805	2549.661860
723.783056	2545.505429
724.115259	2548.520039
724.447412	2549.341747
724.779518	2548.814946
725.111574	2543.854451
725.443582	2546.619524
725.775542	2544.580377
726.107453	2550.077755
726.439315	2549.480379
726.771129	2550.917108
727.102895	2548.888043
727.434612	2549.624052
727.766281	2546.722868
728.097901	2545.944009
728.429473	2545.311344
728.760996	2547.141283
729.092471	2543.829245
729.423897	2550.060111
729.755276	2548.431819
730.086606	2549.800492
730.417887	2550.468445
730.749120	2551.648075
731.080305	2552.517674
731.411442	2547.829401
731.742530	2550.690256
732.073570	2550.997766
732.404562	2549.001469
732.735506	2548.464586
733.066401	2548.681356
733.397249	2550.750749
733.728048	2550.221428
734.058798	2546.927034
734.389501	2545.994421
734.720156	2548.825029
735.050762	2547.637837
735.381320	2548.368804
735.711831	2548.305790
736.042293	2547.295038
736.372707	2546.455686
736.703073	2547.073228
737.033391	2546.574153
737.363661	2545.694472
737.693883	2548.908208
738.024056	2550.838970
738.354182	2547.965512
738.684260	2548.099102
739.014290	2546.836293
739.344272	2548.154555
739.674207	2546.642209
740.004093	2550.070194
740.333931	2549.984494
740.663722	2545.883515
740.993464	2547.458876
741.323159	2547.688248
741.652806	2544.555171
741.982405	2548.772097
742.311956	2544.340922
742.641460	2546.730429
742.970915	2546.110367
743.300323	2546.075079
743.629683	2548.346119
743.958996	2545.986859
744.288260	2549.392158
744.617477	2545.389482
744.946647	2542.521066
745.275768	2544.466951
745.604842	2541.520397
745.933869	2542.674821
746.262847	2539.072917
746.591778	2545.180274
746.920662	2545.016437
747.249498	2546.269164
747.578286	2543.186498
747.907027	2544.797147
748.235720	2543.831766
748.564365	2549.077086
748.892963	2542.019471
749.221514	2546.470810
749.550017	2546.821170
749.878473	2543.279759
750.206881	2543.418391
750.535242	2544.653474
750.863555	2543.294883
751.191821	2547.332847
751.520039	2544.809750
751.848210	2544.560213
752.176334	2544.015768
752.504411	2542.778165
752.832440	2546.838814
753.160421	2544.051056
753.488356	2542.884029
753.816243	2543.494008
754.144082	2542.911755
754.471875	2544.580377
754.799620	2542.992414
755.127318	2539.448482
755.454969	2542.901673
755.782572	2544.933258
756.110129	2544.729091
756.437638	2542.437887
756.765100	2543.506611
757.092515	2544.567774
757.419882	2544.681200
757.747203	2542.435366
758.074477	2543.761190
758.401703	2544.529966
758.728882	2544.335881
759.056014	2542.309337
759.383099	2545.439894
759.710138	2543.846889
760.037129	2545.238248
760.364073	2546.871582
760.690970	2542.954605
761.017820	2545.649102
761.344623	2545.742363
761.671379	2542.936961
761.998088	2541.086858
762.324751	2543.594832
762.651366	2548.751932
762.977935	2554.811399
763.304456	2556.280895
763.630931	2560.039075
763.957359	2557.180741
764.283740	2554.463559
764.610074	2549.654298
764.936362	2548.462066
765.262602	2545.258412
765.588796	2545.213042
765.914943	2545.661705
766.241044	2542.344625
766.567097	2544.474513
766.893104	2541.709440
767.219064	2541.931251
767.544978	2543.680531
767.870845	2543.635161
768.196665	2543.143648
768.522438	2541.966539
768.848165	2541.732125
769.173846	2541.583411
769.499479	2542.415202
769.825066	2539.705581
770.150607	2538.974614
770.476101	2539.922351
770.801548	2543.433515
771.126949	2540.741538
771.452303	2540.673483
771.777611	2540.313040
772.102872	2539.791281
772.428087	2539.723225
772.753256	2541.971580
773.078378	2538.586445
773.403453	2541.578370
773.728482	2539.685417
774.053465	2537.041332
774.378401	2540.862526
774.703291	2539.256919
775.028135	2539.808925
775.352932	2539.251877
775.677683	2538.190715
776.002388	2538.783050
776.327046	2537.452186
776.651658	2539.335057
776.976224	2538.316743
777.300743	2540.633154
777.625216	2540.739018
777.949643	2538.278935
778.274024	2540.234902
778.598359	2537.530323
778.922647	2535.952442
779.246889	2536.917823
779.571086	2531.049920
779.895236	2536.426311
780.219339	2539.642567
780.543397	2538.357073
780.867409	2540.159285
781.191374	2541.701878
781.515294	2538.125180
781.839167	2535.997813
782.162995	2537.484953
782.486776	2537.709284
782.810511	2539.393030
783.134201	2538.435211
783.457844	2536.839685
783.781441	2539.284645
784.104993	2536.731301
784.428498	2539.783719
784.751958	2538.168029
785.075372	2538.616692
785.398739	2537.832793
785.722061	2537.275745
786.045337	2540.204656
786.368568	2540.852444
786.691752	2539.251877
787.014891	2539.209028
787.337983	2538.677186
787.661030	2540.098791
787.984031	2538.722556
788.306987	2540.870088
788.629897	2539.330015
788.952760	2538.974614
789.275579	2537.815149
789.598351	2541.046528
789.921078	2539.539223
790.243759	2539.755993
790.566395	2537.129552
790.888984	2536.680889
791.211529	2539.113246
791.534027	2538.120138
791.856480	2538.253729
792.178888	2538.059645
792.501249	2537.464788
792.823566	2536.592669
793.145836	2537.258101
793.468062	2536.532175
793.790241	2536.668286
794.112375	2539.004861
794.434464	2538.984696
794.756507	2538.609130
795.078505	2537.341280
795.400457	2537.772299
795.722364	2535.153419
796.044226	2537.999151
796.366042	2534.707277
796.687812	2536.862371
797.009538	2538.483102
797.331218	2538.578883
797.652852	2538.009233
797.974442	2538.664583
798.295986	2537.921013
798.617484	2537.311033
798.938938	2536.315405
799.260346	2541.008720
799.581709	2537.283307
799.903026	2539.619882
800.224299	2537.303472
800.545526	2536.164171
800.866708	2538.649460
801.187845	2538.767927
801.508936	2540.048380
801.829983	2538.422608
802.150984	2537.001002
802.471940	2538.717515
802.792851	2534.553522
803.113717	2537.240457
803.434538	2537.111908
803.755314	2538.760365
804.076045	2536.572504
804.396731	2534.979500
804.717372	2534.220806
805.037967	2536.426311
805.358518	2536.569984
805.679024	2536.937988
805.999485	2537.958822
806.319901	2542.150541
806.640272	2535.309695
806.960598	2537.300951
807.280879	2537.409336
807.601115	2539.082999
807.921306	2536.247350
808.241453	2538.122659
808.561554	2536.932947
808.881611	2534.576207
809.201623	2537.653832
809.521590	2539.566950
809.841513	2538.742721
810.161390	2535.012267
810.481223	2536.731301
810.801011	2536.201979
811.120755	2535.193749
811.440453	2539.314892
811.760107	2537.013605
812.079716	2536.673327
812.399281	2534.356917
812.718801	2535.896990
813.038276	2531.763243
813.357707	2537.258101
813.677093	2536.441434
813.996434	2536.166691
814.315731	2537.673996
814.634983	2536.398584
814.954191	2535.413039
815.273354	2535.672658
815.592473	2536.590148
815.911547	2536.111239
816.230577	2539.098122
816.549562	2535.536547
816.868502	2540.532331
817.187399	2537.358924
817.506250	2537.457227
817.825058	2538.997299
818.143821	2538.427649
818.462539	2539.967721
818.781213	2540.030736
819.099843	2540.925541
819.418429	2540.043339
819.736970	2541.575849
820.055466	2541.795140
820.373919	2545.941489
820.692327	2546.337219
821.010691	2552.142108
821.329011	2561.826164
821.647286	2584.133270
821.965517	2605.734614
822.283704	2619.570061
822.601847	2626.758747
822.919945	2616.038733
823.237999	2597.880497
823.556010	2585.270050
823.873976	2575.409553
824.191897	2569.208934
824.509775	2562.993192
824.827609	2559.577810
825.145398	2556.338868
825.463144	2556.172510
825.780845	2555.033210
826.098502	2555.030689
826.416116	2562.720969
826.733685	2568.475446
827.051210	2571.434604
827.368692	2570.489387
827.686129	2563.993861
828.003522	2555.222253
828.320872	2546.029709
828.638177	2546.490974
828.955439	2542.581560
829.272656	2539.332536
829.589830	2537.724408
829.906960	2540.247505
830.224046	2535.410518
830.541088	2540.252547
830.858086	2537.290869
831.175041	2538.294058
831.491952	2537.434542
831.808819	2539.534182
832.125642	2539.309851
832.442421	2538.195756
832.759157	2544.484595
833.075849	2548.330996
833.392497	2551.882488
833.709101	2554.017417
834.025662	2553.808209
834.342179	2553.621687
834.658653	2546.861499
834.975083	2545.444935
835.291469	2548.494833
835.607811	2541.956457
835.924110	2541.086858
836.240366	2540.875129
836.556578	2539.345139
836.872746	2534.979500
837.188871	2538.331867
837.504952	2535.274407
837.820990	2538.162988
838.136984	2537.071578
838.452935	2533.386495
838.768842	2535.796167
839.084706	2535.344983
839.400526	2538.402443
839.716303	2539.657690
840.032037	2541.006199
840.347727	2544.159441
840.663373	2543.055428
840.978977	2539.327495
841.294537	2538.886394
841.610054	2536.842206
841.925527	2532.756351
842.240957	2532.499252
842.556344	2533.482277
842.871687	2538.208359
843.186987	2531.780887
843.502244	2531.627132
843.817458	2531.942204
844.132629	2534.664427
844.447756	2532.058151
844.762840	2526.991791
845.077881	2528.436082
845.392879	2530.621422
845.707833	2531.770805
846.022745	2528.080681
846.337613	2533.608306
846.652438	2533.139478
846.967221	2532.978162
847.281960	2534.248532
847.596656	2533.089067
847.911309	2533.593182
848.225919	2533.774664
848.540485	2535.062679
848.855009	2533.237781
849.169490	2532.957997
849.483928	2531.186031
849.798323	2531.548994
850.112675	2533.257946
850.426984	2535.155940
850.741251	2530.301309
851.055474	2534.399767
851.369654	2532.622760
851.683792	2529.963552
851.997887	2533.671320
852.311938	2531.380116
852.625947	2532.363141
852.939914	2534.422452
853.253837	2532.511855
853.567718	2532.824406
853.881555	2534.866074
854.195350	2531.717873
854.509103	2532.116124
854.822812	2533.487318
855.136479	2531.541433
855.450103	2532.088398
855.763685	2535.309695
856.077224	2532.579910
856.390720	2534.843388
856.704173	2532.877338
857.017584	2531.392719
857.330953	2536.484284
857.644278	2533.842719
857.957561	2538.334387
858.270802	2533.787267
858.584000	2534.893800
858.897155	2532.254756
859.210268	2533.872966
859.523339	2531.727955
859.836367	2532.781557
860.149352	2534.185518
860.462295	2530.989426
860.775195	2528.990609
861.088054	2530.465146
861.400869	2532.340456
861.713642	2527.435413
862.026373	2531.254087
862.339062	2530.167718
862.651708	2532.552184
862.964312	2531.596885
863.276873	2533.298275
863.589392	2532.164015
863.901869	2531.221319
864.214303	2532.491690
864.526696	2530.727286
864.839045	2534.898841
865.151353	2531.828778
865.463619	2532.007739
865.775842	2534.556043
866.088023	2532.353058
866.400162	2531.410363
866.712258	2531.871628
867.024313	2532.645445
867.336325	2534.170394
867.648296	2534.278779
867.960224	2531.284334
868.272110	2532.262318
868.583954	2536.328008
868.895755	2536.701054
869.207515	2531.813655
869.519233	2534.288862
869.830909	2535.009747
870.142542	2533.174767
870.454134	2533.094108
870.765684	2532.224509
871.077191	2533.885569
871.388657	2532.499252
871.700081	2535.712988
872.011463	2535.052596
872.322803	2532.776515
872.634101	2534.571166
872.945357	2536.688451
873.256571	2537.048893
873.567744	2534.326670
873.878874	2535.569315
874.189963	2535.808769
874.501010	2533.404139
874.812015	2531.702750
875.122979	2534.871115
875.433900	2534.674510
875.744780	2533.777184
876.055618	2533.280631
876.366415	2535.879346
876.677169	2535.657535
876.987882	2530.578572
877.298554	2531.385157
877.609183	2531.559077
877.919771	2533.673841
878.230317	2533.366330
878.540822	2538.014274
878.851285	2536.983358
879.161707	2537.908410
879.472087	2538.304141
879.782425	2545.286139
880.092722	2545.830583
880.402977	2550.407951
880.713191	2563.164591
881.023363	2573.675397
881.333494	2585.738878
881.643583	2585.784248
881.953631	2580.259143
882.263637	2578.000707
882.573602	2579.046746
882.883526	2567.568039
883.193408	2563.295661
883.503248	2560.911195
883.813048	2554.473642
884.122806	2554.355174
884.432522	2552.855431
884.742197	2545.717157
885.051831	2544.461910
885.361424	2541.873277
885.670975	2540.441590
885.980485	2540.529810
886.289954	2540.663401
886.599382	2536.391023
886.908768	2536.055786
887.218113	2539.738349
887.527417	2537.507638
887.836680	2536.706095
888.145901	2535.970086
888.455082	2533.593182
888.764221	2533.628470
889.073319	2534.747607
889.382376	2534.866074
889.691392	2535.178625
890.000366	2537.404295
890.309300	2533.777184
890.618193	2536.796836
890.927044	2533.147040
891.235855	2536.552340
891.544625	2535.841537
891.853353	2536.413708
892.162041	2534.694674
892.470687	2534.341794
892.779293	2538.377237
893.087858	2535.831455
893.396381	2534.664427
893.704864	2536.912782
894.013306	2538.480581
894.321707	2548.920811
894.630068	2549.709751
894.938387	2550.745708
895.246665	2550.554144
895.554903	2548.991387
895.863100	2546.415357
896.171256	2546.617003
896.479371	2541.036446
896.787446	2541.265818
897.095480	2540.625592
897.403473	2536.562422
897.711425	2536.403626
898.019336	2538.152906
898.327207	2535.733152
898.635038	2536.204500
898.942827	2534.477905
899.250576	2534.775333
899.558284	2534.220806
899.865952	2534.588810
900.173579	2534.893800
900.481165	2534.437576
900.788711	2534.377082
901.096216	2532.907585
901.403681	2532.138809
901.711105	2534.737524
902.018489	2532.988244
902.325832	2536.126362
902.633135	2531.959848
902.940397	2536.214582
903.247619	2536.441434
903.554800	2541.737166
903.861941	2544.882846
904.169041	2554.214022
904.476101	2557.863817
904.783121	2559.401369
905.090100	2553.835936
905.397039	2548.109185
905.703938	2546.992569
906.010796	2542.405119
906.317614	2535.460930
906.624391	2539.662732
906.931129	2536.459078
907.237826	2535.145858
907.544483	2535.287010
907.851099	2534.112421
908.157675	2532.963038
908.464211	2532.849612
908.770707	2528.274765
909.077163	2532.005219
909.383578	2529.741741
909.689954	2531.601927
909.996289	2525.519774
910.302584	2531.866587
910.608839	2532.295085
910.915054	2533.797349
911.221229	2532.549663
911.527363	2531.743079
911.833458	2531.128058
912.139513	2531.657379
912.445527	2534.019160
912.751502	2533.424304
913.057436	2531.541433
913.363331	2533.956145
913.669186	2531.846423
913.975000	2534.498069
914.280775	2535.554191
914.586510	2537.134593
914.892205	2541.280942
915.197859	2542.337064
915.503475	2545.162630
915.809050	2548.756973
916.114585	2554.032541
916.420081	2557.160577
916.725536	2552.847869
917.030952	2551.517005
917.336328	2548.250337
917.641665	2546.246478
917.946961	2545.875954
918.252218	2544.408978
918.557435	2541.550644
918.862612	2538.170550
919.167750	2536.418749
919.472848	2538.047042
919.777906	2537.404295
920.082925	2535.849099
920.387904	2533.764582
920.692843	2533.298275
920.997743	2534.369520
921.302603	2532.408511
921.607423	2533.651156
921.912204	2534.034283
922.216946	2531.221319
922.521647	2532.353058
922.826310	2534.908923
923.130932	2532.600075
923.435516	2531.387678
923.740059	2534.384643
924.044564	2528.897348
924.349028	2530.888603
924.653454	2524.594723
924.957840	2528.899868
925.262186	2525.257634
925.566493	2529.078829
925.870761	2525.441637
926.174989	2531.768285
926.479178	2530.502955
926.783328	2531.002029
927.087438	2530.152595
927.391509	2531.065044
927.695541	2529.587986
927.999533	2529.958510
928.303486	2525.900382
928.607400	2527.939528
928.911275	2526.487676
929.215110	2530.717204
929.518906	2530.258459
929.822663	2529.366175
930.126381	2529.139323
930.430060	2531.173428
930.733699	2528.751154
931.037299	2529.303160
931.340861	2532.963038
931.644383	2529.184693
931.947866	2529.716535
932.251309	2529.260311
932.554714	2529.333407
932.858080	2530.999509
933.161407	2528.453726
933.464694	2531.163346
933.767943	2528.413397
934.071153	2531.105373
934.374323	2530.616381
934.677455	2532.153933
934.980548	2527.127903
935.283602	2529.530012
935.586617	2529.033459
935.889593	2529.678726
936.192530	2528.234436
936.495428	2528.254600
936.798287	2528.642769
937.101108	2525.368540
937.403890	2527.689991
937.706632	2531.826258
938.009336	2529.620753
938.312002	2528.698222
938.614628	2530.492873
938.917216	2533.328522
939.219765	2531.861546
939.522275	2529.603109
939.824747	2528.496576
940.127179	2528.073119
940.429573	2527.659744
940.731929	2529.046062
941.034246	2527.374919
941.336524	2532.040507
941.638763	2531.203675
941.940964	2531.579241
942.243126	2531.460774
942.545250	2528.582275
942.847335	2529.585465
943.149381	2528.327697
943.451389	2527.863911
943.753359	2528.736031
944.055290	2529.550177
944.357182	2529.618232
944.659036	2529.305681
944.960851	2531.415404
945.262628	2528.715866
945.564367	2527.072450
945.866067	2530.278624
946.167729	2527.828623
946.469352	2528.720907
946.770937	2529.376257
947.072484	2526.578417
947.373992	2528.783922
947.675462	2529.260311
947.976893	2530.704601
948.278286	2526.918695
948.579641	2530.240815
948.880958	2530.205527
949.182236	2529.580424
949.483476	2527.203520
949.784678	2528.352903
950.085841	2527.616894
950.386967	2530.450023
950.688054	2530.389529
950.989103	2529.464477
951.290114	2528.118489
951.591087	2529.676206
951.892021	2529.928263
952.192917	2528.491535
952.493776	2530.147554
952.794596	2529.519930
953.095378	2528.622605
953.396122	2530.397091
953.696828	2528.375588
953.997496	2529.431710
954.298126	2527.160670
954.598718	2530.757533
954.899272	2530.351720
955.199788	2530.349200
955.500266	2529.827440
955.800706	2527.513551
956.101108	2524.319980
956.401472	2524.803931
956.701798	2525.544980
957.002087	2524.463653
957.302337	2527.069929
957.602550	2528.599919
957.902724	2531.034797
958.202861	2530.485311
958.502960	2526.293592
958.803022	2530.351720
959.103045	2528.110927
959.403031	2528.360465
959.702979	2526.782583
960.002889	2529.986237
960.302762	2528.436082
960.602596	2528.851977
960.902393	2527.337110
961.202153	2528.665454
961.501875	2526.603623
961.801559	2529.290558
962.101205	2529.845084
962.400814	2528.980527
962.700385	2526.414579
962.999918	2529.804755
963.299414	2527.445495
963.598873	2527.848788
963.898293	2528.640249
964.197677	2528.920033
964.497022	2526.412059
964.796331	2525.998684
965.095601	2524.753519
965.394835	2529.114117
965.694030	2527.145547
965.993189	2528.027748
966.292309	2523.929290
966.591393	2529.469518
966.890439	2527.105217
967.189447	2527.324507
967.488419	2527.279137
967.787353	2529.179652
968.086249	2526.288550
968.385108	2525.237470
968.683930	2528.426000
968.982714	2529.905578
969.281462	2526.391894
969.580172	2527.483304
969.878844	2527.505989
970.177480	2527.329549
970.476078	2526.591020
970.774639	2526.336441
971.073162	2526.520443
971.371649	2526.480114
971.670098	2525.928108
971.968510	2524.680422
972.266885	2524.960206
972.565223	2527.737882
972.863524	2525.413910
973.161788	2528.310053
973.460014	2525.885258
973.758204	2525.857532
974.056356	2528.357944
974.354471	2526.890968
974.652550	2524.551873
974.950591	2525.340813
975.248595	2530.460105
975.546563	2525.101359
975.844493	2527.977337
976.142386	2527.407687
976.440243	2527.881555
976.738062	2525.174455
977.035845	2525.623118
977.333590	2527.054806
977.631299	2527.248890
977.928971	2528.431041
978.226606	2528.728469
978.524204	2526.717048
978.821765	2524.728313
979.119290	2525.078673
979.416777	2525.550021
979.714228	2528.564631
980.011642	2526.956503
980.309020	2528.748633
980.606360	2528.514220
980.903664	2528.569672
981.200931	2526.349044
981.498162	2522.056502
981.795356	2527.513551
982.092513	2528.506658
982.389633	2524.967768
982.686717	2528.710825
982.983764	2529.900537
983.280775	2528.738551
983.577749	2527.689991
983.874686	2530.134951
984.171587	2529.734179
984.468451	2525.975999
984.765279	2529.489683
985.062070	2527.737882
985.358824	2525.660927
985.655543	2528.431041
985.952224	2526.149919
986.248869	2527.110258
986.545478	2522.938704
986.842050	2524.062881
987.138586	2521.549866
987.435086	2525.340813
987.731549	2521.791841
988.027975	2528.022707
988.324366	2528.443644
988.620719	2527.604292
988.917037	2527.369878
989.213318	2527.213602
989.509563	2525.025741
989.805772	2527.624456
990.101944	2526.054137
990.398080	2526.336441
990.694180	2526.447347
990.990244	2524.826616
991.286271	2528.012625
991.582262	2524.856863
991.878217	2527.279137
992.174136	2524.388035
992.470019	2527.392563
992.765865	2526.795186
993.061676	2528.236956
993.357450	2527.503468
993.653188	2526.288550
993.948890	2528.307532
994.244556	2528.645290
994.540186	2528.723428
994.835780	2527.248890
995.131337	2525.113962
995.426859	2521.693539
995.722345	2528.037831
996.017795	2524.042716
996.313208	2527.707635
996.608586	2526.459950
996.903928	2528.133613
997.199234	2523.538601
997.494504	2530.056813
997.789738	2529.971113
998.084936	2526.326359
998.380099	2523.120185
998.675225	2528.204189
998.970316	2529.035979
999.265371	2525.542460
999.560390	2524.814013
999.855373	2529.711494
1000.150320	2525.565145
1000.445232	2529.686288
1000.740108	2526.321318
1001.034948	2525.522295
1001.329752	2527.952131
1001.624521	2528.080681
1001.919254	2521.073477
1002.213951	2525.731503
1002.508613	2524.420803
1002.803239	2523.026924
1003.097829	2519.931655
1003.392384	2526.205371
1003.686903	2527.896678
1003.981386	2526.936339
1004.275834	2527.475742
1004.570246	2526.757378
1004.864623	2523.026924
1005.158964	2523.589013
1005.453270	2525.318128
1005.747540	2523.256296
1006.041775	2528.352903
1006.335974	2526.107069
1006.630138	2525.308046
1006.924266	2526.664116
1007.218359	2524.173786
1007.512416	2525.691174
1007.806438	2525.315608
1008.100425	2527.337110
1008.394376	2524.743437
1008.688292	2524.466173
1008.982172	2525.658406
1009.276017	2523.957017
1009.569827	2527.148067
1009.863602	2525.945752
1010.157341	2524.388035
1010.451045	2526.321318
1010.744714	2525.542460
1011.038347	2524.161183
1011.331945	2523.538601
1011.625508	2526.621267
1011.919036	2523.836029
1012.212528	2525.802079
1012.505986	2523.808303
1012.799408	2525.736544
1013.092795	2527.508510
1013.386147	2525.305525
1013.679464	2524.153622
1013.972745	2525.058509
1014.265992	2523.810823
1014.559204	2525.076153
1014.852380	2524.967768
1015.145521	2525.998684
1015.438628	2524.262007
1015.731699	2529.761905
1016.024736	2525.814682
1016.317737	2525.033303
1016.610703	2526.729651
1016.903635	2523.349558
1017.196531	2521.645648
1017.489393	2522.512726
1017.782219	2522.326203
1018.075011	2523.415093
1018.367768	2522.762263
1018.660490	2527.337110
1018.953177	2527.337110
1019.245829	2527.337110
