Dividing Wavelength (nm)	Counts (n)	Blue Motor Position (mm): 0.000000	Red Motor Position (mm): 5.000000	
326.493990	2162.655000
326.888308	2162.655000
327.282561	2162.655000
327.676750	2197.943077
328.070874	2175.257885
328.464933	2190.381346
328.858929	2155.093269
329.252859	2245.834038
329.646726	2218.107692
330.040528	2195.422500
330.434265	2167.696154
330.827938	2240.792885
331.221547	2245.834038
331.615091	2213.066538
332.008571	2351.698269
332.401986	2268.519231
332.795338	2369.342308
333.188625	2301.286731
333.581847	2306.327885
333.975006	2500.412308
334.368100	2394.548077
334.761129	2460.083077
335.154095	2414.712692
335.546996	2442.439038
335.939833	2505.453462
336.332606	2422.274423
336.725315	2444.959615
337.117960	2492.850577
337.510540	2480.247692
337.903056	2487.809423
338.295508	2515.535769
338.687896	2528.138654
339.080220	2500.412308
339.472480	2555.865000
339.864676	2558.385577
340.256807	2533.179808
340.648875	2578.550192
341.040879	2621.400000
341.432818	2533.179808
341.824694	2588.632500
342.216506	2550.823846
342.608253	2578.550192
342.999937	2631.482308
343.391557	2560.906154
343.783113	2573.509038
344.174605	2601.235385
344.566033	2603.755962
344.957397	2570.988462
345.348697	2560.906154
345.739934	2520.576923
346.131106	2576.029615
346.522215	2545.782692
346.913260	2560.906154
347.304241	2591.153077
347.695159	2560.906154
348.086012	2507.974038
348.476802	2568.467885
348.867528	2616.358846
349.258191	2606.276538
349.648789	2530.659231
350.039324	2528.138654
350.429796	2507.974038
350.820203	2568.467885
351.210548	2603.755962
351.600828	2621.400000
351.991045	2467.644808
352.381198	2573.509038
352.771288	2568.467885
353.161314	2505.453462
353.551276	2616.358846
353.941175	2588.632500
354.331010	2576.029615
354.720782	2513.015192
355.110490	2573.509038
355.500135	2578.550192
355.889717	2533.179808
356.279235	2513.015192
356.668689	2560.906154
357.058080	2480.247692
357.447408	2533.179808
357.836672	2545.782692
358.225873	2611.317692
358.615010	2576.029615
359.004084	2555.865000
359.393095	2591.153077
359.782043	2533.179808
360.170927	2490.330000
360.559748	2497.891731
360.948505	2558.385577
361.337199	2500.412308
361.725830	2535.700385
362.114398	2530.659231
362.502903	2548.303269
362.891344	2568.467885
363.279722	2530.659231
363.668037	2583.591346
364.056289	2596.194231
364.444478	2628.961731
364.832603	2548.303269
365.220665	2601.235385
365.608665	2565.947308
365.996601	2578.550192
366.384474	2623.920577
366.772284	2497.891731
367.160031	2611.317692
367.547715	2497.891731
367.935336	2528.138654
368.322893	2611.317692
368.710388	2603.755962
369.097820	2691.976154
369.485189	2583.591346
369.872495	2679.373269
370.259738	2515.535769
370.646918	2540.741538
371.034035	2661.729231
371.421090	2565.947308
371.808081	2628.961731
372.195010	2563.426731
372.581875	2626.441154
372.968678	2520.576923
373.355418	2533.179808
373.742096	2583.591346
374.128710	2545.782692
374.515262	2598.714808
374.901751	2596.194231
375.288177	2515.535769
375.674540	2550.823846
376.060841	2573.509038
376.447079	2598.714808
376.833254	2528.138654
377.219367	2603.755962
377.605417	2530.659231
377.991404	2545.782692
378.377329	2533.179808
378.763191	2634.002885
379.148991	2576.029615
379.534727	2540.741538
379.920402	2528.138654
380.306013	2560.906154
380.691563	2565.947308
381.077049	2548.303269
381.462474	2621.400000
381.847835	2558.385577
382.233134	2570.988462
382.618371	2634.002885
383.003545	2593.673654
383.388657	2480.247692
383.773706	2598.714808
384.158693	2601.235385
384.543618	2530.659231
384.928480	2555.865000
385.313280	2631.482308
385.698017	2477.727115
386.082692	2560.906154
386.467305	2586.111923
386.851856	2628.961731
387.236344	2636.523462
387.620770	2558.385577
388.005133	2586.111923
388.389435	2593.673654
388.773674	2593.673654
389.157851	2583.591346
389.541965	2548.303269
389.926018	2608.797115
390.310008	2656.688077
390.693936	2651.646923
391.077802	2505.453462
391.461606	2644.085192
391.845348	2608.797115
392.229027	2563.426731
392.612645	2616.358846
392.996200	2558.385577
393.379694	2586.111923
393.763125	2578.550192
394.146494	2510.494615
394.529801	2533.179808
394.913047	2543.262115
395.296230	2487.809423
395.679351	2603.755962
396.062410	2465.124231
396.445408	2565.947308
396.828343	2570.988462
397.211217	2563.426731
397.594028	2560.906154
397.976778	2553.344423
398.359466	2543.262115
398.742092	2621.400000
399.124656	2570.988462
399.507158	2586.111923
399.889598	2520.576923
400.271977	2560.906154
400.654294	2631.482308
401.036549	2611.317692
401.418742	2669.290962
401.800874	2480.247692
402.182944	2565.947308
402.564952	2651.646923
402.946898	2581.070769
403.328783	2593.673654
403.710606	2661.729231
404.092367	2588.632500
404.474067	2611.317692
404.855705	2596.194231
405.237282	2555.865000
405.618797	2581.070769
406.000250	2593.673654
406.381642	2586.111923
406.762972	2618.879423
407.144240	2558.385577
407.525447	2565.947308
407.906593	2591.153077
408.287677	2618.879423
408.668700	2628.961731
409.049661	2613.838269
409.430560	2487.809423
409.811399	2570.988462
410.192176	2649.126346
410.572891	2623.920577
410.953545	2591.153077
411.334138	2568.467885
411.714669	2631.482308
412.095139	2558.385577
412.475547	2651.646923
412.855894	2626.441154
413.236180	2573.509038
413.616405	2545.782692
413.996568	2588.632500
414.376670	2591.153077
414.756711	2608.797115
415.136691	2540.741538
415.516609	2563.426731
415.896466	2618.879423
416.276262	2621.400000
416.655997	2628.961731
417.035670	2596.194231
417.415283	2646.605769
417.794834	2639.044038
418.174324	2591.153077
418.553753	2623.920577
418.933121	2674.332115
419.312428	2598.714808
419.691674	2518.056346
420.070859	2535.700385
420.449983	2530.659231
420.829045	2570.988462
421.208047	2533.179808
421.586988	2603.755962
421.965867	2533.179808
422.344686	2555.865000
422.723444	2596.194231
423.102141	2626.441154
423.480777	2591.153077
423.859352	2586.111923
424.237866	2578.550192
424.616319	2568.467885
424.994712	2664.249808
425.373044	2596.194231
425.751314	2674.332115
426.129524	2598.714808
426.507673	2613.838269
426.885762	2601.235385
427.263789	2654.167500
427.641756	2611.317692
428.019662	2563.426731
428.397508	2611.317692
428.775292	2631.482308
429.153016	2671.811538
429.530679	2550.823846
429.908282	2535.700385
430.285824	2636.523462
430.663305	2540.741538
431.040726	2550.823846
431.418086	2611.317692
431.795385	2634.002885
432.172624	2649.126346
432.549802	2596.194231
432.926920	2591.153077
433.303977	2550.823846
433.680974	2616.358846
434.057910	2623.920577
434.434786	2583.591346
434.811601	2631.482308
435.188355	2576.029615
435.565050	2634.002885
435.941683	2686.935000
436.318257	2646.605769
436.694770	2555.865000
437.071222	2679.373269
437.447614	2616.358846
437.823946	2558.385577
438.200218	2593.673654
438.576429	2634.002885
438.952580	2659.208654
439.328670	2704.579038
439.704700	2694.496731
440.080670	2646.605769
440.456580	2742.387692
440.832429	2714.661346
441.208218	2737.346538
441.583947	2691.976154
441.959616	2699.537885
442.335224	2797.840385
442.710773	2787.758077
443.086261	2765.072885
443.461689	2762.552308
443.837057	2820.525577
444.212365	2845.731346
444.587612	2820.525577
444.962800	2853.293077
445.337927	2838.169615
445.712995	2870.937115
446.088002	2959.157308
446.462949	3057.459808
446.837837	2994.445385
447.212664	3102.830192
447.587431	3193.570962
447.962139	3243.982500
448.336786	3473.355000
448.711374	3604.425000
449.085901	3435.546346
449.460369	3435.546346
449.834776	3556.534038
450.209124	3722.892115
450.583412	3869.085577
450.957640	3843.879808
451.331808	3894.291346
451.705917	3954.785192
452.079965	3856.482692
452.453954	4030.402500
452.827883	4143.828462
453.201752	4214.404615
453.575562	4274.898462
453.949311	4373.200962
454.323001	4549.641346
454.696632	4678.190769
455.070202	4900.001538
455.443713	5026.030385
455.817164	5336.061346
456.190556	5343.623077
456.563888	5661.215769
456.937160	5610.804231
457.310373	5502.419423
457.683526	5822.532692
458.056619	5762.038846
458.429653	6122.481346
458.802628	6036.781731
459.175542	6182.975192
459.548398	6712.296346
459.921194	7171.041346
460.293930	7450.825385
460.666607	7866.720577
461.039224	8494.344231
461.411782	9076.597500
461.784280	9114.406154
462.156719	9376.546154
462.529099	9260.599615
462.901419	8890.074808
463.273680	8983.336154
463.645882	9215.229231
464.018024	9341.258077
464.390106	9736.988654
464.762130	10281.433269
465.134094	11070.373846
465.505999	12633.131538
465.877845	14949.541731
466.249631	16774.439423
466.621358	16466.929038
466.993026	16035.910385
467.364634	15617.494615
467.736184	15085.652885
468.107674	14742.854423
468.479105	15269.655000
468.850477	15015.076731
469.221790	15214.202308
469.593043	14795.786538
469.964238	14624.387308
470.335373	14329.479808
470.706449	15315.025385
471.077467	15173.873077
471.448425	17339.048654
471.819324	20923.309038
472.190164	21792.908077
472.560945	18420.376154
472.931667	16978.606154
473.302330	17182.772885
473.672934	17220.581538
474.043479	17520.530192
474.413965	17543.215385
474.784393	17084.470385
475.154761	18102.783462
475.525070	18017.083846
475.895321	18165.797885
476.265513	18581.693077
476.635645	19179.069808
477.005719	19536.991731
477.375734	19786.528846
477.745691	20212.506346
478.115588	21072.023077
478.485427	21893.731154
478.855207	22980.099808
479.224928	24936.067500
479.594591	27295.327500
479.964194	26340.028846
480.333739	27466.726731
480.703226	26607.210000
481.072653	26592.086538
481.442022	27837.251538
481.811333	28631.233269
482.180584	28492.601538
482.549777	27277.683462
482.918912	27396.150577
483.287988	27217.189615
483.657005	26735.759423
484.025964	26672.745000
484.394864	26468.578269
484.763706	25765.337308
485.132489	25737.610962
485.501213	25742.652115
485.869879	25470.429808
486.238487	25467.909231
486.607036	25535.964808
486.975527	25178.042885
487.343959	25281.386538
487.712333	25306.592308
488.080648	24681.489231
488.448905	25142.754808
488.817104	25241.057308
489.185244	25293.989423
489.553326	25442.703462
489.921350	26466.057692
490.289315	29039.566731
490.657222	29805.822115
491.025070	29684.834423
491.392861	29715.081346
491.760593	28366.572692
492.128267	26879.432308
492.495883	26082.930000
492.863440	24999.081923
493.230939	24807.518077
493.598380	23832.054808
493.965763	23632.929231
494.333088	22644.863077
494.700354	22475.984423
495.067563	21785.346346
495.434713	21447.589038
495.801805	21767.702308
496.168839	21077.064231
496.535815	20673.771923
496.902733	20681.333654
497.269593	20547.743077
497.636395	20149.491923
498.003139	19612.609038
498.369825	19461.374423
498.736453	19600.006154
499.103023	18879.121154
499.469535	18720.324808
499.835989	18692.598462
500.202385	18576.651923
500.568723	17901.137308
500.935003	17843.164038
501.301226	17182.772885
501.667390	17553.297692
502.033497	17424.748269
502.399546	16850.056731
502.765537	16517.340577
503.131470	16262.762308
503.497345	16257.721154
503.863163	15743.523462
504.228923	15400.725000
504.594625	15244.449231
504.960269	14997.432692
505.325856	14964.665192
505.691385	14677.319423
506.056856	14314.356346
506.422270	14120.271923
506.787625	13724.541346
507.152924	13671.609231
507.518164	13270.837500
507.883347	13114.561731
508.248472	12842.339423
508.613540	12668.419615
508.978550	12532.308462
509.343503	12199.592308
509.708398	12101.289808
510.073236	11849.232115
510.438016	11682.874038
510.802738	11216.567308
511.167403	11186.320385
511.532010	11070.373846
511.896561	10909.056923
512.261053	10558.696731
512.625488	10427.626731
512.989866	10029.375577
513.354186	9789.920769
513.718449	9568.110000
514.082655	9714.303462
514.446803	9295.887692
514.810894	9187.502885
515.174927	8932.924615
515.538904	8761.525385
515.902822	8693.469808
516.266684	8388.480000
516.630488	8126.340000
516.994235	7904.529231
517.357925	7823.870769
517.721558	7773.459231
518.085133	7526.442692
518.448651	7309.673077
518.812112	7168.520769
519.175516	7118.109231
519.538863	6936.627692
519.902152	6787.913654
520.265385	6644.240769
520.628560	6457.718077
520.991678	6351.853846
521.354739	6175.413462
521.717743	6185.495769
522.080690	6024.178846
522.443580	5986.370192
522.806413	5903.191154
523.169189	5557.872115
523.531908	5421.760962
523.894569	5371.349423
524.257174	5290.690962
524.619722	5210.032500
524.982213	5147.018077
525.344647	4968.057115
525.707025	4867.234038
526.069345	4862.192885
526.431608	4756.328654
526.793815	4605.094038
527.155964	4438.735962
527.518057	4463.941731
527.880093	4431.174231
528.242072	4312.707115
528.603995	4257.254423
528.965860	4138.787308
529.327669	4116.102115
529.689421	4070.731731
530.051117	4025.361346
530.412755	3785.906538
530.774337	3717.850962
531.135862	3841.359231
531.497331	3758.180192
531.858743	3644.754231
532.220098	3622.069038
532.581396	3627.110192
532.942638	3513.684231
533.303824	3586.780962
533.664953	3516.204808
534.026025	3417.902308
534.387040	3405.299423
534.747999	3354.887885
535.108902	3334.723269
535.469748	3294.394038
535.830537	3301.955769
536.191270	3259.105962
536.551947	3148.200577
536.912567	3133.077115
537.273131	3198.612115
537.633638	3057.459808
537.994089	3054.939231
538.354483	2984.363077
538.714821	3022.171731
539.075103	3090.227308
539.435328	2959.157308
539.795497	2999.486538
540.155609	2908.745769
540.515665	2971.760192
540.875665	2901.184038
541.235609	2896.142885
541.595496	2891.101731
541.955328	2896.142885
542.315102	2830.607885
542.674821	2931.430962
543.034483	2833.128462
543.394090	2860.854808
543.753640	2838.169615
544.113134	2775.155192
544.472571	2785.237500
544.831953	2878.498846
545.191278	2800.360962
545.550548	2810.443269
545.909761	2782.716923
546.268918	2838.169615
546.628019	2734.825962
546.987064	2714.661346
547.346053	2734.825962
547.704986	2777.675769
548.063863	2840.690192
548.422684	2717.181923
548.781449	2747.428846
549.140158	2732.305385
549.498811	2679.373269
549.857408	2694.496731
550.215949	2634.002885
550.574434	2739.867115
550.932864	2727.264231
551.291237	2699.537885
551.649555	2727.264231
552.007817	2626.441154
552.366022	2714.661346
552.724173	2659.208654
553.082267	2724.743654
553.440305	2734.825962
553.798288	2654.167500
554.156215	2666.770385
554.514086	2684.414423
554.871902	2666.770385
555.229661	2792.799231
555.587365	2661.729231
555.945014	2684.414423
556.302606	2550.823846
556.660143	2739.867115
557.017625	2691.976154
557.375050	2686.935000
557.732421	2641.564615
558.089735	2646.605769
558.446994	2618.879423
558.804197	2691.976154
559.161345	2684.414423
559.518437	2717.181923
559.875474	2669.290962
560.232455	2623.920577
560.589381	2686.935000
560.946251	2691.976154
561.303065	2709.620192
561.659825	2684.414423
562.016528	2732.305385
562.373177	2749.949423
562.729770	2742.387692
563.086307	2644.085192
563.442789	2656.688077
563.799216	2611.317692
564.155587	2729.784808
564.511904	2752.470000
564.868164	2737.346538
565.224370	2724.743654
565.580520	2651.646923
565.936615	2603.755962
566.292654	2686.935000
566.648638	2649.126346
567.004567	2702.058462
567.360441	2707.099615
567.716260	2691.976154
568.072023	2618.879423
568.427732	2608.797115
568.783385	2641.564615
569.138982	2694.496731
569.494525	2702.058462
569.850013	2639.044038
570.205445	2669.290962
570.560823	2616.358846
570.916145	2565.947308
571.271412	2626.441154
571.626625	2669.290962
571.981782	2644.085192
572.336884	2694.496731
572.691931	2674.332115
573.046923	2644.085192
573.401860	2628.961731
573.756743	2651.646923
574.111570	2641.564615
574.466342	2591.153077
574.821059	2606.276538
575.175722	2699.537885
575.530330	2621.400000
575.884882	2641.564615
576.239380	2606.276538
576.593823	2689.455577
576.948211	2603.755962
577.302544	2661.729231
577.656823	2681.893846
578.011047	2654.167500
578.365216	2704.579038
578.719330	2676.852692
579.073389	2636.523462
579.427394	2606.276538
579.781344	2510.494615
580.135239	2641.564615
580.489080	2583.591346
580.842866	2628.961731
581.196597	2623.920577
581.550273	2686.935000
581.903895	2596.194231
582.257463	2651.646923
582.610975	2664.249808
582.964434	2671.811538
583.317837	2608.797115
583.671186	2694.496731
584.024481	2646.605769
584.377721	2621.400000
584.730906	2666.770385
585.084037	2654.167500
585.437113	2581.070769
585.790135	2639.044038
586.143103	2697.017308
586.496016	2674.332115
586.848874	2722.223077
587.201679	2742.387692
587.554428	2593.673654
587.907124	2654.167500
588.259765	2621.400000
588.612352	2581.070769
588.964884	2616.358846
589.317362	2631.482308
589.669786	2606.276538
590.022155	2656.688077
590.374470	2520.576923
590.726731	2654.167500
591.078937	2631.482308
591.431090	2608.797115
591.783188	2664.249808
592.135232	2641.564615
592.487222	2641.564615
592.839157	2631.482308
593.191038	2649.126346
593.542866	2666.770385
593.894639	2702.058462
594.246358	2616.358846
594.598022	2621.400000
594.949633	2674.332115
595.301190	2598.714808
595.652692	2626.441154
596.004141	2679.373269
596.355535	2576.029615
596.706876	2591.153077
597.058162	2608.797115
597.409395	2724.743654
597.760573	2618.879423
598.111698	2770.114038
598.462768	2550.823846
598.813785	2623.920577
599.164748	2641.564615
599.515657	2588.632500
599.866511	2608.797115
600.217312	2661.729231
600.568060	2676.852692
600.918753	2621.400000
601.269392	2634.002885
601.619978	2659.208654
601.970510	2676.852692
602.320988	2593.673654
602.671412	2576.029615
603.021783	2636.523462
603.372100	2674.332115
603.722363	2593.673654
604.072572	2555.865000
604.422728	2644.085192
604.772830	2729.784808
605.122878	2621.400000
605.472872	2601.235385
605.822813	2568.467885
606.172701	2656.688077
606.522534	2684.414423
606.872314	2631.482308
607.222041	2702.058462
607.571714	2603.755962
607.921333	2689.455577
608.270899	2555.865000
608.620411	2611.317692
608.969870	2666.770385
609.319276	2646.605769
609.668627	2684.414423
610.017926	2739.867115
610.367171	2707.099615
610.716362	2608.797115
611.065500	2659.208654
611.414585	2681.893846
611.763616	2679.373269
612.112594	2598.714808
612.461518	2644.085192
612.810389	2613.838269
613.159207	2656.688077
613.507971	2608.797115
613.856682	2634.002885
614.205340	2626.441154
614.553945	2601.235385
614.902496	2623.920577
615.250994	2618.879423
615.599439	2732.305385
615.947830	2593.673654
616.296169	2596.194231
616.644454	2586.111923
616.992686	2588.632500
617.340864	2545.782692
617.688990	2636.523462
618.037063	2598.714808
618.385082	2563.426731
618.733048	2578.550192
619.080961	2654.167500
619.428821	2568.467885
619.776628	2608.797115
620.124382	2565.947308
620.472083	2573.509038
620.819731	2606.276538
621.167326	2543.262115
621.514868	2628.961731
621.862357	2639.044038
622.209793	2631.482308
622.557176	2558.385577
622.904506	2636.523462
623.251783	2669.290962
623.599007	2618.879423
623.946179	2676.852692
624.293297	2623.920577
624.640363	2704.579038
624.987376	2558.385577
625.334336	2598.714808
625.681243	2588.632500
626.028097	2691.976154
626.374899	2646.605769
626.721647	2724.743654
627.068343	2623.920577
627.414987	2699.537885
627.761577	2560.906154
628.108115	2613.838269
628.454600	2717.181923
628.801032	2671.811538
629.147412	2644.085192
629.493739	2616.358846
629.840014	2656.688077
630.186236	2618.879423
630.532405	2636.523462
630.878521	2631.482308
631.224585	2608.797115
631.570597	2618.879423
631.916556	2664.249808
632.262462	2654.167500
632.608316	2636.523462
632.954117	2664.249808
633.299866	2634.002885
633.645562	2621.400000
633.991206	2616.358846
634.336797	2563.426731
634.682336	2576.029615
635.027823	2646.605769
635.373257	2646.605769
635.718639	2659.208654
636.063968	2475.206538
636.409245	2598.714808
636.754470	2618.879423
637.099642	2598.714808
637.444762	2593.673654
637.789829	2664.249808
638.134845	2669.290962
638.479808	2634.002885
638.824719	2679.373269
639.169577	2616.358846
639.514383	2616.358846
639.859137	2613.838269
640.203839	2636.523462
640.548489	2679.373269
640.893086	2598.714808
641.237632	2623.920577
641.582125	2671.811538
641.926566	2679.373269
642.270955	2664.249808
642.615292	2618.879423
642.959576	2611.317692
643.303809	2656.688077
643.647990	2679.373269
643.992118	2596.194231
644.336195	2548.303269
644.680219	2616.358846
645.024192	2623.920577
645.368112	2694.496731
645.711981	2618.879423
646.055797	2639.044038
646.399562	2613.838269
646.743274	2616.358846
647.086935	2621.400000
647.430544	2603.755962
647.774101	2598.714808
648.117606	2686.935000
648.461059	2613.838269
648.804460	2591.153077
649.147810	2681.893846
649.491108	2689.455577
649.834354	2639.044038
650.177548	2631.482308
650.520690	2702.058462
650.863781	2570.988462
651.206820	2649.126346
651.549807	2644.085192
651.892742	2676.852692
652.235626	2636.523462
652.578458	2752.470000
652.921238	2654.167500
653.263967	2656.688077
653.606644	2593.673654
653.949269	2608.797115
654.291843	2666.770385
654.634365	2591.153077
654.976836	2649.126346
655.319255	2535.700385
655.661622	2674.332115
656.003938	2608.797115
656.346203	2621.400000
656.688416	2553.344423
657.030577	2623.920577
657.372687	2641.564615
657.714746	2608.797115
658.056753	2621.400000
658.398708	2581.070769
658.740612	2621.400000
659.082465	2616.358846
659.424266	2613.838269
659.766016	2636.523462
660.107715	2686.935000
660.449362	2671.811538
660.790958	2669.290962
661.132503	2606.276538
661.473996	2583.591346
661.815438	2598.714808
662.156829	2616.358846
662.498168	2598.714808
662.839456	2608.797115
663.180693	2666.770385
663.521879	2618.879423
663.863013	2634.002885
664.204097	2618.879423
664.545129	2644.085192
664.886110	2608.797115
665.227040	2613.838269
665.567918	2666.770385
665.908746	2618.879423
666.249522	2671.811538
666.590248	2634.002885
666.930922	2626.441154
667.271545	2654.167500
667.612118	2689.455577
667.952639	2626.441154
668.293109	2636.523462
668.633528	2659.208654
668.973896	2616.358846
669.314213	2608.797115
669.654480	2649.126346
669.994695	2563.426731
670.334859	2628.961731
670.674973	2628.961731
671.015035	2598.714808
671.355047	2583.591346
671.695008	2656.688077
672.034918	2644.085192
672.374777	2603.755962
672.714585	2644.085192
673.054342	2671.811538
673.394049	2669.290962
673.733705	2676.852692
674.073310	2581.070769
674.412864	2626.441154
674.752368	2717.181923
675.091820	2664.249808
675.431223	2679.373269
675.770574	2641.564615
676.109875	2639.044038
676.449125	2709.620192
676.788324	2646.605769
677.127473	2659.208654
677.466571	2540.741538
677.805619	2608.797115
678.144616	2618.879423
678.483562	2704.579038
678.822458	2684.414423
679.161303	2666.770385
679.500098	2583.591346
679.838842	2679.373269
680.177535	2611.317692
680.516179	2626.441154
680.854771	2664.249808
681.193314	2661.729231
681.531805	2608.797115
681.870247	2656.688077
682.208638	2588.632500
682.546978	2626.441154
682.885268	2626.441154
683.223508	2603.755962
683.561697	2634.002885
683.899836	2578.550192
684.237925	2654.167500
684.575963	2669.290962
684.913951	2691.976154
685.251889	2646.605769
685.589776	2669.290962
685.927614	2606.276538
686.265401	2664.249808
686.603137	2646.605769
686.940824	2628.961731
687.278460	2623.920577
687.616046	2573.509038
687.953582	2621.400000
688.291068	2593.673654
688.628504	2628.961731
688.965889	2666.770385
689.303224	2651.646923
689.640510	2681.893846
689.977745	2586.111923
690.314930	2578.550192
690.652065	2623.920577
690.989150	2570.988462
691.326185	2626.441154
691.663170	2639.044038
692.000105	2613.838269
692.336990	2530.659231
692.673825	2581.070769
693.010610	2649.126346
693.347345	2553.344423
693.684030	2601.235385
694.020665	2626.441154
694.357251	2656.688077
694.693786	2649.126346
695.030272	2641.564615
695.366707	2611.317692
695.703093	2618.879423
696.039429	2593.673654
696.375716	2654.167500
696.711952	2616.358846
697.048139	2550.823846
697.384276	2608.797115
697.720363	2651.646923
698.056400	2666.770385
698.392388	2583.591346
698.728326	2697.017308
699.064214	2623.920577
699.400053	2646.605769
699.735842	2593.673654
700.071581	2691.976154
700.407270	2664.249808
700.742910	2636.523462
701.078501	2669.290962
701.414042	2686.935000
701.749533	2671.811538
702.084974	2550.823846
702.420366	2654.167500
702.755709	2583.591346
703.091002	2608.797115
703.426246	2646.605769
703.761440	2535.700385
704.096584	2596.194231
704.431679	2565.947308
704.766725	2623.920577
705.101721	2623.920577
705.436668	2583.591346
705.771565	2533.179808
706.106413	2634.002885
706.441212	2621.400000
706.775961	2621.400000
707.110661	2651.646923
707.445311	2676.852692
707.779913	2651.646923
708.114465	2601.235385
708.448967	2570.988462
708.783421	2601.235385
709.117825	2613.838269
709.452180	2631.482308
709.786485	2611.317692
710.120742	2656.688077
710.454949	2550.823846
710.789107	2661.729231
711.123216	2601.235385
711.457275	2646.605769
711.791286	2639.044038
712.125247	2651.646923
712.459159	2651.646923
712.793023	2651.646923
713.126837	2598.714808
713.460602	2608.797115
713.794318	2636.523462
714.127985	2606.276538
714.461602	2606.276538
714.795171	2603.755962
715.128691	2608.797115
715.462162	2618.879423
715.795584	2533.179808
716.128957	2608.797115
716.462281	2656.688077
716.795556	2618.879423
717.128782	2628.961731
717.461960	2661.729231
717.795088	2639.044038
718.128167	2518.056346
718.461198	2684.414423
718.794180	2664.249808
719.127113	2621.400000
719.459997	2639.044038
719.792833	2654.167500
720.125619	2601.235385
720.458357	2550.823846
720.791046	2591.153077
721.123686	2674.332115
721.456278	2616.358846
721.788821	2636.523462
722.121315	2702.058462
722.453761	2616.358846
722.786158	2666.770385
723.118506	2689.455577
723.450805	2548.303269
723.783056	2626.441154
724.115259	2613.838269
724.447412	2628.961731
724.779518	2654.167500
725.111574	2618.879423
725.443582	2659.208654
725.775542	2525.618077
726.107453	2644.085192
726.439315	2651.646923
726.771129	2623.920577
727.102895	2669.290962
727.434612	2669.290962
727.766281	2591.153077
728.097901	2586.111923
728.429473	2656.688077
728.760996	2634.002885
729.092471	2563.426731
729.423897	2646.605769
729.755276	2659.208654
730.086606	2497.891731
730.417887	2641.564615
730.749120	2616.358846
731.080305	2608.797115
731.411442	2623.920577
731.742530	2699.537885
732.073570	2651.646923
732.404562	2593.673654
732.735506	2608.797115
733.066401	2641.564615
733.397249	2654.167500
733.728048	2641.564615
734.058798	2570.988462
734.389501	2684.414423
734.720156	2601.235385
735.050762	2616.358846
735.381320	2616.358846
735.711831	2586.111923
736.042293	2586.111923
736.372707	2732.305385
736.703073	2568.467885
737.033391	2593.673654
737.363661	2502.932885
737.693883	2492.850577
738.024056	2555.865000
738.354182	2598.714808
738.684260	2545.782692
739.014290	2525.618077
739.344272	2641.564615
739.674207	2628.961731
740.004093	2659.208654
740.333931	2639.044038
740.663722	2649.126346
740.993464	2681.893846
741.323159	2639.044038
741.652806	2507.974038
741.982405	2628.961731
742.311956	2664.249808
742.641460	2671.811538
742.970915	2603.755962
743.300323	2628.961731
743.629683	2593.673654
743.958996	2586.111923
744.288260	2651.646923
744.617477	2596.194231
744.946647	2613.838269
745.275768	2631.482308
745.604842	2613.838269
745.933869	2641.564615
746.262847	2639.044038
746.591778	2591.153077
746.920662	2626.441154
747.249498	2656.688077
747.578286	2570.988462
747.907027	2608.797115
748.235720	2611.317692
748.564365	2628.961731
748.892963	2608.797115
749.221514	2742.387692
749.550017	2603.755962
749.878473	2641.564615
750.206881	2613.838269
750.535242	2563.426731
750.863555	2666.770385
751.191821	2661.729231
751.520039	2530.659231
751.848210	2601.235385
752.176334	2540.741538
752.504411	2618.879423
752.832440	2591.153077
753.160421	2596.194231
753.488356	2691.976154
753.816243	2525.618077
754.144082	2603.755962
754.471875	2626.441154
754.799620	2699.537885
755.127318	2576.029615
755.454969	2603.755962
755.782572	2651.646923
756.110129	2568.467885
756.437638	2558.385577
756.765100	2623.920577
757.092515	2621.400000
757.419882	2646.605769
757.747203	2598.714808
758.074477	2603.755962
758.401703	2656.688077
758.728882	2586.111923
759.056014	2613.838269
759.383099	2588.632500
759.710138	2570.988462
760.037129	2669.290962
760.364073	2573.509038
760.690970	2621.400000
761.017820	2583.591346
761.344623	2560.906154
761.671379	2704.579038
761.998088	2586.111923
762.324751	2651.646923
762.651366	2581.070769
762.977935	2621.400000
763.304456	2586.111923
763.630931	2613.838269
763.957359	2717.181923
764.283740	2651.646923
764.610074	2586.111923
764.936362	2573.509038
765.262602	2626.441154
765.588796	2568.467885
765.914943	2616.358846
766.241044	2679.373269
766.567097	2606.276538
766.893104	2623.920577
767.219064	2694.496731
767.544978	2583.591346
767.870845	2679.373269
768.196665	2603.755962
768.522438	2576.029615
768.848165	2616.358846
769.173846	2601.235385
769.499479	2639.044038
769.825066	2616.358846
770.150607	2563.426731
770.476101	2603.755962
770.801548	2606.276538
771.126949	2593.673654
771.452303	2623.920577
771.777611	2621.400000
772.102872	2611.317692
772.428087	2603.755962
772.753256	2616.358846
773.078378	2601.235385
773.403453	2646.605769
773.728482	2495.371154
774.053465	2601.235385
774.378401	2613.838269
774.703291	2702.058462
775.028135	2634.002885
775.352932	2639.044038
775.677683	2611.317692
776.002388	2606.276538
776.327046	2606.276538
776.651658	2616.358846
776.976224	2568.467885
777.300743	2576.029615
777.625216	2593.673654
777.949643	2568.467885
778.274024	2628.961731
778.598359	2689.455577
778.922647	2603.755962
779.246889	2616.358846
779.571086	2548.303269
779.895236	2603.755962
780.219339	2618.879423
780.543397	2591.153077
780.867409	2558.385577
781.191374	2507.974038
781.515294	2611.317692
781.839167	2623.920577
782.162995	2525.618077
782.486776	2573.509038
782.810511	2639.044038
783.134201	2641.564615
783.457844	2586.111923
783.781441	2664.249808
784.104993	2626.441154
784.428498	2538.220962
784.751958	2601.235385
785.075372	2608.797115
785.398739	2555.865000
785.722061	2583.591346
786.045337	2634.002885
786.368568	2646.605769
786.691752	2649.126346
787.014891	2649.126346
787.337983	2576.029615
787.661030	2611.317692
787.984031	2563.426731
788.306987	2608.797115
788.629897	2598.714808
788.952760	2694.496731
789.275579	2565.947308
789.598351	2606.276538
789.921078	2593.673654
790.243759	2593.673654
790.566395	2641.564615
790.888984	2613.838269
791.211529	2593.673654
791.534027	2565.947308
791.856480	2616.358846
792.178888	2676.852692
792.501249	2666.770385
792.823566	2636.523462
793.145836	2603.755962
793.468062	2588.632500
793.790241	2623.920577
794.112375	2613.838269
794.434464	2618.879423
794.756507	2611.317692
795.078505	2583.591346
795.400457	2626.441154
795.722364	2621.400000
796.044226	2628.961731
796.366042	2586.111923
796.687812	2626.441154
797.009538	2538.220962
797.331218	2661.729231
797.652852	2644.085192
797.974442	2558.385577
798.295986	2639.044038
798.617484	2603.755962
798.938938	2550.823846
799.260346	2550.823846
799.581709	2639.044038
799.903026	2669.290962
800.224299	2621.400000
800.545526	2535.700385
800.866708	2631.482308
801.187845	2588.632500
801.508936	2578.550192
801.829983	2535.700385
802.150984	2548.303269
802.471940	2686.935000
802.792851	2649.126346
803.113717	2603.755962
803.434538	2578.550192
803.755314	2533.179808
804.076045	2528.138654
804.396731	2654.167500
804.717372	2661.729231
805.037967	2649.126346
805.358518	2601.235385
805.679024	2639.044038
805.999485	2581.070769
806.319901	2611.317692
806.640272	2694.496731
806.960598	2550.823846
807.280879	2608.797115
807.601115	2606.276538
807.921306	2601.235385
808.241453	2581.070769
808.561554	2697.017308
808.881611	2593.673654
809.201623	2538.220962
809.521590	2576.029615
809.841513	2495.371154
810.161390	2573.509038
810.481223	2606.276538
810.801011	2593.673654
811.120755	2634.002885
811.440453	2523.097500
811.760107	2606.276538
812.079716	2608.797115
812.399281	2596.194231
812.718801	2601.235385
813.038276	2641.564615
813.357707	2588.632500
813.677093	2553.344423
813.996434	2588.632500
814.315731	2631.482308
814.634983	2500.412308
814.954191	2558.385577
815.273354	2570.988462
815.592473	2538.220962
815.911547	2686.935000
816.230577	2591.153077
816.549562	2528.138654
816.868502	2611.317692
817.187399	2603.755962
817.506250	2608.797115
817.825058	2601.235385
818.143821	2608.797115
818.462539	2651.646923
818.781213	2560.906154
819.099843	2623.920577
819.418429	2591.153077
819.736970	2563.426731
820.055466	2611.317692
820.373919	2656.688077
820.692327	2626.441154
821.010691	2591.153077
821.329011	2702.058462
821.647286	2666.770385
821.965517	2679.373269
822.283704	2749.949423
822.601847	2732.305385
822.919945	2686.935000
823.237999	2709.620192
823.556010	2689.455577
823.873976	2654.167500
824.191897	2576.029615
824.509775	2639.044038
824.827609	2578.550192
825.145398	2593.673654
825.463144	2661.729231
825.780845	2689.455577
826.098502	2664.249808
826.416116	2568.467885
826.733685	2636.523462
827.051210	2626.441154
827.368692	2744.908269
827.686129	2661.729231
828.003522	2628.961731
828.320872	2613.838269
828.638177	2618.879423
828.955439	2581.070769
829.272656	2641.564615
829.589830	2644.085192
829.906960	2596.194231
830.224046	2598.714808
830.541088	2611.317692
830.858086	2641.564615
831.175041	2636.523462
831.491952	2568.467885
831.808819	2644.085192
832.125642	2570.988462
832.442421	2641.564615
832.759157	2689.455577
833.075849	2578.550192
833.392497	2560.906154
833.709101	2686.935000
834.025662	2631.482308
834.342179	2714.661346
834.658653	2664.249808
834.975083	2636.523462
835.291469	2649.126346
835.607811	2641.564615
835.924110	2631.482308
836.240366	2666.770385
836.556578	2634.002885
836.872746	2553.344423
837.188871	2560.906154
837.504952	2495.371154
837.820990	2623.920577
838.136984	2515.535769
838.452935	2560.906154
838.768842	2586.111923
839.084706	2694.496731
839.400526	2631.482308
839.716303	2593.673654
840.032037	2712.140769
840.347727	2598.714808
840.663373	2586.111923
840.978977	2651.646923
841.294537	2586.111923
841.610054	2651.646923
841.925527	2664.249808
842.240957	2593.673654
842.556344	2535.700385
842.871687	2533.179808
843.186987	2596.194231
843.502244	2586.111923
843.817458	2555.865000
844.132629	2634.002885
844.447756	2641.564615
844.762840	2588.632500
845.077881	2613.838269
845.392879	2603.755962
845.707833	2611.317692
846.022745	2641.564615
846.337613	2669.290962
846.652438	2560.906154
846.967221	2606.276538
847.281960	2651.646923
847.596656	2591.153077
847.911309	2628.961731
848.225919	2646.605769
848.540485	2563.426731
848.855009	2586.111923
849.169490	2611.317692
849.483928	2634.002885
849.798323	2598.714808
850.112675	2691.976154
850.426984	2618.879423
850.741251	2621.400000
851.055474	2591.153077
851.369654	2593.673654
851.683792	2596.194231
851.997887	2538.220962
852.311938	2606.276538
852.625947	2581.070769
852.939914	2565.947308
853.253837	2613.838269
853.567718	2578.550192
853.881555	2613.838269
854.195350	2651.646923
854.509103	2568.467885
854.822812	2656.688077
855.136479	2553.344423
855.450103	2666.770385
855.763685	2596.194231
856.077224	2623.920577
856.390720	2618.879423
856.704173	2626.441154
857.017584	2649.126346
857.330953	2502.932885
857.644278	2560.906154
857.957561	2669.290962
858.270802	2644.085192
858.584000	2623.920577
858.897155	2702.058462
859.210268	2611.317692
859.523339	2563.426731
859.836367	2596.194231
860.149352	2641.564615
860.462295	2621.400000
860.775195	2540.741538
861.088054	2606.276538
861.400869	2628.961731
861.713642	2641.564615
862.026373	2515.535769
862.339062	2636.523462
862.651708	2628.961731
862.964312	2497.891731
863.276873	2586.111923
863.589392	2618.879423
863.901869	2613.838269
864.214303	2644.085192
864.526696	2623.920577
864.839045	2618.879423
865.151353	2679.373269
865.463619	2586.111923
865.775842	2601.235385
866.088023	2636.523462
866.400162	2568.467885
866.712258	2613.838269
867.024313	2618.879423
867.336325	2555.865000
867.648296	2613.838269
867.960224	2664.249808
868.272110	2681.893846
868.583954	2608.797115
868.895755	2608.797115
869.207515	2495.371154
869.519233	2570.988462
869.830909	2626.441154
870.142542	2608.797115
870.454134	2608.797115
870.765684	2664.249808
871.077191	2671.811538
871.388657	2543.262115
871.700081	2593.673654
872.011463	2583.591346
872.322803	2581.070769
872.634101	2570.988462
872.945357	2596.194231
873.256571	2626.441154
873.567744	2596.194231
873.878874	2576.029615
874.189963	2666.770385
874.501010	2639.044038
874.812015	2563.426731
875.122979	2573.509038
875.433900	2613.838269
875.744780	2583.591346
876.055618	2583.591346
876.366415	2611.317692
876.677169	2616.358846
876.987882	2646.605769
877.298554	2621.400000
877.609183	2560.906154
877.919771	2621.400000
878.230317	2603.755962
878.540822	2588.632500
878.851285	2525.618077
879.161707	2576.029615
879.472087	2626.441154
879.782425	2530.659231
880.092722	2654.167500
880.402977	2603.755962
880.713191	2659.208654
881.023363	2608.797115
881.333494	2747.428846
881.643583	2671.811538
881.953631	2631.482308
882.263637	2603.755962
882.573602	2558.385577
882.883526	2649.126346
883.193408	2636.523462
883.503248	2601.235385
883.813048	2530.659231
884.122806	2578.550192
884.432522	2563.426731
884.742197	2573.509038
885.051831	2676.852692
885.361424	2520.576923
885.670975	2553.344423
885.980485	2601.235385
886.289954	2576.029615
886.599382	2603.755962
886.908768	2601.235385
887.218113	2560.906154
887.527417	2570.988462
887.836680	2623.920577
888.145901	2621.400000
888.455082	2581.070769
888.764221	2560.906154
889.073319	2530.659231
889.382376	2631.482308
889.691392	2601.235385
890.000366	2611.317692
890.309300	2591.153077
890.618193	2520.576923
890.927044	2515.535769
891.235855	2576.029615
891.544625	2596.194231
891.853353	2586.111923
892.162041	2686.935000
892.470687	2659.208654
892.779293	2603.755962
893.087858	2563.426731
893.396381	2548.303269
893.704864	2507.974038
894.013306	2492.850577
894.321707	2636.523462
894.630068	2626.441154
894.938387	2649.126346
895.246665	2649.126346
895.554903	2666.770385
895.863100	2507.974038
896.171256	2659.208654
896.479371	2578.550192
896.787446	2588.632500
897.095480	2669.290962
897.403473	2578.550192
897.711425	2603.755962
898.019336	2573.509038
898.327207	2583.591346
898.635038	2608.797115
898.942827	2628.961731
899.250576	2616.358846
899.558284	2581.070769
899.865952	2581.070769
900.173579	2659.208654
900.481165	2563.426731
900.788711	2608.797115
901.096216	2596.194231
901.403681	2576.029615
901.711105	2593.673654
902.018489	2465.124231
902.325832	2618.879423
902.633135	2588.632500
902.940397	2578.550192
903.247619	2596.194231
903.554800	2639.044038
903.861941	2628.961731
904.169041	2558.385577
904.476101	2684.414423
904.783121	2634.002885
905.090100	2623.920577
905.397039	2623.920577
905.703938	2603.755962
906.010796	2500.412308
906.317614	2601.235385
906.624391	2611.317692
906.931129	2616.358846
907.237826	2586.111923
907.544483	2621.400000
907.851099	2586.111923
908.157675	2581.070769
908.464211	2563.426731
908.770707	2639.044038
909.077163	2636.523462
909.383578	2543.262115
909.689954	2606.276538
909.996289	2616.358846
910.302584	2528.138654
910.608839	2588.632500
910.915054	2636.523462
911.221229	2613.838269
911.527363	2593.673654
911.833458	2623.920577
912.139513	2659.208654
912.445527	2608.797115
912.751502	2606.276538
913.057436	2606.276538
913.363331	2697.017308
913.669186	2613.838269
913.975000	2563.426731
914.280775	2588.632500
914.586510	2588.632500
914.892205	2674.332115
915.197859	2676.852692
915.503475	2555.865000
915.809050	2593.673654
916.114585	2578.550192
916.420081	2576.029615
916.725536	2588.632500
917.030952	2623.920577
917.336328	2586.111923
917.641665	2608.797115
917.946961	2593.673654
918.252218	2513.015192
918.557435	2671.811538
918.862612	2543.262115
919.167750	2553.344423
919.472848	2661.729231
919.777906	2656.688077
920.082925	2676.852692
920.387904	2611.317692
920.692843	2581.070769
920.997743	2576.029615
921.302603	2563.426731
921.607423	2558.385577
921.912204	2555.865000
922.216946	2606.276538
922.521647	2598.714808
922.826310	2545.782692
923.130932	2558.385577
923.435516	2533.179808
923.740059	2523.097500
924.044564	2447.480192
924.349028	2628.961731
924.653454	2598.714808
924.957840	2651.646923
925.262186	2570.988462
925.566493	2568.467885
925.870761	2659.208654
926.174989	2538.220962
926.479178	2591.153077
926.783328	2671.811538
927.087438	2578.550192
927.391509	2583.591346
927.695541	2639.044038
927.999533	2535.700385
928.303486	2591.153077
928.607400	2528.138654
928.911275	2621.400000
929.215110	2639.044038
929.518906	2659.208654
929.822663	2646.605769
930.126381	2543.262115
930.430060	2550.823846
930.733699	2669.290962
931.037299	2583.591346
931.340861	2603.755962
931.644383	2510.494615
931.947866	2591.153077
932.251309	2568.467885
932.554714	2631.482308
932.858080	2621.400000
933.161407	2510.494615
933.464694	2621.400000
933.767943	2679.373269
934.071153	2626.441154
934.374323	2570.988462
934.677455	2656.688077
934.980548	2565.947308
935.283602	2669.290962
935.586617	2593.673654
935.889593	2611.317692
936.192530	2568.467885
936.495428	2613.838269
936.798287	2583.591346
937.101108	2581.070769
937.403890	2596.194231
937.706632	2649.126346
938.009336	2576.029615
938.312002	2631.482308
938.614628	2545.782692
938.917216	2644.085192
939.219765	2538.220962
939.522275	2608.797115
939.824747	2681.893846
940.127179	2608.797115
940.429573	2570.988462
940.731929	2634.002885
941.034246	2628.961731
941.336524	2596.194231
941.638763	2649.126346
941.940964	2601.235385
942.243126	2641.564615
942.545250	2523.097500
942.847335	2588.632500
943.149381	2608.797115
943.451389	2545.782692
943.753359	2681.893846
944.055290	2581.070769
944.357182	2644.085192
944.659036	2603.755962
944.960851	2543.262115
945.262628	2576.029615
945.564367	2520.576923
945.866067	2621.400000
946.167729	2545.782692
946.469352	2626.441154
946.770937	2628.961731
947.072484	2611.317692
947.373992	2515.535769
947.675462	2628.961731
947.976893	2563.426731
948.278286	2603.755962
948.579641	2641.564615
948.880958	2623.920577
949.182236	2583.591346
949.483476	2601.235385
949.784678	2591.153077
950.085841	2570.988462
950.386967	2631.482308
950.688054	2631.482308
950.989103	2651.646923
951.290114	2616.358846
951.591087	2586.111923
951.892021	2550.823846
952.192917	2666.770385
952.493776	2576.029615
952.794596	2618.879423
953.095378	2502.932885
953.396122	2530.659231
953.696828	2613.838269
953.997496	2588.632500
954.298126	2588.632500
954.598718	2586.111923
954.899272	2631.482308
955.199788	2611.317692
955.500266	2558.385577
955.800706	2618.879423
956.101108	2639.044038
956.401472	2586.111923
956.701798	2586.111923
957.002087	2639.044038
957.302337	2497.891731
957.602550	2578.550192
957.902724	2553.344423
958.202861	2644.085192
958.502960	2528.138654
958.803022	2608.797115
959.103045	2578.550192
959.403031	2641.564615
959.702979	2651.646923
960.002889	2684.414423
960.302762	2573.509038
960.602596	2593.673654
960.902393	2570.988462
961.202153	2540.741538
961.501875	2611.317692
961.801559	2581.070769
962.101205	2555.865000
962.400814	2601.235385
962.700385	2581.070769
962.999918	2545.782692
963.299414	2606.276538
963.598873	2588.632500
963.898293	2616.358846
964.197677	2606.276538
964.497022	2563.426731
964.796331	2603.755962
965.095601	2497.891731
965.394835	2603.755962
965.694030	2573.509038
965.993189	2550.823846
966.292309	2550.823846
966.591393	2603.755962
966.890439	2525.618077
967.189447	2535.700385
967.488419	2515.535769
967.787353	2636.523462
968.086249	2535.700385
968.385108	2628.961731
968.683930	2613.838269
968.982714	2598.714808
969.281462	2608.797115
969.580172	2518.056346
969.878844	2583.591346
970.177480	2540.741538
970.476078	2588.632500
970.774639	2689.455577
971.073162	2563.426731
971.371649	2581.070769
971.670098	2586.111923
971.968510	2558.385577
972.266885	2628.961731
972.565223	2570.988462
972.863524	2555.865000
973.161788	2598.714808
973.460014	2583.591346
973.758204	2593.673654
974.056356	2611.317692
974.354471	2719.702500
974.652550	2598.714808
974.950591	2646.605769
975.248595	2631.482308
975.546563	2586.111923
975.844493	2568.467885
976.142386	2593.673654
976.440243	2634.002885
976.738062	2591.153077
977.035845	2598.714808
977.333590	2583.591346
977.631299	2606.276538
977.928971	2631.482308
978.226606	2525.618077
978.524204	2634.002885
978.821765	2691.976154
979.119290	2634.002885
979.416777	2586.111923
979.714228	2578.550192
980.011642	2596.194231
980.309020	2550.823846
980.606360	2560.906154
980.903664	2492.850577
981.200931	2644.085192
981.498162	2583.591346
981.795356	2621.400000
982.092513	2555.865000
982.389633	2576.029615
982.686717	2555.865000
982.983764	2540.741538
983.280775	2550.823846
983.577749	2654.167500
983.874686	2598.714808
984.171587	2613.838269
984.468451	2621.400000
984.765279	2611.317692
985.062070	2702.058462
985.358824	2608.797115
985.655543	2581.070769
985.952224	2601.235385
986.248869	2560.906154
986.545478	2510.494615
986.842050	2553.344423
987.138586	2550.823846
987.435086	2601.235385
987.731549	2646.605769
988.027975	2555.865000
988.324366	2545.782692
988.620719	2651.646923
988.917037	2631.482308
989.213318	2553.344423
989.509563	2543.262115
989.805772	2593.673654
990.101944	2530.659231
990.398080	2631.482308
990.694180	2586.111923
990.990244	2596.194231
991.286271	2560.906154
991.582262	2666.770385
991.878217	2570.988462
992.174136	2568.467885
992.470019	2538.220962
992.765865	2601.235385
993.061676	2598.714808
993.357450	2586.111923
993.653188	2518.056346
993.948890	2659.208654
994.244556	2621.400000
994.540186	2563.426731
994.835780	2694.496731
995.131337	2613.838269
995.426859	2674.332115
995.722345	2681.893846
996.017795	2636.523462
996.313208	2525.618077
996.608586	2606.276538
996.903928	2545.782692
997.199234	2601.235385
997.494504	2593.673654
997.789738	2608.797115
998.084936	2608.797115
998.380099	2593.673654
998.675225	2591.153077
998.970316	2646.605769
999.265371	2608.797115
999.560390	2659.208654
999.855373	2525.618077
1000.150320	2631.482308
1000.445232	2568.467885
1000.740108	2603.755962
1001.034948	2492.850577
1001.329752	2664.249808
1001.624521	2505.453462
1001.919254	2639.044038
1002.213951	2576.029615
1002.508613	2631.482308
1002.803239	2470.165385
1003.097829	2613.838269
1003.392384	2618.879423
1003.686903	2533.179808
1003.981386	2601.235385
1004.275834	2606.276538
1004.570246	2581.070769
1004.864623	2568.467885
1005.158964	2641.564615
1005.453270	2606.276538
1005.747540	2583.591346
1006.041775	2581.070769
1006.335974	2649.126346
1006.630138	2570.988462
1006.924266	2628.961731
1007.218359	2611.317692
1007.512416	2505.453462
1007.806438	2623.920577
1008.100425	2601.235385
1008.394376	2644.085192
1008.688292	2540.741538
1008.982172	2593.673654
1009.276017	2570.988462
1009.569827	2591.153077
1009.863602	2651.646923
1010.157341	2545.782692
1010.451045	2505.453462
1010.744714	2576.029615
1011.038347	2586.111923
1011.331945	2570.988462
1011.625508	2644.085192
1011.919036	2513.015192
1012.212528	2603.755962
1012.505986	2538.220962
1012.799408	2636.523462
1013.092795	2565.947308
1013.386147	2661.729231
1013.679464	2591.153077
1013.972745	2553.344423
1014.265992	2613.838269
1014.559204	2578.550192
1014.852380	2641.564615
1015.145521	2636.523462
1015.438628	2596.194231
1015.731699	2515.535769
1016.024736	2578.550192
1016.317737	2606.276538
1016.610703	2623.920577
1016.903635	2603.755962
1017.196531	2553.344423
1017.489393	2578.550192
1017.782219	2513.015192
1018.075011	2621.400000
1018.367768	2540.741538
1018.660490	2586.111923
1018.953177	2586.111923
1019.245829	2586.111923
