Dividing Wavelength (nm)	Counts (n)	Blue Motor Position (mm): 0.000000	Red Motor Position (mm): 21.000000	
326.493990	2144.106074
326.888308	2144.106074
327.282561	2144.106074
327.676750	2117.990377
328.070874	2121.864504
328.464933	2128.667541
328.858929	2135.765485
329.252859	2145.936013
329.646726	2159.592499
330.040528	2176.573626
330.434265	2194.880576
330.827938	2210.389686
331.221547	2228.326111
331.615091	2253.514236
332.008571	2271.110384
332.401986	2293.558642
332.795338	2311.081693
333.188625	2331.170691
333.581847	2353.160204
333.975006	2369.284334
334.368100	2390.540360
334.761129	2407.733215
335.154095	2421.326686
335.546996	2440.117587
335.939833	2455.969495
336.332606	2467.980044
336.725315	2479.531848
337.117960	2486.488641
337.510540	2498.279900
337.903056	2504.253667
338.295508	2513.068124
338.687896	2518.217663
339.080220	2527.337110
339.472480	2532.889941
339.864676	2534.384643
340.256807	2536.995961
340.648875	2541.724563
341.040879	2540.610468
341.432818	2544.116591
341.824694	2540.267670
342.216506	2546.034750
342.608253	2549.379556
342.999937	2541.865716
343.391557	2545.921324
343.783113	2540.744059
344.174605	2540.446631
344.566033	2537.089223
344.957397	2534.961856
345.348697	2535.818852
345.739934	2532.731145
346.131106	2529.759385
346.522215	2532.383305
346.913260	2528.927594
347.304241	2525.366019
347.695159	2524.977850
348.086012	2524.413241
348.476802	2521.166738
348.867528	2521.479290
349.258191	2517.655574
349.648789	2518.222704
350.039324	2515.719771
350.429796	2517.637930
350.820203	2512.259019
351.210548	2515.006448
351.600828	2512.758093
351.991045	2513.476458
352.381198	2512.808505
352.771288	2515.230779
353.161314	2515.142559
353.551276	2514.043588
353.941175	2513.332785
354.331010	2511.475120
354.720782	2514.058711
355.110490	2513.184071
355.500135	2513.829339
355.889717	2513.819256
356.279235	2515.404699
356.668689	2516.349916
357.058080	2517.290091
357.447408	2510.015706
357.836672	2512.458145
358.225873	2512.440501
358.615010	2510.688700
359.004084	2518.028620
359.393095	2515.505522
359.782043	2518.865451
360.170927	2518.746984
360.559748	2518.119361
360.948505	2519.518281
361.337199	2521.128929
361.725830	2519.142715
362.114398	2520.168590
362.502903	2520.523991
362.891344	2522.237983
363.279722	2522.386697
363.668037	2523.256296
364.056289	2521.479290
364.444478	2520.513909
364.832603	2520.947448
365.220665	2524.836698
365.608665	2523.694877
365.996601	2525.547501
366.384474	2524.574558
366.772284	2525.587830
367.160031	2525.182017
367.547715	2526.323838
367.935336	2529.545136
368.322893	2525.088756
368.710388	2527.470701
369.097820	2528.604961
369.485189	2526.870804
369.872495	2527.410207
370.259738	2526.359127
370.646918	2527.982378
371.034035	2530.255938
371.421090	2528.244518
371.808081	2529.479601
372.195010	2529.640918
372.581875	2529.915661
372.968678	2533.222658
373.355418	2532.075795
373.742096	2537.283307
374.128710	2533.719211
374.515262	2534.800539
374.901751	2536.456558
375.288177	2541.515356
375.674540	2539.680376
376.060841	2538.775488
376.447079	2542.642053
376.833254	2545.139945
377.219367	2543.567105
377.605417	2546.889226
377.991404	2550.070194
378.377329	2549.513146
378.763191	2550.135729
379.148991	2557.228632
379.534727	2562.925136
379.920402	2565.226423
380.306013	2569.037535
380.691563	2574.355952
381.077049	2578.411561
381.462474	2585.938003
381.847835	2588.007397
382.233134	2592.471339
382.618371	2599.165991
383.003545	2605.109511
383.388657	2611.206787
383.773706	2617.757766
384.158693	2624.212964
384.543618	2630.463995
384.928480	2635.810138
385.313280	2641.378093
385.698017	2653.116419
386.082692	2660.602533
386.467305	2667.723163
386.851856	2674.233813
387.236344	2685.936852
387.620770	2692.097142
388.005133	2701.445961
388.389435	2713.796788
388.773674	2716.619834
389.157851	2725.754405
389.541965	2737.545664
389.926018	2737.964080
390.310008	2757.178438
390.693936	2761.770929
391.077802	2771.898607
391.461606	2782.059052
391.845348	2790.129940
392.229027	2799.952628
392.612645	2813.994762
392.996200	2822.295022
393.379694	2836.581652
393.763125	2851.155628
394.146494	2860.857328
394.529801	2871.103473
394.913047	2888.752553
395.296230	2890.537122
395.679351	2897.047772
396.062410	2912.440935
396.445408	2910.752148
396.828343	2924.360743
397.211217	2929.240580
397.594028	2921.454518
397.976778	2937.515634
398.359466	2951.817388
398.742092	2948.250771
399.124656	2962.749130
399.507158	2978.033908
399.889598	2983.095227
400.271977	2998.117865
400.654294	3000.646004
401.036549	3018.894981
401.418742	3021.730630
401.800874	3044.438507
402.182944	3050.944116
402.564952	3081.271698
402.946898	3071.655697
403.328783	3080.084506
403.710606	3094.328286
404.092367	3116.806791
404.474067	3143.537510
404.855705	3133.440078
405.237282	3134.387815
405.618797	3166.089111
406.000250	3189.931248
406.381642	3222.020713
406.762972	3222.469376
407.144240	3214.877398
407.525447	3235.878845
407.906593	3236.146026
408.287677	3256.650920
408.668700	3277.304527
409.049661	3273.944598
409.430560	3290.338430
409.811399	3294.378915
410.192176	3313.293324
410.572891	3319.118378
410.953545	3361.945500
411.334138	3327.837053
411.714669	3380.660784
412.095139	3325.230777
412.475547	3374.717263
412.855894	3367.526057
413.236180	3401.289185
413.616405	3375.740618
413.996568	3401.097621
414.376670	3405.037283
414.756711	3400.165008
415.136691	3428.246755
415.516609	3449.336423
415.896466	3456.804892
416.276262	3482.020743
416.655997	3512.305475
417.035670	3518.435518
417.415283	3583.408430
417.794834	3603.802418
418.174324	3590.808843
418.553753	3590.292125
418.933121	3631.430461
419.312428	3624.584574
419.691674	3620.037453
420.070859	3656.258144
420.449983	3633.391470
420.829045	3685.585056
421.208047	3671.636184
421.586988	3709.404508
421.965867	3742.219899
422.344686	3750.671394
422.723444	3791.146818
423.102141	3693.507230
423.480777	3796.394659
423.859352	3761.323352
424.237866	3858.168958
424.616319	3843.733614
424.994712	3901.933735
425.373044	3888.365470
425.751314	3950.475006
426.129524	3886.003689
426.507673	3981.924244
426.885762	3957.373825
427.263789	3972.582986
427.641756	3980.409377
428.019662	4008.228985
428.397508	4001.657841
428.775292	4037.939025
429.153016	4039.776526
429.530679	4046.526631
429.908282	4049.833627
430.285824	4026.609032
430.663305	4089.081531
431.040726	4046.025036
431.418086	4030.180689
431.795385	4094.011779
432.172624	4122.065800
432.549802	4081.976024
432.926920	4091.755863
433.303977	4076.284562
433.680974	4107.698512
434.057910	4119.761993
434.434786	4108.278245
434.811601	4098.901698
435.188355	4179.507228
435.565050	4143.785612
435.941683	4128.994866
436.318257	4196.009445
436.694770	4187.648691
437.071222	4219.153382
437.447614	4152.211900
437.823946	4138.275631
438.200218	4137.564828
438.576429	4108.237915
438.952580	4112.369141
439.328670	4097.553190
439.704700	4115.030870
440.080670	4070.237698
440.456580	4101.719703
440.832429	4110.619861
441.208218	4016.279707
441.583947	4036.887944
441.959616	4031.942572
442.335224	4027.113147
442.710773	4016.844317
443.086261	4040.338614
443.461689	3981.818380
443.837057	3968.756750
444.212365	3993.972602
444.587612	3972.930826
444.962800	3930.068415
445.337927	3930.005401
445.712995	3835.410669
446.088002	3932.241152
446.462949	3919.429060
446.837837	3902.649579
447.212664	3865.723127
447.587431	3964.544866
447.962139	4103.133747
448.336786	4257.589660
448.711374	4216.186663
449.085901	3996.772963
449.460369	3933.287192
449.834776	3863.336141
450.209124	3945.917803
450.583412	3915.630550
450.957640	3936.395063
451.331808	3837.928726
451.705917	3740.631936
452.079965	3702.873693
452.453954	3686.346271
452.827883	3639.093015
453.201752	3610.189559
453.575562	3589.825818
453.949311	3607.845423
454.323001	3577.328798
454.696632	3543.164898
455.070202	3559.457908
455.443713	3538.310267
455.817164	3530.332641
456.190556	3519.821836
456.563888	3476.019250
456.937160	3466.315029
457.310373	3394.740726
457.683526	3377.310937
458.056619	3341.296934
458.429653	3307.601862
458.802628	3288.695014
459.175542	3263.403545
459.548398	3267.043258
459.921194	3272.686830
460.293930	3261.187958
460.666607	3279.557923
461.039224	3294.651137
461.411782	3285.110754
461.784280	3236.287179
462.156719	3203.801983
462.529099	3164.793535
462.901419	3114.974332
463.273680	3066.405335
463.645882	3037.401057
464.018024	3011.476923
464.390106	2994.195848
464.762130	3001.833196
465.134094	3026.481917
465.505999	3079.953436
465.877845	3128.396404
466.249631	3129.218112
466.621358	3087.810074
466.993026	3035.750079
467.364634	2988.539673
467.736184	2940.683999
468.107674	2908.975142
468.479105	2880.603528
468.850477	2859.370188
469.221790	2830.945642
469.593043	2803.574697
469.964238	2783.979732
470.335373	2769.123452
470.706449	2763.868049
471.077467	2759.207502
471.448425	2773.587393
471.819324	2783.037036
472.190164	2773.594955
472.560945	2746.012282
472.931667	2719.987325
473.302330	2706.673638
473.672934	2696.087215
474.043479	2687.590350
474.413965	2680.832683
474.784393	2671.980417
475.154761	2668.479336
475.525070	2663.539005
475.895321	2657.277892
476.265513	2656.622542
476.635645	2656.768735
477.005719	2651.969557
477.375734	2649.451501
477.745691	2646.459576
478.115588	2645.441263
478.485427	2647.677014
478.855207	2649.834628
479.224928	2651.541059
479.594591	2655.642038
479.964194	2651.720020
480.333739	2650.179947
480.703226	2647.321613
481.072653	2643.480254
481.442022	2642.411529
481.811333	2645.892446
482.180584	2640.659728
482.549777	2637.138482
482.918912	2634.658235
483.287988	2633.856691
483.657005	2632.452730
484.025964	2628.898716
484.394864	2628.911319
484.763706	2625.458129
485.132489	2624.752367
485.501213	2622.325052
485.869879	2621.944445
486.238487	2619.464197
486.607036	2618.576954
486.975527	2622.516616
487.343959	2622.075515
487.712333	2620.235493
488.080648	2618.985287
488.448905	2619.292798
488.817104	2618.675256
489.185244	2620.409413
489.553326	2618.224073
489.921350	2622.864455
490.289315	2626.811679
490.657222	2628.916360
491.025070	2628.087091
491.392861	2627.018366
491.760593	2624.568365
492.128267	2625.632049
492.495883	2621.984774
492.863440	2619.164248
493.230939	2619.577623
493.598380	2616.815071
493.965763	2612.542693
494.333088	2611.922631
494.700354	2606.959615
495.067563	2607.614965
495.434713	2608.655963
495.801805	2612.638475
496.168839	2610.080089
496.535815	2610.047322
496.902733	2610.780809
497.269593	2611.632764
497.636395	2609.991869
498.003139	2607.546909
498.369825	2609.941457
498.736453	2607.592280
499.103023	2605.842999
499.469535	2608.817280
499.835989	2607.408277
500.202385	2607.148658
500.568723	2606.289141
500.935003	2606.982300
501.301226	2603.876949
501.667390	2606.087495
502.033497	2607.660335
502.399546	2606.531117
502.765537	2605.812752
503.131470	2604.131527
503.497345	2606.432814
503.863163	2604.917947
504.228923	2605.711929
504.594625	2603.357710
504.960269	2602.815786
505.325856	2606.135386
505.691385	2604.053390
506.056856	2604.020622
506.422270	2604.015581
506.787625	2605.046497
507.152924	2603.014912
507.518164	2602.656990
507.883347	2604.786878
508.248472	2603.836620
508.613540	2605.200252
508.978550	2605.608586
509.343503	2602.893924
509.708398	2604.834768
510.073236	2603.733276
510.438016	2606.142948
510.802738	2604.328132
511.167403	2605.757300
511.532010	2603.783688
511.896561	2603.945005
512.261053	2606.460541
512.625488	2603.473657
512.989866	2598.356886
513.354186	2602.223451
513.718449	2601.598348
514.082655	2600.146495
514.446803	2604.796960
514.810894	2604.204624
515.174927	2606.667228
515.538904	2607.161261
515.902822	2606.354676
516.266684	2603.075406
516.630488	2606.132866
516.994235	2607.320057
517.357925	2606.926847
517.721558	2609.903649
518.085133	2606.417691
518.448651	2606.798298
518.812112	2602.881321
519.175516	2604.156733
519.538863	2606.422732
519.902152	2604.880139
520.265385	2603.007350
520.628560	2608.305603
520.991678	2605.200252
521.354739	2604.207145
521.717743	2604.865015
522.080690	2605.767382
522.443580	2606.193359
522.806413	2604.255036
523.169189	2605.956425
523.531908	2606.029522
523.894569	2605.321240
524.257174	2604.922989
524.619722	2603.438369
524.982213	2605.381734
525.344647	2604.239912
525.707025	2603.342587
526.069345	2603.917278
526.431608	2602.997268
526.793815	2603.342587
527.155964	2605.805191
527.518057	2604.902824
527.880093	2604.176898
528.242072	2606.533637
528.603995	2603.355190
528.965860	2604.292844
529.327669	2601.668924
529.689421	2603.652618
530.051117	2600.945518
530.412755	2604.123966
530.774337	2603.947525
531.135862	2602.956939
531.497331	2600.809407
531.858743	2599.574324
532.220098	2601.305961
532.581396	2599.854108
532.942638	2600.196907
533.303824	2602.094901
533.664953	2604.441558
534.026025	2602.503235
534.387040	2601.444592
534.747999	2599.909561
535.108902	2600.819489
535.469748	2603.105653
535.830537	2602.069696
536.191270	2600.824531
536.551947	2602.152875
536.912567	2604.154213
537.273131	2604.053390
537.633638	2601.411825
537.994089	2601.946187
538.354483	2599.385281
538.714821	2602.558687
539.075103	2601.754623
539.435328	2602.064654
539.795497	2602.810745
540.155609	2602.457864
540.515665	2601.731938
540.875665	2600.446444
541.235609	2600.854777
541.595496	2598.861001
541.955328	2601.056424
542.315102	2600.675817
542.674821	2600.776640
543.034483	2604.683534
543.394090	2599.105497
543.753640	2598.223295
544.113134	2602.178080
544.472571	2602.167998
544.831953	2601.258070
545.191278	2599.125662
545.550548	2601.305961
545.909761	2599.627257
546.268918	2602.072216
546.628019	2601.711774
546.987064	2602.399891
547.346053	2601.701691
547.704986	2598.210692
548.063863	2601.681527
548.422684	2600.262442
548.781449	2601.391660
549.140158	2602.374685
549.498811	2603.561877
549.857408	2599.597010
550.215949	2599.231526
550.574434	2595.216247
550.932864	2597.174735
551.291237	2595.924529
551.649555	2600.068357
552.007817	2600.948039
552.366022	2601.066506
552.724173	2601.200097
553.082267	2601.787391
553.440305	2601.618512
553.798288	2598.908892
554.156215	2601.096753
554.514086	2601.530292
554.871902	2597.358737
555.229661	2600.829572
555.587365	2599.533995
555.945014	2602.704881
556.302606	2600.995930
556.660143	2602.672113
557.017625	2605.265787
557.375050	2602.694799
557.732421	2601.205138
558.089735	2602.961980
558.446994	2599.271855
558.804197	2602.145313
559.161345	2601.840323
559.518437	2599.604571
559.875474	2599.619695
560.232455	2601.537854
560.589381	2602.120107
560.946251	2602.276383
561.303065	2600.229674
561.659825	2599.735641
562.016528	2603.216558
562.373177	2597.870414
562.729770	2603.153544
563.086307	2601.462237
563.442789	2603.887032
563.799216	2600.552308
564.155587	2603.221599
564.511904	2600.305292
564.868164	2601.346290
565.224370	2602.420056
565.580520	2602.223451
565.936615	2603.892073
566.292654	2602.999788
566.648638	2603.970211
567.004567	2604.207145
567.360441	2603.624892
567.716260	2599.828903
568.072023	2599.849067
568.427732	2596.874787
568.783385	2597.262955
569.138982	2598.530806
569.494525	2598.044334
569.850013	2596.937801
570.205445	2599.304623
570.560823	2600.948039
570.916145	2601.154726
571.271412	2601.016094
571.626625	2604.108842
571.981782	2599.183635
572.336884	2600.310333
572.691931	2599.876794
573.046923	2602.304109
573.401860	2602.241095
573.756743	2599.360075
574.111570	2601.184973
574.466342	2600.814448
574.821059	2600.204469
575.175722	2602.026846
575.530330	2601.459716
575.884882	2600.103646
576.239380	2599.102977
576.593823	2602.273862
576.948211	2601.429469
577.302544	2602.097422
577.656823	2600.461567
578.011047	2600.426279
578.365216	2600.146495
578.719330	2600.542226
579.073389	2600.143975
579.427394	2598.220775
579.781344	2600.726228
580.135239	2599.808738
580.489080	2601.374016
580.842866	2599.521392
581.196597	2603.715632
581.550273	2597.794797
581.903895	2598.835795
582.257463	2600.610282
582.610975	2598.334201
582.964434	2600.529623
583.317837	2598.452668
583.671186	2598.548450
584.024481	2599.289499
584.377721	2600.295209
584.730906	2596.905033
585.084037	2600.509458
585.437113	2601.207658
585.790135	2599.087853
586.143103	2596.441247
586.496016	2599.975096
586.848874	2593.734148
587.201679	2597.454519
587.554428	2593.303129
587.907124	2594.603747
588.259765	2593.918150
588.612352	2599.400405
588.964884	2598.785384
589.317362	2598.452668
589.669786	2598.810590
590.022155	2600.690940
590.374470	2598.119952
590.726731	2597.872935
591.078937	2597.988882
591.431090	2596.705908
591.783188	2598.356886
592.135232	2595.007039
592.487222	2596.688264
592.839157	2593.653489
593.191038	2596.708428
593.542866	2598.094746
593.894639	2598.145157
594.246358	2595.455702
594.598022	2595.695157
594.949633	2596.688264
595.301190	2596.993254
595.652692	2593.908067
596.004141	2596.988212
596.355535	2596.690784
596.706876	2593.998808
597.058162	2598.611464
597.409395	2595.992585
597.760573	2597.867894
598.111698	2596.809252
598.462768	2593.759353
598.813785	2595.528798
599.164748	2594.417224
599.515657	2593.713983
599.866511	2594.901175
600.217312	2592.814137
600.568060	2593.814806
600.918753	2598.732452
601.269392	2596.869745
601.619978	2594.384457
601.970510	2597.648604
602.320988	2596.668099
602.671412	2596.773963
603.021783	2591.798345
603.372100	2595.773294
603.722363	2595.193562
604.072572	2592.972933
604.422728	2595.004518
604.772830	2590.527974
605.122878	2589.965885
605.472872	2590.908581
605.822813	2590.480083
606.172701	2592.438571
606.522534	2594.707090
606.872314	2595.753130
607.222041	2595.231370
607.571714	2597.315887
607.921333	2590.351533
608.270899	2593.517378
608.620411	2594.465115
608.969870	2592.183993
609.319276	2596.269848
609.668627	2594.636514
610.017926	2593.487131
610.367171	2593.724065
610.716362	2594.507965
611.065500	2596.221957
611.414585	2594.074426
611.763616	2596.143819
612.112594	2594.472677
612.461518	2594.906216
612.810389	2595.218768
613.159207	2593.771956
613.507971	2594.386977
613.856682	2595.480907
614.205340	2594.432347
614.553945	2593.552666
614.902496	2594.772625
615.250994	2593.459405
615.599439	2595.480907
615.947830	2595.070053
616.296169	2597.482246
616.644454	2594.684405
616.992686	2592.564600
617.340864	2595.155753
617.688990	2594.649117
618.037063	2595.574169
618.385082	2595.990064
618.733048	2596.302616
619.080961	2596.947883
619.428821	2597.421752
619.776628	2596.088367
620.124382	2593.340938
620.472083	2598.087184
620.819731	2596.214395
621.167326	2593.860177
621.514868	2592.710793
621.862357	2595.932091
622.209793	2593.156936
622.557176	2595.843871
622.904506	2592.458736
623.251783	2590.046544
623.599007	2590.603591
623.946179	2589.071080
624.293297	2588.803899
624.640363	2588.773652
624.987376	2594.119796
625.334336	2593.834971
625.681243	2593.532502
626.028097	2592.950248
626.374899	2593.300608
626.721647	2591.992429
627.068343	2593.330855
627.414987	2592.854466
627.761577	2593.650969
628.108115	2591.349682
628.454600	2591.354723
628.801032	2592.418407
629.147412	2592.637697
629.493739	2590.785073
629.840014	2591.871441
630.186236	2591.810947
630.532405	2590.986719
630.878521	2591.717686
631.224585	2590.182655
631.570597	2589.156780
631.916556	2589.764239
632.262462	2589.791965
632.608316	2591.190886
632.954117	2590.175093
633.299866	2591.531163
633.645562	2590.412027
633.991206	2591.687439
634.336797	2591.563931
634.682336	2591.387491
635.027823	2589.239959
635.373257	2590.512850
635.718639	2587.760380
636.063968	2589.098807
636.409245	2590.706935
636.754470	2588.720720
637.099642	2588.753488
637.444762	2587.621749
637.789829	2587.659557
638.134845	2588.440936
638.479808	2586.946234
638.824719	2587.730133
639.169577	2591.168200
639.514383	2588.317428
639.859137	2586.477407
640.203839	2588.342634
640.548489	2590.802717
640.893086	2585.683425
641.237632	2583.104875
641.582125	2586.938672
641.926566	2584.465986
642.270955	2586.764752
642.615292	2587.747777
642.959576	2588.740885
643.303809	2588.256934
643.647990	2585.607808
643.992118	2586.976481
644.336195	2588.861872
644.680219	2586.361460
645.024192	2587.704928
645.368112	2590.550659
645.711981	2587.755339
646.055797	2586.127047
646.399562	2585.244845
646.743274	2587.886409
647.086935	2586.091758
647.430544	2588.987901
647.774101	2587.410020
648.117606	2591.218612
648.461059	2589.476893
648.804460	2587.145360
649.147810	2587.258786
649.491108	2587.021851
649.834354	2586.379104
650.177548	2584.914649
650.520690	2585.537232
650.863781	2587.755339
651.206820	2588.413210
651.549807	2586.641244
651.892742	2583.697210
652.235626	2585.075966
652.578458	2584.476069
652.921238	2586.868096
653.263967	2587.319279
653.606644	2587.765422
653.949269	2589.643251
654.291843	2587.558734
654.634365	2584.977663
654.976836	2585.761563
655.319255	2585.015472
655.661622	2586.152252
656.003938	2583.782910
656.346203	2583.548496
656.688416	2584.486151
657.030577	2585.703590
657.372687	2588.037644
657.714746	2584.649988
658.056753	2587.137798
658.398708	2581.050605
658.740612	2583.379618
659.082465	2580.425502
659.424266	2584.090420
659.766016	2579.089596
660.107715	2584.778538
660.449362	2588.420772
660.790958	2586.711820
661.132503	2585.796851
661.473996	2584.445822
661.815438	2585.761563
662.156829	2585.552355
662.498168	2584.246696
662.839456	2583.225862
663.180693	2585.900195
663.521879	2583.876171
663.863013	2585.446491
664.204097	2585.726275
664.545129	2584.246696
664.886110	2585.781727
665.227040	2586.507654
665.567918	2586.376584
665.908746	2582.663774
666.249522	2586.752150
666.590248	2586.517736
666.930922	2587.730133
667.271545	2583.127560
667.612118	2585.126377
667.952639	2587.715010
668.293109	2589.010587
668.633528	2587.503282
668.973896	2581.874833
669.314213	2587.273909
669.654480	2585.680904
669.994695	2582.389031
670.334859	2586.671491
670.674973	2583.913980
671.015035	2585.877509
671.355047	2587.410020
671.695008	2587.601584
672.034918	2583.780389
672.374777	2583.765266
672.714585	2586.399269
673.054342	2585.101172
673.394049	2581.894998
673.733705	2586.306008
674.073310	2586.036306
674.412864	2585.466655
674.752368	2583.424988
675.091820	2584.564289
675.431223	2583.339288
675.770574	2584.685277
676.109875	2581.834504
676.449125	2581.763928
676.788324	2581.688311
677.127473	2579.586149
677.466571	2577.294945
677.805619	2580.579257
678.144616	2582.726788
678.483562	2582.331058
678.822458	2585.817016
679.161303	2581.985739
679.500098	2582.003383
679.838842	2582.825091
680.177535	2582.958681
680.516179	2579.921386
680.854771	2584.665112
681.193314	2583.916501
681.531805	2585.464135
681.870247	2583.619072
682.208638	2585.136460
682.546978	2586.101841
682.885268	2585.839701
683.223508	2583.077148
683.561697	2584.682756
683.899836	2584.496233
684.237925	2585.161666
684.575963	2584.796182
684.913951	2585.539752
685.251889	2584.256778
685.589776	2584.786100
685.927614	2583.450194
686.265401	2584.050091
686.603137	2582.265523
686.940824	2582.421798
687.278460	2581.048084
687.616046	2585.305338
687.953582	2583.919021
688.291068	2583.525811
688.628504	2584.251737
688.965889	2585.675863
689.303224	2584.077818
689.640510	2584.922211
689.977745	2584.879361
690.314930	2583.669484
690.652065	2583.820719
690.989150	2582.913311
691.326185	2583.286356
691.663170	2582.454566
692.000105	2580.523804
692.336990	2582.416757
692.673825	2583.230904
693.010610	2582.220152
693.347345	2579.671849
693.684030	2579.613876
694.020665	2576.886612
694.357251	2575.399471
694.693786	2575.704461
695.030272	2578.474575
695.366707	2580.667477
695.703093	2577.937692
696.039429	2578.691345
696.375716	2582.081521
696.711952	2578.789647
697.048139	2581.166551
697.384276	2579.487847
697.720363	2580.455748
698.056400	2579.571026
698.392388	2580.617065
698.728326	2579.886098
699.064214	2580.793506
699.400053	2580.249061
699.735842	2578.124215
700.071581	2580.480954
700.407270	2578.255285
700.742910	2581.078331
701.078501	2581.390882
701.414042	2576.412743
701.749533	2580.559092
702.084974	2579.444997
702.420366	2579.820563
702.755709	2577.642785
703.091002	2578.882908
703.426246	2576.684965
703.761440	2578.114133
704.096584	2578.867785
704.431679	2580.985070
704.766725	2578.441807
705.101721	2577.902404
705.436668	2577.952816
705.771565	2578.237641
706.106413	2579.140007
706.441212	2577.710840
706.775961	2577.037846
707.110661	2578.588001
707.445311	2578.620768
707.779913	2578.396437
708.114465	2579.795357
708.448967	2578.431725
708.783421	2578.240161
709.117825	2577.708320
709.452180	2578.459452
709.786485	2579.049267
710.120742	2582.081521
710.454949	2580.685121
710.789107	2578.162023
711.123216	2575.533062
711.457275	2578.908114
711.791286	2578.041036
712.125247	2576.024574
712.459159	2580.932138
712.793023	2582.207549
713.126837	2580.478434
713.460602	2580.690162
713.794318	2581.227045
714.127985	2579.855851
714.461602	2579.288721
714.795171	2579.142528
715.128691	2577.917527
715.462162	2578.542631
715.795584	2579.288721
716.128957	2579.074472
716.462281	2580.501119
716.795556	2579.208063
717.128782	2575.134811
717.461960	2576.551375
717.795088	2578.325861
718.128167	2579.245872
718.461198	2578.514904
718.794180	2577.191601
719.127113	2578.076324
719.459997	2577.473906
719.792833	2578.623289
720.125619	2575.356621
720.458357	2573.970304
720.791046	2574.451734
721.123686	2575.306210
721.456278	2577.252095
721.788821	2577.713361
722.121315	2573.516600
722.453761	2576.485840
722.786158	2577.118505
723.118506	2577.299986
723.450805	2576.430387
723.783056	2573.415777
724.115259	2577.587332
724.447412	2574.061045
724.779518	2576.052301
725.111574	2578.363670
725.443582	2575.391909
725.775542	2576.294276
726.107453	2577.799060
726.439315	2576.221179
726.771129	2578.739236
727.102895	2578.691345
727.434612	2577.368042
727.766281	2575.717064
728.097901	2573.577094
728.429473	2573.251940
728.760996	2573.579615
729.092471	2573.060376
729.423897	2578.635892
729.755276	2573.922413
730.086606	2579.200501
730.417887	2575.785119
730.749120	2577.642785
731.080305	2577.806622
731.411442	2578.096488
731.742530	2580.153279
732.073570	2578.469534
732.404562	2576.715212
732.735506	2578.368711
733.066401	2576.458113
733.397249	2579.084555
733.728048	2579.591191
734.058798	2576.710171
734.389501	2577.657908
734.720156	2575.502815
735.050762	2575.885942
735.381320	2575.462486
735.711831	2578.693865
736.042293	2579.704617
736.372707	2576.279152
736.703073	2575.999368
737.033391	2579.865933
737.363661	2578.777044
737.693883	2573.254460
738.024056	2578.197312
738.354182	2574.570201
738.684260	2575.785119
739.014290	2576.876529
739.344272	2575.094481
739.674207	2577.173957
740.004093	2576.730336
740.333931	2577.441138
740.663722	2577.799060
740.993464	2576.894173
741.323159	2574.824780
741.652806	2578.842579
741.982405	2576.155644
742.311956	2576.994996
742.641460	2577.105902
742.970915	2575.313772
743.300323	2575.921231
743.629683	2575.540623
743.958996	2574.913000
744.288260	2575.338977
744.617477	2575.432239
744.946647	2571.132134
745.275768	2572.425190
745.604842	2572.089954
745.933869	2569.758420
746.262847	2567.842782
746.591778	2571.699264
746.920662	2574.640777
747.249498	2575.066755
747.578286	2576.480799
747.907027	2576.735377
748.235720	2574.882753
748.564365	2571.164902
748.892963	2574.623133
749.221514	2575.255798
749.550017	2576.143041
749.878473	2576.057342
750.206881	2574.976014
750.535242	2574.970973
750.863555	2574.968452
751.191821	2576.596745
751.520039	2575.890984
751.848210	2575.674214
752.176334	2572.384861
752.504411	2575.737228
752.832440	2572.919223
753.160421	2575.129769
753.488356	2573.337639
753.816243	2574.232444
754.144082	2571.016188
754.471875	2574.673545
754.799620	2573.718246
755.127318	2571.858061
755.454969	2573.677917
755.782572	2574.353432
756.110129	2575.570870
756.437638	2575.676735
756.765100	2573.446024
757.092515	2572.780592
757.419882	2573.582135
757.747203	2575.028946
758.074477	2575.011302
758.401703	2573.955181
758.728882	2574.671024
759.056014	2575.152455
759.383099	2574.741601
759.710138	2572.538616
760.037129	2572.654563
760.364073	2576.183371
760.690970	2574.744121
761.017820	2576.753021
761.344623	2573.917372
761.671379	2575.293607
761.998088	2571.306054
762.324751	2573.342680
762.651366	2573.451065
762.977935	2578.535069
763.304456	2577.413412
763.630931	2582.590677
763.957359	2583.924062
764.283740	2582.867941
764.610074	2580.014647
764.936362	2582.270564
765.262602	2577.494071
765.588796	2578.217476
765.914943	2574.920562
766.241044	2572.349573
766.567097	2573.493915
766.893104	2573.947619
767.219064	2574.665983
767.544978	2572.697413
767.870845	2572.261353
768.196665	2572.016857
768.522438	2570.557443
768.848165	2573.524162
769.173846	2573.103226
769.499479	2571.099367
769.825066	2571.822773
770.150607	2572.304203
770.476101	2572.105077
770.801548	2576.498443
771.126949	2572.052145
771.452303	2573.236816
771.777611	2570.277659
772.102872	2576.291755
772.428087	2570.252453
772.753256	2570.935529
773.078378	2569.143399
773.403453	2570.048286
773.728482	2571.865622
774.053465	2571.452248
774.378401	2570.370920
774.703291	2568.301527
775.028135	2571.394274
775.352932	2569.670200
775.677683	2571.893349
776.002388	2568.556105
776.327046	2569.050138
776.651658	2570.078533
776.976224	2573.178843
777.300743	2567.532751
777.625216	2568.858574
777.949643	2568.974521
778.274024	2572.218503
778.598359	2565.879252
778.922647	2566.572411
779.246889	2565.191135
779.571086	2565.327246
779.895236	2567.825138
780.219339	2568.614078
780.543397	2572.352094
780.867409	2569.282031
781.191374	2569.471074
781.515294	2569.012329
781.839167	2569.753379
782.162995	2570.305385
782.486776	2569.506362
782.810511	2567.618450
783.134201	2572.929306
783.457844	2571.169943
783.781441	2571.674058
784.104993	2569.309757
784.428498	2569.702967
784.751958	2568.644325
785.075372	2570.907803
785.398739	2566.927812
785.722061	2571.638770
786.045337	2571.283369
786.368568	2570.045766
786.691752	2568.833368
787.014891	2568.934191
787.337983	2570.010478
787.661030	2572.856209
787.984031	2570.449058
788.306987	2574.421487
788.629897	2571.948801
788.952760	2570.749007
789.275579	2570.113821
789.598351	2571.356466
789.921078	2571.575756
790.243759	2571.162381
790.566395	2568.306568
790.888984	2566.877401
791.211529	2569.203893
791.534027	2567.762123
791.856480	2570.691033
792.178888	2570.549881
792.501249	2569.387895
792.823566	2571.169943
793.145836	2571.550550
793.468062	2570.638101
793.790241	2569.372772
794.112375	2571.769840
794.434464	2568.815724
794.756507	2567.510065
795.078505	2572.352094
795.400457	2565.680127
795.722364	2568.336815
796.044226	2565.904458
796.366042	2565.551577
796.687812	2565.223902
797.009538	2568.558625
797.331218	2570.393605
797.652852	2570.444017
797.974442	2572.223544
798.295986	2567.885631
798.617484	2572.122721
798.938938	2569.413101
799.260346	2570.630540
799.581709	2569.171126
799.903026	2574.184553
800.224299	2570.537278
800.545526	2568.427555
800.866708	2569.019891
801.187845	2569.221537
801.508936	2569.644994
801.829983	2570.507031
802.150984	2566.983265
802.471940	2571.467371
802.792851	2571.553071
803.113717	2568.810683
803.434538	2568.924109
803.755314	2568.067113
804.076045	2569.861764
804.396731	2568.803121
804.717372	2569.423183
805.037967	2569.556774
805.358518	2567.442010
805.679024	2570.459140
805.999485	2570.965776
806.319901	2567.633574
806.640272	2567.381516
806.960598	2569.871846
807.280879	2569.045097
807.601115	2571.217834
807.921306	2570.113821
808.241453	2567.419325
808.561554	2568.258677
808.881611	2569.244222
809.201623	2572.888977
809.521590	2567.023594
809.841513	2570.643142
810.161390	2568.656928
810.481223	2569.276990
810.801011	2569.161043
811.120755	2570.199521
811.440453	2570.065930
811.760107	2567.752041
812.079716	2566.368244
812.399281	2566.123748
812.718801	2566.610219
813.038276	2565.551577
813.357707	2568.795560
813.677093	2566.917730
813.996434	2567.172308
814.315731	2569.420663
814.634983	2568.765313
814.954191	2569.143399
815.273354	2567.689026
815.592473	2570.338153
815.911547	2569.448389
816.230577	2570.685992
816.549562	2569.123235
816.868502	2568.248594
817.187399	2569.886969
817.506250	2570.151630
817.825058	2568.251115
818.143821	2568.921588
818.462539	2567.406722
818.781213	2570.456620
819.099843	2570.524675
819.418429	2568.810683
819.736970	2572.578946
820.055466	2572.924265
820.373919	2575.979204
820.692327	2575.812846
821.010691	2580.241499
821.329011	2584.629824
821.647286	2597.068871
821.965517	2605.752258
822.283704	2616.552931
822.601847	2625.241359
822.919945	2618.922273
823.237999	2617.072169
823.556010	2611.352980
823.873976	2606.326950
824.191897	2599.055086
824.509775	2595.513675
824.827609	2590.596029
825.145398	2587.193251
825.463144	2586.835329
825.780845	2587.294074
826.098502	2584.816347
826.416116	2586.215267
826.733685	2588.924887
827.051210	2592.877152
827.368692	2590.366657
827.686129	2589.255083
828.003522	2584.269381
828.320872	2578.832497
828.638177	2577.221848
828.955439	2574.660942
829.272656	2573.153637
829.589830	2569.886969
829.906960	2573.556929
830.224046	2573.650191
830.541088	2571.971487
830.858086	2574.010633
831.175041	2571.563153
831.491952	2571.658935
831.808819	2568.213306
832.125642	2570.247412
832.442421	2570.728842
832.759157	2570.035683
833.075849	2573.168761
833.392497	2576.639595
833.709101	2578.613207
834.025662	2578.227558
834.342179	2579.732343
834.658653	2574.953329
834.975083	2575.366704
835.291469	2579.059349
835.607811	2574.976014
835.924110	2568.785477
836.240366	2572.417629
836.556578	2569.592062
836.872746	2570.191959
837.188871	2569.130796
837.504952	2567.608368
837.820990	2568.553584
838.136984	2567.641135
838.452935	2567.318502
838.768842	2566.940415
839.084706	2568.856053
839.400526	2570.743966
839.716303	2568.137689
840.032037	2570.900241
840.347727	2568.248594
840.663373	2570.214644
840.978977	2572.205900
841.294537	2570.139027
841.610054	2569.813873
841.925527	2569.796229
842.240957	2567.094170
842.556344	2571.379151
842.871687	2567.184911
843.186987	2565.763306
843.502244	2567.318502
843.817458	2568.906465
844.132629	2566.375806
844.447756	2565.707853
844.762840	2560.850701
845.077881	2562.637790
845.392879	2563.177194
845.707833	2566.053172
846.022745	2561.551422
846.337613	2566.237174
846.652438	2562.935218
846.967221	2566.736248
847.281960	2564.440003
847.596656	2566.239695
847.911309	2564.369427
848.225919	2563.930846
848.540485	2567.961249
848.855009	2563.482183
849.169490	2565.196176
849.483928	2565.496124
849.798323	2566.390929
850.112675	2565.211299
850.426984	2563.061247
850.741251	2568.178018
851.055474	2565.486042
851.369654	2564.261042
851.683792	2562.796587
851.997887	2566.252297
852.311938	2563.996381
852.625947	2565.251628
852.939914	2562.037893
853.253837	2567.126938
853.567718	2565.778429
853.881555	2566.368244
854.195350	2563.565362
854.509103	2563.872873
854.822812	2565.652400
855.136479	2567.046279
855.450103	2565.849005
855.763685	2566.088460
856.077224	2566.179201
856.390720	2563.467060
856.704173	2565.236505
857.017584	2567.510065
857.330953	2564.717266
857.644278	2565.728017
857.957561	2565.722976
858.270802	2564.283727
858.584000	2565.067626
858.897155	2566.345559
859.210268	2565.798594
859.523339	2566.350600
859.836367	2563.381360
860.149352	2562.957903
860.462295	2566.832030
860.775195	2561.964796
861.088054	2562.224416
861.400869	2563.835064
861.713642	2558.531770
862.026373	2560.379353
862.339062	2563.174673
862.651708	2567.396639
862.964312	2565.125600
863.276873	2567.497462
863.589392	2564.560990
863.901869	2564.349262
864.214303	2565.710373
864.526696	2566.852195
864.839045	2564.326577
865.151353	2564.984447
865.463619	2566.365723
865.775842	2567.568039
866.088023	2564.825651
866.400162	2565.642318
866.712258	2566.955538
867.024313	2564.876062
867.336325	2563.963614
867.648296	2566.068295
867.960224	2564.407235
868.272110	2566.111145
868.583954	2564.853377
868.895755	2565.110476
869.207515	2565.700291
869.519233	2565.607030
869.830909	2567.689026
870.142542	2566.317832
870.454134	2565.027297
870.765684	2564.727348
871.077191	2565.697771
871.388657	2567.527709
871.700081	2563.802297
872.011463	2564.757595
872.322803	2564.780281
872.634101	2565.186093
872.945357	2564.155177
873.256571	2565.692729
873.567744	2562.925136
873.878874	2565.493604
874.189963	2563.951011
874.501010	2569.420663
874.812015	2561.627039
875.122979	2565.402863
875.433900	2565.927143
875.744780	2567.668862
876.055618	2566.055693
876.366415	2565.879252
876.677169	2567.845302
876.987882	2562.249621
877.298554	2566.506876
877.609183	2563.772050
877.919771	2562.877245
878.230317	2563.875393
878.540822	2566.796742
878.851285	2570.532237
879.161707	2566.038048
879.472087	2566.549726
879.782425	2570.300344
880.092722	2572.994841
880.402977	2576.027095
880.713191	2582.651171
881.023363	2584.445822
881.333494	2590.490165
881.643583	2596.264807
881.953631	2594.076946
882.263637	2595.801021
882.573602	2591.251379
882.883526	2591.175762
883.193408	2589.134095
883.503248	2587.543611
883.813048	2587.135277
884.122806	2582.590677
884.432522	2581.282498
884.742197	2576.652198
885.051831	2578.600604
885.361424	2574.043401
885.670975	2574.338308
885.980485	2571.250602
886.289954	2573.544327
886.599382	2571.875705
886.908768	2572.289079
887.218113	2569.990313
887.527417	2566.733728
887.836680	2567.598286
888.145901	2566.784139
888.455082	2567.255487
888.764221	2569.508883
889.073319	2564.276165
889.382376	2568.430076
889.691392	2565.581824
890.000366	2568.460323
890.309300	2567.074006
890.618193	2568.228430
890.927044	2564.989488
891.235855	2566.320353
891.544625	2568.510734
891.853353	2567.048800
892.162041	2567.459654
892.470687	2566.264900
892.779293	2567.626012
893.087858	2565.029818
893.396381	2562.854560
893.704864	2564.732390
894.013306	2566.461505
894.321707	2571.416960
894.630068	2571.706826
894.938387	2575.863257
895.246665	2574.146744
895.554903	2573.710685
895.863100	2575.401992
896.171256	2572.571384
896.479371	2569.627350
896.787446	2570.514593
897.095480	2569.128276
897.403473	2568.805642
897.711425	2568.183059
898.019336	2569.024932
898.327207	2567.716753
898.635038	2567.865467
898.942827	2568.155333
899.250576	2568.304047
899.558284	2565.138202
899.865952	2566.143913
900.173579	2565.692729
900.481165	2568.054510
900.788711	2564.490414
901.096216	2566.458985
901.403681	2566.287586
901.711105	2565.634756
902.018489	2568.218347
902.325832	2566.675754
902.633135	2565.833882
902.940397	2566.907647
903.247619	2565.453275
903.554800	2569.302196
903.861941	2571.411918
904.169041	2575.021385
904.476101	2574.963411
904.783121	2578.124215
905.090100	2575.177660
905.397039	2573.710685
905.703938	2573.330077
906.010796	2575.865778
906.317614	2570.781774
906.624391	2571.164902
906.931129	2569.254305
907.237826	2570.320509
907.544483	2569.536609
907.851099	2567.318502
908.157675	2565.617112
908.464211	2565.206258
908.770707	2560.679302
909.077163	2563.900599
909.383578	2562.894889
909.689954	2559.787018
909.996289	2560.429765
910.302584	2563.391443
910.608839	2563.111659
910.915054	2564.006463
911.221229	2563.436813
911.527363	2566.569890
911.833458	2563.436813
912.139513	2564.911351
912.445527	2564.495455
912.751502	2564.276165
913.057436	2563.905640
913.363331	2564.150136
913.669186	2564.044272
913.975000	2567.547874
914.280775	2566.259859
914.586510	2565.912020
914.892205	2566.224571
915.197859	2570.534758
915.503475	2569.808832
915.809050	2572.175653
916.114585	2575.286045
916.420081	2575.086920
916.725536	2575.840572
917.030952	2578.134297
917.336328	2571.656414
917.641665	2572.770509
917.946961	2575.333936
918.252218	2569.869325
918.557435	2572.107598
918.862612	2571.364027
919.167750	2569.120714
919.472848	2571.303534
919.777906	2566.383367
920.082925	2568.697257
920.387904	2568.220868
920.692843	2568.046948
920.997743	2567.497463
921.302603	2565.420507
921.607423	2564.618964
921.912204	2569.087947
922.216946	2569.007288
922.521647	2564.513099
922.826310	2565.707853
923.130932	2563.784653
923.435516	2565.619633
923.740059	2565.846485
924.044564	2567.971331
924.349028	2565.947308
924.653454	2558.846843
924.957840	2559.073694
925.262186	2561.937070
925.566493	2561.493448
925.870761	2557.223591
926.174989	2565.354972
926.479178	2562.937739
926.783328	2563.482183
927.087438	2561.306926
927.391509	2563.774570
927.695541	2561.475804
927.999533	2562.930177
928.303486	2564.077040
928.607400	2563.081412
928.911275	2562.063099
929.215110	2561.979920
929.518906	2561.014539
929.822663	2561.894220
930.126381	2561.901782
930.430060	2561.669889
930.733699	2561.190979
931.037299	2562.272307
931.340861	2562.713408
931.644383	2561.369940
931.947866	2562.995712
932.251309	2563.562842
932.554714	2563.623336
932.858080	2561.662327
933.161407	2562.476473
933.464694	2562.209292
933.767943	2561.385063
934.071153	2560.185269
934.374323	2562.191648
934.677455	2562.862122
934.980548	2562.085784
935.283602	2559.940773
935.586617	2561.173335
935.889593	2563.456978
936.192530	2564.102245
936.495428	2563.313305
936.798287	2561.780794
937.101108	2563.204920
937.403890	2562.920095
937.706632	2564.820610
938.009336	2561.707697
938.312002	2563.746844
938.614628	2562.073181
938.917216	2565.491083
939.219765	2562.867163
939.522275	2562.163922
939.824747	2565.022256
940.127179	2560.565876
940.429573	2561.742985
940.731929	2557.984805
941.034246	2557.349620
941.336524	2559.227450
941.638763	2564.792883
941.940964	2563.686350
942.243126	2565.014694
942.545250	2564.908830
942.847335	2561.765671
943.149381	2559.466904
943.451389	2564.301371
943.753359	2561.581668
944.055290	2562.620146
944.357182	2561.944632
944.659036	2562.821792
944.960851	2563.416648
945.262628	2563.068809
945.564367	2561.755588
945.866067	2563.066288
946.167729	2560.664178
946.469352	2562.418500
946.770937	2564.124931
947.072484	2563.005794
947.373992	2562.368088
947.675462	2562.967986
947.976893	2562.055537
948.278286	2563.066288
948.579641	2563.920764
948.880958	2563.139385
949.182236	2562.867163
949.483476	2563.693912
949.784678	2560.717111
950.085841	2561.649724
950.386967	2563.711556
950.688054	2561.160732
950.989103	2561.473284
951.290114	2563.295661
951.591087	2561.954714
951.892021	2562.756257
952.192917	2565.123079
952.493776	2561.432954
952.794596	2562.625187
953.095378	2563.247770
953.396122	2561.112841
953.696828	2561.019580
953.997496	2563.688871
954.298126	2562.264745
954.598718	2562.844477
954.899272	2563.797256
955.199788	2560.633932
955.500266	2561.354817
955.800706	2560.192831
956.101108	2560.659137
956.401472	2557.561348
956.701798	2557.415155
957.002087	2557.878941
957.302337	2560.502862
957.602550	2560.754919
957.902724	2562.965465
958.202861	2562.657955
958.502960	2562.073181
958.803022	2563.242729
959.103045	2560.580999
959.403031	2561.632080
959.702979	2561.969837
960.002889	2560.747357
960.302762	2560.207954
960.602596	2561.392625
960.902393	2563.646021
961.202153	2560.104610
961.501875	2560.661658
961.801559	2559.245094
962.101205	2560.454971
962.400814	2561.773232
962.700385	2562.196689
962.999918	2561.574107
963.299414	2559.640824
963.598873	2560.545711
963.898293	2561.231308
964.197677	2559.285423
964.497022	2560.386915
964.796331	2560.444888
965.095601	2561.276679
965.394835	2559.993705
965.694030	2561.178376
965.993189	2562.300033
966.292309	2559.265258
966.591393	2560.074363
966.890439	2559.295505
967.189447	2558.584703
967.488419	2561.551422
967.787353	2559.643345
968.086249	2561.742985
968.385108	2560.845660
968.683930	2561.352296
968.982714	2559.482028
969.281462	2560.449929
969.580172	2560.432285
969.878844	2561.551422
970.177480	2559.779456
970.476078	2560.951524
970.774639	2559.592933
971.073162	2560.999415
971.371649	2558.491441
971.670098	2555.804506
971.968510	2557.982285
972.266885	2558.015052
972.565223	2560.396997
972.863524	2563.167111
973.161788	2561.495969
973.460014	2559.514795
973.758204	2561.228788
974.056356	2563.577965
974.354471	2562.438665
974.652550	2559.698797
974.950591	2561.208623
975.248595	2558.425906
975.546563	2559.834909
975.844493	2563.429251
976.142386	2562.128634
976.440243	2559.587892
976.738062	2560.492779
977.035845	2560.780125
977.333590	2560.218036
977.631299	2557.533622
977.928971	2561.591751
978.226606	2561.533778
978.524204	2561.185938
978.821765	2560.480176
979.119290	2560.830537
979.416777	2558.015052
979.714228	2561.296843
980.011642	2556.938766
980.309020	2564.341700
980.606360	2560.341545
980.903664	2559.514795
981.200931	2559.628221
981.498162	2559.978582
981.795356	2560.810372
982.092513	2563.804817
982.389633	2558.625032
982.686717	2560.268448
982.983764	2561.223747
983.280775	2562.305074
983.577749	2561.226267
983.874686	2562.751216
984.171587	2560.956565
984.468451	2560.412121
984.765279	2561.894220
985.062070	2560.157542
985.358824	2561.463201
985.655543	2559.910526
985.952224	2563.673747
986.248869	2559.161915
986.545478	2556.631255
986.842050	2559.071174
987.138586	2555.973385
987.435086	2558.486400
987.731549	2555.955741
988.027975	2560.563355
988.324366	2560.069322
988.620719	2560.550752
988.917037	2558.141081
989.213318	2561.710218
989.509563	2557.730227
989.805772	2559.948335
990.101944	2561.067471
990.398080	2561.742985
990.694180	2560.732234
990.990244	2559.834909
991.286271	2560.028993
991.582262	2562.415979
991.878217	2558.685526
992.174136	2559.366081
992.470019	2560.268448
992.765865	2560.550752
993.061676	2559.608057
993.357450	2560.205433
993.653188	2558.851884
993.948890	2561.243911
994.244556	2559.469425
994.540186	2559.688715
994.835780	2559.242573
995.131337	2559.875238
995.426859	2560.152501
995.722345	2561.543860
996.017795	2559.008159
996.313208	2561.196020
996.608586	2557.601678
996.903928	2560.613767
997.199234	2559.850032
997.494504	2560.454971
997.789738	2562.599982
998.084936	2560.432285
998.380099	2559.615618
998.675225	2563.328428
998.970316	2560.855742
999.265371	2560.800290
999.560390	2562.181566
999.855373	2561.029662
1000.150320	2558.299877
1000.445232	2559.895402
1000.740108	2561.006977
1001.034948	2561.838767
1001.329752	2558.173848
1001.624521	2562.819272
1001.919254	2555.159238
1002.213951	2556.270813
1002.508613	2556.676626
1002.803239	2555.214691
1003.097829	2556.903478
1003.392384	2558.977913
1003.686903	2557.664692
1003.981386	2559.610577
1004.275834	2560.200392
1004.570246	2558.650237
1004.864623	2559.305587
1005.158964	2558.287274
1005.453270	2558.950186
1005.747540	2559.469425
1006.041775	2559.834909
1006.335974	2559.108982
1006.630138	2559.756771
1006.924266	2560.238201
1007.218359	2559.718962
1007.512416	2556.984136
1007.806438	2557.949517
1008.100425	2562.022769
1008.394376	2560.134857
1008.688292	2561.765671
1008.982172	2559.744168
1009.276017	2558.829198
1009.569827	2559.643345
1009.863602	2560.928839
1010.157341	2559.081256
1010.451045	2558.990515
1010.744714	2557.778118
1011.038347	2561.392625
1011.331945	2559.229970
1011.625508	2559.855073
1011.919036	2561.024621
1012.212528	2557.561348
1012.505986	2557.836091
1012.799408	2557.208467
1013.092795	2557.417675
1013.386147	2560.457491
1013.679464	2558.879610
1013.972745	2558.355330
1014.265992	2559.484548
1014.559204	2558.486400
1014.852380	2560.432285
1015.145521	2558.597305
1015.438628	2560.502862
1015.731699	2559.787018
1016.024736	2559.686195
1016.317737	2560.240722
1016.610703	2559.852553
1016.903635	2553.941800
1017.196531	2553.813250
1017.489393	2554.864331
1017.782219	2550.725544
1018.075011	2556.112017
1018.367768	2558.133519
1018.660490	2559.222408
1018.953177	2559.222408
1019.245829	2559.222408
