Dividing Wavelength (nm)	Counts (n)	Blue Motor Position (mm): 0.000000	Red Motor Position (mm): 28.200000	
326.493990	2131.344393
326.888308	2131.344393
327.282561	2131.344393
327.676750	2098.171081
328.070874	2095.693353
328.464933	2099.212079
328.858929	2104.931268
329.252859	2114.557351
329.646726	2125.683178
330.040528	2139.014509
330.434265	2151.529173
330.827938	2174.993224
331.221547	2191.233301
331.615091	2210.367001
332.008571	2230.768550
332.401986	2250.209760
332.795338	2269.124169
333.188625	2288.023455
333.581847	2306.990796
333.975006	2324.322283
334.368100	2344.393637
334.761129	2362.516585
335.154095	2375.142155
335.546996	2396.398180
335.939833	2414.337126
336.332606	2428.885896
336.725315	2438.643050
337.117960	2451.712241
337.510540	2456.302212
337.903056	2469.847792
338.295508	2476.839872
338.687896	2485.369505
339.080220	2492.427120
339.472480	2500.676968
339.864676	2502.169150
340.256807	2507.870695
340.648875	2511.961591
341.040879	2516.901922
341.432818	2515.124915
341.824694	2516.788496
342.216506	2516.289422
342.608253	2516.249093
342.999937	2517.169103
343.391557	2517.524504
343.783113	2511.563340
344.174605	2513.947806
344.566033	2515.089627
344.957397	2512.667353
345.348697	2508.291631
345.739934	2508.861282
346.131106	2508.319358
346.522215	2502.978255
346.913260	2504.467916
347.304241	2502.529592
347.695159	2500.709736
348.086012	2497.969869
348.476802	2498.151350
348.867528	2498.095898
349.258191	2494.844353
349.648789	2493.342089
350.039324	2494.125989
350.429796	2491.970896
350.820203	2487.000318
351.210548	2489.548621
351.600828	2488.311018
351.991045	2488.157263
352.381198	2485.044350
352.771288	2486.362612
353.161314	2488.353868
353.551276	2485.798003
353.941175	2485.666933
354.331010	2485.372025
354.720782	2485.634165
355.110490	2486.801192
355.500135	2485.498054
355.889717	2484.777169
356.279235	2487.078456
356.668689	2488.852942
357.058080	2487.786738
357.447408	2484.913280
357.836672	2484.341109
358.225873	2485.626603
358.615010	2484.131901
359.004084	2491.141626
359.393095	2491.736482
359.782043	2490.390494
360.170927	2492.255721
360.559748	2491.597850
360.948505	2495.605567
361.337199	2492.964003
361.725830	2492.669095
362.114398	2493.311843
362.502903	2495.875269
362.891344	2494.733448
363.279722	2494.798983
363.668037	2498.305105
364.056289	2496.253356
364.444478	2499.056237
364.832603	2500.003974
365.220665	2500.041783
365.608665	2498.012718
365.996601	2502.753924
366.384474	2500.775271
366.772284	2500.772750
367.160031	2505.120745
367.547715	2507.086795
367.935336	2506.360869
368.322893	2511.056704
368.710388	2515.480317
369.097820	2524.007428
369.485189	2525.907943
369.872495	2531.301978
370.259738	2538.500746
370.646918	2541.961498
371.034035	2550.922149
371.421090	2561.755588
371.808081	2572.536096
372.195010	2580.168403
372.581875	2592.330186
372.968678	2608.955912
373.355418	2616.172323
373.742096	2636.354583
374.128710	2651.460400
374.515262	2667.917247
374.901751	2679.990811
375.288177	2693.238963
375.674540	2717.365925
376.060841	2733.989130
376.447079	2754.519229
376.833254	2775.974380
377.219367	2785.192130
377.605417	2826.249807
377.991404	2832.205930
378.377329	2853.961030
378.763191	2872.399050
379.148991	2910.915986
379.534727	2937.238371
379.920402	2966.774491
380.306013	2975.420070
380.691563	3027.265817
381.077049	3048.748694
381.462474	3067.489183
381.847835	3105.184411
382.233134	3125.061681
382.618371	3127.917494
383.003545	3196.210006
383.388657	3202.009853
383.773706	3236.791294
384.158693	3249.477358
384.543618	3277.428035
384.928480	3314.477995
385.313280	3359.540870
385.698017	3358.119264
386.082692	3408.525762
386.467305	3417.138573
386.851856	3445.953808
387.236344	3468.664206
387.620770	3501.446830
388.005133	3529.147970
388.389435	3556.634862
388.773674	3568.317736
389.157851	3609.997996
389.541965	3624.544245
389.926018	3589.046960
390.310008	3659.996159
390.693936	3679.427287
391.077802	3718.123184
391.461606	3706.389898
391.845348	3768.544805
392.229027	3770.495731
392.612645	3781.019140
392.996200	3860.845811
393.379694	3900.539856
393.763125	3968.245073
394.146494	3930.932973
394.529801	3991.978825
394.913047	4041.309036
395.296230	4009.257380
395.679351	4062.875092
396.062410	4087.760748
396.445408	4068.221236
396.828343	4105.185497
397.211217	4125.831542
397.594028	4045.253739
397.976778	4114.645222
398.359466	4134.003253
398.742092	4164.366122
399.124656	4087.271757
399.507158	4169.097245
399.889598	4195.853169
400.271977	4256.830966
400.654294	4227.340216
401.036549	4235.219540
401.418742	4202.610836
401.800874	4307.350889
402.182944	4327.797809
402.564952	4393.657964
402.946898	4379.313361
403.328783	4379.197414
403.710606	4288.544865
404.092367	4481.830265
404.474067	4446.320378
404.855705	4455.691882
405.237282	4383.343763
405.618797	4492.227645
406.000250	4527.031771
406.381642	4607.864152
406.762972	4567.648348
407.144240	4578.965738
407.525447	4584.218620
407.906593	4639.683916
408.287677	4680.958363
408.668700	4609.767188
409.049661	4661.007996
409.430560	4698.884706
409.811399	4625.961895
410.192176	4785.731184
410.572891	4729.819746
410.953545	4830.723482
411.334138	4711.442220
411.714669	4779.452427
412.095139	4673.593237
412.475547	4815.002643
412.855894	4796.476403
413.236180	4806.162980
413.616405	4762.516670
413.996568	4848.085216
414.376670	4786.336122
414.756711	4744.489504
415.136691	4780.289258
415.516609	4853.461606
415.896466	4893.042226
416.276262	4923.596659
416.655997	4907.154936
417.035670	5087.229992
417.415283	5178.706770
417.794834	5120.768789
418.174324	5077.372016
418.553753	4983.392305
418.933121	5169.312580
419.312428	5235.046705
419.691674	5174.076470
420.070859	5300.327127
420.449983	5214.788829
420.829045	5326.296631
421.208047	5234.119133
421.586988	5305.640503
421.965867	5316.756247
422.344686	5448.537050
422.723444	5302.351150
423.102141	5123.818687
423.480777	5417.745682
423.859352	5190.097257
424.237866	5448.620229
424.616319	5440.214105
424.994712	5549.569335
425.373044	5424.919244
425.751314	5570.185134
426.129524	5374.081728
426.507673	5567.064659
426.885762	5649.313605
427.263789	5577.459519
427.641756	5463.877281
428.019662	5582.001598
428.397508	5587.609882
428.775292	5540.608684
429.153016	5638.281040
429.530679	5565.028033
429.908282	5647.060209
430.285824	5524.426580
430.663305	5794.329957
431.040726	5530.148290
431.418086	5527.289956
431.795385	5632.798785
432.172624	5650.057175
432.549802	5641.701463
432.926920	5654.626981
433.303977	5661.253578
433.680974	5695.336819
434.057910	5719.667948
434.434786	5724.779678
434.811601	5688.211148
435.188355	5924.043887
435.565050	5795.998579
435.941683	5781.331342
436.318257	5990.234237
436.694770	5978.604295
437.071222	6016.546539
437.447614	5946.005673
437.823946	5859.622982
438.200218	6011.568400
438.576429	5877.985385
438.952580	5973.106917
439.328670	6016.982599
439.704700	5924.374082
440.080670	5912.545015
440.456580	6180.867990
440.832429	6064.878602
441.208218	5910.178193
441.583947	6068.031843
441.959616	6069.188788
442.335224	5998.201780
442.710773	6134.018027
443.086261	6156.466285
443.461689	5957.991017
443.837057	6106.170693
444.212365	6256.828096
444.587612	6145.106045
444.962800	6300.731505
445.337927	6282.628722
445.712995	5892.198918
446.088002	6468.158307
446.462949	6300.703779
446.837837	6229.318520
447.212664	6399.858234
447.587431	6546.704525
447.962139	7079.252017
448.336786	8004.432297
448.711374	7746.158862
449.085901	6821.056720
449.460369	6742.676860
449.834776	6672.461148
450.209124	7063.241312
450.583412	7203.889505
450.957640	7348.366453
451.331808	7111.041533
451.705917	6663.157699
452.079965	6586.937973
452.453954	6792.599406
452.827883	6661.484036
453.201752	6752.507110
453.575562	6546.734772
453.949311	6750.727583
454.323001	6631.612679
454.696632	6703.179419
455.070202	6831.501991
455.443713	6975.159752
455.817164	7065.235089
456.190556	7130.540716
456.563888	7196.635284
456.937160	7238.529793
457.310373	6890.851495
457.683526	6907.232724
458.056619	6789.604961
458.429653	6769.959584
458.802628	6700.038781
459.175542	6794.484798
459.548398	7113.703262
459.921194	7251.309118
460.293930	7233.856644
460.666607	7711.269036
461.039224	7979.909604
461.411782	8086.451870
461.784280	8088.700225
462.156719	7968.133469
462.529099	7837.968356
462.901419	7426.726149
463.273680	7313.680794
463.645882	7303.338867
464.018024	7156.603482
464.390106	7282.372708
464.762130	7606.357584
465.134094	7982.107547
465.505999	8829.694387
465.877845	9845.721301
466.249631	10391.148942
466.621358	10029.017655
466.993026	9438.212068
467.364634	9189.685704
467.736184	8836.973814
468.107674	8502.833534
468.479105	8471.200293
468.850477	8234.495435
469.221790	8001.326946
469.593043	7679.754263
469.964238	7512.100610
470.335373	7472.295659
470.706449	7468.383723
471.077467	7409.296359
471.448425	8363.904375
471.819324	9115.308520
472.190164	9095.398483
472.560945	8084.924401
472.931667	7417.175683
473.302330	7262.669358
473.672934	6937.368742
474.043479	7134.641695
474.413965	7035.207456
474.784393	6884.408900
475.154761	6943.133301
475.525070	6931.994872
475.895321	6755.062975
476.265513	6807.531304
476.635645	6862.583225
477.005719	6776.187930
477.375734	6782.260000
477.745691	6862.028698
478.115588	6865.267639
478.485427	6933.595438
478.855207	7175.709455
479.224928	7548.790127
479.594591	7830.031059
479.964194	7624.034390
480.333739	7508.922162
480.703226	7340.945875
481.072653	7302.675955
481.442022	7314.454611
481.811333	7335.370359
482.180584	7137.026161
482.549777	6888.434262
482.918912	6712.525719
483.287988	6632.242823
483.657005	6552.315329
484.025964	6312.840357
484.394864	6277.259893
484.763706	6173.059243
485.132489	5991.151727
485.501213	5887.160285
485.869879	5838.593808
486.238487	5678.171690
486.607036	5647.292102
486.975527	5476.356658
487.343959	5467.436336
487.712333	5400.918311
488.080648	5304.453312
488.448905	5229.680397
488.817104	5135.390656
489.185244	5140.514988
489.553326	5107.288743
489.921350	5193.169840
490.289315	5405.354526
490.657222	5422.398667
491.025070	5301.635307
491.392861	5191.448286
491.760593	5011.380792
492.128267	4836.404862
492.495883	4681.079350
492.863440	4529.592677
493.230939	4389.788878
493.598380	4305.452895
493.965763	4211.480746
494.333088	4145.970952
494.700354	4058.819484
495.067563	4030.629352
495.434713	3934.781894
495.801805	3908.036052
496.168839	3844.091536
496.535815	3776.172070
496.902733	3736.074733
497.269593	3674.350845
497.636395	3647.862102
498.003139	3596.230604
498.369825	3542.764127
498.736453	3514.523583
499.103023	3471.630925
499.469535	3430.495110
499.835989	3394.312228
500.202385	3352.768079
500.568723	3302.210348
500.935003	3295.266158
501.301226	3239.253898
501.667390	3231.913978
502.033497	3211.512428
502.399546	3172.012467
502.765537	3131.791621
503.131470	3108.965277
503.497345	3092.621856
503.863163	3046.911193
504.228923	3037.033052
504.594625	3014.781399
504.960269	2981.199753
505.325856	2969.668113
505.691385	2941.394802
506.056856	2928.398708
506.422270	2909.978331
506.787625	2890.779097
507.152924	2872.991386
507.518164	2858.523274
507.883347	2841.476612
508.248472	2821.763180
508.613540	2818.027685
508.978550	2802.505972
509.343503	2789.439302
509.708398	2782.593415
510.073236	2770.582866
510.438016	2765.004829
510.802738	2752.933786
511.167403	2745.442632
511.532010	2733.855539
511.896561	2729.268089
512.261053	2724.350444
512.625488	2709.978114
512.989866	2699.981506
513.354186	2700.379757
513.718449	2689.730320
514.082655	2688.956503
514.446803	2686.665298
514.810894	2681.835873
515.174927	2673.943947
515.538904	2673.742300
515.902822	2669.467402
516.266684	2667.904644
516.630488	2662.571103
516.994235	2657.179589
517.357925	2654.303611
517.721558	2655.735299
518.085133	2652.148518
518.448651	2650.805050
518.812112	2646.885553
519.175516	2645.043012
519.538863	2645.557209
519.902152	2642.282980
520.265385	2639.235602
520.628560	2640.281642
520.991678	2635.628657
521.354739	2635.358955
521.717743	2636.036990
522.080690	2633.866773
522.443580	2632.235960
522.806413	2632.878707
523.169189	2631.457102
523.531908	2629.296967
523.894569	2626.846967
524.257174	2624.767491
524.619722	2624.550721
524.982213	2628.082049
525.344647	2625.876545
525.707025	2625.115330
526.069345	2623.779425
526.431608	2618.360184
526.793815	2623.832357
527.155964	2622.103241
527.518057	2618.471090
527.880093	2619.706172
528.242072	2618.697942
528.603995	2619.587705
528.965860	2614.740636
529.327669	2616.731892
529.689421	2613.606376
530.051117	2615.297683
530.412755	2614.344905
530.774337	2613.407251
531.135862	2615.859772
531.497331	2611.010182
531.858743	2607.045314
532.220098	2609.719647
532.581396	2610.569081
532.942638	2608.408947
533.303824	2610.097733
533.664953	2610.727877
534.026025	2610.669904
534.387040	2609.054214
534.747999	2611.481530
535.108902	2609.999431
535.469748	2606.936930
535.830537	2609.046652
536.191270	2607.468771
536.551947	2607.408277
536.912567	2608.565222
537.273131	2606.528596
537.633638	2606.954574
537.994089	2607.962804
538.354483	2604.045828
538.714821	2610.064966
539.075103	2609.061776
539.435328	2606.042125
539.795497	2606.947012
540.155609	2606.765530
540.515665	2609.737291
540.875665	2606.384923
541.235609	2606.024481
541.595496	2608.250150
541.955328	2606.374841
542.315102	2607.138576
542.674821	2607.952722
543.034483	2609.270984
543.394090	2606.533637
543.753640	2605.994234
544.113134	2606.110180
544.472571	2605.538009
544.831953	2603.360231
545.191278	2605.301075
545.550548	2604.285283
545.909761	2607.125973
546.268918	2606.092536
546.628019	2610.480861
546.987064	2605.500201
547.346053	2603.403081
547.704986	2603.234202
548.063863	2603.692947
548.422684	2605.086826
548.781449	2606.112701
549.140158	2606.205962
549.498811	2606.458020
549.857408	2603.372834
550.215949	2602.581373
550.574434	2599.481063
550.932864	2604.968359
551.291237	2603.529110
551.649555	2602.195724
552.007817	2602.384768
552.366022	2606.450458
552.724173	2604.000457
553.082267	2603.899634
553.440305	2605.573297
553.798288	2602.979624
554.156215	2604.617999
554.514086	2605.747217
554.871902	2605.149841
555.229661	2604.741507
555.587365	2604.065992
555.945014	2604.237392
556.302606	2603.004830
556.660143	2605.167485
557.017625	2605.457351
557.375050	2605.817793
557.732421	2606.339553
558.089735	2604.612958
558.446994	2605.656477
558.804197	2604.766713
559.161345	2603.881990
559.518437	2602.246136
559.875474	2605.704367
560.232455	2604.681013
560.589381	2602.737648
560.946251	2608.139245
561.303065	2606.568925
561.659825	2604.192021
562.016528	2604.423914
562.373177	2603.456013
562.729770	2605.936261
563.086307	2604.640684
563.442789	2605.658997
563.799216	2603.443410
564.155587	2604.973400
564.511904	2602.906527
564.868164	2603.236723
565.224370	2604.360900
565.580520	2603.783688
565.936615	2602.967021
566.292654	2599.985178
566.648638	2602.067175
567.004567	2600.771598
567.360441	2603.445931
567.716260	2602.188163
568.072023	2603.687906
568.427732	2601.046341
568.783385	2600.660693
569.138982	2600.224633
569.494525	2599.952411
569.850013	2597.600713
570.205445	2604.388626
570.560823	2600.121290
570.916145	2601.865529
571.271412	2600.368306
571.626625	2601.071547
571.981782	2600.262442
572.336884	2597.867894
572.691931	2600.353183
573.046923	2600.184304
573.401860	2598.361927
573.756743	2598.041814
574.111570	2596.284972
574.466342	2602.362082
574.821059	2597.572986
575.175722	2599.806218
575.530330	2601.482401
575.884882	2602.397371
576.239380	2599.052565
576.593823	2600.302771
576.948211	2600.776640
577.302544	2600.574993
577.656823	2597.691453
578.011047	2598.654314
578.365216	2597.754468
578.719330	2599.294540
579.073389	2595.279261
579.427394	2598.102307
579.781344	2596.647935
580.135239	2595.937132
580.489080	2597.915785
580.842866	2595.642224
581.196597	2598.165322
581.550273	2599.024839
581.903895	2595.198603
582.257463	2597.446957
582.610975	2596.310177
582.964434	2595.223809
583.317837	2598.682040
583.671186	2597.908223
584.024481	2595.990064
584.377721	2596.773963
584.730906	2595.017121
585.084037	2596.889910
585.437113	2595.589292
585.790135	2595.831268
586.143103	2593.782039
586.496016	2593.744230
586.848874	2591.730289
587.201679	2593.824888
587.554428	2590.966554
587.907124	2593.933273
588.259765	2588.813982
588.612352	2595.223809
588.964884	2591.011925
589.317362	2592.851946
589.669786	2591.914291
590.022155	2595.692636
590.374470	2593.681216
590.726731	2592.342789
591.078937	2592.710793
591.431090	2592.620053
591.783188	2594.424786
592.135232	2591.316914
592.487222	2592.672985
592.839157	2592.632656
593.191038	2591.889085
593.542866	2591.624425
593.894639	2591.044692
594.246358	2590.250710
594.598022	2589.204671
594.949633	2589.900350
595.301190	2588.612335
595.652692	2591.158118
596.004141	2592.257090
596.355535	2590.671647
596.706876	2588.226687
597.058162	2586.963878
597.409395	2589.124013
597.760573	2588.972778
598.111698	2589.572675
598.462768	2588.909763
598.813785	2587.188209
599.164748	2586.537901
599.515657	2589.030751
599.866511	2587.551172
600.217312	2589.774321
600.568060	2585.151583
600.918753	2591.432861
601.269392	2587.921697
601.619978	2587.563775
601.970510	2589.686101
602.320988	2586.883220
602.671412	2589.393714
603.021783	2585.789289
603.372100	2589.713828
603.722363	2584.496233
604.072572	2590.222984
604.422728	2588.256934
604.772830	2583.853486
605.122878	2584.539083
605.472872	2585.789289
605.822813	2581.688311
606.172701	2585.131419
606.522534	2586.217787
606.872314	2587.412541
607.222041	2585.396079
607.571714	2586.580750
607.921333	2590.301122
608.270899	2587.833477
608.620411	2590.538056
608.969870	2589.577716
609.319276	2588.650144
609.668627	2592.244487
610.017926	2595.448140
610.367171	2597.721700
610.716362	2595.785897
611.065500	2596.030393
611.414585	2593.333376
611.763616	2591.992429
612.112594	2591.843715
612.461518	2593.051071
612.810389	2591.095104
613.159207	2589.607963
613.507971	2590.056626
613.856682	2589.890268
614.205340	2588.360278
614.553945	2590.283478
614.902496	2588.599732
615.250994	2590.785073
615.599439	2590.679208
615.947830	2586.815164
616.296169	2589.968406
616.644454	2589.426482
616.992686	2588.778693
617.340864	2588.040164
617.688990	2589.093766
618.037063	2590.217943
618.385082	2588.781214
618.733048	2589.885227
619.080961	2589.824733
619.428821	2587.364650
619.776628	2588.569486
620.124382	2590.679208
620.472083	2589.867583
620.819731	2588.675350
621.167326	2584.786100
621.514868	2588.566965
621.862357	2588.675350
622.209793	2586.994125
622.557176	2587.614187
622.904506	2584.660071
623.251783	2583.235945
623.599007	2582.830132
623.946179	2582.552868
624.293297	2583.543455
624.640363	2585.176789
624.987376	2582.252920
625.334336	2582.164700
625.681243	2583.427509
626.028097	2583.223342
626.374899	2585.391038
626.721647	2582.441963
627.068343	2583.152766
627.414987	2583.218301
627.761577	2584.481110
628.108115	2580.826273
628.454600	2581.463979
628.801032	2582.895667
629.147412	2582.351222
629.493739	2579.351736
629.840014	2582.593198
630.186236	2581.080852
630.532405	2581.214442
630.878521	2581.113619
631.224585	2582.547827
631.570597	2579.255954
631.916556	2580.057497
632.262462	2579.344174
632.608316	2581.612693
632.954117	2579.712178
633.299866	2578.862744
633.645562	2581.849627
633.991206	2579.452559
634.336797	2577.715881
634.682336	2578.701427
635.027823	2577.299986
635.373257	2578.910635
635.718639	2574.202197
636.063968	2577.017682
636.409245	2575.371745
636.754470	2574.892835
637.099642	2576.024574
637.444762	2577.602455
637.789829	2576.886612
638.134845	2577.438618
638.479808	2572.805797
638.824719	2573.025088
639.169577	2573.622464
639.514383	2574.176991
639.859137	2574.998699
640.203839	2574.958370
640.548489	2573.919892
640.893086	2570.426373
641.237632	2570.933009
641.582125	2570.743966
641.926566	2569.831517
642.270955	2574.454255
642.615292	2573.604820
642.959576	2574.013154
643.303809	2575.296127
643.647990	2573.332598
643.992118	2574.502146
644.336195	2571.850499
644.680219	2572.752865
645.024192	2572.775551
645.368112	2572.553740
645.711981	2574.413926
646.055797	2575.296127
646.399562	2575.767475
646.743274	2572.329408
647.086935	2577.552044
647.430544	2574.852506
647.774101	2575.182702
648.117606	2575.429718
648.461059	2578.454410
648.804460	2575.875860
649.147810	2573.836713
649.491108	2575.681776
649.834354	2572.936868
650.177548	2573.304872
650.520690	2570.592731
650.863781	2574.547516
651.206820	2572.586507
651.549807	2571.265725
651.892742	2572.195818
652.235626	2570.202042
652.578458	2572.770509
652.921238	2572.170612
653.263967	2571.853019
653.606644	2569.944943
653.949269	2570.935529
654.291843	2569.065261
654.634365	2569.685323
654.976836	2571.202711
655.319255	2571.033832
655.661622	2568.427555
656.003938	2571.046435
656.346203	2570.033163
656.688416	2568.845971
657.030577	2568.422514
657.372687	2569.516445
657.714746	2567.300858
658.056753	2569.760941
658.398708	2564.104766
658.740612	2567.300858
659.082465	2564.805486
659.424266	2567.225240
659.766016	2564.646690
660.107715	2569.493759
660.449362	2570.575087
660.790958	2567.799932
661.132503	2567.598286
661.473996	2569.607185
661.815438	2568.603996
662.156829	2569.019891
662.498168	2569.309757
662.839456	2565.939746
663.180693	2571.106929
663.521879	2567.384037
663.863013	2569.644994
664.204097	2569.728173
664.545129	2568.707339
664.886110	2568.878739
665.227040	2570.910324
665.567918	2570.355797
665.908746	2568.344376
666.249522	2572.556260
666.590248	2567.943605
666.930922	2569.975190
667.271545	2567.799932
667.612118	2571.391754
667.952639	2569.024932
668.293109	2571.036352
668.633528	2568.266238
668.973896	2569.612227
669.314213	2569.352607
669.654480	2569.592062
669.994695	2567.721794
670.334859	2569.397977
670.674973	2566.693398
671.015035	2568.835889
671.355047	2568.750189
671.695008	2569.957546
672.034918	2570.602813
672.374777	2569.274469
672.714585	2569.725653
673.054342	2568.341856
673.394049	2566.849674
673.733705	2570.043245
674.073310	2570.809501
674.412864	2572.266394
674.752368	2568.591393
675.091820	2570.544840
675.431223	2567.361351
675.770574	2565.498645
676.109875	2563.028480
676.449125	2565.707853
676.788324	2563.013356
677.127473	2562.509241
677.466571	2563.572924
677.805619	2566.567370
678.144616	2570.943091
678.483562	2566.955538
678.822458	2568.193142
679.161303	2565.344890
679.500098	2567.931002
679.838842	2564.515620
680.177535	2564.399673
680.516179	2566.706001
680.854771	2567.323543
681.193314	2565.549057
681.531805	2569.317319
681.870247	2570.204562
682.208638	2570.060889
682.546978	2570.854871
682.885268	2569.793708
683.223508	2573.007444
683.561697	2568.039387
683.899836	2571.497618
684.237925	2569.032494
684.575963	2567.237843
684.913951	2567.265569
685.251889	2569.455951
685.589776	2567.807493
685.927614	2568.614078
686.265401	2567.436969
686.603137	2567.709191
686.940824	2567.820096
687.278460	2570.073492
687.616046	2570.648184
687.953582	2574.804615
688.291068	2567.888152
688.628504	2570.106260
688.965889	2571.008626
689.303224	2570.139027
689.640510	2568.845971
689.977745	2566.481670
690.314930	2566.927812
690.652065	2570.068451
690.989150	2567.028635
691.326185	2565.841443
691.663170	2563.207441
692.000105	2565.060065
692.336990	2563.686350
692.673825	2562.897410
693.010610	2564.470250
693.347345	2559.124106
693.684030	2556.018755
694.020665	2557.566389
694.357251	2556.795093
694.693786	2559.706359
695.030272	2558.778787
695.366707	2562.476473
695.703093	2561.201061
696.039429	2564.941597
696.375716	2560.583520
696.711952	2557.042109
697.048139	2560.407080
697.384276	2559.681153
697.720363	2558.430947
698.056400	2561.175856
698.392388	2558.877089
698.728326	2561.271637
699.064214	2557.851215
699.400053	2560.016390
699.735842	2557.092521
700.071581	2556.658982
700.407270	2557.432799
700.742910	2556.177552
701.078501	2556.744681
701.414042	2557.732748
701.749533	2558.410783
702.084974	2555.055895
702.420366	2558.539332
702.755709	2554.660164
703.091002	2557.485731
703.426246	2558.100752
703.761440	2557.102603
704.096584	2560.139898
704.431679	2557.102603
704.766725	2555.834753
705.101721	2556.326266
705.436668	2556.522871
705.771565	2556.018755
706.106413	2557.072356
706.441212	2554.743343
706.775961	2556.671585
707.110661	2555.668395
707.445311	2556.971533
707.779913	2557.490772
708.114465	2555.030689
708.448967	2557.720145
708.783421	2557.047151
709.117825	2557.548745
709.452180	2558.935063
709.786485	2557.755433
710.120742	2562.085784
710.454949	2560.548232
710.789107	2559.212326
711.123216	2556.084290
711.457275	2556.800134
711.791286	2556.106975
712.125247	2557.248797
712.459159	2560.878428
712.793023	2562.146278
713.126837	2562.088304
713.460602	2562.962945
713.794318	2559.015721
714.127985	2562.168963
714.461602	2557.047151
714.795171	2559.131668
715.128691	2559.169476
715.462162	2555.983467
715.795584	2555.731409
716.128957	2558.667882
716.462281	2556.936245
716.795556	2557.513457
717.128782	2556.800134
717.461960	2554.569423
717.795088	2553.288970
718.128167	2552.361398
718.461198	2555.358364
718.794180	2555.040771
719.127113	2554.740823
719.459997	2553.596481
719.792833	2553.450287
720.125619	2552.109340
720.458357	2551.484237
720.791046	2555.111347
721.123686	2553.162942
721.456278	2553.127653
721.788821	2551.945503
722.121315	2551.680842
722.453761	2552.936090
722.786158	2550.813764
723.118506	2552.479865
723.450805	2552.333672
723.783056	2554.211502
724.115259	2549.550955
724.447412	2551.547252
724.779518	2556.049002
725.111574	2553.470452
725.443582	2553.599001
725.775542	2552.278219
726.107453	2554.324928
726.439315	2554.035061
726.771129	2556.003632
727.102895	2552.903322
727.434612	2556.217881
727.766281	2551.267468
728.097901	2553.125133
728.429473	2550.879299
728.760996	2550.571788
729.092471	2552.739485
729.423897	2555.648230
729.755276	2554.030020
730.086606	2555.529763
730.417887	2551.885009
730.749120	2557.183262
731.080305	2556.469938
731.411442	2558.370453
731.742530	2557.669733
732.073570	2557.001780
732.404562	2555.897768
732.735506	2554.856769
733.066401	2557.049671
733.397249	2557.158056
733.728048	2556.336348
734.058798	2554.221584
734.389501	2552.492468
734.720156	2552.159752
735.050762	2554.491286
735.381320	2550.430636
735.711831	2554.201419
736.042293	2552.598332
736.372707	2550.297046
736.703073	2551.060780
737.033391	2550.077755
737.363661	2551.713610
737.693883	2551.375852
738.024056	2552.908363
738.354182	2553.452808
738.684260	2552.000956
739.014290	2554.501368
739.344272	2551.673281
739.674207	2553.190668
740.004093	2552.406768
740.333931	2553.553631
740.663722	2554.055226
740.993464	2552.842828
741.323159	2553.717468
741.652806	2552.505071
741.982405	2552.605894
742.311956	2550.841490
742.641460	2552.069011
742.970915	2554.080432
743.300323	2553.503219
743.629683	2549.530790
743.958996	2548.308310
744.288260	2554.670247
744.617477	2547.597508
744.946647	2547.131201
745.275768	2545.800336
745.604842	2548.520039
745.933869	2547.108516
746.262847	2546.160779
746.591778	2549.820657
746.920662	2548.580533
747.249498	2550.619679
747.578286	2547.516849
747.907027	2552.268137
748.235720	2553.588919
748.564365	2550.962478
748.892963	2550.201264
749.221514	2550.486089
749.550017	2550.241593
749.878473	2549.409803
750.206881	2553.110009
750.535242	2546.674977
750.863555	2547.786551
751.191821	2550.934752
751.520039	2551.955585
751.848210	2549.757642
752.176334	2549.671942
752.504411	2551.073383
752.832440	2549.447611
753.160421	2551.280071
753.488356	2547.685728
753.816243	2549.145142
754.144082	2548.187323
754.471875	2546.828732
754.799620	2547.501726
755.127318	2549.767724
755.454969	2545.712116
755.782572	2547.973074
756.110129	2549.553475
756.437638	2545.512991
756.765100	2547.345450
757.092515	2548.121788
757.419882	2546.864020
757.747203	2546.586756
758.074477	2549.921480
758.401703	2550.226469
758.728882	2548.144473
759.056014	2549.593805
759.383099	2551.189330
759.710138	2549.402241
760.037129	2549.021634
760.364073	2549.639175
760.690970	2547.506767
761.017820	2549.336706
761.344623	2549.903836
761.671379	2550.556665
761.998088	2547.108516
762.324751	2550.231511
762.651366	2552.071532
762.977935	2560.308777
763.304456	2563.187276
763.630931	2570.582649
763.957359	2566.968141
764.283740	2562.413459
764.610074	2555.416337
764.936362	2556.149825
765.262602	2552.537838
765.588796	2553.072201
765.914943	2552.381563
766.241044	2547.476520
766.567097	2547.607590
766.893104	2547.695810
767.219064	2546.944678
767.544978	2546.279246
767.870845	2546.700182
768.196665	2547.116078
768.522438	2547.388300
768.848165	2546.241437
769.173846	2546.836293
769.499479	2545.681869
769.825066	2545.245809
770.150607	2546.445604
770.476101	2543.947712
770.801548	2545.833104
771.126949	2543.267157
771.452303	2545.820501
771.777611	2545.971736
772.102872	2542.158103
772.428087	2543.483926
772.753256	2543.267157
773.078378	2545.689431
773.403453	2544.129194
773.728482	2544.230017
774.053465	2541.469985
774.378401	2543.718340
774.703291	2544.358566
775.028135	2537.235416
775.352932	2540.882691
775.677683	2542.783206
776.002388	2543.549461
776.327046	2544.126673
776.651658	2541.560726
776.976224	2542.064841
777.300743	2542.059800
777.625216	2542.974770
777.949643	2542.095088
778.274024	2543.824204
778.598359	2538.500746
778.922647	2536.267514
779.246889	2538.039480
779.571086	2535.173584
779.895236	2541.041487
780.219339	2542.165664
780.543397	2544.245140
780.867409	2539.461085
781.191374	2538.210879
781.515294	2543.536858
781.839167	2540.295396
782.162995	2541.568288
782.486776	2540.794471
782.810511	2541.802701
783.134201	2544.661036
783.457844	2540.134079
783.781441	2543.466282
784.104993	2541.248174
784.428498	2541.371683
784.751958	2541.016281
785.075372	2540.010571
785.398739	2540.817156
785.722061	2539.493853
786.045337	2540.302958
786.368568	2544.368649
786.691752	2540.938143
787.014891	2543.241951
787.337983	2543.113401
787.661030	2543.758669
787.984031	2544.928217
788.306987	2545.835624
788.629897	2544.797147
788.952760	2545.467620
789.275579	2542.097609
789.598351	2542.752959
789.921078	2541.593493
790.243759	2542.311858
790.566395	2542.279090
790.888984	2545.525593
791.211529	2542.193391
791.534027	2539.861857
791.856480	2539.496373
792.178888	2542.059800
792.501249	2544.008206
792.823566	2542.127856
793.145836	2542.490819
793.468062	2538.762886
793.790241	2539.292207
794.112375	2540.706250
794.434464	2539.284645
794.756507	2540.764224
795.078505	2540.935623
795.400457	2540.282793
795.722364	2541.099460
796.044226	2537.258101
796.366042	2538.515869
796.687812	2538.349511
797.009538	2540.401261
797.331218	2544.247661
797.652852	2542.294214
797.974442	2542.616848
798.295986	2540.139121
798.617484	2542.992414
798.938938	2540.897814
799.260346	2542.190870
799.581709	2541.984183
799.903026	2543.040305
800.224299	2541.348998
800.545526	2540.648277
800.866708	2540.572660
801.187845	2539.330015
801.508936	2540.144162
801.829983	2540.474357
802.150984	2541.142310
802.471940	2540.736497
802.792851	2538.047042
803.113717	2541.555685
803.434538	2539.720705
803.755314	2542.629451
804.076045	2542.286652
804.396731	2539.067875
804.717372	2540.718853
805.037967	2537.240457
805.358518	2541.049049
805.679024	2540.945705
805.999485	2538.528472
806.319901	2540.923020
806.640272	2540.292876
806.960598	2539.803884
807.280879	2536.955632
807.601115	2541.064172
807.921306	2541.011240
808.241453	2539.927392
808.561554	2541.285983
808.881611	2540.108874
809.201623	2541.217927
809.521590	2539.130890
809.841513	2538.803215
810.161390	2537.963863
810.481223	2540.955787
810.801011	2540.676003
811.120755	2537.454706
811.440453	2542.286652
811.760107	2537.747093
812.079716	2538.231044
812.399281	2536.310364
812.718801	2537.933616
813.038276	2536.328008
813.357707	2539.990407
813.677093	2538.132741
813.996434	2539.708102
814.315731	2539.571991
814.634983	2542.516025
814.954191	2538.757844
815.273354	2541.122146
815.592473	2540.590304
815.911547	2542.092568
816.230577	2542.248843
816.549562	2542.004347
816.868502	2540.030736
817.187399	2541.757331
817.506250	2539.566950
817.825058	2542.720191
818.143821	2541.447300
818.462539	2543.514173
818.781213	2544.613145
819.099843	2541.477547
819.418429	2545.497867
819.736970	2546.937117
820.055466	2547.731098
820.373919	2552.290822
820.692327	2552.873075
821.010691	2559.814744
821.329011	2573.075499
821.647286	2600.708584
821.965517	2629.201186
822.283704	2643.064359
822.601847	2652.554331
822.919945	2638.804584
823.237999	2620.081738
823.556010	2604.292844
823.873976	2591.349682
824.191897	2582.933476
824.509775	2574.721436
824.827609	2568.833368
825.145398	2564.936556
825.463144	2559.681153
825.780845	2565.264231
826.098502	2565.165929
826.416116	2574.555078
826.733685	2579.528176
827.051210	2585.670822
827.368692	2581.889957
827.686129	2572.336970
828.003522	2563.830023
828.320872	2554.428271
828.638177	2551.993394
828.955439	2547.814277
829.272656	2546.122970
829.589830	2542.715150
829.906960	2546.362425
830.224046	2543.665408
830.541088	2543.420912
830.858086	2544.560213
831.175041	2542.269008
831.491952	2540.862526
831.808819	2543.320089
832.125642	2544.078782
832.442421	2544.615665
832.759157	2547.723537
833.075849	2551.955585
833.392497	2557.137891
833.709101	2561.488407
834.025662	2563.293140
834.342179	2559.348437
834.658653	2555.771739
834.975083	2551.390976
835.291469	2552.918446
835.607811	2547.968032
835.924110	2542.047197
836.240366	2543.733463
836.556578	2540.471837
836.872746	2543.589790
837.188871	2539.498894
837.504952	2542.803370
837.820990	2536.247350
838.136984	2537.293389
838.452935	2540.386137
838.768842	2540.595345
839.084706	2539.158616
839.400526	2541.273380
839.716303	2542.790768
840.032037	2546.954761
840.347727	2549.074566
840.663373	2546.954761
840.978977	2543.690613
841.294537	2539.856816
841.610054	2542.505942
841.925527	2538.951929
842.240957	2539.851775
842.556344	2537.903369
842.871687	2538.425128
843.186987	2537.106867
843.502244	2536.668286
843.817458	2540.449152
844.132629	2532.257277
844.447756	2537.537885
844.762840	2533.535209
845.077881	2529.789632
845.392879	2535.763399
845.707833	2535.556712
846.022745	2532.191742
846.337613	2535.029911
846.652438	2537.608461
846.967221	2535.556712
847.281960	2535.218954
847.596656	2534.692154
847.911309	2534.472864
848.225919	2534.069571
848.540485	2536.378420
848.855009	2535.009747
849.169490	2534.969417
849.483928	2535.770961
849.798323	2534.356917
850.112675	2536.998482
850.426984	2535.312216
850.741251	2533.993954
851.055474	2532.136289
851.369654	2534.220806
851.683792	2534.946732
851.997887	2534.724921
852.311938	2536.365817
852.625947	2532.221988
852.939914	2535.939839
853.253837	2536.494366
853.567718	2535.770961
853.881555	2535.904551
854.195350	2535.355066
854.509103	2535.304654
854.822812	2534.424973
855.136479	2535.695343
855.450103	2533.968748
855.763685	2536.388502
856.077224	2535.042514
856.390720	2532.678213
856.704173	2533.116793
857.017584	2534.240971
857.330953	2534.671989
857.644278	2535.201310
857.957561	2538.162988
858.270802	2534.891279
858.584000	2533.270548
858.897155	2535.632329
859.210268	2536.776671
859.523339	2534.437576
859.836367	2533.411701
860.149352	2537.069058
860.462295	2536.774150
860.775195	2531.475898
861.088054	2530.608819
861.400869	2534.407329
861.713642	2532.532019
862.026373	2536.670807
862.339062	2534.646783
862.651708	2534.089736
862.964312	2532.274921
863.276873	2534.606454
863.589392	2534.707277
863.901869	2535.176105
864.214303	2531.987575
864.526696	2534.644263
864.839045	2535.473533
865.151353	2539.559388
865.463619	2535.866743
865.775842	2535.105528
866.088023	2533.673841
866.400162	2538.031918
866.712258	2534.104859
867.024313	2535.902031
867.336325	2537.598379
867.648296	2536.264994
867.960224	2535.188708
868.272110	2534.351876
868.583954	2534.215765
868.895755	2534.523275
869.207515	2534.659386
869.519233	2536.068389
869.830909	2537.147196
870.142542	2538.054603
870.454134	2534.785415
870.765684	2536.171733
871.077191	2535.420601
871.388657	2534.815662
871.700081	2534.465302
872.011463	2537.358924
872.322803	2536.625436
872.634101	2539.027546
872.945357	2538.097453
873.256571	2537.290869
873.567744	2536.282638
873.878874	2537.923533
874.189963	2536.416228
874.501010	2537.517721
874.812015	2535.108049
875.122979	2535.231557
875.433900	2534.472864
875.744780	2539.980324
876.055618	2535.493697
876.366415	2541.273380
876.677169	2536.272556
876.987882	2534.740045
877.298554	2532.920188
877.609183	2536.116280
877.919771	2535.269366
878.230317	2538.231044
878.540822	2539.750952
878.851285	2537.865560
879.161707	2540.655839
879.472087	2542.954605
879.782425	2547.216901
880.092722	2552.169834
880.402977	2559.950855
880.713191	2574.534913
881.023363	2588.735844
881.333494	2597.449478
881.643583	2596.761361
881.953631	2595.478387
882.263637	2598.140116
882.573602	2590.626276
882.883526	2582.714185
883.193408	2575.585994
883.503248	2565.697771
883.813048	2563.827503
884.122806	2560.548232
884.432522	2557.281564
884.742197	2552.653785
885.051831	2548.104144
885.361424	2544.340922
885.670975	2546.196067
885.980485	2543.912424
886.289954	2542.286652
886.599382	2541.533000
886.908768	2542.203473
887.218113	2540.123997
887.527417	2541.225489
887.836680	2538.374717
888.145901	2538.551157
888.455082	2537.495035
888.764221	2537.200128
889.073319	2535.362627
889.382376	2536.955632
889.691392	2536.365817
890.000366	2542.142979
890.309300	2536.910262
890.618193	2539.070396
890.927044	2537.303472
891.235855	2537.704243
891.544625	2535.697864
891.853353	2538.157947
892.162041	2538.956970
892.470687	2539.385468
892.779293	2540.648277
893.087858	2540.955788
893.396381	2536.874973
893.704864	2546.367466
894.013306	2546.034750
894.321707	2551.484237
894.630068	2556.669064
894.938387	2560.391956
895.246665	2559.403890
895.554903	2554.967675
895.863100	2551.355688
896.171256	2549.518187
896.479371	2546.838814
896.787446	2547.340409
897.095480	2544.174564
897.403473	2540.728936
897.711425	2539.627443
898.019336	2540.441590
898.327207	2538.241126
898.635038	2540.774306
898.942827	2541.031405
899.250576	2539.070396
899.558284	2537.868081
899.865952	2538.082330
900.173579	2536.496887
900.481165	2540.713812
900.788711	2538.455375
901.096216	2536.204500
901.403681	2535.168543
901.711105	2539.007382
902.018489	2538.392361
902.325832	2538.959491
902.633135	2534.175436
902.940397	2539.138452
903.247619	2540.910417
903.554800	2543.244471
903.861941	2552.628579
904.169041	2558.859445
904.476101	2566.083419
904.783121	2565.349931
905.090100	2560.354148
905.397039	2557.006821
905.703938	2551.630431
906.010796	2548.673794
906.317614	2546.753114
906.624391	2541.351518
906.931129	2540.774306
907.237826	2540.285314
907.544483	2538.362114
907.851099	2538.553678
908.157675	2538.785571
908.464211	2535.798687
908.770707	2528.582275
909.077163	2531.591844
909.383578	2527.647141
909.689954	2532.287523
909.996289	2530.639066
910.302584	2534.283820
910.608839	2531.929602
910.915054	2535.697864
911.221229	2535.269366
911.527363	2533.459592
911.833458	2532.849612
912.139513	2534.845909
912.445527	2535.778523
912.751502	2535.307175
913.057436	2533.769623
913.363331	2537.313554
913.669186	2534.929088
913.975000	2536.708615
914.280775	2539.324974
914.586510	2546.173382
914.892205	2544.615665
915.197859	2546.385110
915.503475	2552.870555
915.809050	2558.819116
916.114585	2562.408418
916.420081	2562.766340
916.725536	2563.845147
917.030952	2558.141081
917.336328	2556.601008
917.641665	2552.414330
917.946961	2551.098589
918.252218	2547.322765
918.557435	2543.473844
918.862612	2540.998637
919.167750	2541.931251
919.472848	2541.505273
919.777906	2537.699202
920.082925	2539.645088
920.387904	2535.896990
920.692843	2536.673327
920.997743	2537.575694
921.302603	2537.225334
921.607423	2536.191897
921.912204	2533.222657
922.216946	2535.823893
922.521647	2535.773481
922.826310	2533.343645
923.130932	2532.952956
923.435516	2535.307175
923.740059	2533.242822
924.044564	2532.075795
924.349028	2534.871115
924.653454	2531.032276
924.957840	2531.816176
925.262186	2530.873480
925.566493	2529.416586
925.870761	2528.675537
926.174989	2531.095291
926.479178	2533.782226
926.783328	2534.805580
927.087438	2529.492204
927.391509	2530.016484
927.695541	2531.543953
927.999533	2534.664428
928.303486	2531.705270
928.607400	2534.185518
928.911275	2531.823737
929.215110	2531.032276
929.518906	2532.957997
929.822663	2529.320804
930.126381	2531.019673
930.430060	2530.946577
930.733699	2533.028573
931.037299	2531.049920
931.340861	2531.155784
931.644383	2533.454551
931.947866	2531.349869
932.251309	2531.609488
932.554714	2531.566638
932.858080	2532.181659
933.161407	2531.974972
933.464694	2531.107893
933.767943	2531.909437
934.071153	2532.337935
934.374323	2530.291227
934.677455	2532.297606
934.980548	2531.768285
935.283602	2531.511186
935.586617	2533.056299
935.889593	2534.543440
936.192530	2529.235105
936.495428	2531.281813
936.798287	2531.669982
937.101108	2530.684437
937.403890	2530.192924
937.706632	2533.462112
938.009336	2531.201155
938.312002	2533.026053
938.614628	2530.490352
938.917216	2535.770961
939.219765	2532.259797
939.522275	2535.594520
939.824747	2530.571011
940.127179	2532.867256
940.429573	2531.894313
940.731929	2528.693181
941.034246	2529.867770
941.336524	2531.112935
941.638763	2532.363141
941.940964	2533.255425
942.243126	2533.353728
942.545250	2532.446320
942.847335	2532.572349
943.149381	2531.632173
943.451389	2530.230733
943.753359	2531.806093
944.055290	2532.988244
944.357182	2530.500434
944.659036	2530.858356
944.960851	2531.370033
945.262628	2530.807945
945.564367	2532.799201
945.866067	2530.709642
946.167729	2530.031607
946.469352	2532.935312
946.770937	2532.920188
947.072484	2529.877852
947.373992	2533.464633
947.675462	2528.390712
947.976893	2533.966228
948.278286	2529.056144
948.579641	2530.079498
948.880958	2530.883562
949.182236	2532.824406
949.483476	2528.010104
949.784678	2528.378109
950.085841	2531.508665
950.386967	2532.801721
950.688054	2530.457585
950.989103	2531.004550
951.290114	2529.141843
951.591087	2530.467667
951.892021	2528.985568
952.192917	2532.937832
952.493776	2532.035466
952.794596	2532.136289
953.095378	2533.376413
953.396122	2533.777184
953.696828	2531.508665
953.997496	2530.029087
954.298126	2529.265352
954.598718	2531.057482
954.899272	2529.366175
955.199788	2531.722914
955.500266	2531.816176
955.800706	2529.255269
956.101108	2526.775022
956.401472	2528.390712
956.701798	2527.805938
957.002087	2529.189734
957.302337	2528.025228
957.602550	2527.695032
957.902724	2529.978675
958.202861	2529.913140
958.502960	2531.740558
958.803022	2530.805424
959.103045	2530.245856
959.403031	2531.228881
959.702979	2526.273427
960.002889	2529.910619
960.302762	2526.129754
960.602596	2527.785773
960.902393	2530.447502
961.202153	2528.584796
961.501875	2530.797863
961.801559	2530.258459
962.101205	2529.940866
962.400814	2529.126720
962.700385	2529.557739
962.999918	2531.191073
963.299414	2528.504138
963.598873	2526.883407
963.898293	2528.373068
964.197677	2529.489683
964.497022	2527.495907
964.796331	2530.954138
965.095601	2526.447347
965.394835	2528.526823
965.694030	2531.773326
965.993189	2527.964734
966.292309	2528.748633
966.591393	2527.616894
966.890439	2529.320804
967.189447	2528.360465
967.488419	2527.969775
967.787353	2527.377440
968.086249	2529.855167
968.385108	2531.659900
968.683930	2528.098325
968.982714	2526.855680
969.281462	2530.755013
969.580172	2528.587317
969.878844	2529.209899
970.177480	2526.401976
970.476078	2527.629497
970.774639	2530.490352
971.073162	2530.409694
971.371649	2525.900382
971.670098	2523.407531
971.968510	2526.553211
972.266885	2522.958868
972.565223	2526.757378
972.863524	2527.155629
973.161788	2530.838192
973.460014	2524.700587
973.758204	2530.170239
974.056356	2529.459436
974.354471	2531.528830
974.652550	2529.295599
974.950591	2526.303674
975.248595	2525.325690
975.546563	2531.385157
975.844493	2529.456916
976.142386	2529.187214
976.440243	2524.559435
976.738062	2529.875331
977.035845	2526.888448
977.333590	2529.308202
977.631299	2528.511699
977.928971	2527.664785
978.226606	2526.999353
978.524204	2527.579086
978.821765	2528.352903
979.119290	2526.769981
979.416777	2529.603109
979.714228	2529.187214
980.011642	2527.397604
980.309020	2533.608306
980.606360	2527.178314
980.903664	2530.954138
981.200931	2529.668644
981.498162	2530.422297
981.795356	2528.297450
982.092513	2533.021011
982.389633	2527.213602
982.686717	2531.269210
982.983764	2527.397604
983.280775	2528.849457
983.577749	2530.044210
983.874686	2532.070754
984.171587	2531.100332
984.468451	2530.815507
984.765279	2527.735362
985.062070	2528.390712
985.358824	2527.939528
985.655543	2531.307019
985.952224	2528.085722
986.248869	2526.916174
986.545478	2523.861235
986.842050	2525.625639
987.138586	2523.836029
987.435086	2525.489528
987.731549	2524.370391
988.027975	2527.753006
988.324366	2528.436082
988.620719	2526.530526
988.917037	2529.789632
989.213318	2527.803417
989.509563	2528.630166
989.805772	2529.199817
990.101944	2528.289888
990.398080	2528.788963
990.694180	2528.589837
990.990244	2526.555732
991.286271	2526.288550
991.582262	2531.110414
991.878217	2526.684281
992.174136	2526.437264
992.470019	2526.744775
992.765865	2526.036493
993.061676	2528.809127
993.357450	2528.874662
993.653188	2527.659744
993.948890	2524.992974
994.244556	2528.577234
994.540186	2526.258303
994.835780	2527.264014
995.131337	2529.305681
995.426859	2527.579086
995.722345	2526.275947
996.017795	2530.818027
996.313208	2526.953983
996.608586	2529.628315
996.903928	2529.028418
997.199234	2525.834847
997.494504	2528.970444
997.789738	2527.977337
998.084936	2530.195445
998.380099	2527.324508
998.675225	2530.082019
998.970316	2527.901720
999.265371	2527.581606
999.560390	2527.647141
999.855373	2528.801566
1000.150320	2526.223015
1000.445232	2528.562111
1000.740108	2527.175793
1001.034948	2526.671678
1001.329752	2529.688809
1001.624521	2529.356092
1001.919254	2522.986595
1002.213951	2526.848118
1002.508613	2523.183200
1002.803239	2525.270237
1003.097829	2524.418282
1003.392384	2527.427851
1003.686903	2528.254600
1003.981386	2528.781401
1004.275834	2525.187058
1004.570246	2529.600588
1004.864623	2526.583458
1005.158964	2527.873993
1005.453270	2530.104704
1005.747540	2525.481966
1006.041775	2525.648324
1006.335974	2531.594365
1006.630138	2526.901051
1006.924266	2527.168232
1007.218359	2526.729651
1007.512416	2528.340300
1007.806438	2526.870804
1008.100425	2526.512882
1008.394376	2526.429703
1008.688292	2528.257121
1008.982172	2524.214116
1009.276017	2524.524147
1009.569827	2526.313756
1009.863602	2528.546987
1010.157341	2527.024559
1010.451045	2526.039013
1010.744714	2527.354754
1011.038347	2524.887110
1011.331945	2525.320649
1011.625508	2527.115300
1011.919036	2528.063037
1012.212528	2528.176463
1012.505986	2524.511544
1012.799408	2528.579755
1013.092795	2523.730165
1013.386147	2527.052285
1013.679464	2528.194107
1013.972745	2524.708149
1014.265992	2526.727131
1014.559204	2528.209230
1014.852380	2525.739065
1015.145521	2528.748633
1015.438628	2526.802748
1015.731699	2528.799045
1016.024736	2528.962882
1016.317737	2527.601771
1016.610703	2526.964065
1016.903635	2523.140350
1017.196531	2522.510206
1017.489393	2522.991636
1017.782219	2522.762263
1018.075011	2526.044054
1018.367768	2527.064888
1018.660490	2528.282327
1018.953177	2528.282327
1019.245829	2528.282327
