Dividing Wavelength (nm)	Counts (n)	Blue Motor Position (mm): 0.000000	Red Motor Position (mm): 5.800000	
326.493990	2200.463654
326.888308	2200.463654
327.282561	2200.463654
327.676750	2071.914231
328.070874	2021.502692
328.464933	2087.037692
328.858929	2044.187885
329.252859	2031.585000
329.646726	2104.681731
330.040528	2054.270192
330.434265	2087.037692
330.827938	2150.052115
331.221547	2150.052115
331.615091	2165.175577
332.008571	2180.299038
332.401986	2192.901923
332.795338	2208.025385
333.188625	2213.066538
333.581847	2281.122115
333.975006	2288.683846
334.368100	2311.369038
334.761129	2349.177692
335.154095	2326.492500
335.546996	2349.177692
335.939833	2364.301154
336.332606	2318.930769
336.725315	2434.877308
337.117960	2397.068654
337.510540	2344.136538
337.903056	2457.562500
338.295508	2419.753846
338.687896	2427.315577
339.080220	2533.179808
339.472480	2563.426731
339.864676	2432.356731
340.256807	2480.247692
340.648875	2397.068654
341.040879	2490.330000
341.432818	2480.247692
341.824694	2450.000769
342.216506	2510.494615
342.608253	2568.467885
342.999937	2409.671538
343.391557	2424.795000
343.783113	2520.576923
344.174605	2495.371154
344.566033	2482.768269
344.957397	2460.083077
345.348697	2492.850577
345.739934	2475.206538
346.131106	2412.192115
346.522215	2505.453462
346.913260	2470.165385
347.304241	2475.206538
347.695159	2492.850577
348.086012	2475.206538
348.476802	2502.932885
348.867528	2384.465769
349.258191	2432.356731
349.648789	2495.371154
350.039324	2397.068654
350.429796	2429.836154
350.820203	2397.068654
351.210548	2359.260000
351.600828	2427.315577
351.991045	2422.274423
352.381198	2450.000769
352.771288	2422.274423
353.161314	2470.165385
353.551276	2437.397885
353.941175	2429.836154
354.331010	2450.000769
354.720782	2344.136538
355.110490	2480.247692
355.500135	2422.274423
355.889717	2450.000769
356.279235	2450.000769
356.668689	2442.439038
357.058080	2450.000769
357.447408	2480.247692
357.836672	2419.753846
358.225873	2399.589231
358.615010	2404.630385
359.004084	2424.795000
359.393095	2404.630385
359.782043	2500.412308
360.170927	2399.589231
360.559748	2452.521346
360.948505	2437.397885
361.337199	2482.768269
361.725830	2475.206538
362.114398	2460.083077
362.502903	2495.371154
362.891344	2437.397885
363.279722	2384.465769
363.668037	2477.727115
364.056289	2404.630385
364.444478	2472.685962
364.832603	2427.315577
365.220665	2497.891731
365.608665	2437.397885
365.996601	2497.891731
366.384474	2434.877308
366.772284	2366.821731
367.160031	2422.274423
367.547715	2472.685962
367.935336	2442.439038
368.322893	2432.356731
368.710388	2432.356731
369.097820	2530.659231
369.485189	2399.589231
369.872495	2434.877308
370.259738	2439.918462
370.646918	2429.836154
371.034035	2500.412308
371.421090	2434.877308
371.808081	2472.685962
372.195010	2424.795000
372.581875	2485.288846
372.968678	2389.506923
373.355418	2477.727115
373.742096	2374.383462
374.128710	2442.439038
374.515262	2477.727115
374.901751	2434.877308
375.288177	2417.233269
375.674540	2452.521346
376.060841	2490.330000
376.447079	2392.027500
376.833254	2477.727115
377.219367	2467.644808
377.605417	2525.618077
377.991404	2485.288846
378.377329	2500.412308
378.763191	2407.150962
379.148991	2427.315577
379.534727	2442.439038
379.920402	2452.521346
380.306013	2555.865000
380.691563	2452.521346
381.077049	2487.809423
381.462474	2515.535769
381.847835	2465.124231
382.233134	2477.727115
382.618371	2434.877308
383.003545	2497.891731
383.388657	2376.904038
383.773706	2361.780577
384.158693	2492.850577
384.543618	2452.521346
384.928480	2533.179808
385.313280	2543.262115
385.698017	2389.506923
386.082692	2460.083077
386.467305	2525.618077
386.851856	2470.165385
387.236344	2444.959615
387.620770	2465.124231
388.005133	2424.795000
388.389435	2482.768269
388.773674	2414.712692
389.157851	2588.632500
389.541965	2523.097500
389.926018	2518.056346
390.310008	2450.000769
390.693936	2417.233269
391.077802	2497.891731
391.461606	2465.124231
391.845348	2507.974038
392.229027	2429.836154
392.612645	2472.685962
392.996200	2442.439038
393.379694	2588.632500
393.763125	2427.315577
394.146494	2465.124231
394.529801	2485.288846
394.913047	2480.247692
395.296230	2437.397885
395.679351	2462.603654
396.062410	2427.315577
396.445408	2452.521346
396.828343	2379.424615
397.211217	2477.727115
397.594028	2444.959615
397.976778	2477.727115
398.359466	2555.865000
398.742092	2450.000769
399.124656	2452.521346
399.507158	2497.891731
399.889598	2482.768269
400.271977	2427.315577
400.654294	2439.918462
401.036549	2500.412308
401.418742	2472.685962
401.800874	2490.330000
402.182944	2412.192115
402.564952	2439.918462
402.946898	2495.371154
403.328783	2429.836154
403.710606	2545.782692
404.092367	2419.753846
404.474067	2450.000769
404.855705	2412.192115
405.237282	2444.959615
405.618797	2568.467885
406.000250	2490.330000
406.381642	2581.070769
406.762972	2505.453462
407.144240	2442.439038
407.525447	2412.192115
407.906593	2505.453462
408.287677	2475.206538
408.668700	2523.097500
409.049661	2450.000769
409.430560	2485.288846
409.811399	2502.932885
410.192176	2457.562500
410.572891	2485.288846
410.953545	2465.124231
411.334138	2452.521346
411.714669	2576.029615
412.095139	2452.521346
412.475547	2523.097500
412.855894	2457.562500
413.236180	2500.412308
413.616405	2432.356731
413.996568	2530.659231
414.376670	2455.041923
414.756711	2553.344423
415.136691	2505.453462
415.516609	2444.959615
415.896466	2475.206538
416.276262	2497.891731
416.655997	2560.906154
417.035670	2507.974038
417.415283	2432.356731
417.794834	2447.480192
418.174324	2457.562500
418.553753	2480.247692
418.933121	2518.056346
419.312428	2560.906154
419.691674	2402.109808
420.070859	2588.632500
420.449983	2470.165385
420.829045	2497.891731
421.208047	2444.959615
421.586988	2495.371154
421.965867	2407.150962
422.344686	2470.165385
422.723444	2412.192115
423.102141	2417.233269
423.480777	2462.603654
423.859352	2417.233269
424.237866	2450.000769
424.616319	2505.453462
424.994712	2502.932885
425.373044	2475.206538
425.751314	2442.439038
426.129524	2510.494615
426.507673	2447.480192
426.885762	2545.782692
427.263789	2447.480192
427.641756	2540.741538
428.019662	2475.206538
428.397508	2497.891731
428.775292	2437.397885
429.153016	2452.521346
429.530679	2495.371154
429.908282	2513.015192
430.285824	2477.727115
430.663305	2513.015192
431.040726	2490.330000
431.418086	2507.974038
431.795385	2465.124231
432.172624	2492.850577
432.549802	2540.741538
432.926920	2540.741538
433.303977	2462.603654
433.680974	2462.603654
434.057910	2500.412308
434.434786	2586.111923
434.811601	2515.535769
435.188355	2480.247692
435.565050	2530.659231
435.941683	2460.083077
436.318257	2427.315577
436.694770	2477.727115
437.071222	2450.000769
437.447614	2510.494615
437.823946	2434.877308
438.200218	2533.179808
438.576429	2502.932885
438.952580	2460.083077
439.328670	2495.371154
439.704700	2507.974038
440.080670	2490.330000
440.456580	2515.535769
440.832429	2520.576923
441.208218	2452.521346
441.583947	2437.397885
441.959616	2505.453462
442.335224	2457.562500
442.710773	2500.412308
443.086261	2530.659231
443.461689	2497.891731
443.837057	2513.015192
444.212365	2482.768269
444.587612	2470.165385
444.962800	2429.836154
445.337927	2518.056346
445.712995	2490.330000
446.088002	2485.288846
446.462949	2495.371154
446.837837	2505.453462
447.212664	2563.426731
447.587431	2510.494615
447.962139	2492.850577
448.336786	2417.233269
448.711374	2457.562500
449.085901	2409.671538
449.460369	2535.700385
449.834776	2535.700385
450.209124	2422.274423
450.583412	2482.768269
450.957640	2480.247692
451.331808	2533.179808
451.705917	2467.644808
452.079965	2475.206538
452.453954	2455.041923
452.827883	2480.247692
453.201752	2525.618077
453.575562	2523.097500
453.949311	2507.974038
454.323001	2513.015192
454.696632	2475.206538
455.070202	2543.262115
455.443713	2530.659231
455.817164	2462.603654
456.190556	2611.317692
456.563888	2492.850577
456.937160	2480.247692
457.310373	2414.712692
457.683526	2545.782692
458.056619	2606.276538
458.429653	2444.959615
458.802628	2560.906154
459.175542	2492.850577
459.548398	2417.233269
459.921194	2523.097500
460.293930	2452.521346
460.666607	2490.330000
461.039224	2510.494615
461.411782	2447.480192
461.784280	2480.247692
462.156719	2470.165385
462.529099	2550.823846
462.901419	2581.070769
463.273680	2502.932885
463.645882	2515.535769
464.018024	2510.494615
464.390106	2515.535769
464.762130	2465.124231
465.134094	2535.700385
465.505999	2513.015192
465.877845	2510.494615
466.249631	2442.439038
466.621358	2548.303269
466.993026	2543.262115
467.364634	2470.165385
467.736184	2555.865000
468.107674	2495.371154
468.479105	2497.891731
468.850477	2460.083077
469.221790	2444.959615
469.593043	2543.262115
469.964238	2397.068654
470.335373	2497.891731
470.706449	2480.247692
471.077467	2548.303269
471.448425	2475.206538
471.819324	2442.439038
472.190164	2538.220962
472.560945	2490.330000
472.931667	2497.891731
473.302330	2452.521346
473.672934	2409.671538
474.043479	2513.015192
474.413965	2520.576923
474.784393	2452.521346
475.154761	2495.371154
475.525070	2465.124231
475.895321	2535.700385
476.265513	2470.165385
476.635645	2520.576923
477.005719	2492.850577
477.375734	2497.891731
477.745691	2462.603654
478.115588	2460.083077
478.485427	2475.206538
478.855207	2475.206538
479.224928	2548.303269
479.594591	2565.947308
479.964194	2444.959615
480.333739	2467.644808
480.703226	2452.521346
481.072653	2603.755962
481.442022	2442.439038
481.811333	2548.303269
482.180584	2502.932885
482.549777	2515.535769
482.918912	2475.206538
483.287988	2510.494615
483.657005	2442.439038
484.025964	2540.741538
484.394864	2533.179808
484.763706	2492.850577
485.132489	2490.330000
485.501213	2490.330000
485.869879	2485.288846
486.238487	2455.041923
486.607036	2434.877308
486.975527	2550.823846
487.343959	2480.247692
487.712333	2487.809423
488.080648	2447.480192
488.448905	2518.056346
488.817104	2439.918462
489.185244	2520.576923
489.553326	2351.698269
489.921350	2533.179808
490.289315	2437.397885
490.657222	2560.906154
491.025070	2535.700385
491.392861	2485.288846
491.760593	2500.412308
492.128267	2523.097500
492.495883	2535.700385
492.863440	2528.138654
493.230939	2437.397885
493.598380	2485.288846
493.965763	2480.247692
494.333088	2462.603654
494.700354	2472.685962
495.067563	2543.262115
495.434713	2472.685962
495.801805	2505.453462
496.168839	2530.659231
496.535815	2550.823846
496.902733	2581.070769
497.269593	2460.083077
497.636395	2502.932885
498.003139	2525.618077
498.369825	2581.070769
498.736453	2576.029615
499.103023	2540.741538
499.469535	2505.453462
499.835989	2558.385577
500.202385	2520.576923
500.568723	2467.644808
500.935003	2490.330000
501.301226	2472.685962
501.667390	2427.315577
502.033497	2500.412308
502.399546	2432.356731
502.765537	2530.659231
503.131470	2525.618077
503.497345	2507.974038
503.863163	2530.659231
504.228923	2515.535769
504.594625	2434.877308
504.960269	2513.015192
505.325856	2538.220962
505.691385	2465.124231
506.056856	2482.768269
506.422270	2467.644808
506.787625	2510.494615
507.152924	2442.439038
507.518164	2482.768269
507.883347	2475.206538
508.248472	2497.891731
508.613540	2495.371154
508.978550	2540.741538
509.343503	2475.206538
509.708398	2507.974038
510.073236	2487.809423
510.438016	2528.138654
510.802738	2591.153077
511.167403	2422.274423
511.532010	2543.262115
511.896561	2457.562500
512.261053	2538.220962
512.625488	2404.630385
512.989866	2434.877308
513.354186	2505.453462
513.718449	2497.891731
514.082655	2507.974038
514.446803	2447.480192
514.810894	2533.179808
515.174927	2538.220962
515.538904	2472.685962
515.902822	2502.932885
516.266684	2472.685962
516.630488	2429.836154
516.994235	2492.850577
517.357925	2444.959615
517.721558	2555.865000
518.085133	2480.247692
518.448651	2576.029615
518.812112	2500.412308
519.175516	2502.932885
519.538863	2623.920577
519.902152	2550.823846
520.265385	2533.179808
520.628560	2520.576923
520.991678	2485.288846
521.354739	2414.712692
521.717743	2525.618077
522.080690	2515.535769
522.443580	2525.618077
522.806413	2502.932885
523.169189	2437.397885
523.531908	2523.097500
523.894569	2447.480192
524.257174	2472.685962
524.619722	2535.700385
524.982213	2548.303269
525.344647	2520.576923
525.707025	2442.439038
526.069345	2576.029615
526.431608	2497.891731
526.793815	2553.344423
527.155964	2535.700385
527.518057	2480.247692
527.880093	2497.891731
528.242072	2397.068654
528.603995	2455.041923
528.965860	2502.932885
529.327669	2470.165385
529.689421	2563.426731
530.051117	2376.904038
530.412755	2507.974038
530.774337	2500.412308
531.135862	2525.618077
531.497331	2530.659231
531.858743	2482.768269
532.220098	2442.439038
532.581396	2530.659231
532.942638	2467.644808
533.303824	2515.535769
533.664953	2419.753846
534.026025	2495.371154
534.387040	2570.988462
534.747999	2477.727115
535.108902	2457.562500
535.469748	2581.070769
535.830537	2502.932885
536.191270	2414.712692
536.551947	2492.850577
536.912567	2442.439038
537.273131	2540.741538
537.633638	2530.659231
537.994089	2533.179808
538.354483	2510.494615
538.714821	2505.453462
539.075103	2444.959615
539.435328	2480.247692
539.795497	2525.618077
540.155609	2560.906154
540.515665	2437.397885
540.875665	2502.932885
541.235609	2470.165385
541.595496	2568.467885
541.955328	2515.535769
542.315102	2442.439038
542.674821	2480.247692
543.034483	2465.124231
543.394090	2397.068654
543.753640	2523.097500
544.113134	2535.700385
544.472571	2505.453462
544.831953	2528.138654
545.191278	2543.262115
545.550548	2424.795000
545.909761	2447.480192
546.268918	2538.220962
546.628019	2523.097500
546.987064	2510.494615
547.346053	2477.727115
547.704986	2507.974038
548.063863	2513.015192
548.422684	2470.165385
548.781449	2429.836154
549.140158	2507.974038
549.498811	2417.233269
549.857408	2439.918462
550.215949	2455.041923
550.574434	2490.330000
550.932864	2507.974038
551.291237	2593.673654
551.649555	2555.865000
552.007817	2427.315577
552.366022	2495.371154
552.724173	2543.262115
553.082267	2530.659231
553.440305	2457.562500
553.798288	2518.056346
554.156215	2452.521346
554.514086	2520.576923
554.871902	2490.330000
555.229661	2507.974038
555.587365	2472.685962
555.945014	2535.700385
556.302606	2450.000769
556.660143	2601.235385
557.017625	2472.685962
557.375050	2520.576923
557.732421	2568.467885
558.089735	2475.206538
558.446994	2409.671538
558.804197	2450.000769
559.161345	2480.247692
559.518437	2442.439038
559.875474	2507.974038
560.232455	2530.659231
560.589381	2550.823846
560.946251	2470.165385
561.303065	2505.453462
561.659825	2432.356731
562.016528	2404.630385
562.373177	2510.494615
562.729770	2429.836154
563.086307	2462.603654
563.442789	2535.700385
563.799216	2482.768269
564.155587	2500.412308
564.511904	2576.029615
564.868164	2439.918462
565.224370	2507.974038
565.580520	2439.918462
565.936615	2520.576923
566.292654	2487.809423
566.648638	2540.741538
567.004567	2422.274423
567.360441	2545.782692
567.716260	2480.247692
568.072023	2548.303269
568.427732	2465.124231
568.783385	2510.494615
569.138982	2502.932885
569.494525	2485.288846
569.850013	2402.109808
570.205445	2482.768269
570.560823	2535.700385
570.916145	2470.165385
571.271412	2513.015192
571.626625	2424.795000
571.981782	2515.535769
572.336884	2447.480192
572.691931	2515.535769
573.046923	2490.330000
573.401860	2442.439038
573.756743	2417.233269
574.111570	2467.644808
574.466342	2487.809423
574.821059	2485.288846
575.175722	2515.535769
575.530330	2437.397885
575.884882	2502.932885
576.239380	2507.974038
576.593823	2538.220962
576.948211	2452.521346
577.302544	2447.480192
577.656823	2515.535769
578.011047	2427.315577
578.365216	2548.303269
578.719330	2495.371154
579.073389	2578.550192
579.427394	2477.727115
579.781344	2392.027500
580.135239	2543.262115
580.489080	2548.303269
580.842866	2593.673654
581.196597	2462.603654
581.550273	2505.453462
581.903895	2460.083077
582.257463	2533.179808
582.610975	2455.041923
582.964434	2465.124231
583.317837	2497.891731
583.671186	2540.741538
584.024481	2586.111923
584.377721	2558.385577
584.730906	2518.056346
585.084037	2538.220962
585.437113	2455.041923
585.790135	2543.262115
586.143103	2518.056346
586.496016	2558.385577
586.848874	2528.138654
587.201679	2507.974038
587.554428	2530.659231
587.907124	2593.673654
588.259765	2528.138654
588.612352	2477.727115
588.964884	2558.385577
589.317362	2535.700385
589.669786	2545.782692
590.022155	2518.056346
590.374470	2437.397885
590.726731	2482.768269
591.078937	2452.521346
591.431090	2482.768269
591.783188	2407.150962
592.135232	2518.056346
592.487222	2520.576923
592.839157	2515.535769
593.191038	2444.959615
593.542866	2482.768269
593.894639	2507.974038
594.246358	2394.548077
594.598022	2442.439038
594.949633	2507.974038
595.301190	2530.659231
595.652692	2553.344423
596.004141	2518.056346
596.355535	2540.741538
596.706876	2492.850577
597.058162	2515.535769
597.409395	2535.700385
597.760573	2477.727115
598.111698	2525.618077
598.462768	2520.576923
598.813785	2513.015192
599.164748	2533.179808
599.515657	2523.097500
599.866511	2492.850577
600.217312	2555.865000
600.568060	2465.124231
600.918753	2515.535769
601.269392	2424.795000
601.619978	2475.206538
601.970510	2558.385577
602.320988	2457.562500
602.671412	2548.303269
603.021783	2492.850577
603.372100	2477.727115
603.722363	2518.056346
604.072572	2447.480192
604.422728	2497.891731
604.772830	2424.795000
605.122878	2432.356731
605.472872	2502.932885
605.822813	2497.891731
606.172701	2523.097500
606.522534	2513.015192
606.872314	2439.918462
607.222041	2515.535769
607.571714	2477.727115
607.921333	2500.412308
608.270899	2490.330000
608.620411	2460.083077
608.969870	2457.562500
609.319276	2507.974038
609.668627	2495.371154
610.017926	2525.618077
610.367171	2515.535769
610.716362	2543.262115
611.065500	2437.397885
611.414585	2518.056346
611.763616	2442.439038
612.112594	2538.220962
612.461518	2565.947308
612.810389	2523.097500
613.159207	2533.179808
613.507971	2505.453462
613.856682	2467.644808
614.205340	2548.303269
614.553945	2560.906154
614.902496	2530.659231
615.250994	2472.685962
615.599439	2447.480192
615.947830	2361.780577
616.296169	2550.823846
616.644454	2520.576923
616.992686	2530.659231
617.340864	2472.685962
617.688990	2465.124231
618.037063	2535.700385
618.385082	2540.741538
618.733048	2485.288846
619.080961	2535.700385
619.428821	2437.397885
619.776628	2427.315577
620.124382	2576.029615
620.472083	2477.727115
620.819731	2502.932885
621.167326	2558.385577
621.514868	2442.439038
621.862357	2502.932885
622.209793	2513.015192
622.557176	2490.330000
622.904506	2573.509038
623.251783	2439.918462
623.599007	2505.453462
623.946179	2545.782692
624.293297	2450.000769
624.640363	2505.453462
624.987376	2495.371154
625.334336	2502.932885
625.681243	2492.850577
626.028097	2535.700385
626.374899	2518.056346
626.721647	2538.220962
627.068343	2480.247692
627.414987	2495.371154
627.761577	2538.220962
628.108115	2568.467885
628.454600	2523.097500
628.801032	2525.618077
629.147412	2533.179808
629.493739	2568.467885
629.840014	2482.768269
630.186236	2475.206538
630.532405	2518.056346
630.878521	2535.700385
631.224585	2553.344423
631.570597	2480.247692
631.916556	2518.056346
632.262462	2477.727115
632.608316	2528.138654
632.954117	2455.041923
633.299866	2480.247692
633.645562	2487.809423
633.991206	2462.603654
634.336797	2422.274423
634.682336	2523.097500
635.027823	2555.865000
635.373257	2487.809423
635.718639	2570.988462
636.063968	2490.330000
636.409245	2495.371154
636.754470	2371.862885
637.099642	2523.097500
637.444762	2490.330000
637.789829	2450.000769
638.134845	2497.891731
638.479808	2409.671538
638.824719	2450.000769
639.169577	2490.330000
639.514383	2465.124231
639.859137	2402.109808
640.203839	2530.659231
640.548489	2505.453462
640.893086	2530.659231
641.237632	2558.385577
641.582125	2470.165385
641.926566	2525.618077
642.270955	2492.850577
642.615292	2550.823846
642.959576	2492.850577
643.303809	2545.782692
643.647990	2523.097500
643.992118	2606.276538
644.336195	2495.371154
644.680219	2495.371154
645.024192	2462.603654
645.368112	2465.124231
645.711981	2482.768269
646.055797	2467.644808
646.399562	2518.056346
646.743274	2480.247692
647.086935	2472.685962
647.430544	2465.124231
647.774101	2507.974038
648.117606	2477.727115
648.461059	2475.206538
648.804460	2439.918462
649.147810	2523.097500
649.491108	2432.356731
649.834354	2482.768269
650.177548	2528.138654
650.520690	2510.494615
650.863781	2520.576923
651.206820	2485.288846
651.549807	2550.823846
651.892742	2447.480192
652.235626	2530.659231
652.578458	2470.165385
652.921238	2608.797115
653.263967	2570.988462
653.606644	2553.344423
653.949269	2495.371154
654.291843	2475.206538
654.634365	2543.262115
654.976836	2545.782692
655.319255	2439.918462
655.661622	2563.426731
656.003938	2467.644808
656.346203	2470.165385
656.688416	2462.603654
657.030577	2500.412308
657.372687	2465.124231
657.714746	2523.097500
658.056753	2485.288846
658.398708	2424.795000
658.740612	2424.795000
659.082465	2528.138654
659.424266	2520.576923
659.766016	2442.439038
660.107715	2548.303269
660.449362	2467.644808
660.790958	2518.056346
661.132503	2475.206538
661.473996	2475.206538
661.815438	2492.850577
662.156829	2457.562500
662.498168	2518.056346
662.839456	2523.097500
663.180693	2457.562500
663.521879	2515.535769
663.863013	2487.809423
664.204097	2437.397885
664.545129	2510.494615
664.886110	2513.015192
665.227040	2507.974038
665.567918	2523.097500
665.908746	2457.562500
666.249522	2540.741538
666.590248	2455.041923
666.930922	2492.850577
667.271545	2510.494615
667.612118	2518.056346
667.952639	2490.330000
668.293109	2472.685962
668.633528	2505.453462
668.973896	2444.959615
669.314213	2452.521346
669.654480	2434.877308
669.994695	2495.371154
670.334859	2507.974038
670.674973	2487.809423
671.015035	2465.124231
671.355047	2492.850577
671.695008	2427.315577
672.034918	2462.603654
672.374777	2482.768269
672.714585	2467.644808
673.054342	2485.288846
673.394049	2492.850577
673.733705	2550.823846
674.073310	2490.330000
674.412864	2553.344423
674.752368	2518.056346
675.091820	2444.959615
675.431223	2545.782692
675.770574	2606.276538
676.109875	2444.959615
676.449125	2492.850577
676.788324	2487.809423
677.127473	2608.797115
677.466571	2477.727115
677.805619	2502.932885
678.144616	2485.288846
678.483562	2528.138654
678.822458	2472.685962
679.161303	2437.397885
679.500098	2530.659231
679.838842	2528.138654
680.177535	2457.562500
680.516179	2500.412308
680.854771	2528.138654
681.193314	2540.741538
681.531805	2452.521346
681.870247	2447.480192
682.208638	2550.823846
682.546978	2543.262115
682.885268	2530.659231
683.223508	2525.618077
683.561697	2558.385577
683.899836	2560.906154
684.237925	2495.371154
684.575963	2596.194231
684.913951	2513.015192
685.251889	2502.932885
685.589776	2465.124231
685.927614	2528.138654
686.265401	2417.233269
686.603137	2535.700385
686.940824	2490.330000
687.278460	2432.356731
687.616046	2588.632500
687.953582	2558.385577
688.291068	2518.056346
688.628504	2540.741538
688.965889	2465.124231
689.303224	2487.809423
689.640510	2457.562500
689.977745	2538.220962
690.314930	2429.836154
690.652065	2513.015192
690.989150	2452.521346
691.326185	2437.397885
691.663170	2497.891731
692.000105	2535.700385
692.336990	2565.947308
692.673825	2500.412308
693.010610	2467.644808
693.347345	2523.097500
693.684030	2462.603654
694.020665	2528.138654
694.357251	2570.988462
694.693786	2452.521346
695.030272	2545.782692
695.366707	2530.659231
695.703093	2533.179808
696.039429	2429.836154
696.375716	2424.795000
696.711952	2548.303269
697.048139	2530.659231
697.384276	2455.041923
697.720363	2470.165385
698.056400	2472.685962
698.392388	2523.097500
698.728326	2500.412308
699.064214	2593.673654
699.400053	2520.576923
699.735842	2535.700385
700.071581	2500.412308
700.407270	2394.548077
700.742910	2429.836154
701.078501	2525.618077
701.414042	2477.727115
701.749533	2485.288846
702.084974	2467.644808
702.420366	2485.288846
702.755709	2558.385577
703.091002	2457.562500
703.426246	2533.179808
703.761440	2513.015192
704.096584	2462.603654
704.431679	2507.974038
704.766725	2447.480192
705.101721	2460.083077
705.436668	2535.700385
705.771565	2480.247692
706.106413	2528.138654
706.441212	2447.480192
706.775961	2424.795000
707.110661	2513.015192
707.445311	2495.371154
707.779913	2563.426731
708.114465	2432.356731
708.448967	2523.097500
708.783421	2475.206538
709.117825	2402.109808
709.452180	2535.700385
709.786485	2505.453462
710.120742	2555.865000
710.454949	2447.480192
710.789107	2520.576923
711.123216	2603.755962
711.457275	2472.685962
711.791286	2513.015192
712.125247	2452.521346
712.459159	2455.041923
712.793023	2475.206538
713.126837	2460.083077
713.460602	2510.494615
713.794318	2465.124231
714.127985	2502.932885
714.461602	2553.344423
714.795171	2525.618077
715.128691	2520.576923
715.462162	2507.974038
715.795584	2480.247692
716.128957	2530.659231
716.462281	2447.480192
716.795556	2500.412308
717.128782	2477.727115
717.461960	2510.494615
717.795088	2555.865000
718.128167	2422.274423
718.461198	2591.153077
718.794180	2523.097500
719.127113	2485.288846
719.459997	2548.303269
719.792833	2460.083077
720.125619	2510.494615
720.458357	2424.795000
720.791046	2442.439038
721.123686	2497.891731
721.456278	2505.453462
721.788821	2515.535769
722.121315	2477.727115
722.453761	2404.630385
722.786158	2533.179808
723.118506	2492.850577
723.450805	2528.138654
723.783056	2487.809423
724.115259	2477.727115
724.447412	2439.918462
724.779518	2419.753846
725.111574	2513.015192
725.443582	2563.426731
725.775542	2457.562500
726.107453	2490.330000
726.439315	2409.671538
726.771129	2490.330000
727.102895	2475.206538
727.434612	2482.768269
727.766281	2444.959615
728.097901	2525.618077
728.429473	2591.153077
728.760996	2417.233269
729.092471	2621.400000
729.423897	2507.974038
729.755276	2528.138654
730.086606	2520.576923
730.417887	2502.932885
730.749120	2465.124231
731.080305	2422.274423
731.411442	2432.356731
731.742530	2429.836154
732.073570	2429.836154
732.404562	2523.097500
732.735506	2515.535769
733.066401	2510.494615
733.397249	2444.959615
733.728048	2505.453462
734.058798	2560.906154
734.389501	2482.768269
734.720156	2424.795000
735.050762	2502.932885
735.381320	2588.632500
735.711831	2455.041923
736.042293	2555.865000
736.372707	2492.850577
736.703073	2480.247692
737.033391	2376.904038
737.363661	2477.727115
737.693883	2452.521346
738.024056	2434.877308
738.354182	2495.371154
738.684260	2528.138654
739.014290	2502.932885
739.344272	2525.618077
739.674207	2497.891731
740.004093	2442.439038
740.333931	2467.644808
740.663722	2490.330000
740.993464	2497.891731
741.323159	2477.727115
741.652806	2460.083077
741.982405	2447.480192
742.311956	2515.535769
742.641460	2462.603654
742.970915	2437.397885
743.300323	2550.823846
743.629683	2563.426731
743.958996	2513.015192
744.288260	2515.535769
744.617477	2502.932885
744.946647	2455.041923
745.275768	2555.865000
745.604842	2475.206538
745.933869	2553.344423
746.262847	2450.000769
746.591778	2497.891731
746.920662	2518.056346
747.249498	2528.138654
747.578286	2434.877308
747.907027	2470.165385
748.235720	2563.426731
748.564365	2457.562500
748.892963	2528.138654
749.221514	2457.562500
749.550017	2424.795000
749.878473	2495.371154
750.206881	2467.644808
750.535242	2533.179808
750.863555	2477.727115
751.191821	2523.097500
751.520039	2492.850577
751.848210	2558.385577
752.176334	2470.165385
752.504411	2518.056346
752.832440	2460.083077
753.160421	2510.494615
753.488356	2472.685962
753.816243	2495.371154
754.144082	2513.015192
754.471875	2470.165385
754.799620	2535.700385
755.127318	2460.083077
755.454969	2502.932885
755.782572	2475.206538
756.110129	2581.070769
756.437638	2523.097500
756.765100	2424.795000
757.092515	2505.453462
757.419882	2548.303269
757.747203	2490.330000
758.074477	2505.453462
758.401703	2472.685962
758.728882	2477.727115
759.056014	2477.727115
759.383099	2444.959615
759.710138	2492.850577
760.037129	2419.753846
760.364073	2487.809423
760.690970	2543.262115
761.017820	2492.850577
761.344623	2565.947308
761.671379	2525.618077
761.998088	2437.397885
762.324751	2444.959615
762.651366	2576.029615
762.977935	2528.138654
763.304456	2538.220962
763.630931	2507.974038
763.957359	2507.974038
764.283740	2523.097500
764.610074	2452.521346
764.936362	2392.027500
765.262602	2497.891731
765.588796	2502.932885
765.914943	2550.823846
766.241044	2455.041923
766.567097	2530.659231
766.893104	2462.603654
767.219064	2510.494615
767.544978	2475.206538
767.870845	2457.562500
768.196665	2465.124231
768.522438	2475.206538
768.848165	2429.836154
769.173846	2563.426731
769.499479	2487.809423
769.825066	2427.315577
770.150607	2457.562500
770.476101	2505.453462
770.801548	2485.288846
771.126949	2497.891731
771.452303	2543.262115
771.777611	2563.426731
772.102872	2523.097500
772.428087	2573.509038
772.753256	2427.315577
773.078378	2535.700385
773.403453	2475.206538
773.728482	2555.865000
774.053465	2515.535769
774.378401	2452.521346
774.703291	2523.097500
775.028135	2422.274423
775.352932	2543.262115
775.677683	2457.562500
776.002388	2419.753846
776.327046	2560.906154
776.651658	2465.124231
776.976224	2490.330000
777.300743	2553.344423
777.625216	2444.959615
777.949643	2465.124231
778.274024	2578.550192
778.598359	2480.247692
778.922647	2500.412308
779.246889	2492.850577
779.571086	2568.467885
779.895236	2442.439038
780.219339	2520.576923
780.543397	2581.070769
780.867409	2515.535769
781.191374	2528.138654
781.515294	2520.576923
781.839167	2550.823846
782.162995	2530.659231
782.486776	2548.303269
782.810511	2533.179808
783.134201	2525.618077
783.457844	2455.041923
783.781441	2485.288846
784.104993	2407.150962
784.428498	2545.782692
784.751958	2568.467885
785.075372	2442.439038
785.398739	2573.509038
785.722061	2513.015192
786.045337	2513.015192
786.368568	2523.097500
786.691752	2510.494615
787.014891	2465.124231
787.337983	2414.712692
787.661030	2540.741538
787.984031	2470.165385
788.306987	2500.412308
788.629897	2548.303269
788.952760	2472.685962
789.275579	2490.330000
789.598351	2540.741538
789.921078	2535.700385
790.243759	2513.015192
790.566395	2515.535769
790.888984	2540.741538
791.211529	2455.041923
791.534027	2548.303269
791.856480	2535.700385
792.178888	2341.615962
792.501249	2500.412308
792.823566	2492.850577
793.145836	2437.397885
793.468062	2518.056346
793.790241	2545.782692
794.112375	2439.918462
794.434464	2480.247692
794.756507	2528.138654
795.078505	2533.179808
795.400457	2553.344423
795.722364	2470.165385
796.044226	2384.465769
796.366042	2356.739423
796.687812	2480.247692
797.009538	2470.165385
797.331218	2525.618077
797.652852	2543.262115
797.974442	2492.850577
798.295986	2480.247692
798.617484	2515.535769
798.938938	2513.015192
799.260346	2520.576923
799.581709	2510.494615
799.903026	2480.247692
800.224299	2462.603654
800.545526	2379.424615
800.866708	2470.165385
801.187845	2470.165385
801.508936	2460.083077
801.829983	2505.453462
802.150984	2525.618077
802.471940	2455.041923
802.792851	2480.247692
803.113717	2399.589231
803.434538	2442.439038
803.755314	2548.303269
804.076045	2472.685962
804.396731	2485.288846
804.717372	2515.535769
805.037967	2495.371154
805.358518	2523.097500
805.679024	2450.000769
805.999485	2477.727115
806.319901	2588.632500
806.640272	2442.439038
806.960598	2596.194231
807.280879	2545.782692
807.601115	2457.562500
807.921306	2518.056346
808.241453	2444.959615
808.561554	2518.056346
808.881611	2513.015192
809.201623	2492.850577
809.521590	2412.192115
809.841513	2502.932885
810.161390	2492.850577
810.481223	2460.083077
810.801011	2460.083077
811.120755	2495.371154
811.440453	2601.235385
811.760107	2485.288846
812.079716	2560.906154
812.399281	2480.247692
812.718801	2563.426731
813.038276	2555.865000
813.357707	2523.097500
813.677093	2515.535769
813.996434	2465.124231
814.315731	2495.371154
814.634983	2513.015192
814.954191	2455.041923
815.273354	2457.562500
815.592473	2487.809423
815.911547	2553.344423
816.230577	2460.083077
816.549562	2523.097500
816.868502	2457.562500
817.187399	2538.220962
817.506250	2465.124231
817.825058	2555.865000
818.143821	2439.918462
818.462539	2467.644808
818.781213	2442.439038
819.099843	2462.603654
819.418429	2487.809423
819.736970	2500.412308
820.055466	2482.768269
820.373919	2475.206538
820.692327	2439.918462
821.010691	2538.220962
821.329011	2560.906154
821.647286	2460.083077
821.965517	2467.644808
822.283704	2545.782692
822.601847	2422.274423
822.919945	2490.330000
823.237999	2419.753846
823.556010	2472.685962
823.873976	2482.768269
824.191897	2470.165385
824.509775	2490.330000
824.827609	2545.782692
825.145398	2570.988462
825.463144	2515.535769
825.780845	2540.741538
826.098502	2475.206538
826.416116	2518.056346
826.733685	2525.618077
827.051210	2457.562500
827.368692	2495.371154
827.686129	2487.809423
828.003522	2482.768269
828.320872	2482.768269
828.638177	2447.480192
828.955439	2447.480192
829.272656	2472.685962
829.589830	2475.206538
829.906960	2450.000769
830.224046	2452.521346
830.541088	2457.562500
830.858086	2576.029615
831.175041	2528.138654
831.491952	2505.453462
831.808819	2369.342308
832.125642	2467.644808
832.442421	2472.685962
832.759157	2432.356731
833.075849	2502.932885
833.392497	2475.206538
833.709101	2513.015192
834.025662	2434.877308
834.342179	2475.206538
834.658653	2455.041923
834.975083	2482.768269
835.291469	2490.330000
835.607811	2457.562500
835.924110	2533.179808
836.240366	2568.467885
836.556578	2475.206538
836.872746	2560.906154
837.188871	2538.220962
837.504952	2364.301154
837.820990	2502.932885
838.136984	2593.673654
838.452935	2505.453462
838.768842	2402.109808
839.084706	2518.056346
839.400526	2570.988462
839.716303	2535.700385
840.032037	2412.192115
840.347727	2500.412308
840.663373	2528.138654
840.978977	2530.659231
841.294537	2507.974038
841.610054	2490.330000
841.925527	2530.659231
842.240957	2412.192115
842.556344	2525.618077
842.871687	2487.809423
843.186987	2510.494615
843.502244	2555.865000
843.817458	2596.194231
844.132629	2507.974038
844.447756	2427.315577
844.762840	2455.041923
845.077881	2472.685962
845.392879	2548.303269
845.707833	2538.220962
846.022745	2513.015192
846.337613	2412.192115
846.652438	2450.000769
846.967221	2422.274423
847.281960	2477.727115
847.596656	2576.029615
847.911309	2424.795000
848.225919	2530.659231
848.540485	2480.247692
848.855009	2477.727115
849.169490	2492.850577
849.483928	2502.932885
849.798323	2429.836154
850.112675	2565.947308
850.426984	2558.385577
850.741251	2495.371154
851.055474	2591.153077
851.369654	2565.947308
851.683792	2507.974038
851.997887	2523.097500
852.311938	2397.068654
852.625947	2525.618077
852.939914	2487.809423
853.253837	2513.015192
853.567718	2581.070769
853.881555	2528.138654
854.195350	2543.262115
854.509103	2523.097500
854.822812	2460.083077
855.136479	2500.412308
855.450103	2513.015192
855.763685	2525.618077
856.077224	2525.618077
856.390720	2515.535769
856.704173	2399.589231
857.017584	2510.494615
857.330953	2523.097500
857.644278	2553.344423
857.957561	2502.932885
858.270802	2444.959615
858.584000	2444.959615
858.897155	2505.453462
859.210268	2495.371154
859.523339	2525.618077
859.836367	2482.768269
860.149352	2502.932885
860.462295	2482.768269
860.775195	2467.644808
861.088054	2437.397885
861.400869	2475.206538
861.713642	2540.741538
862.026373	2525.618077
862.339062	2518.056346
862.651708	2523.097500
862.964312	2513.015192
863.276873	2540.741538
863.589392	2533.179808
863.901869	2442.439038
864.214303	2480.247692
864.526696	2475.206538
864.839045	2535.700385
865.151353	2520.576923
865.463619	2500.412308
865.775842	2520.576923
866.088023	2497.891731
866.400162	2518.056346
866.712258	2581.070769
867.024313	2500.412308
867.336325	2359.260000
867.648296	2472.685962
867.960224	2472.685962
868.272110	2450.000769
868.583954	2520.576923
868.895755	2545.782692
869.207515	2475.206538
869.519233	2495.371154
869.830909	2530.659231
870.142542	2399.589231
870.454134	2497.891731
870.765684	2538.220962
871.077191	2507.974038
871.388657	2500.412308
871.700081	2389.506923
872.011463	2538.220962
872.322803	2442.439038
872.634101	2482.768269
872.945357	2439.918462
873.256571	2591.153077
873.567744	2497.891731
873.878874	2530.659231
874.189963	2490.330000
874.501010	2565.947308
874.812015	2545.782692
875.122979	2538.220962
875.433900	2485.288846
875.744780	2480.247692
876.055618	2482.768269
876.366415	2523.097500
876.677169	2462.603654
876.987882	2533.179808
877.298554	2455.041923
877.609183	2450.000769
877.919771	2470.165385
878.230317	2540.741538
878.540822	2510.494615
878.851285	2538.220962
879.161707	2444.959615
879.472087	2485.288846
879.782425	2581.070769
880.092722	2465.124231
880.402977	2513.015192
880.713191	2467.644808
881.023363	2558.385577
881.333494	2495.371154
881.643583	2513.015192
881.953631	2520.576923
882.263637	2548.303269
882.573602	2502.932885
882.883526	2452.521346
883.193408	2399.589231
883.503248	2505.453462
883.813048	2528.138654
884.122806	2419.753846
884.432522	2424.795000
884.742197	2475.206538
885.051831	2482.768269
885.361424	2487.809423
885.670975	2500.412308
885.980485	2523.097500
886.289954	2533.179808
886.599382	2560.906154
886.908768	2467.644808
887.218113	2520.576923
887.527417	2530.659231
887.836680	2576.029615
888.145901	2439.918462
888.455082	2502.932885
888.764221	2460.083077
889.073319	2495.371154
889.382376	2538.220962
889.691392	2495.371154
890.000366	2450.000769
890.309300	2581.070769
890.618193	2513.015192
890.927044	2477.727115
891.235855	2417.233269
891.544625	2475.206538
891.853353	2495.371154
892.162041	2545.782692
892.470687	2492.850577
892.779293	2457.562500
893.087858	2452.521346
893.396381	2467.644808
893.704864	2492.850577
894.013306	2525.618077
894.321707	2507.974038
894.630068	2565.947308
894.938387	2437.397885
895.246665	2545.782692
895.554903	2543.262115
895.863100	2442.439038
896.171256	2543.262115
896.479371	2452.521346
896.787446	2472.685962
897.095480	2450.000769
897.403473	2560.906154
897.711425	2399.589231
898.019336	2470.165385
898.327207	2460.083077
898.635038	2485.288846
898.942827	2475.206538
899.250576	2510.494615
899.558284	2535.700385
899.865952	2419.753846
900.173579	2523.097500
900.481165	2472.685962
900.788711	2570.988462
901.096216	2427.315577
901.403681	2540.741538
901.711105	2455.041923
902.018489	2414.712692
902.325832	2500.412308
902.633135	2563.426731
902.940397	2480.247692
903.247619	2447.480192
903.554800	2467.644808
903.861941	2525.618077
904.169041	2465.124231
904.476101	2485.288846
904.783121	2457.562500
905.090100	2588.632500
905.397039	2502.932885
905.703938	2543.262115
906.010796	2477.727115
906.317614	2497.891731
906.624391	2593.673654
906.931129	2434.877308
907.237826	2439.918462
907.544483	2507.974038
907.851099	2523.097500
908.157675	2495.371154
908.464211	2482.768269
908.770707	2535.700385
909.077163	2477.727115
909.383578	2490.330000
909.689954	2472.685962
909.996289	2500.412308
910.302584	2422.274423
910.608839	2472.685962
910.915054	2465.124231
911.221229	2444.959615
911.527363	2434.877308
911.833458	2565.947308
912.139513	2460.083077
912.445527	2513.015192
912.751502	2548.303269
913.057436	2523.097500
913.363331	2538.220962
913.669186	2525.618077
913.975000	2409.671538
914.280775	2381.945192
914.586510	2550.823846
914.892205	2533.179808
915.197859	2452.521346
915.503475	2570.988462
915.809050	2394.548077
916.114585	2475.206538
916.420081	2510.494615
916.725536	2460.083077
917.030952	2495.371154
917.336328	2447.480192
917.641665	2492.850577
917.946961	2520.576923
918.252218	2550.823846
918.557435	2467.644808
918.862612	2513.015192
919.167750	2470.165385
919.472848	2475.206538
919.777906	2495.371154
920.082925	2462.603654
920.387904	2535.700385
920.692843	2434.877308
920.997743	2502.932885
921.302603	2482.768269
921.607423	2545.782692
921.912204	2518.056346
922.216946	2477.727115
922.521647	2480.247692
922.826310	2409.671538
923.130932	2538.220962
923.435516	2442.439038
923.740059	2437.397885
924.044564	2450.000769
924.349028	2455.041923
924.653454	2533.179808
924.957840	2460.083077
925.262186	2482.768269
925.566493	2555.865000
925.870761	2477.727115
926.174989	2515.535769
926.479178	2480.247692
926.783328	2465.124231
927.087438	2437.397885
927.391509	2507.974038
927.695541	2437.397885
927.999533	2540.741538
928.303486	2538.220962
928.607400	2492.850577
928.911275	2472.685962
929.215110	2462.603654
929.518906	2510.494615
929.822663	2548.303269
930.126381	2565.947308
930.430060	2530.659231
930.733699	2470.165385
931.037299	2450.000769
931.340861	2502.932885
931.644383	2578.550192
931.947866	2450.000769
932.251309	2409.671538
932.554714	2520.576923
932.858080	2480.247692
933.161407	2492.850577
933.464694	2535.700385
933.767943	2565.947308
934.071153	2450.000769
934.374323	2434.877308
934.677455	2550.823846
934.980548	2447.480192
935.283602	2513.015192
935.586617	2424.795000
935.889593	2492.850577
936.192530	2424.795000
936.495428	2593.673654
936.798287	2480.247692
937.101108	2427.315577
937.403890	2500.412308
937.706632	2492.850577
938.009336	2455.041923
938.312002	2490.330000
938.614628	2548.303269
938.917216	2465.124231
939.219765	2460.083077
939.522275	2477.727115
939.824747	2475.206538
940.127179	2523.097500
940.429573	2502.932885
940.731929	2505.453462
941.034246	2518.056346
941.336524	2402.109808
941.638763	2550.823846
941.940964	2419.753846
942.243126	2472.685962
942.545250	2523.097500
942.847335	2550.823846
943.149381	2530.659231
943.451389	2545.782692
943.753359	2495.371154
944.055290	2525.618077
944.357182	2495.371154
944.659036	2485.288846
944.960851	2507.974038
945.262628	2452.521346
945.564367	2528.138654
945.866067	2558.385577
946.167729	2467.644808
946.469352	2447.480192
946.770937	2495.371154
947.072484	2462.603654
947.373992	2497.891731
947.675462	2472.685962
947.976893	2528.138654
948.278286	2472.685962
948.579641	2490.330000
948.880958	2487.809423
949.182236	2515.535769
949.483476	2477.727115
949.784678	2505.453462
950.085841	2429.836154
950.386967	2573.509038
950.688054	2472.685962
950.989103	2518.056346
951.290114	2477.727115
951.591087	2475.206538
951.892021	2570.988462
952.192917	2545.782692
952.493776	2518.056346
952.794596	2412.192115
953.095378	2497.891731
953.396122	2434.877308
953.696828	2502.932885
953.997496	2457.562500
954.298126	2460.083077
954.598718	2472.685962
954.899272	2523.097500
955.199788	2434.877308
955.500266	2528.138654
955.800706	2581.070769
956.101108	2560.906154
956.401472	2525.618077
956.701798	2452.521346
957.002087	2472.685962
957.302337	2520.576923
957.602550	2540.741538
957.902724	2432.356731
958.202861	2450.000769
958.502960	2530.659231
958.803022	2404.630385
959.103045	2545.782692
959.403031	2455.041923
959.702979	2495.371154
960.002889	2515.535769
960.302762	2487.809423
960.602596	2507.974038
960.902393	2482.768269
961.202153	2518.056346
961.501875	2543.262115
961.801559	2422.274423
962.101205	2472.685962
962.400814	2515.535769
962.700385	2523.097500
962.999918	2475.206538
963.299414	2485.288846
963.598873	2475.206538
963.898293	2583.591346
964.197677	2444.959615
964.497022	2548.303269
964.796331	2457.562500
965.095601	2528.138654
965.394835	2530.659231
965.694030	2492.850577
965.993189	2422.274423
966.292309	2507.974038
966.591393	2528.138654
966.890439	2475.206538
967.189447	2444.959615
967.488419	2429.836154
967.787353	2507.974038
968.086249	2422.274423
968.385108	2568.467885
968.683930	2583.591346
968.982714	2540.741538
969.281462	2467.644808
969.580172	2439.918462
969.878844	2497.891731
970.177480	2490.330000
970.476078	2490.330000
970.774639	2477.727115
971.073162	2525.618077
971.371649	2513.015192
971.670098	2394.548077
971.968510	2560.906154
972.266885	2402.109808
972.565223	2543.262115
972.863524	2480.247692
973.161788	2452.521346
973.460014	2480.247692
973.758204	2455.041923
974.056356	2480.247692
974.354471	2515.535769
974.652550	2419.753846
974.950591	2540.741538
975.248595	2513.015192
975.546563	2545.782692
975.844493	2518.056346
976.142386	2525.618077
976.440243	2550.823846
976.738062	2510.494615
977.035845	2477.727115
977.333590	2518.056346
977.631299	2472.685962
977.928971	2555.865000
978.226606	2545.782692
978.524204	2412.192115
978.821765	2497.891731
979.119290	2510.494615
979.416777	2487.809423
979.714228	2457.562500
980.011642	2515.535769
980.309020	2462.603654
980.606360	2424.795000
980.903664	2553.344423
981.200931	2563.426731
981.498162	2497.891731
981.795356	2450.000769
982.092513	2442.439038
982.389633	2460.083077
982.686717	2540.741538
982.983764	2543.262115
983.280775	2450.000769
983.577749	2455.041923
983.874686	2419.753846
984.171587	2424.795000
984.468451	2434.877308
984.765279	2485.288846
985.062070	2477.727115
985.358824	2576.029615
985.655543	2613.838269
985.952224	2523.097500
986.248869	2507.974038
986.545478	2543.262115
986.842050	2462.603654
987.138586	2515.535769
987.435086	2500.412308
987.731549	2437.397885
988.027975	2545.782692
988.324366	2505.453462
988.620719	2447.480192
988.917037	2480.247692
989.213318	2417.233269
989.509563	2397.068654
989.805772	2487.809423
990.101944	2644.085192
990.398080	2505.453462
990.694180	2563.426731
990.990244	2568.467885
991.286271	2563.426731
991.582262	2515.535769
991.878217	2507.974038
992.174136	2500.412308
992.470019	2523.097500
992.765865	2505.453462
993.061676	2437.397885
993.357450	2518.056346
993.653188	2475.206538
993.948890	2465.124231
994.244556	2452.521346
994.540186	2497.891731
994.835780	2523.097500
995.131337	2437.397885
995.426859	2533.179808
995.722345	2465.124231
996.017795	2507.974038
996.313208	2530.659231
996.608586	2502.932885
996.903928	2495.371154
997.199234	2442.439038
997.494504	2543.262115
997.789738	2439.918462
998.084936	2520.576923
998.380099	2437.397885
998.675225	2475.206538
998.970316	2470.165385
999.265371	2465.124231
999.560390	2470.165385
999.855373	2502.932885
1000.150320	2497.891731
1000.445232	2444.959615
1000.740108	2513.015192
1001.034948	2475.206538
1001.329752	2419.753846
1001.624521	2472.685962
1001.919254	2563.426731
1002.213951	2470.165385
1002.508613	2528.138654
1002.803239	2444.959615
1003.097829	2490.330000
1003.392384	2465.124231
1003.686903	2475.206538
1003.981386	2497.891731
1004.275834	2392.027500
1004.570246	2495.371154
1004.864623	2492.850577
1005.158964	2472.685962
1005.453270	2538.220962
1005.747540	2434.877308
1006.041775	2502.932885
1006.335974	2495.371154
1006.630138	2525.618077
1006.924266	2492.850577
1007.218359	2376.904038
1007.512416	2424.795000
1007.806438	2523.097500
1008.100425	2417.233269
1008.394376	2570.988462
1008.688292	2457.562500
1008.982172	2543.262115
1009.276017	2419.753846
1009.569827	2507.974038
1009.863602	2505.453462
1010.157341	2427.315577
1010.451045	2419.753846
1010.744714	2570.988462
1011.038347	2397.068654
1011.331945	2513.015192
1011.625508	2457.562500
1011.919036	2545.782692
1012.212528	2540.741538
1012.505986	2507.974038
1012.799408	2455.041923
1013.092795	2528.138654
1013.386147	2407.150962
1013.679464	2545.782692
1013.972745	2467.644808
1014.265992	2467.644808
1014.559204	2457.562500
1014.852380	2462.603654
1015.145521	2573.509038
1015.438628	2492.850577
1015.731699	2497.891731
1016.024736	2457.562500
1016.317737	2429.836154
1016.610703	2480.247692
1016.903635	2460.083077
1017.196531	2583.591346
1017.489393	2457.562500
1017.782219	2434.877308
1018.075011	2500.412308
1018.367768	2495.371154
1018.660490	2475.206538
1018.953177	2475.206538
1019.245829	2475.206538
