Dividing Wavelength (nm)	Counts (n)	Blue Motor Position (mm): 0.000000	Red Motor Position (mm): 25.000000	
326.493990	2128.143261
326.888308	2128.143261
327.282561	2128.143261
327.676750	2094.095308
328.070874	2091.471387
328.464933	2096.976327
328.858929	2099.065885
329.252859	2113.014758
329.646726	2125.058075
330.040528	2135.468057
330.434265	2152.686118
330.827938	2168.051555
331.221547	2189.725996
331.615091	2208.005220
332.008571	2226.266800
332.401986	2247.550551
332.795338	2265.166863
333.188625	2285.008845
333.581847	2303.686320
333.975006	2321.630307
334.368100	2340.602690
334.761129	2357.873683
335.154095	2374.534696
335.546996	2393.156718
335.939833	2407.735735
336.332606	2422.309711
336.725315	2436.220775
337.117960	2447.263423
337.510540	2453.101079
337.903056	2464.058027
338.295508	2472.007926
338.687896	2483.917652
339.080220	2490.080463
339.472480	2496.820486
339.864676	2498.683192
340.256807	2503.323574
340.648875	2509.637619
341.040879	2509.746004
341.432818	2510.812208
341.824694	2515.568537
342.216506	2513.325223
342.608253	2513.320182
342.999937	2514.441839
343.391557	2515.792868
343.783113	2511.873371
344.174605	2512.148114
344.566033	2509.476302
344.957397	2509.491426
345.348697	2506.696106
345.739934	2507.958915
346.131106	2504.344408
346.522215	2499.429283
346.913260	2498.877276
347.304241	2495.648417
347.695159	2495.290495
348.086012	2495.320742
348.476802	2491.076091
348.867528	2490.738333
349.258191	2490.166163
349.648789	2488.820174
350.039324	2488.936121
350.429796	2486.410503
350.820203	2484.890595
351.210548	2484.257930
351.600828	2482.377580
351.991045	2485.296408
352.381198	2480.489668
352.771288	2483.383290
353.161314	2482.753146
353.551276	2480.219966
353.941175	2480.779534
354.331010	2481.220635
354.720782	2479.602425
355.110490	2486.007211
355.500135	2482.609473
355.889717	2483.811788
356.279235	2480.978660
356.668689	2485.659371
357.058080	2483.363125
357.447408	2483.060656
357.836672	2480.754328
358.225873	2483.970584
358.615010	2482.412868
359.004084	2486.468476
359.393095	2487.338075
359.782043	2487.648106
360.170927	2486.695328
360.559748	2491.537356
360.948505	2488.880668
361.337199	2488.558034
361.725830	2489.848570
362.114398	2493.397542
362.502903	2492.348982
362.891344	2491.378560
363.279722	2490.524084
363.668037	2492.003663
364.056289	2494.405773
364.444478	2492.850577
364.832603	2496.759992
365.220665	2496.883500
365.608665	2497.443068
365.996601	2496.591113
366.384474	2497.770743
366.772284	2500.314005
367.160031	2498.665548
367.547715	2501.362565
367.935336	2507.106960
368.322893	2506.408760
368.710388	2510.550068
369.097820	2519.392252
369.485189	2522.318642
369.872495	2527.712676
370.259738	2534.379602
370.646918	2540.555016
371.034035	2550.138249
371.421090	2557.021945
371.808081	2567.439489
372.195010	2579.031622
372.581875	2592.678026
372.968678	2604.892742
373.355418	2613.008999
373.742096	2632.437606
374.128710	2647.553506
374.515262	2661.368788
374.901751	2677.966787
375.288177	2691.661082
375.674540	2712.778475
376.060841	2730.921588
376.447079	2752.356574
376.833254	2771.454985
377.219367	2781.806995
377.605417	2821.306956
377.991404	2832.417659
378.377329	2851.445494
378.763191	2867.761188
379.148991	2908.344998
379.534727	2929.719490
379.920402	2959.850466
380.306013	2973.065851
380.691563	3022.920342
381.077049	3042.880791
381.462474	3060.789490
381.847835	3101.161570
382.233134	3123.413223
382.618371	3122.296608
383.003545	3189.911084
383.388657	3197.480376
383.773706	3230.252917
384.158693	3246.558530
384.543618	3274.065586
384.928480	3308.005154
385.313280	3353.937627
385.698017	3352.755477
386.082692	3409.591966
386.467305	3411.696647
386.851856	3441.015998
387.236344	3466.872076
387.620770	3498.119668
388.005133	3520.041126
388.389435	3551.238306
388.773674	3560.206519
389.157851	3603.779732
389.541965	3617.887401
389.926018	3585.891198
390.310008	3656.104389
390.693936	3671.452182
391.077802	3716.041187
391.461606	3704.174311
391.845348	3767.670164
392.229027	3770.273920
392.612645	3781.006537
392.996200	3857.324565
393.379694	3898.568765
393.763125	3963.513950
394.146494	3929.410544
394.529801	3990.756346
394.913047	4038.990106
395.296230	4003.346627
395.679351	4059.431984
396.062410	4086.800409
396.445408	4063.316193
396.828343	4097.885906
397.211217	4118.874750
397.594028	4043.055796
397.976778	4110.309830
398.359466	4134.618273
398.742092	4168.406607
399.124656	4086.704627
399.507158	4167.907533
399.889598	4191.505174
400.271977	4252.251078
400.654294	4225.117067
401.036549	4233.697111
401.418742	4201.753840
401.800874	4306.725786
402.182944	4322.549968
402.564952	4385.902149
402.946898	4374.970407
403.328783	4374.259604
403.710606	4286.576294
404.092367	4478.939163
404.474067	4439.935756
404.855705	4450.033187
405.237282	4380.051890
405.618797	4488.403930
406.000250	4522.953478
406.381642	4603.039768
406.762972	4567.688677
407.144240	4575.757044
407.525447	4573.725459
407.906593	4632.162514
408.287677	4678.624308
408.668700	4610.679637
409.049661	4655.891225
409.430560	4697.153069
409.811399	4624.729333
410.192176	4786.144558
410.572891	4724.052666
410.953545	4828.270960
411.334138	4712.634453
411.714669	4774.817086
412.095139	4668.461342
412.475547	4815.562212
412.855894	4794.555723
413.236180	4800.169048
413.616405	4757.387296
413.996568	4842.575234
414.376670	4787.271256
414.756711	4742.634359
415.136691	4769.997742
415.516609	4850.348694
415.896466	4887.862440
416.276262	4916.811266
416.655997	4901.541611
417.035670	5082.776133
417.415283	5175.399773
417.794834	5115.614209
418.174324	5074.057457
418.553753	4977.721007
418.933121	5164.168082
419.312428	5231.674173
419.691674	5167.495244
420.070859	5292.788082
420.449983	5205.666861
420.829045	5322.780426
421.208047	5229.282146
421.586988	5299.283608
421.965867	5308.002284
422.344686	5441.600422
422.723444	5299.470131
423.102141	5113.350731
423.480777	5413.407770
423.859352	5181.562584
424.237866	5440.778714
424.616319	5434.958702
424.994712	5542.950300
425.373044	5416.828192
425.751314	5562.618362
426.129524	5362.734091
426.507673	5557.834307
426.885762	5642.755064
427.263789	5571.667233
427.641756	5453.893276
428.019662	5575.400207
428.397508	5582.059572
428.775292	5527.867168
429.153016	5629.025481
429.530679	5552.611671
429.908282	5634.590915
430.285824	5506.056616
430.663305	5780.600375
431.040726	5516.363255
431.418086	5514.041803
431.795385	5617.521568
432.172624	5627.535820
432.549802	5619.918637
432.926920	5629.995903
433.303977	5636.405731
433.680974	5672.770094
434.057910	5687.402043
434.434786	5687.056724
434.811601	5651.022556
435.188355	5881.158791
435.565050	5751.757413
435.941683	5730.055246
436.318257	5927.665956
436.694770	5910.427730
437.071222	5933.402789
437.447614	5858.932344
437.823946	5767.989928
438.200218	5907.241721
438.576429	5767.473210
438.952580	5849.873390
439.328670	5882.585438
439.704700	5785.460047
440.080670	5758.794864
440.456580	5996.633982
440.832429	5868.445001
441.208218	5715.098142
441.583947	5845.185117
441.959616	5826.369010
442.335224	5744.140229
442.710773	5853.568556
443.086261	5855.249781
443.461689	5650.558770
443.837057	5765.292911
444.212365	5881.753647
444.587612	5765.928096
444.962800	5875.888265
445.337927	5830.787582
445.712995	5461.099606
446.088002	5939.447132
446.462949	5763.573878
446.837837	5666.314896
447.212664	5795.809536
447.587431	5869.606987
447.962139	6272.526249
448.336786	6973.448280
448.711374	6734.283339
449.085901	5959.079906
449.460369	5850.732907
449.834776	5755.613896
450.209124	6013.549573
450.583412	6064.533283
450.957640	6138.986084
451.331808	5912.471918
451.705917	5535.784300
452.079965	5434.615904
452.453954	5532.658784
452.827883	5400.978805
453.201752	5418.138892
453.575562	5231.890943
453.949311	5308.662675
454.323001	5196.658319
454.696632	5193.850396
455.070202	5215.290423
455.443713	5260.892701
455.817164	5261.616107
456.190556	5245.509620
456.563888	5224.984562
456.937160	5199.030182
457.310373	4954.942554
457.683526	4904.992281
458.056619	4790.668994
458.429653	4725.804467
458.802628	4637.911950
459.175542	4636.558400
459.548398	4741.737034
459.921194	4762.098254
460.293930	4709.012384
460.666607	4862.341599
461.039224	4929.003297
461.411782	4913.821862
461.784280	4849.965566
462.156719	4731.735385
462.529099	4615.682982
462.901419	4396.460845
463.273680	4296.298160
463.645882	4245.962238
464.018024	4129.640134
464.390106	4125.405565
464.762130	4186.269936
465.134094	4269.438892
465.505999	4524.339795
465.877845	4808.358403
466.249631	4905.171242
466.621358	4693.341957
466.993026	4433.609108
467.364634	4285.431953
467.736184	4128.848673
468.107674	3994.970750
468.479105	3930.000359
468.850477	3837.195238
469.221790	3730.058116
469.593043	3610.376082
469.964238	3531.015718
470.335373	3490.341168
470.706449	3451.083182
471.077467	3408.240936
471.448425	3554.842731
471.819324	3651.254799
472.190164	3604.165381
472.560945	3398.667785
472.931667	3261.198040
473.302330	3210.400854
473.672934	3138.287148
474.043479	3136.913433
474.413965	3100.942280
474.784393	3055.708007
475.154761	3041.726367
475.525070	3016.132428
475.895321	2980.526759
476.265513	2965.420941
476.635645	2954.514405
477.005719	2926.412493
477.375734	2912.950092
477.745691	2903.553381
478.115588	2890.466545
478.485427	2877.092364
478.855207	2886.985629
479.224928	2902.724111
479.594591	2910.071593
479.964194	2876.101778
480.333739	2851.790813
480.703226	2824.014055
481.072653	2812.668939
481.442022	2806.128042
481.811333	2798.036990
482.180584	2778.845317
482.549777	2758.690784
482.918912	2740.739235
483.287988	2732.713718
483.657005	2718.510267
484.025964	2706.976107
484.394864	2698.582586
484.763706	2692.767615
485.132489	2681.044412
485.501213	2673.391940
485.869879	2669.386743
486.238487	2661.061278
486.607036	2657.414003
486.975527	2650.343785
487.343959	2649.648106
487.712333	2645.955460
488.080648	2643.208032
488.448905	2641.168885
488.817104	2634.421300
489.185244	2633.413070
489.553326	2636.392392
489.921350	2638.933133
490.289315	2647.480409
490.657222	2650.769762
491.025070	2647.326654
491.392861	2643.757517
491.760593	2636.757875
492.128267	2631.782256
492.495883	2626.438633
492.863440	2621.619290
493.230939	2617.775410
493.598380	2616.847838
493.965763	2607.758638
494.333088	2611.085799
494.700354	2606.339553
495.067563	2607.327619
495.434713	2602.036928
495.801805	2605.545571
496.168839	2604.660849
496.535815	2606.291662
496.902733	2602.404932
497.269593	2602.122628
497.636395	2600.249839
498.003139	2601.169850
498.369825	2601.777309
498.736453	2600.751434
499.103023	2600.670775
499.469535	2601.137082
499.835989	2597.038624
500.202385	2598.087184
500.568723	2597.754468
500.935003	2598.301433
501.301226	2596.297574
501.667390	2600.083481
502.033497	2598.883686
502.399546	2594.656679
502.765537	2593.015783
503.131470	2593.761874
503.497345	2598.220775
503.863163	2594.996957
504.228923	2595.231370
504.594625	2594.490321
504.960269	2593.855135
505.325856	2596.393356
505.691385	2591.619384
506.056856	2594.984354
506.422270	2592.415886
506.787625	2594.397059
507.152924	2593.255238
507.518164	2592.302460
507.883347	2594.225660
508.248472	2592.612491
508.613540	2591.707604
508.978550	2587.505802
509.343503	2591.672316
509.708398	2594.157605
510.073236	2591.881524
510.438016	2594.412183
510.802738	2592.126020
511.167403	2592.272213
511.532010	2589.948241
511.896561	2594.021493
512.261053	2594.276072
512.625488	2585.552355
512.989866	2590.459918
513.354186	2587.772983
513.718449	2586.411872
514.082655	2592.771287
514.446803	2591.531163
514.810894	2593.038468
515.174927	2591.289188
515.538904	2590.253231
515.902822	2590.044023
516.266684	2592.814137
516.630488	2588.657706
516.994235	2591.490834
517.357925	2595.062492
517.721558	2592.196596
518.085133	2591.440423
518.448651	2593.111565
518.812112	2593.371185
519.175516	2593.459405
519.538863	2592.698191
519.902152	2591.369847
520.265385	2591.695001
520.628560	2592.846905
520.991678	2590.979157
521.354739	2593.285485
521.717743	2591.110227
522.080690	2592.773808
522.443580	2593.131730
522.806413	2594.613829
523.169189	2595.543922
523.531908	2594.351689
523.894569	2592.625094
524.257174	2593.948397
524.619722	2594.145002
524.982213	2591.450505
525.344647	2595.488469
525.707025	2593.179621
526.069345	2593.643407
526.431608	2593.940835
526.793815	2594.243304
527.155964	2594.064343
527.518057	2593.678695
527.880093	2592.529312
528.242072	2594.581062
528.603995	2591.664754
528.965860	2592.768767
529.327669	2593.585434
529.689421	2592.773808
530.051117	2593.129209
530.412755	2591.105186
530.774337	2592.816658
531.135862	2594.356730
531.497331	2589.353385
531.858743	2588.861872
532.220098	2588.821543
532.581396	2590.956472
532.942638	2590.835484
533.303824	2591.604260
533.664953	2589.804568
534.026025	2590.502768
534.387040	2592.257090
534.747999	2592.897316
535.108902	2594.462594
535.469748	2590.200299
535.830537	2591.531163
536.191270	2592.642738
536.551947	2592.057964
536.912567	2589.996132
537.273131	2593.590475
537.633638	2590.452357
537.994089	2589.880186
538.354483	2588.561924
538.714821	2592.229363
539.075103	2591.765577
539.435328	2590.167531
539.795497	2589.900350
540.155609	2592.120978
540.515665	2596.481577
540.875665	2592.567121
541.235609	2591.228694
541.595496	2589.769280
541.955328	2593.658530
542.315102	2593.635845
542.674821	2591.800865
543.034483	2592.264651
543.394090	2589.529825
543.753640	2593.371185
544.113134	2590.054105
544.472571	2590.812799
544.831953	2590.943869
545.191278	2592.846905
545.550548	2591.896647
545.909761	2594.646597
546.268918	2591.891606
546.628019	2594.981833
546.987064	2591.843715
547.346053	2589.532346
547.704986	2592.589806
548.063863	2592.748602
548.422684	2592.864549
548.781449	2594.071905
549.140158	2595.468305
549.498811	2593.741709
549.857408	2591.790783
550.215949	2590.515371
550.574434	2585.864907
550.932864	2591.609301
551.291237	2590.233066
551.649555	2591.231215
552.007817	2592.446133
552.366022	2592.935125
552.724173	2594.780187
553.082267	2592.675505
553.440305	2590.734661
553.798288	2590.263313
554.156215	2591.775659
554.514086	2592.791452
554.871902	2589.993612
555.229661	2592.932604
555.587365	2590.248190
555.945014	2593.393870
556.302606	2591.949579
556.660143	2592.252048
557.017625	2593.928232
557.375050	2589.847418
557.732421	2590.580906
558.089735	2594.180290
558.446994	2593.938314
558.804197	2590.608632
559.161345	2593.955958
559.518437	2592.738520
559.875474	2593.083839
560.232455	2593.139292
560.589381	2594.964189
560.946251	2595.193562
561.303065	2595.662389
561.659825	2592.181472
562.016528	2592.420927
562.373177	2592.428489
562.729770	2595.662389
563.086307	2594.371854
563.442789	2594.139961
563.799216	2591.972264
564.155587	2590.996801
564.511904	2594.881010
564.868164	2592.751123
565.224370	2593.280444
565.580520	2589.981009
565.936615	2590.648962
566.292654	2590.742223
566.648638	2594.482759
567.004567	2594.447471
567.360441	2592.226843
567.716260	2594.051740
568.072023	2590.638879
568.427732	2586.275761
568.783385	2590.676688
569.138982	2587.808271
569.494525	2589.786924
569.850013	2587.311718
570.205445	2594.603747
570.560823	2590.197778
570.916145	2590.654003
571.271412	2590.248190
571.626625	2592.589806
571.981782	2592.360433
572.336884	2589.706266
572.691931	2592.562079
573.046923	2590.774990
573.401860	2590.558221
573.756743	2587.891450
574.111570	2588.781214
574.466342	2590.603591
574.821059	2590.298601
575.175722	2588.438416
575.530330	2588.529156
575.884882	2592.057964
576.239380	2585.287694
576.593823	2589.623087
576.948211	2588.327510
577.302544	2589.502099
577.656823	2586.396748
578.011047	2588.103179
578.365216	2588.781214
578.719330	2587.160483
579.073389	2587.019331
579.427394	2586.371542
579.781344	2587.954465
580.135239	2586.638724
580.489080	2587.450349
580.842866	2586.739547
581.196597	2591.299270
581.550273	2588.246852
581.903895	2588.614856
582.257463	2587.800710
582.610975	2585.721234
582.964434	2585.527149
583.317837	2587.667119
583.671186	2587.321800
584.024481	2587.236100
584.377721	2585.365832
584.730906	2585.300297
585.084037	2586.525298
585.437113	2585.678384
585.790135	2583.992118
586.143103	2584.634865
586.496016	2583.054463
586.848874	2579.165213
587.201679	2582.320975
587.554428	2578.749318
587.907124	2584.576892
588.259765	2579.276118
588.612352	2580.133115
588.964884	2585.126377
589.317362	2584.266861
589.669786	2582.613362
590.022155	2584.725606
590.374470	2583.656881
590.726731	2584.067735
591.078937	2582.152097
591.431090	2584.405492
591.783188	2583.122519
592.135232	2582.943558
592.487222	2583.823239
592.839157	2582.694021
593.191038	2582.315934
593.542866	2584.108064
593.894639	2582.522622
594.246358	2582.948599
594.598022	2581.653022
594.949633	2582.315934
595.301190	2579.785275
595.652692	2580.927096
596.004141	2581.232086
596.355535	2580.060018
596.706876	2582.694021
597.058162	2580.143197
597.409395	2582.048753
597.760573	2581.698393
598.111698	2580.087744
598.462768	2580.962384
598.813785	2580.962384
599.164748	2578.668659
599.515657	2579.540779
599.866511	2580.576736
600.217312	2578.860223
600.568060	2578.156982
600.918753	2579.071952
601.269392	2579.318968
601.619978	2578.545151
601.970510	2577.599935
602.320988	2578.963567
602.671412	2583.067066
603.021783	2580.473392
603.372100	2578.797209
603.722363	2576.866447
604.072572	2581.718557
604.422728	2579.581108
604.772830	2575.792681
605.122878	2576.001889
605.472872	2577.302507
605.822813	2571.643812
606.172701	2575.709502
606.522534	2578.620768
606.872314	2580.765779
607.222041	2577.597414
607.571714	2579.404668
607.921333	2578.852662
608.270899	2578.285532
608.620411	2582.192426
608.969870	2580.259143
609.319276	2581.655543
609.668627	2582.951120
610.017926	2586.709300
610.367171	2586.711820
610.716362	2586.308528
611.065500	2585.451532
611.414585	2586.046388
611.763616	2583.666963
612.112594	2581.506829
612.461518	2581.574885
612.810389	2584.786100
613.159207	2582.789803
613.507971	2581.448856
613.856682	2582.477251
614.205340	2580.594380
614.553945	2582.716706
614.902496	2582.641089
615.250994	2580.614545
615.599439	2578.678742
615.947830	2580.579257
616.296169	2579.049267
616.644454	2581.716037
616.992686	2579.339133
617.340864	2583.044381
617.688990	2580.105388
618.037063	2582.930955
618.385082	2581.322827
618.733048	2583.009093
619.080961	2579.744946
619.428821	2579.134966
619.776628	2581.718557
620.124382	2580.450707
620.472083	2578.938361
620.819731	2577.811663
621.167326	2579.266036
621.514868	2580.556572
621.862357	2577.625141
622.209793	2580.856520
622.557176	2578.346026
622.904506	2575.555747
623.251783	2576.095150
623.599007	2572.052145
623.946179	2572.594069
624.293297	2569.851681
624.640363	2575.485171
624.987376	2578.144379
625.334336	2572.609192
625.681243	2574.449214
626.028097	2574.408884
626.374899	2573.630026
626.721647	2574.013154
627.068343	2574.965932
627.414987	2573.458627
627.761577	2576.362332
628.108115	2574.260170
628.454600	2574.764286
628.801032	2574.320664
629.147412	2575.061714
629.493739	2574.184553
629.840014	2571.379151
630.186236	2574.781930
630.532405	2572.820921
630.878521	2571.747155
631.224585	2573.017526
631.570597	2569.397977
631.916556	2570.496949
632.262462	2572.223544
632.608316	2569.365210
632.954117	2571.094326
633.299866	2572.972156
633.645562	2571.477453
633.991206	2571.429562
634.336797	2572.205900
634.682336	2571.328739
635.027823	2568.140210
635.373257	2568.457802
635.718639	2566.380847
636.063968	2570.197000
636.409245	2567.046279
636.754470	2564.127451
637.099642	2567.237843
637.444762	2566.781619
637.789829	2564.876062
638.134845	2565.969993
638.479808	2566.244736
638.824719	2563.784653
639.169577	2565.473439
639.514383	2565.085270
639.859137	2565.435631
640.203839	2565.758264
640.548489	2565.733059
640.893086	2563.651062
641.237632	2559.393808
641.582125	2563.514951
641.926566	2559.529919
642.270955	2565.491083
642.615292	2564.407235
642.959576	2565.491083
643.303809	2566.272462
643.647990	2566.103583
643.992118	2562.857080
644.336195	2563.593089
644.680219	2565.342369
645.024192	2565.360013
645.368112	2564.820610
645.711981	2565.072667
646.055797	2566.559808
646.399562	2566.579972
646.743274	2565.314643
647.086935	2568.291444
647.430544	2567.205076
647.774101	2567.462174
648.117606	2567.744479
648.461059	2567.999057
648.804460	2569.765982
649.147810	2567.409242
649.491108	2566.776577
649.834354	2564.669375
650.177548	2563.114179
650.520690	2562.688202
650.863781	2566.098542
651.206820	2569.256825
651.549807	2563.015877
651.892742	2563.399004
652.235626	2562.857080
652.578458	2565.390260
652.921238	2561.261555
653.263967	2564.750034
653.606644	2564.520661
653.949269	2562.292471
654.291843	2560.306257
654.634365	2562.783984
654.976836	2560.976730
655.319255	2564.616443
655.661622	2563.177194
656.003938	2559.839950
656.346203	2560.412121
656.688416	2563.025959
657.030577	2560.142419
657.372687	2561.833726
657.714746	2557.674774
658.056753	2562.156360
658.398708	2555.287788
658.740612	2560.772563
659.082465	2558.577141
659.424266	2558.388097
659.766016	2555.736451
660.107715	2560.321380
660.449362	2560.286092
660.790958	2561.488407
661.132503	2560.016390
661.473996	2559.119065
661.815438	2561.332131
662.156829	2561.952193
662.498168	2558.284754
662.839456	2560.129816
663.180693	2561.748027
663.521879	2563.797256
663.863013	2559.802141
664.204097	2563.542677
664.545129	2562.307595
664.886110	2563.875393
665.227040	2559.971020
665.567918	2562.743654
665.908746	2558.877089
666.249522	2560.964127
666.590248	2561.621998
666.930922	2562.882286
667.271545	2559.862635
667.612118	2560.991853
667.952639	2561.150650
668.293109	2561.763150
668.633528	2561.448078
668.973896	2560.384394
669.314213	2559.166956
669.654480	2561.495969
669.994695	2561.100238
670.334859	2562.859601
670.674973	2559.008159
671.015035	2561.034703
671.355047	2559.857594
671.695008	2561.092677
672.034918	2561.311967
672.374777	2559.111503
672.714585	2560.323901
673.054342	2561.392625
673.394049	2560.722152
673.733705	2559.166956
674.073310	2559.658468
674.412864	2563.625856
674.752368	2559.361040
675.091820	2562.040413
675.431223	2557.994887
675.770574	2558.486400
676.109875	2553.614125
676.449125	2557.805844
676.788324	2556.056564
677.127473	2557.369784
677.466571	2556.414486
677.805619	2558.786349
678.144616	2557.712583
678.483562	2557.659651
678.822458	2559.920608
679.161303	2558.655279
679.500098	2555.209650
679.838842	2560.245763
680.177535	2558.468756
680.516179	2558.496482
680.854771	2555.630586
681.193314	2562.693243
681.531805	2561.410269
681.870247	2560.049158
682.208638	2561.558983
682.546978	2561.528736
682.885268	2559.413972
683.223508	2557.944476
683.561697	2558.025134
683.899836	2560.868345
684.237925	2557.084959
684.575963	2559.222408
684.913951	2560.190310
685.251889	2558.882131
685.589776	2557.755433
685.927614	2558.879610
686.265401	2560.094528
686.603137	2559.882800
686.940824	2559.096380
687.278460	2560.187789
687.616046	2558.849363
687.953582	2562.322718
688.291068	2558.372974
688.628504	2558.582182
688.965889	2562.862122
689.303224	2562.063099
689.640510	2561.480845
689.977745	2557.788200
690.314930	2558.526729
690.652065	2559.166956
690.989150	2556.817778
691.326185	2556.855587
691.663170	2558.549414
692.000105	2557.752912
692.336990	2556.815258
692.673825	2558.186451
693.010610	2556.515309
693.347345	2551.806871
693.684030	2549.102292
694.020665	2552.492468
694.357251	2548.530121
694.693786	2552.212684
695.030272	2553.001625
695.366707	2552.426933
695.703093	2550.531459
696.039429	2553.425082
696.375716	2552.507592
696.711952	2553.546069
697.048139	2551.262427
697.384276	2551.401058
697.720363	2550.513815
698.056400	2555.381049
698.392388	2550.241593
698.728326	2553.044474
699.064214	2550.609597
699.400053	2550.720503
699.735842	2550.007179
700.071581	2551.156562
700.407270	2549.107333
700.742910	2551.506923
701.078501	2549.901315
701.414042	2550.228990
701.749533	2550.939793
702.084974	2553.394835
702.420366	2549.487940
702.755709	2549.755122
703.091002	2547.484082
703.426246	2551.181768
703.761440	2550.768393
704.096584	2547.784030
704.431679	2548.898125
704.766725	2548.477189
705.101721	2548.492312
705.436668	2550.279402
705.771565	2545.828063
706.106413	2551.378373
706.441212	2549.767724
706.775961	2550.395348
707.110661	2548.779658
707.445311	2548.356201
707.779913	2549.009031
708.114465	2553.225956
708.448967	2550.612118
708.783421	2549.515667
709.117825	2549.535831
709.452180	2550.481048
709.786485	2548.988866
710.120742	2553.591440
710.454949	2550.609597
710.789107	2551.827036
711.123216	2547.945347
711.457275	2551.169165
711.791286	2549.835780
712.125247	2552.752087
712.459159	2554.168652
712.793023	2556.863148
713.126837	2552.288301
713.460602	2553.341902
713.794318	2552.298384
714.127985	2551.963147
714.461602	2550.407951
714.795171	2549.251006
715.128691	2551.060780
715.462162	2551.569937
715.795584	2547.816798
716.128957	2548.532642
716.462281	2549.790410
716.795556	2549.266130
717.128782	2550.478527
717.461960	2551.138918
717.795088	2549.878630
718.128167	2550.460883
718.461198	2549.498023
718.794180	2551.494320
719.127113	2546.806047
719.459997	2549.419885
719.792833	2547.819318
720.125619	2549.069525
720.458357	2547.642878
720.791046	2545.918803
721.123686	2543.531817
721.456278	2545.644061
721.788821	2545.293700
722.121315	2548.819988
722.453761	2546.735470
722.786158	2545.397044
723.118506	2546.395193
723.450805	2544.509801
723.783056	2546.029709
724.115259	2544.983669
724.447412	2544.401416
724.779518	2545.986859
725.111574	2549.288815
725.443582	2547.035419
725.775542	2547.902498
726.107453	2547.615152
726.439315	2545.807898
726.771129	2549.480379
727.102895	2547.390820
727.434612	2550.344937
727.766281	2548.210008
728.097901	2548.686397
728.429473	2543.698175
728.760996	2546.818649
729.092471	2543.272198
729.423897	2549.230842
729.755276	2546.369987
730.086606	2549.041798
730.417887	2547.400903
730.749120	2549.591284
731.080305	2547.751263
731.411442	2550.264278
731.742530	2550.599515
732.073570	2551.527087
732.404562	2548.207487
732.735506	2548.280584
733.066401	2549.175389
733.397249	2548.550286
733.728048	2548.129349
734.058798	2546.811088
734.389501	2547.438711
734.720156	2547.466438
735.050762	2545.883515
735.381320	2546.412837
735.711831	2544.565254
736.042293	2546.170861
736.372707	2543.841848
736.703073	2545.447456
737.033391	2546.155738
737.363661	2546.183464
737.693883	2543.942671
738.024056	2547.526932
738.354182	2545.444935
738.684260	2546.453166
739.014290	2548.772097
739.344272	2546.427960
739.674207	2546.690100
740.004093	2547.869730
740.333931	2544.560212
740.663722	2549.800492
740.993464	2546.740512
741.323159	2548.676315
741.652806	2546.082641
741.982405	2550.256716
742.311956	2546.690100
742.641460	2545.074410
742.970915	2544.635830
743.300323	2546.155738
743.629683	2544.366128
743.958996	2544.058618
744.288260	2545.570964
744.617477	2545.150027
744.946647	2541.167516
745.275768	2540.398740
745.604842	2540.244985
745.933869	2541.679193
746.262847	2541.643905
746.591778	2546.160779
746.920662	2542.516025
747.249498	2545.092054
747.578286	2542.765562
747.907027	2546.095244
748.235720	2546.271684
748.564365	2545.250851
748.892963	2545.659184
749.221514	2545.260933
749.550017	2543.241951
749.878473	2545.026519
750.206881	2543.337733
750.535242	2542.591642
750.863555	2543.224307
751.191821	2542.942002
751.520039	2542.652136
751.848210	2544.736653
752.176334	2542.478216
752.504411	2545.696993
752.832440	2542.546272
753.160421	2542.669780
753.488356	2540.696168
753.816243	2543.824204
754.144082	2543.730943
754.471875	2545.389482
754.799620	2544.963505
755.127318	2545.248330
755.454969	2542.939482
755.782572	2544.774462
756.110129	2543.204142
756.437638	2543.899821
756.765100	2542.342105
757.092515	2545.260933
757.419882	2544.353525
757.747203	2545.994421
758.074477	2543.345294
758.401703	2544.847558
758.728882	2545.137425
759.056014	2544.330840
759.383099	2543.297403
759.710138	2543.297403
760.037129	2543.380583
760.364073	2544.134235
760.690970	2541.901004
761.017820	2541.984183
761.344623	2545.563402
761.671379	2544.547610
761.998088	2541.754810
762.324751	2542.294214
762.651366	2545.621375
762.977935	2553.241079
763.304456	2553.225956
763.630931	2558.519168
763.957359	2558.166287
764.283740	2554.014897
764.610074	2551.403579
764.936362	2546.969884
765.262602	2546.795964
765.588796	2545.883515
765.914943	2542.591642
766.241044	2542.967208
766.567097	2544.358566
766.893104	2541.966539
767.219064	2543.501570
767.544978	2540.257588
767.870845	2539.955118
768.196665	2541.507794
768.522438	2539.791281
768.848165	2540.998637
769.173846	2537.794984
769.499479	2541.500232
769.825066	2541.285983
770.150607	2537.860519
770.476101	2540.028215
770.801548	2537.880684
771.126949	2537.121990
771.452303	2538.198276
771.777611	2539.035108
772.102872	2539.385468
772.428087	2540.000489
772.753256	2540.439069
773.078378	2539.992927
773.403453	2537.840354
773.728482	2540.239944
774.053465	2539.088040
774.378401	2538.735159
774.703291	2541.585932
775.028135	2539.425797
775.352932	2541.273380
775.677683	2538.132741
776.002388	2538.558719
776.327046	2536.559901
776.651658	2540.227341
776.976224	2537.449665
777.300743	2538.659542
777.625216	2536.133924
777.949643	2538.919161
778.274024	2538.349511
778.598359	2534.233409
778.922647	2533.628470
779.246889	2536.416228
779.571086	2531.392719
779.895236	2535.445806
780.219339	2538.667104
780.543397	2536.504449
780.867409	2540.018133
781.191374	2537.991589
781.515294	2538.520910
781.839167	2537.666435
782.162995	2536.874973
782.486776	2540.567619
782.810511	2536.149047
783.134201	2540.630633
783.457844	2538.674665
783.781441	2537.709284
784.104993	2536.078471
784.428498	2534.729962
784.751958	2537.031249
785.075372	2537.149716
785.398739	2535.647452
785.722061	2537.752134
786.045337	2536.781712
786.368568	2537.356404
786.691752	2539.861857
787.014891	2540.038297
787.337983	2540.260108
787.661030	2538.594007
787.984031	2537.757175
788.306987	2539.526620
788.629897	2541.911086
788.952760	2540.098791
789.275579	2539.887063
789.598351	2541.003678
789.921078	2540.802032
790.243759	2539.496373
790.566395	2537.437062
790.888984	2537.255581
791.211529	2537.111908
791.534027	2537.613502
791.856480	2535.183666
792.178888	2535.788605
792.501249	2537.111908
792.823566	2537.893287
793.145836	2537.479912
793.468062	2536.174253
793.790241	2535.864222
794.112375	2536.239788
794.434464	2536.098636
794.756507	2537.739531
795.078505	2536.282638
795.400457	2535.788605
795.722364	2533.678882
796.044226	2536.322967
796.366042	2535.844057
796.687812	2535.392874
797.009538	2537.164840
797.331218	2535.904551
797.652852	2537.361445
797.974442	2537.875643
798.295986	2538.619213
798.617484	2535.922195
798.938938	2534.732483
799.260346	2535.385313
799.581709	2535.521424
799.903026	2538.001671
800.224299	2538.717515
800.545526	2535.211393
800.866708	2536.383461
801.187845	2536.567463
801.508936	2537.328677
801.829983	2537.071578
802.150984	2536.912782
802.471940	2536.459078
802.792851	2535.410518
803.113717	2535.377751
803.434538	2534.732483
803.755314	2535.821372
804.076045	2535.160981
804.396731	2536.602751
804.717372	2538.299099
805.037967	2536.103677
805.358518	2534.548481
805.679024	2538.893956
805.999485	2536.711136
806.319901	2535.244160
806.640272	2536.282638
806.960598	2534.205682
807.280879	2536.123842
807.601115	2536.862371
807.921306	2536.738862
808.241453	2539.811446
808.561554	2537.182484
808.881611	2535.007226
809.201623	2538.596527
809.521590	2536.837165
809.841513	2540.275232
810.161390	2535.294572
810.481223	2537.255581
810.801011	2534.422452
811.120755	2536.900179
811.440453	2536.244829
811.760107	2536.988399
812.079716	2531.944725
812.399281	2531.513706
812.718801	2533.300795
813.038276	2534.361958
813.357707	2535.614685
813.677093	2535.387833
813.996434	2534.016639
814.315731	2537.018646
814.634983	2538.029398
814.954191	2537.391692
815.273354	2536.358255
815.592473	2536.670807
815.911547	2536.927906
816.230577	2536.496887
816.549562	2535.672658
816.868502	2539.274563
817.187399	2538.417567
817.506250	2534.273738
817.825058	2537.842875
818.143821	2535.702905
818.462539	2539.801363
818.781213	2539.077958
819.099843	2538.377237
819.418429	2538.657021
819.736970	2541.757331
820.055466	2543.289842
820.373919	2543.758669
820.692327	2544.986190
821.010691	2553.553631
821.329011	2562.088304
821.647286	2586.328693
821.965517	2605.830396
822.283704	2620.527880
822.601847	2626.988119
822.919945	2616.721809
823.237999	2601.510127
823.556010	2586.333734
823.873976	2577.504153
824.191897	2569.793708
824.509775	2561.604354
824.827609	2561.052347
825.145398	2555.247459
825.463144	2556.805175
825.780845	2553.898950
826.098502	2554.914742
826.416116	2560.694425
826.733685	2569.534089
827.051210	2572.982238
827.368692	2569.168605
827.686129	2564.911351
828.003522	2554.125802
828.320872	2546.977446
828.638177	2544.240099
828.955439	2541.704399
829.272656	2539.352701
829.589830	2536.660724
829.906960	2540.093750
830.224046	2539.660211
830.541088	2539.544264
830.858086	2537.099305
831.175041	2539.897145
831.491952	2535.889428
831.808819	2537.099305
832.125642	2539.120807
832.442421	2541.401930
832.759157	2544.073741
833.075849	2545.863351
833.392497	2550.135729
833.709101	2553.336861
834.025662	2552.789896
834.342179	2551.912735
834.658653	2547.632796
834.975083	2546.042312
835.291469	2545.223124
835.607811	2539.710622
835.924110	2539.062834
836.240366	2539.776158
836.556578	2535.919675
836.872746	2536.746424
837.188871	2535.781043
837.504952	2533.310878
837.820990	2532.650487
838.136984	2531.571680
838.452935	2536.592669
838.768842	2535.599562
839.084706	2534.530837
839.400526	2537.926054
839.716303	2539.478729
840.032037	2543.436035
840.347727	2543.834286
840.663373	2540.224820
840.978977	2534.878677
841.294537	2536.065868
841.610054	2537.961342
841.925527	2533.993954
842.240957	2534.873635
842.556344	2534.906403
842.871687	2534.356917
843.186987	2533.096629
843.502244	2533.184849
843.817458	2533.484797
844.132629	2534.432534
844.447756	2531.624612
844.762840	2528.937677
845.077881	2529.923222
845.392879	2527.558921
845.707833	2530.139992
846.022745	2528.607481
846.337613	2529.174611
846.652438	2531.377595
846.967221	2532.446320
847.281960	2533.149561
847.596656	2531.763243
847.911309	2532.945394
848.225919	2531.939684
848.540485	2532.388347
848.855009	2531.589324
849.169490	2531.770805
849.483928	2529.635877
849.798323	2532.121165
850.112675	2529.356093
850.426984	2532.421114
850.741251	2534.515713
851.055474	2532.428676
851.369654	2533.202493
851.683792	2533.522606
851.997887	2530.288706
852.311938	2531.654859
852.625947	2531.387678
852.939914	2530.583613
853.253837	2533.293234
853.567718	2530.727286
853.881555	2531.891793
854.195350	2530.092101
854.509103	2527.188396
854.822812	2532.433717
855.136479	2532.312729
855.450103	2533.840199
855.763685	2529.565300
856.077224	2530.490352
856.390720	2531.314581
856.704173	2531.629653
857.017584	2531.107893
857.330953	2530.888603
857.644278	2529.454395
857.957561	2535.410518
858.270802	2533.825075
858.584000	2532.559746
858.897155	2531.911957
859.210268	2530.175280
859.523339	2533.434386
859.836367	2529.734179
860.149352	2532.625281
860.462295	2530.003881
860.775195	2528.095804
861.088054	2526.555732
861.400869	2528.930115
861.713642	2527.213602
862.026373	2528.564631
862.339062	2530.404652
862.651708	2532.307688
862.964312	2529.865249
863.276873	2533.371372
863.589392	2529.446833
863.901869	2532.779036
864.214303	2532.320291
864.526696	2532.784077
864.839045	2530.939015
865.151353	2533.202493
865.463619	2532.660569
865.775842	2531.485980
866.088023	2531.778367
866.400162	2533.242822
866.712258	2530.059333
867.024313	2535.972607
867.336325	2533.731814
867.648296	2532.141330
867.960224	2532.842050
868.272110	2535.609644
868.583954	2528.496576
868.895755	2533.988913
869.207515	2531.034797
869.519233	2534.316588
869.830909	2530.296268
870.142542	2533.520086
870.454134	2533.288193
870.765684	2532.665610
871.077191	2529.608150
871.388657	2535.201310
871.700081	2532.267359
872.011463	2533.457071
872.322803	2529.537574
872.634101	2534.447658
872.945357	2531.861546
873.256571	2534.069571
873.567744	2532.383305
873.878874	2531.501103
874.189963	2533.421783
874.501010	2535.125693
874.812015	2531.889272
875.122979	2533.938501
875.433900	2535.886907
875.744780	2533.172246
876.055618	2534.724921
876.366415	2535.223996
876.677169	2533.136958
876.987882	2532.272400
877.298554	2531.924560
877.609183	2531.430527
877.919771	2530.281144
878.230317	2535.889428
878.540822	2537.681558
878.851285	2538.198276
879.161707	2536.741383
879.472087	2537.890766
879.782425	2539.997968
880.092722	2545.858310
880.402977	2552.852911
880.713191	2561.992522
881.023363	2574.560119
881.333494	2584.191243
881.643583	2585.305338
881.953631	2583.745101
882.263637	2581.837025
882.573602	2575.764955
882.883526	2570.650704
883.193408	2565.576783
883.503248	2560.104610
883.813048	2556.134702
884.122806	2549.959288
884.432522	2547.040460
884.742197	2547.784030
885.051831	2542.876467
885.361424	2541.563247
885.670975	2538.883873
885.980485	2536.869932
886.289954	2538.530992
886.599382	2537.439583
886.908768	2535.108049
887.218113	2537.283307
887.527417	2536.975797
887.836680	2535.234078
888.145901	2533.489839
888.455082	2534.099818
888.764221	2535.418080
889.073319	2534.394726
889.382376	2532.915147
889.691392	2532.400949
890.000366	2531.397760
890.309300	2533.777184
890.618193	2531.614529
890.927044	2533.164684
891.235855	2534.971938
891.544625	2533.464633
891.853353	2534.364479
892.162041	2535.808769
892.470687	2537.936136
892.779293	2533.343645
893.087858	2534.009078
893.396381	2535.324819
893.704864	2535.995292
894.013306	2539.856816
894.321707	2546.044832
894.630068	2549.719833
894.938387	2550.362581
895.246665	2550.171017
895.554903	2546.284287
895.863100	2545.059287
896.171256	2540.958308
896.479371	2542.947043
896.787446	2540.401261
897.095480	2538.009233
897.403473	2538.150385
897.711425	2538.747762
898.019336	2534.908923
898.327207	2535.287010
898.635038	2537.091743
898.942827	2534.480425
899.250576	2534.510672
899.558284	2534.094777
899.865952	2534.545960
900.173579	2533.688964
900.481165	2534.525796
900.788711	2533.603265
901.096216	2531.932122
901.403681	2534.059489
901.711105	2533.673841
902.018489	2530.061854
902.325832	2533.091588
902.633135	2533.174767
902.940397	2534.074613
903.247619	2534.062010
903.554800	2535.539068
903.861941	2544.794626
904.169041	2555.766697
904.476101	2556.666543
904.783121	2556.948848
905.090100	2555.406255
905.397039	2552.182437
905.703938	2545.631458
906.010796	2540.670962
906.317614	2538.737680
906.624391	2537.258101
906.931129	2538.024357
907.237826	2534.966897
907.544483	2534.394726
907.851099	2532.148892
908.157675	2530.661751
908.464211	2532.756351
908.770707	2527.513551
909.077163	2529.056144
909.383578	2528.335259
909.689954	2531.067564
909.996289	2527.127902
910.302584	2534.188038
910.608839	2530.268541
910.915054	2533.323481
911.221229	2529.091432
911.527363	2531.319622
911.833458	2529.572862
912.139513	2528.857018
912.445527	2531.480939
912.751502	2531.299457
913.057436	2531.244005
913.363331	2533.603265
913.669186	2533.487318
913.975000	2535.655014
914.280775	2534.792977
914.586510	2537.527803
914.892205	2538.432690
915.197859	2544.386293
915.503475	2545.775131
915.809050	2552.610935
916.114585	2552.744526
916.420081	2553.399876
916.725536	2553.977088
917.030952	2551.882488
917.336328	2549.006510
917.641665	2545.202960
917.946961	2542.929399
918.252218	2543.728422
918.557435	2541.099460
918.862612	2538.430169
919.167750	2537.605941
919.472848	2535.314736
919.777906	2533.636032
920.082925	2533.406660
920.387904	2533.830117
920.692843	2533.401618
920.997743	2532.095960
921.302603	2532.189221
921.607423	2531.879190
921.912204	2531.117976
922.216946	2531.405322
922.521647	2533.056299
922.826310	2531.420445
923.130932	2533.817514
923.435516	2533.885569
923.740059	2530.266021
924.044564	2532.557225
924.349028	2527.117820
924.653454	2524.806451
924.957840	2525.794517
925.262186	2525.557583
925.566493	2526.648993
925.870761	2525.741585
926.174989	2528.715866
926.479178	2529.514889
926.783328	2528.289888
927.087438	2529.240146
927.391509	2529.562780
927.695541	2530.109745
927.999533	2529.376257
928.303486	2528.254600
928.607400	2530.543284
928.911275	2528.216792
929.215110	2528.181504
929.518906	2526.868283
929.822663	2527.334590
930.126381	2528.191586
930.430060	2531.042358
930.733699	2530.608819
931.037299	2529.093953
931.340861	2527.185876
931.644383	2528.841895
931.947866	2529.497245
932.251309	2529.492204
932.554714	2529.189734
932.858080	2533.777184
933.161407	2530.263500
933.464694	2529.729138
933.767943	2528.768798
934.071153	2529.582944
934.374323	2531.395239
934.677455	2526.681760
934.980548	2525.403828
935.283602	2526.943900
935.586617	2530.260980
935.889593	2526.371729
936.192530	2527.473222
936.495428	2527.866432
936.798287	2527.947090
937.101108	2529.802235
937.403890	2530.298788
937.706632	2526.228057
938.009336	2528.431041
938.312002	2529.824920
938.614628	2531.117976
938.917216	2530.147554
939.219765	2527.437933
939.522275	2531.349869
939.824747	2530.714683
940.127179	2526.182686
940.429573	2526.028931
940.731929	2525.935670
941.034246	2527.531195
941.336524	2529.086391
941.638763	2529.842564
941.940964	2529.484642
942.243126	2530.316432
942.545250	2529.429189
942.847335	2528.405835
943.149381	2528.930115
943.451389	2526.628828
943.753359	2529.303160
944.055290	2530.434899
944.357182	2530.946577
944.659036	2529.887934
944.960851	2528.758716
945.262628	2526.848118
945.564367	2528.882224
945.866067	2528.196627
946.167729	2530.013963
946.469352	2527.672347
946.770937	2527.321987
947.072484	2529.139323
947.373992	2528.289888
947.675462	2526.381812
947.976893	2526.366688
948.278286	2528.874662
948.579641	2526.775022
948.880958	2526.863242
949.182236	2527.861390
949.483476	2525.960875
949.784678	2529.106555
950.085841	2526.951462
950.386967	2529.005732
950.688054	2527.969775
950.989103	2529.955990
951.290114	2525.673530
951.591087	2528.433561
951.892021	2530.094622
952.192917	2527.314425
952.493776	2531.740558
952.794596	2529.530012
953.095378	2529.978675
953.396122	2529.073788
953.696828	2530.258459
953.997496	2527.879034
954.298126	2525.907943
954.598718	2529.454395
954.899272	2529.620753
955.199788	2528.667975
955.500266	2529.603109
955.800706	2526.490197
956.101108	2522.953827
956.401472	2525.108920
956.701798	2525.338293
957.002087	2521.872500
957.302337	2526.633869
957.602550	2526.686802
957.902724	2527.543798
958.202861	2526.817872
958.502960	2527.606812
958.803022	2526.356606
959.103045	2526.928777
959.403031	2524.241842
959.702979	2528.448685
960.002889	2525.431554
960.302762	2527.692512
960.602596	2525.872655
960.902393	2527.130423
961.202153	2526.039013
961.501875	2525.544980
961.801559	2524.304856
962.101205	2524.617408
962.400814	2528.688140
962.700385	2526.104548
962.999918	2525.635721
963.299414	2526.482635
963.598873	2526.764939
963.898293	2524.249404
964.197677	2527.032121
964.497022	2525.350896
964.796331	2527.732841
965.095601	2525.035824
965.394835	2527.924405
965.694030	2530.114786
965.993189	2528.443644
966.292309	2524.942562
966.591393	2527.039682
966.890439	2527.148067
967.189447	2527.750485
967.488419	2526.722090
967.787353	2525.179497
968.086249	2525.986081
968.385108	2526.810310
968.683930	2527.321987
968.982714	2525.534898
969.281462	2525.547501
969.580172	2525.285361
969.878844	2524.743437
970.177480	2525.371060
970.476078	2525.880217
970.774639	2528.546987
971.073162	2524.113292
971.371649	2524.408200
971.670098	2522.195133
971.968510	2523.468025
972.266885	2521.864938
972.565223	2526.873324
972.863524	2527.097656
973.161788	2526.555732
973.460014	2525.144208
973.758204	2526.888448
974.056356	2524.317459
974.354471	2525.918026
974.652550	2526.626308
974.950591	2525.565145
975.248595	2526.041534
975.546563	2525.212264
975.844493	2526.966586
976.142386	2524.080525
976.440243	2524.655217
976.738062	2526.419620
977.035845	2525.476925
977.333590	2525.212264
977.631299	2526.800227
977.928971	2528.264683
978.226606	2528.153777
978.524204	2526.525485
978.821765	2526.598581
979.119290	2525.814682
979.416777	2523.959537
979.714228	2528.292409
980.011642	2525.063550
980.309020	2530.278624
980.606360	2526.540608
980.903664	2523.745288
981.200931	2527.110258
981.498162	2527.279137
981.795356	2524.763601
982.092513	2526.754857
982.389633	2529.519930
982.686717	2526.853160
982.983764	2528.841895
983.280775	2528.640249
983.577749	2529.797193
983.874686	2529.255269
984.171587	2524.985412
984.468451	2528.068078
984.765279	2527.248890
985.062070	2526.301153
985.358824	2527.884076
985.655543	2525.653365
985.952224	2527.735362
986.248869	2525.728982
986.545478	2523.677233
986.842050	2523.170597
987.138586	2519.954341
987.435086	2523.210926
987.731549	2519.914011
988.027975	2527.798376
988.324366	2523.495751
988.620719	2524.284692
988.917037	2524.234280
989.213318	2527.430372
989.509563	2525.093797
989.805772	2524.546832
990.101944	2525.229908
990.398080	2524.549352
990.694180	2522.210257
990.990244	2522.542973
991.286271	2526.056657
991.582262	2523.490710
991.878217	2523.830988
992.174136	2524.788807
992.470019	2523.946934
992.765865	2525.292922
993.061676	2523.984743
993.357450	2524.753519
993.653188	2526.744775
993.948890	2524.829136
994.244556	2524.816533
994.540186	2525.461801
994.835780	2526.084384
995.131337	2525.028262
995.426859	2527.145547
995.722345	2523.286543
996.017795	2525.071112
996.313208	2526.162522
996.608586	2524.597243
996.903928	2526.520443
997.199234	2525.978519
997.494504	2525.723941
997.789738	2525.300484
998.084936	2522.295957
998.380099	2526.134795
998.675225	2526.517923
998.970316	2526.986750
999.265371	2525.824764
999.560390	2524.118334
999.855373	2525.819723
1000.150320	2523.616739
1000.445232	2524.718231
1000.740108	2524.103210
1001.034948	2522.343848
1001.329752	2528.083201
1001.624521	2524.342665
1001.919254	2522.210257
1002.213951	2521.630524
1002.508613	2521.854856
1002.803239	2523.722603
1003.097829	2518.792355
1003.392384	2524.052799
1003.686903	2523.634383
1003.981386	2525.555062
1004.275834	2525.360978
1004.570246	2526.437264
1004.864623	2523.221008
1005.158964	2523.563807
1005.453270	2524.647655
1005.747540	2526.442306
1006.041775	2523.208405
1006.335974	2524.556914
1006.630138	2524.725793
1006.924266	2525.280320
1007.218359	2524.541791
1007.512416	2524.234280
1007.806438	2525.121523
1008.100425	2524.340144
1008.394376	2523.669671
1008.688292	2526.918695
1008.982172	2521.441481
1009.276017	2524.186389
1009.569827	2521.927952
1009.863602	2524.866945
1010.157341	2525.151770
1010.451045	2524.990453
1010.744714	2522.399300
1011.038347	2524.564476
1011.331945	2525.431554
1011.625508	2523.125226
1011.919036	2524.569517
1012.212528	2524.191430
1012.505986	2523.004239
1012.799408	2522.779907
1013.092795	2523.699918
1013.386147	2524.393077
1013.679464	2524.630011
1013.972745	2524.350227
1014.265992	2522.948786
1014.559204	2524.453570
1014.852380	2523.702438
1015.145521	2524.849301
1015.438628	2526.364168
1015.731699	2526.986750
1016.024736	2524.085566
1016.317737	2525.837367
1016.610703	2522.686646
1016.903635	2521.527181
1017.196531	2520.201357
1017.489393	2522.585823
1017.782219	2521.658251
1018.075011	2524.690505
1018.367768	2522.800072
1018.660490	2525.426513
1018.953177	2525.426513
1019.245829	2525.426513
