Dividing Wavelength (nm)	Counts (n)	Blue Motor Position (mm): 0.000000	Red Motor Position (mm): 25.200000	
326.493990	2127.324073
326.888308	2127.324073
327.282561	2127.324073
327.676750	2093.523137
328.070874	2092.340986
328.464933	2096.593199
328.858929	2102.236771
329.252859	2112.588781
329.646726	2120.722682
330.040528	2134.727008
330.434265	2153.205357
330.827938	2171.494663
331.221547	2188.190965
331.615091	2208.579912
332.008571	2227.632953
332.401986	2247.346385
332.795338	2266.386823
333.188625	2286.059926
333.581847	2303.406536
333.975006	2321.965544
334.368100	2341.729388
334.761129	2356.908302
335.154095	2375.893287
335.546996	2393.585217
335.939833	2408.902762
336.332606	2425.173087
336.725315	2434.988213
337.117960	2446.918104
337.510540	2455.931687
337.903056	2465.746813
338.295508	2471.221506
338.687896	2482.455718
339.080220	2489.740185
339.472480	2498.721001
339.864676	2499.754437
340.256807	2505.682834
340.648875	2506.537310
341.040879	2510.688700
341.432818	2514.749349
341.824694	2515.470234
342.216506	2515.482837
342.608253	2514.880419
342.999937	2516.811181
343.391557	2515.056860
343.783113	2512.049811
344.174605	2510.789523
344.566033	2510.933196
344.957397	2510.547548
345.348697	2507.464882
345.739934	2505.614778
346.131106	2503.454644
346.522215	2501.342401
346.913260	2499.928357
347.304241	2500.187976
347.695159	2494.768736
348.086012	2495.724035
348.476802	2491.451657
348.867528	2491.809579
349.258191	2488.855462
349.648789	2492.296050
350.039324	2484.641058
350.429796	2489.629280
350.820203	2489.054588
351.210548	2483.378249
351.600828	2485.273723
351.991045	2483.486634
352.381198	2483.244658
352.771288	2484.938486
353.161314	2482.657364
353.551276	2483.625265
353.941175	2480.961016
354.331010	2481.225676
354.720782	2481.346664
355.110490	2483.103506
355.500135	2482.364977
355.889717	2484.275574
356.279235	2485.041830
356.668689	2482.405306
357.058080	2482.233907
357.447408	2479.839359
357.836672	2480.895481
358.225873	2483.365646
358.615010	2479.133597
359.004084	2485.886223
359.393095	2487.638024
359.782043	2487.176758
360.170927	2489.407469
360.559748	2486.047540
360.948505	2491.103817
361.337199	2490.902171
361.725830	2491.139105
362.114398	2490.579537
362.502903	2493.112717
362.891344	2492.245638
363.279722	2493.319404
363.668037	2492.613643
364.056289	2493.183293
364.444478	2494.020125
364.832603	2496.255876
365.220665	2498.718480
365.608665	2496.641525
365.996601	2496.465084
366.384474	2496.578510
366.772284	2498.574807
367.160031	2499.010867
367.547715	2503.426918
367.935336	2505.047649
368.322893	2506.615448
368.710388	2513.723474
369.097820	2517.887468
369.485189	2520.471059
369.872495	2526.502799
370.259738	2532.595034
370.646918	2541.129707
371.034035	2548.835111
371.421090	2557.515978
371.808081	2568.782957
372.195010	2578.005748
372.581875	2590.885896
372.968678	2606.478185
373.355418	2612.313320
373.742096	2632.072123
374.128710	2647.447642
374.515262	2663.889365
374.901751	2677.092147
375.288177	2689.972295
375.674540	2712.453321
376.060841	2731.975189
376.447079	2751.184506
376.833254	2773.433638
377.219367	2783.228600
377.605417	2822.446257
377.991404	2831.331290
378.377329	2854.134950
378.763191	2870.359903
379.148991	2907.939185
379.534727	2932.177052
379.920402	2960.077318
380.306013	2975.407467
380.691563	3020.379601
381.077049	3045.933209
381.462474	3061.036506
381.847835	3103.200717
382.233134	3124.502113
382.618371	3121.558079
383.003545	3190.526105
383.388657	3198.972558
383.773706	3234.164853
384.158693	3247.851586
384.543618	3274.461316
384.928480	3311.566729
385.313280	3359.412320
385.698017	3353.657843
386.082692	3406.489135
386.467305	3414.302924
386.851856	3443.997841
387.236344	3466.325111
387.620770	3498.013804
388.005133	3525.036909
388.389435	3553.171589
388.773674	3563.609298
389.157851	3605.319805
389.541965	3621.156590
389.926018	3584.487237
390.310008	3658.844256
390.693936	3675.598531
391.077802	3719.436404
391.461606	3705.416956
391.845348	3767.559259
392.229027	3768.259979
392.612645	3782.183646
392.996200	3861.077704
393.379694	3903.708222
393.763125	3963.713076
394.146494	3931.363992
394.529801	3994.325482
394.913047	4040.870456
395.296230	4006.908202
395.679351	4063.026327
396.062410	4086.145059
396.445408	4065.713262
396.828343	4101.802883
397.211217	4126.315493
397.594028	4042.675189
397.976778	4107.915282
398.359466	4135.931494
398.742092	4165.099610
399.124656	4086.553392
399.507158	4166.657327
399.889598	4194.781924
400.271977	4256.382303
400.654294	4226.684866
401.036549	4233.818099
401.418742	4204.589489
401.800874	4307.023214
402.182944	4324.158096
402.564952	4394.436822
402.946898	4375.416549
403.328783	4375.814800
403.710606	4290.518477
404.092367	4479.589472
404.474067	4443.162095
404.855705	4454.050987
405.237282	4381.060120
405.618797	4488.469465
406.000250	4525.584960
406.381642	4604.970530
406.762972	4565.644489
407.144240	4577.912137
407.525447	4579.300975
407.906593	4632.699397
408.287677	4677.888300
408.668700	4604.582361
409.049661	4662.112009
409.430560	4701.609449
409.811399	4625.036843
410.192176	4786.245381
410.572891	4723.982090
410.953545	4828.878419
411.334138	4711.623702
411.714669	4779.628867
412.095139	4672.963093
412.475547	4817.117407
412.855894	4796.327689
413.236180	4806.329338
413.616405	4758.390486
413.996568	4849.269887
414.376670	4781.816728
414.756711	4742.684771
415.136691	4772.188124
415.516609	4851.984548
415.896466	4887.902769
416.276262	4922.260753
416.655997	4903.348865
417.035670	5085.999951
417.415283	5179.702398
417.794834	5121.255260
418.174324	5073.777673
418.553753	4979.697140
418.933121	5168.538763
419.312428	5234.661057
419.691674	5175.634187
420.070859	5298.078773
420.449983	5211.043251
420.829045	5323.758410
421.208047	5228.238627
421.586988	5300.886695
421.965867	5312.370444
422.344686	5445.691319
422.723444	5301.950379
423.102141	5119.853819
423.480777	5420.402371
423.859352	5187.080127
424.237866	5443.647131
424.616319	5438.979022
424.994712	5547.714190
425.373044	5429.116005
425.751314	5568.307304
426.129524	5369.345564
426.507673	5563.873609
426.885762	5646.538450
427.263789	5577.126802
427.641756	5460.149348
428.019662	5582.016722
428.397508	5586.699954
428.775292	5533.261202
429.153016	5633.146625
429.530679	5556.657197
429.908282	5643.228932
430.285824	5511.649776
430.663305	5786.828720
431.040726	5519.861815
431.418086	5521.918606
431.795385	5621.705726
432.172624	5637.943282
432.549802	5626.764524
432.926920	5642.094673
433.303977	5646.183048
433.680974	5679.870559
434.057910	5695.735070
434.434786	5698.759762
434.811601	5666.481254
435.188355	5894.109515
435.565050	5770.195433
435.941683	5743.973871
436.318257	5953.532116
436.694770	5930.877171
437.071222	5963.695082
437.447614	5890.857971
437.823946	5792.096726
438.200218	5936.588798
438.576429	5797.034536
438.952580	5878.129058
439.328670	5916.469553
439.704700	5814.371064
440.080670	5796.883302
440.456580	6042.137957
440.832429	5917.578607
441.208218	5757.257312
441.583947	5892.400564
441.959616	5883.195417
442.335224	5802.380680
442.710773	5912.015694
443.086261	5924.616058
443.461689	5709.827616
443.837057	5828.942519
444.212365	5953.864832
444.587612	5838.344271
444.962800	5956.077899
445.337927	5916.139358
445.712995	5541.183376
446.088002	6030.654208
446.462949	5853.082085
446.837837	5766.220483
447.212664	5896.042798
447.587431	5978.571527
447.962139	6401.463841
448.336786	7133.658670
448.711374	6892.399129
449.085901	6087.344504
449.460369	5984.562939
449.834776	5888.813783
450.209124	6159.062479
450.583412	6220.496500
450.957640	6307.385828
451.331808	6074.920580
451.705917	5687.195356
452.079965	5585.416980
452.453954	5694.618455
452.827883	5561.474020
453.201752	5584.612916
453.575562	5393.230551
453.949311	5479.058716
454.323001	5359.439697
454.696632	5364.259040
455.070202	5396.202312
455.443713	5451.249191
455.817164	5457.996775
456.190556	5445.804745
456.563888	5435.944248
456.937160	5403.474176
457.310373	5148.989168
457.683526	5102.106437
458.056619	4978.439372
458.429653	4919.125156
458.802628	4831.091486
459.175542	4831.875385
459.548398	4955.323161
459.921194	4979.714784
460.293930	4925.172020
460.666607	5093.609573
461.039224	5174.915822
461.411782	5163.898381
461.784280	5105.274803
462.156719	4982.981451
462.529099	4857.494529
462.901419	4619.506697
463.273680	4512.064585
463.645882	4461.370742
464.018024	4337.058409
464.390106	4340.597299
464.762130	4416.282662
465.134094	4514.214638
465.505999	4799.594357
465.877845	5121.875322
466.249631	5234.527467
466.621358	5016.842882
466.993026	4723.261205
467.364634	4563.885126
467.736184	4383.981469
468.107674	4235.925301
468.479105	4169.689581
468.850477	4063.409455
469.221790	3939.896144
469.593043	3809.668017
469.964238	3722.574523
470.335373	3670.365813
470.706449	3633.086480
471.077467	3583.158892
471.448425	3759.231273
471.819324	3878.527658
472.190164	3829.081501
472.560945	3585.472782
472.931667	3418.567740
473.302330	3358.648585
473.672934	3275.580452
474.043479	3280.659415
474.413965	3240.990575
474.784393	3184.814477
475.154761	3164.412928
475.525070	3138.312354
475.895321	3095.475149
476.265513	3077.132911
476.635645	3068.129410
477.005719	3035.591282
477.375734	3016.689476
477.745691	3005.543485
478.115588	2988.806854
478.485427	2973.912765
478.855207	2987.372646
479.224928	3008.764782
479.594591	3016.555885
479.964194	2975.387303
480.333739	2941.336829
480.703226	2911.866243
481.072653	2892.019221
481.442022	2886.370608
481.811333	2873.147661
482.180584	2846.369052
482.549777	2818.410813
482.918912	2796.907771
483.287988	2784.589712
483.657005	2768.672268
484.025964	2748.926069
484.394864	2739.592372
484.763706	2727.521330
485.132489	2713.028012
485.501213	2706.303113
485.869879	2698.005374
486.238487	2686.982891
486.607036	2683.257478
486.975527	2672.756755
487.343959	2671.993020
487.712333	2663.851557
488.080648	2660.879796
488.448905	2656.967861
488.817104	2650.850421
489.185244	2651.704896
489.553326	2647.293887
489.921350	2655.042140
490.289315	2662.825682
490.657222	2660.438695
491.025070	2659.589261
491.392861	2654.495175
491.760593	2646.073927
492.128267	2640.586632
492.495883	2634.012967
492.863440	2631.361320
493.230939	2625.674898
493.598380	2621.972171
493.965763	2613.591253
494.333088	2618.231635
494.700354	2614.460852
495.067563	2614.264247
495.434713	2609.565891
495.801805	2612.504884
496.168839	2612.971191
496.535815	2606.384923
496.902733	2607.778802
497.269593	2607.446086
497.636395	2605.106991
498.003139	2605.457351
498.369825	2600.585076
498.736453	2602.987186
499.103023	2600.822010
499.469535	2602.140272
499.835989	2600.713625
500.202385	2601.520210
500.568723	2598.503079
500.935003	2600.784201
501.301226	2596.678182
501.667390	2599.806217
502.033497	2601.512648
502.399546	2599.876794
502.765537	2596.572317
503.131470	2599.201279
503.497345	2599.894438
503.863163	2598.679520
504.228923	2595.077615
504.594625	2596.592482
504.960269	2593.978644
505.325856	2595.871597
505.691385	2593.046030
506.056856	2596.070722
506.422270	2594.213057
506.787625	2592.063005
507.152924	2595.833788
507.518164	2591.563931
507.883347	2592.574682
508.248472	2592.793972
508.613540	2590.817840
508.978550	2591.697522
509.343503	2594.462594
509.708398	2594.886051
510.073236	2595.001998
510.438016	2594.361771
510.802738	2593.061154
511.167403	2594.613829
511.532010	2592.819178
511.896561	2592.983016
512.261053	2595.236412
512.625488	2589.403797
512.989866	2587.974629
513.354186	2591.387491
513.718449	2588.579568
514.082655	2593.214909
514.446803	2593.280444
514.810894	2592.126020
515.174927	2593.199785
515.538904	2592.340269
515.902822	2592.859507
516.266684	2592.806575
516.630488	2593.088880
516.994235	2592.196596
517.357925	2595.337235
517.721558	2593.855135
518.085133	2593.928232
518.448651	2594.999477
518.812112	2593.406473
519.175516	2592.156267
519.538863	2595.306988
519.902152	2595.042327
520.265385	2597.154571
520.628560	2594.674323
520.991678	2594.462594
521.354739	2593.096442
521.717743	2592.279775
522.080690	2593.726586
522.443580	2594.543253
522.806413	2595.218767
523.169189	2594.197934
523.531908	2595.843871
523.894569	2595.914447
524.257174	2592.307501
524.619722	2595.460743
524.982213	2595.899323
525.344647	2595.387646
525.707025	2591.566452
526.069345	2598.107349
526.431608	2595.826227
526.793815	2594.414703
527.155964	2596.065681
527.518057	2596.108531
527.880093	2594.386977
528.242072	2594.694487
528.603995	2598.056937
528.965860	2594.122317
529.327669	2593.633325
529.689421	2594.681885
530.051117	2593.345979
530.412755	2593.663572
530.774337	2592.862028
531.135862	2594.195413
531.497331	2591.132912
531.858743	2589.756677
532.220098	2592.826740
532.581396	2588.193920
532.942638	2590.154928
533.303824	2590.719538
533.664953	2593.061154
534.026025	2592.741040
534.387040	2593.340938
534.747999	2591.682398
535.108902	2592.413365
535.469748	2590.901019
535.830537	2592.607450
536.191270	2590.744743
536.551947	2594.946545
536.912567	2591.886565
537.273131	2590.772470
537.633638	2590.535536
537.994089	2591.737851
538.354483	2591.022007
538.714821	2593.693818
539.075103	2591.291709
539.435328	2594.878490
539.795497	2592.983016
540.155609	2595.284303
540.515665	2593.361102
540.875665	2590.941348
541.235609	2593.461925
541.595496	2592.965372
541.955328	2590.447315
542.315102	2592.423448
542.674821	2590.782552
543.034483	2591.621904
543.394090	2590.452357
543.753640	2589.592840
544.113134	2593.235073
544.472571	2591.518561
544.831953	2594.525609
545.191278	2593.288006
545.550548	2592.373036
545.909761	2593.938314
546.268918	2594.245825
546.628019	2593.116606
546.987064	2590.641400
547.346053	2591.465628
547.704986	2593.739189
548.063863	2592.892275
548.422684	2593.487131
548.781449	2592.811617
549.140158	2592.415886
549.498811	2594.160125
549.857408	2591.934456
550.215949	2591.758015
550.574434	2588.834146
550.932864	2590.623756
551.291237	2590.800196
551.649555	2591.838674
552.007817	2593.935794
552.366022	2592.425968
552.724173	2590.323807
553.082267	2593.565269
553.440305	2590.439754
553.798288	2594.931422
554.156215	2593.401432
554.514086	2594.886051
554.871902	2591.495875
555.229661	2595.425455
555.587365	2589.925556
555.945014	2591.266503
556.302606	2591.521081
556.660143	2593.043510
557.017625	2593.202306
557.375050	2593.076277
557.732421	2593.703901
558.089735	2593.429158
558.446994	2593.782039
558.804197	2595.105342
559.161345	2594.717173
559.518437	2591.425299
559.875474	2594.586103
560.232455	2594.770105
560.589381	2592.431009
560.946251	2596.862184
561.303065	2596.456371
561.659825	2595.135588
562.016528	2594.916298
562.373177	2590.835484
562.729770	2592.914960
563.086307	2593.081318
563.442789	2593.351020
563.799216	2592.965372
564.155587	2590.480083
564.511904	2592.355392
564.868164	2595.801021
565.224370	2593.625763
565.580520	2591.999991
565.936615	2594.172728
566.292654	2592.589806
566.648638	2594.208016
567.004567	2590.757346
567.360441	2590.969075
567.716260	2593.900506
568.072023	2595.803541
568.427732	2588.987901
568.783385	2586.119485
569.138982	2587.803230
569.494525	2589.391194
569.850013	2588.839187
570.205445	2591.838674
570.560823	2591.019486
570.916145	2589.358426
571.271412	2589.797007
571.626625	2591.495875
571.981782	2591.798345
572.336884	2590.495206
572.691931	2591.695001
573.046923	2588.924887
573.401860	2590.958992
573.756743	2586.101841
574.111570	2587.979671
574.466342	2589.126533
574.821059	2590.253231
575.175722	2590.802717
575.530330	2591.047213
575.884882	2590.805237
576.239380	2589.429002
576.593823	2590.328848
576.948211	2588.486307
577.302544	2590.774990
577.656823	2587.757860
578.011047	2590.243149
578.365216	2590.855649
578.719330	2588.940010
579.073389	2586.898343
579.427394	2587.994794
579.781344	2586.666450
580.135239	2588.135946
580.489080	2586.255596
580.842866	2587.634352
581.196597	2592.216760
581.550273	2586.991604
581.903895	2587.525967
582.257463	2588.035123
582.610975	2587.929259
582.964434	2587.452870
583.317837	2586.454722
583.671186	2588.176276
584.024481	2587.218456
584.377721	2586.704259
584.730906	2585.501943
585.084037	2586.716862
585.437113	2585.270050
585.790135	2588.856831
586.143103	2584.962540
586.496016	2587.430185
586.848874	2582.010944
587.201679	2584.682756
587.554428	2581.176633
587.907124	2582.061356
588.259765	2582.326017
588.612352	2584.700400
588.964884	2582.625965
589.317362	2584.866758
589.669786	2585.781727
590.022155	2584.682756
590.374470	2584.891964
590.726731	2585.262489
591.078937	2581.945409
591.431090	2586.056470
591.783188	2582.202508
592.135232	2585.232242
592.487222	2583.427509
592.839157	2585.242324
593.191038	2579.752507
593.542866	2581.406006
593.894639	2581.781572
594.246358	2584.385328
594.598022	2582.043712
594.949633	2580.579257
595.301190	2583.150245
595.652692	2579.830645
596.004141	2579.676890
596.355535	2584.750812
596.706876	2579.543300
597.058162	2578.283011
597.409395	2580.301993
597.760573	2580.556572
598.111698	2579.966757
598.462768	2580.964905
598.813785	2581.126222
599.164748	2579.744946
599.515657	2578.585480
599.866511	2579.371900
600.217312	2578.376272
600.568060	2580.203691
600.918753	2582.815008
601.269392	2578.620768
601.619978	2579.258474
601.970510	2579.523135
602.320988	2579.132446
602.671412	2580.730491
603.021783	2577.819225
603.372100	2579.311407
603.722363	2579.321489
604.072572	2579.238310
604.422728	2582.053794
604.772830	2575.704461
605.122878	2574.116497
605.472872	2577.683114
605.822813	2577.718402
606.172701	2579.984401
606.522534	2578.056159
606.872314	2577.990624
607.222041	2580.107909
607.571714	2581.554720
607.921333	2579.192939
608.270899	2580.485995
608.620411	2579.266036
608.969870	2581.174113
609.319276	2579.898701
609.668627	2582.084041
610.017926	2586.689135
610.367171	2588.350195
610.716362	2589.040833
611.065500	2586.351378
611.414585	2585.993456
611.763616	2585.333065
612.112594	2582.326017
612.461518	2582.449525
612.810389	2582.628486
613.159207	2580.430543
613.507971	2580.387693
613.856682	2582.603280
614.205340	2581.267374
614.553945	2579.422312
614.902496	2579.404668
615.250994	2578.792168
615.599439	2581.038002
615.947830	2579.583629
616.296169	2579.755028
616.644454	2580.995152
616.992686	2578.104050
617.340864	2580.062538
617.688990	2581.307703
618.037063	2581.058166
618.385082	2579.240830
618.733048	2581.771490
619.080961	2580.554051
619.428821	2577.216807
619.776628	2581.113619
620.124382	2581.857189
620.472083	2578.517425
620.819731	2581.206880
621.167326	2578.958526
621.514868	2579.840728
621.862357	2578.348546
622.209793	2579.147569
622.557176	2579.747466
622.904506	2576.816035
623.251783	2574.086251
623.599007	2573.602300
623.946179	2574.769327
624.293297	2574.570201
624.640363	2576.138000
624.987376	2575.535582
625.334336	2576.765624
625.681243	2574.739080
626.028097	2577.617579
626.374899	2576.437949
626.721647	2573.574573
627.068343	2573.395612
627.414987	2573.214131
627.761577	2575.618761
628.108115	2575.157496
628.454600	2574.802094
628.801032	2572.430232
629.147412	2573.753534
629.493739	2573.972825
629.840014	2572.815880
630.186236	2574.202197
630.532405	2572.047104
630.878521	2572.843606
631.224585	2574.214800
631.570597	2575.061714
631.916556	2571.210272
632.262462	2572.037022
632.608316	2570.595252
632.954117	2571.419480
633.299866	2571.011147
633.645562	2569.264387
633.991206	2570.938050
634.336797	2569.203893
634.682336	2572.200859
635.027823	2569.307237
635.373257	2570.648184
635.718639	2564.185424
636.063968	2566.169118
636.409245	2566.932853
636.754470	2568.732545
637.099642	2566.741289
637.444762	2568.465364
637.789829	2567.086608
638.134845	2569.082905
638.479808	2568.258677
638.824719	2568.006619
639.169577	2567.666341
639.514383	2566.920250
639.859137	2563.245249
640.203839	2567.142061
640.548489	2564.649211
640.893086	2563.358675
641.237632	2561.334652
641.582125	2561.251473
641.926566	2561.064950
642.270955	2564.135013
642.615292	2565.959911
642.959576	2564.301371
643.303809	2567.172308
643.647990	2564.719787
643.992118	2565.927143
644.336195	2565.856567
644.680219	2562.864642
645.024192	2562.342883
645.368112	2567.164746
645.711981	2566.620302
646.055797	2565.276834
646.399562	2567.527709
646.743274	2567.676423
647.086935	2570.365879
647.430544	2565.163408
647.774101	2567.474777
648.117606	2567.255487
648.461059	2566.690878
648.804460	2570.010478
649.147810	2566.466547
649.491108	2565.750703
649.834354	2568.041907
650.177548	2564.833213
650.520690	2564.671896
650.863781	2565.269272
651.206820	2566.355641
651.549807	2564.800445
651.892742	2564.848336
652.235626	2565.397822
652.578458	2564.061916
652.921238	2559.976061
653.263967	2565.544015
653.606644	2563.482183
653.949269	2565.140723
654.291843	2563.081412
654.634365	2563.318346
654.976836	2562.821792
655.319255	2563.436813
655.661622	2563.517472
656.003938	2562.650393
656.346203	2562.625187
656.688416	2565.864129
657.030577	2563.323387
657.372687	2561.851370
657.714746	2560.986812
658.056753	2564.445044
658.398708	2555.527243
658.740612	2559.635783
659.082465	2555.171841
659.424266	2560.066802
659.766016	2560.487738
660.107715	2560.898592
660.449362	2561.911864
660.790958	2561.828685
661.132503	2563.129303
661.473996	2561.533778
661.815438	2562.829354
662.156829	2563.792214
662.498168	2558.239383
662.839456	2559.976061
663.180693	2562.068140
663.521879	2560.326421
663.863013	2561.445557
664.204097	2562.274827
664.545129	2562.053016
664.886110	2561.362378
665.227040	2560.863304
665.567918	2561.952193
665.908746	2563.187276
666.249522	2562.030331
666.590248	2562.289951
666.930922	2563.146947
667.271545	2561.737944
667.612118	2561.742985
667.952639	2563.774570
668.293109	2563.240208
668.633528	2561.317008
668.973896	2560.492779
669.314213	2560.747357
669.654480	2562.315156
669.994695	2561.014539
670.334859	2560.870866
670.674973	2559.393808
671.015035	2562.000084
671.355047	2561.276679
671.695008	2563.230126
672.034918	2561.075033
672.374777	2560.717111
672.714585	2558.274672
673.054342	2563.588048
673.394049	2560.170145
673.733705	2562.037893
674.073310	2561.395146
674.412864	2559.413972
674.752368	2560.013870
675.091820	2559.169476
675.431223	2561.715259
675.770574	2559.534960
676.109875	2555.217212
676.449125	2559.958417
676.788324	2554.410627
677.127473	2557.624363
677.466571	2553.044474
677.805619	2559.633262
678.144616	2561.402707
678.483562	2560.419682
678.822458	2558.766184
679.161303	2560.119734
679.500098	2557.838612
679.838842	2559.550083
680.177535	2560.568397
680.516179	2559.426575
680.854771	2558.493962
681.193314	2557.682336
681.531805	2558.294836
681.870247	2562.146278
682.208638	2563.136864
682.546978	2563.756926
682.885268	2562.466391
683.223508	2562.973027
683.561697	2563.734241
683.899836	2560.086966
684.237925	2560.883469
684.575963	2560.031514
684.913951	2559.698797
685.251889	2561.737944
685.589776	2559.623180
685.927614	2559.666030
686.265401	2562.100907
686.603137	2560.575958
686.940824	2558.814075
687.278460	2564.437482
687.616046	2559.358520
687.953582	2562.509241
688.291068	2562.289951
688.628504	2562.279868
688.965889	2560.671740
689.303224	2564.775239
689.640510	2558.304918
689.977745	2559.844991
690.314930	2558.609908
690.652065	2560.303736
690.989150	2560.434806
691.326185	2558.370453
691.663170	2559.270299
692.000105	2557.495813
692.336990	2557.100083
692.673825	2559.648386
693.010610	2557.090000
693.347345	2550.806202
693.684030	2548.893084
694.020665	2550.879299
694.357251	2550.793599
694.693786	2554.340051
695.030272	2556.129661
695.366707	2552.668908
695.703093	2552.709238
696.039429	2556.331307
696.375716	2551.567416
696.711952	2552.542880
697.048139	2555.212171
697.384276	2554.024979
697.720363	2552.346275
698.056400	2553.084804
698.392388	2553.808209
698.728326	2553.906512
699.064214	2553.954403
699.400053	2550.259237
699.735842	2549.271171
700.071581	2552.507592
700.407270	2552.898281
700.742910	2553.130174
701.078501	2550.085317
701.414042	2549.961809
701.749533	2551.199412
702.084974	2551.033054
702.420366	2550.735626
702.755709	2548.343598
703.091002	2550.987684
703.426246	2550.682694
703.761440	2548.724206
704.096584	2551.680842
704.431679	2549.583722
704.766725	2550.997766
705.101721	2547.012734
705.436668	2550.314690
705.771565	2550.168496
706.106413	2549.732436
706.441212	2551.562375
706.775961	2549.432488
707.110661	2548.875440
707.445311	2552.235369
707.779913	2550.806202
708.114465	2550.740667
708.448967	2551.517005
708.783421	2552.510112
709.117825	2551.489278
709.452180	2553.903991
709.786485	2550.680173
710.120742	2551.179248
710.454949	2554.584547
710.789107	2549.954247
711.123216	2551.476676
711.457275	2552.247972
711.791286	2552.583209
712.125247	2547.259750
712.459159	2552.915925
712.793023	2555.587737
713.126837	2554.259392
713.460602	2552.253013
713.794318	2553.104968
714.127985	2553.117571
714.461602	2553.107489
714.795171	2553.558672
715.128691	2550.297046
715.462162	2551.580019
715.795584	2548.078938
716.128957	2550.874258
716.462281	2552.605894
716.795556	2548.497354
717.128782	2549.538352
717.461960	2549.495502
717.795088	2549.049360
718.128167	2546.740512
718.461198	2548.162117
718.794180	2549.782848
719.127113	2548.295707
719.459997	2549.717313
719.792833	2548.235214
720.125619	2546.886705
720.458357	2548.678835
720.791046	2548.537683
721.123686	2545.397044
721.456278	2547.075748
721.788821	2548.391489
722.121315	2544.285470
722.453761	2546.198588
722.786158	2545.691952
723.118506	2544.114070
723.450805	2547.221942
723.783056	2547.403423
724.115259	2548.666232
724.447412	2545.828063
724.779518	2545.787733
725.111574	2543.390665
725.443582	2547.647919
725.775542	2547.650440
726.107453	2547.479041
726.439315	2550.407951
726.771129	2551.295194
727.102895	2549.709751
727.434612	2548.804864
727.766281	2550.864175
728.097901	2545.913762
728.429473	2543.420912
728.760996	2545.696993
729.092471	2543.937630
729.423897	2548.426777
729.755276	2548.111705
730.086606	2548.658671
730.417887	2547.254709
730.749120	2549.064483
731.080305	2548.709082
731.411442	2550.849052
731.742530	2550.236552
732.073570	2550.160934
732.404562	2550.705379
732.735506	2548.772097
733.066401	2549.959288
733.397249	2548.782179
733.728048	2548.028526
734.058798	2548.525080
734.389501	2543.688093
734.720156	2545.777651
735.050762	2549.984494
735.381320	2547.184133
735.711831	2546.120450
736.042293	2546.019627
736.372707	2546.145655
736.703073	2544.668597
737.033391	2545.429812
737.363661	2550.594474
737.693883	2546.934596
738.024056	2550.062632
738.354182	2545.863351
738.684260	2546.594318
739.014290	2547.353012
739.344272	2548.409133
739.674207	2548.028526
740.004093	2546.163299
740.333931	2545.974256
740.663722	2547.968033
740.993464	2550.060111
741.323159	2545.578526
741.652806	2547.600028
741.982405	2549.455173
742.311956	2544.484595
742.641460	2547.337888
742.970915	2543.090716
743.300323	2547.181612
743.629683	2546.362425
743.958996	2544.955943
744.288260	2544.219935
744.617477	2543.783875
744.946647	2542.029553
745.275768	2540.242464
745.604842	2538.868750
745.933869	2541.202804
746.262847	2541.777496
746.591778	2544.144317
746.920662	2543.662887
747.249498	2543.408309
747.578286	2544.391334
747.907027	2542.697506
748.235720	2545.651622
748.564365	2545.946530
748.892963	2544.592980
749.221514	2545.152548
749.550017	2544.048535
749.878473	2545.964174
750.206881	2544.298072
750.535242	2545.051725
750.863555	2543.531817
751.191821	2543.892260
751.520039	2543.672969
751.848210	2544.414019
752.176334	2546.369987
752.504411	2544.018288
752.832440	2540.464275
753.160421	2544.880326
753.488356	2544.020809
753.816243	2546.001983
754.144082	2542.253885
754.471875	2542.856302
754.799620	2545.545758
755.127318	2540.305479
755.454969	2543.176416
755.782572	2543.763710
756.110129	2543.972918
756.437638	2544.078782
756.765100	2540.567619
757.092515	2541.190201
757.419882	2543.173895
757.747203	2541.447300
758.074477	2541.999306
758.401703	2540.673483
758.728882	2546.662374
759.056014	2543.625078
759.383099	2544.600542
759.710138	2545.810419
760.037129	2544.968546
760.364073	2546.460727
760.690970	2543.930068
761.017820	2542.140459
761.344623	2542.803370
761.671379	2542.697506
761.998088	2538.576363
762.324751	2547.211859
762.651366	2546.037271
762.977935	2556.976574
763.304456	2552.918446
763.630931	2560.568397
763.957359	2556.863148
764.283740	2553.626728
764.610074	2550.125646
764.936362	2548.320913
765.262602	2545.558361
765.588796	2546.755635
765.914943	2546.128011
766.241044	2545.139945
766.567097	2540.469316
766.893104	2540.983514
767.219064	2541.585932
767.544978	2541.079296
767.870845	2540.141641
768.196665	2540.449152
768.522438	2541.611138
768.848165	2541.076775
769.173846	2543.060469
769.499479	2540.799512
769.825066	2542.034594
770.150607	2542.742877
770.476101	2543.035263
770.801548	2538.974614
771.126949	2539.796322
771.452303	2541.681714
771.777611	2539.967721
772.102872	2540.204656
772.428087	2539.352701
772.753256	2540.572660
773.078378	2539.143493
773.403453	2539.193904
773.728482	2537.575694
774.053465	2537.416897
774.378401	2538.876312
774.703291	2539.279604
775.028135	2537.631147
775.352932	2541.001158
775.677683	2538.450334
776.002388	2538.571322
776.327046	2537.842875
776.651658	2536.411187
776.976224	2538.750283
777.300743	2539.909748
777.625216	2538.162988
777.949643	2537.071578
778.274024	2538.465458
778.598359	2534.306506
778.922647	2531.959848
779.246889	2536.340611
779.571086	2532.242153
779.895236	2535.720549
780.219339	2537.149716
780.543397	2538.823379
780.867409	2536.736342
781.191374	2538.485622
781.515294	2539.556867
781.839167	2536.708615
782.162995	2537.593338
782.486776	2539.251877
782.810511	2539.957639
783.134201	2537.426980
783.457844	2536.806918
783.781441	2538.838503
784.104993	2537.910931
784.428498	2538.896476
784.751958	2538.561239
785.075372	2538.099974
785.398739	2536.529654
785.722061	2537.444624
786.045337	2535.105528
786.368568	2538.228523
786.691752	2538.546116
787.014891	2537.323636
787.337983	2536.580066
787.661030	2540.209697
787.984031	2538.964532
788.306987	2539.708102
788.629897	2541.601055
788.952760	2540.164326
789.275579	2540.131559
789.598351	2537.064017
789.921078	2539.972763
790.243759	2539.360262
790.566395	2537.767258
790.888984	2536.764068
791.211529	2537.908410
791.534027	2540.829759
791.856480	2534.273738
792.178888	2538.294058
792.501249	2536.912782
792.823566	2537.689120
793.145836	2537.686599
793.468062	2535.352545
793.790241	2536.771630
794.112375	2537.968904
794.434464	2533.915816
794.756507	2538.442772
795.078505	2538.571322
795.400457	2537.094264
795.722364	2535.423121
796.044226	2536.723739
796.366042	2534.712318
796.687812	2533.401618
797.009538	2535.856660
797.331218	2536.562422
797.652852	2540.098791
797.974442	2537.532844
798.295986	2537.121990
798.617484	2536.549819
798.938938	2538.004192
799.260346	2538.233564
799.581709	2535.528985
799.903026	2541.036446
800.224299	2536.862371
800.545526	2538.571322
800.866708	2535.932278
801.187845	2536.048224
801.508936	2538.619213
801.829983	2535.476053
802.150984	2535.526465
802.471940	2538.253729
802.792851	2536.849768
803.113717	2535.208872
803.434538	2535.128214
803.755314	2536.748945
804.076045	2536.350693
804.396731	2538.074768
804.717372	2536.494366
805.037967	2537.079140
805.358518	2535.826413
805.679024	2536.406146
805.999485	2534.195600
806.319901	2533.726773
806.640272	2536.257432
806.960598	2536.549819
807.280879	2537.464788
807.601115	2535.566794
807.921306	2534.755168
808.241453	2538.435211
808.561554	2535.874304
808.881611	2537.346321
809.201623	2536.771630
809.521590	2537.779861
809.841513	2534.603934
810.161390	2538.604089
810.481223	2534.989582
810.801011	2535.841537
811.120755	2536.474202
811.440453	2537.265663
811.760107	2537.391692
812.079716	2533.721732
812.399281	2533.109232
812.718801	2535.380271
813.038276	2532.327853
813.357707	2538.465458
813.677093	2534.104859
813.996434	2536.154088
814.315731	2534.477905
814.634983	2535.528985
814.954191	2536.673327
815.273354	2537.779861
815.592473	2538.795653
815.911547	2537.242978
816.230577	2535.639891
816.549562	2533.986392
816.868502	2536.229706
817.187399	2534.876156
817.506250	2536.544778
817.825058	2538.470499
818.143821	2535.022349
818.462539	2539.902186
818.781213	2539.604758
819.099843	2537.757175
819.418429	2536.973276
819.736970	2542.768082
820.055466	2545.195398
820.373919	2544.101468
820.692327	2544.996272
821.010691	2551.862324
821.329011	2562.746175
821.647286	2584.274422
821.965517	2607.269646
822.283704	2622.337655
822.601847	2626.698253
822.919945	2616.857920
823.237999	2601.081629
823.556010	2587.473035
823.873976	2578.333423
824.191897	2568.132648
824.509775	2560.550752
824.827609	2557.430278
825.145398	2555.088662
825.463144	2556.878272
825.780845	2554.030020
826.098502	2558.151163
826.416116	2561.228788
826.733685	2570.738924
827.051210	2571.530386
827.368692	2571.099367
827.686129	2561.783315
828.003522	2556.790052
828.320872	2547.252189
828.638177	2547.468958
828.955439	2542.526107
829.272656	2538.624254
829.589830	2538.778009
829.906960	2539.955118
830.224046	2539.393030
830.541088	2537.459747
830.858086	2538.488143
831.175041	2539.778678
831.491952	2538.520910
831.808819	2540.532331
832.125642	2538.929244
832.442421	2540.078627
832.759157	2543.204142
833.075849	2547.988197
833.392497	2551.333003
833.709101	2553.291491
834.025662	2556.212840
834.342179	2554.266954
834.658653	2547.983156
834.975083	2543.342774
835.291469	2545.029040
835.607811	2541.333874
835.924110	2540.481919
836.240366	2540.975952
836.556578	2537.248019
836.872746	2538.094933
837.188871	2535.667617
837.504952	2537.915972
837.820990	2534.989582
838.136984	2533.086546
838.452935	2535.269366
838.768842	2533.061341
839.084706	2535.576876
839.400526	2533.961187
839.716303	2540.116435
840.032037	2539.824048
840.347727	2541.701878
840.663373	2539.970242
840.978977	2539.544264
841.294537	2534.515713
841.610054	2534.712318
841.925527	2534.611495
842.240957	2534.593851
842.556344	2536.632998
842.871687	2534.109901
843.186987	2532.156453
843.502244	2533.071423
843.817458	2534.240971
844.132629	2533.623429
844.447756	2534.987061
844.762840	2526.969106
845.077881	2530.507996
845.392879	2529.797193
845.707833	2530.933974
846.022745	2528.244518
846.337613	2532.612678
846.652438	2533.363810
846.967221	2534.024201
847.281960	2531.533871
847.596656	2533.830117
847.911309	2532.945394
848.225919	2533.560415
848.540485	2531.722914
848.855009	2533.036135
849.169490	2531.559077
849.483928	2531.289375
849.798323	2532.279962
850.112675	2532.481608
850.426984	2535.208872
850.741251	2533.048738
851.055474	2532.741227
851.369654	2533.084026
851.683792	2530.283665
851.997887	2531.193593
852.311938	2530.444982
852.625947	2533.852802
852.939914	2530.644107
853.253837	2533.807431
853.567718	2533.295754
853.881555	2529.598068
854.195350	2531.264169
854.509103	2532.693336
854.822812	2530.024045
855.136479	2533.396577
855.450103	2528.788963
855.763685	2531.284334
856.077224	2532.907585
856.390720	2531.758202
856.704173	2532.610157
857.017584	2533.144520
857.330953	2530.979344
857.644278	2531.846422
857.957561	2534.966897
858.270802	2532.234591
858.584000	2532.542102
858.897155	2532.710980
859.210268	2532.481608
859.523339	2529.908099
859.836367	2531.304498
860.149352	2533.255425
860.462295	2530.933974
860.775195	2531.029756
861.088054	2529.078829
861.400869	2529.789632
861.713642	2527.168232
862.026373	2530.281144
862.339062	2533.368851
862.651708	2531.985054
862.964312	2530.840712
863.276873	2531.808614
863.589392	2531.385157
863.901869	2532.811803
864.214303	2533.323481
864.526696	2534.306506
864.839045	2535.763399
865.151353	2532.368182
865.463619	2532.650487
865.775842	2531.730476
866.088023	2531.738038
866.400162	2532.824406
866.712258	2532.519417
867.024313	2533.494880
867.336325	2529.472039
867.648296	2532.305168
867.960224	2531.407842
868.272110	2534.823224
868.583954	2533.492359
868.895755	2534.200641
869.207515	2529.429189
869.519233	2533.545291
869.830909	2529.600588
870.142542	2533.686444
870.454134	2531.133099
870.765684	2533.078985
871.077191	2532.184180
871.388657	2534.971938
871.700081	2533.298275
872.011463	2530.868439
872.322803	2533.378933
872.634101	2534.238450
872.945357	2530.266021
873.256571	2534.009078
873.567744	2532.350538
873.878874	2538.026877
874.189963	2534.077133
874.501010	2532.637884
874.812015	2531.657379
875.122979	2535.566794
875.433900	2534.472864
875.744780	2535.307175
876.055618	2533.895652
876.366415	2533.998995
876.677169	2531.801052
876.987882	2532.012781
877.298554	2530.863397
877.609183	2533.068902
877.919771	2529.479601
878.230317	2531.070085
878.540822	2538.359593
878.851285	2537.333718
879.161707	2536.693492
879.472087	2538.092412
879.782425	2542.503422
880.092722	2543.509132
880.402977	2553.856100
880.713191	2561.120403
881.023363	2577.065572
881.333494	2584.765935
881.643583	2584.486151
881.953631	2585.902715
882.263637	2584.811305
882.573602	2578.091447
882.883526	2571.701785
883.193408	2565.599468
883.503248	2557.576472
883.813048	2553.735112
884.122806	2553.823333
884.432522	2549.611449
884.742197	2546.082641
885.051831	2542.218597
885.361424	2540.552495
885.670975	2540.202135
885.980485	2538.974614
886.289954	2540.731456
886.599382	2538.147865
886.908768	2539.360262
887.218113	2535.155940
887.527417	2538.563760
887.836680	2532.824406
888.145901	2535.108049
888.455082	2535.513862
888.764221	2533.230219
889.073319	2536.254912
889.382376	2534.326670
889.691392	2532.065713
890.000366	2536.305323
890.309300	2536.983358
890.618193	2536.184335
890.927044	2531.929602
891.235855	2533.966228
891.544625	2533.895652
891.853353	2532.463964
892.162041	2535.070240
892.470687	2535.975127
892.779293	2537.921013
893.087858	2533.898172
893.396381	2534.477905
893.704864	2537.976466
894.013306	2536.033101
894.321707	2545.094575
894.630068	2551.648075
894.938387	2548.850234
895.246665	2552.341233
895.554903	2549.152704
895.863100	2545.134904
896.171256	2544.267826
896.479371	2541.623740
896.787446	2540.479398
897.095480	2535.801208
897.403473	2538.936805
897.711425	2538.044521
898.019336	2535.395395
898.327207	2538.835982
898.635038	2536.461599
898.942827	2533.845240
899.250576	2534.508152
899.558284	2530.717204
899.865952	2534.316588
900.173579	2532.080836
900.481165	2533.532688
900.788711	2534.573687
901.096216	2533.467153
901.403681	2532.589993
901.711105	2533.464633
902.018489	2532.728624
902.325832	2537.595858
902.633135	2531.400280
902.940397	2533.162164
903.247619	2537.568132
903.554800	2538.616692
903.861941	2543.783875
904.169041	2556.001111
904.476101	2557.473128
904.783121	2556.149825
905.090100	2553.268806
905.397039	2553.046995
905.703938	2545.039122
906.010796	2542.090047
906.317614	2539.085519
906.624391	2540.411343
906.931129	2538.430169
907.237826	2535.642411
907.544483	2535.826413
907.851099	2533.809952
908.157675	2532.050589
908.464211	2532.564787
908.770707	2529.058664
909.077163	2528.814168
909.383578	2528.307533
909.689954	2531.732997
909.996289	2526.210412
910.302584	2534.745086
910.608839	2531.299457
910.915054	2533.116793
911.221229	2528.962882
911.527363	2531.712832
911.833458	2527.110258
912.139513	2531.334745
912.445527	2530.013963
912.751502	2533.283151
913.057436	2531.669982
913.363331	2531.354910
913.669186	2532.196783
913.975000	2533.048738
914.280775	2535.123173
914.586510	2537.633667
914.892205	2537.905889
915.197859	2542.238761
915.503475	2547.675646
915.809050	2552.003476
916.114585	2553.810730
916.420081	2556.406924
916.725536	2554.486244
917.030952	2553.848538
917.336328	2549.780327
917.641665	2546.846376
917.946961	2543.604914
918.252218	2540.938143
918.557435	2537.376568
918.862612	2539.272042
919.167750	2538.321785
919.472848	2537.205169
919.777906	2535.687782
920.082925	2537.369007
920.387904	2530.581093
920.692843	2535.017308
920.997743	2532.431196
921.302603	2534.170394
921.607423	2535.521424
921.912204	2531.503624
922.216946	2533.845240
922.521647	2532.249715
922.826310	2533.066382
923.130932	2533.971269
923.435516	2532.506814
923.740059	2533.852802
924.044564	2529.245187
924.349028	2530.858356
924.653454	2524.640093
924.957840	2529.524971
925.262186	2522.802593
925.566493	2529.109076
925.870761	2525.809641
926.174989	2529.162008
926.479178	2528.733510
926.783328	2530.145033
927.087438	2529.081350
927.391509	2528.415917
927.695541	2530.061854
927.999533	2531.566638
928.303486	2530.008922
928.607400	2527.977337
928.911275	2529.446833
929.215110	2528.098325
929.518906	2529.766947
929.822663	2530.749972
930.126381	2528.083201
930.430060	2528.320135
930.733699	2528.685619
931.037299	2530.755013
931.340861	2530.833151
931.644383	2526.785104
931.947866	2527.165711
932.251309	2530.117307
932.554714	2530.296268
932.858080	2529.618232
933.161407	2527.546318
933.464694	2525.396266
933.767943	2529.635877
934.071153	2529.313243
934.374323	2526.800227
934.677455	2527.584127
934.980548	2528.945238
935.283602	2527.379960
935.586617	2530.989426
935.889593	2527.175793
936.192530	2530.870959
936.495428	2526.936339
936.798287	2529.081350
937.101108	2528.073119
937.403890	2526.638911
937.706632	2528.884745
938.009336	2527.591689
938.312002	2529.605630
938.614628	2529.817358
938.917216	2529.162008
939.219765	2527.889117
939.522275	2531.392719
939.824747	2531.339787
940.127179	2529.151926
940.429573	2525.197141
940.731929	2527.843746
941.034246	2525.807120
941.336524	2527.538757
941.638763	2529.262831
941.940964	2528.284847
942.243126	2529.124199
942.545250	2532.393388
942.847335	2529.653521
943.149381	2529.318284
943.451389	2526.258303
943.753359	2530.649148
944.055290	2528.562111
944.357182	2530.180321
944.659036	2529.895496
944.960851	2529.835002
945.262628	2526.601102
945.564367	2528.383150
945.866067	2527.828623
946.167729	2527.208561
946.469352	2529.313243
946.770937	2529.683767
947.072484	2528.839374
947.373992	2529.149405
947.675462	2526.956503
947.976893	2530.515558
948.278286	2526.689322
948.579641	2529.648479
948.880958	2527.299302
949.182236	2528.582275
949.483476	2527.148067
949.784678	2528.791483
950.085841	2524.902233
950.386967	2530.455064
950.688054	2529.998840
950.989103	2527.972296
951.290114	2530.389529
951.591087	2528.519261
951.892021	2525.174455
952.192917	2530.124868
952.493776	2529.403983
952.794596	2530.011443
953.095378	2528.342821
953.396122	2528.204189
953.696828	2530.293747
953.997496	2527.571524
954.298126	2529.923222
954.598718	2530.722245
954.899272	2528.869621
955.199788	2528.057995
955.500266	2528.572193
955.800706	2524.783766
956.101108	2524.710669
956.401472	2526.984230
956.701798	2524.498941
957.002087	2523.369722
957.302337	2521.713703
957.602550	2528.698222
957.902724	2526.152439
958.202861	2526.265865
958.502960	2523.722603
958.803022	2527.379960
959.103045	2527.032121
959.403031	2527.873993
959.702979	2525.277799
960.002889	2527.810979
960.302762	2525.597912
960.602596	2527.332069
960.902393	2521.988446
961.202153	2525.048427
961.501875	2529.159488
961.801559	2526.530526
962.101205	2526.170083
962.400814	2524.496420
962.700385	2529.091432
962.999918	2528.940197
963.299414	2525.504651
963.598873	2528.617563
963.898293	2525.746626
964.197677	2527.195958
964.497022	2525.053468
964.796331	2524.851822
965.095601	2524.599764
965.394835	2530.697039
965.694030	2526.848118
965.993189	2526.890968
966.292309	2522.028775
966.591393	2526.548170
966.890439	2524.496420
967.189447	2531.246525
967.488419	2527.357275
967.787353	2528.587317
968.086249	2526.815351
968.385108	2528.279806
968.683930	2525.202182
968.982714	2526.762419
969.281462	2524.579599
969.580172	2525.544980
969.878844	2526.827954
970.177480	2528.506658
970.476078	2525.983561
970.774639	2527.067409
971.073162	2528.335259
971.371649	2523.135309
971.670098	2524.161183
971.968510	2524.188910
972.266885	2520.869310
972.565223	2527.984899
972.863524	2523.301667
973.161788	2528.121010
973.460014	2526.696884
973.758204	2525.671009
974.056356	2528.610002
974.354471	2525.797038
974.652550	2523.828467
974.950591	2525.371060
975.248595	2527.400125
975.546563	2525.499610
975.844493	2527.352234
976.142386	2526.792666
976.440243	2526.248221
976.738062	2527.352234
977.035845	2525.391225
977.333590	2525.716379
977.631299	2524.897192
977.928971	2529.449354
978.226606	2526.628828
978.524204	2527.889117
978.821765	2525.187058
979.119290	2528.362985
979.416777	2524.302336
979.714228	2528.957841
980.011642	2524.012469
980.309020	2528.920033
980.606360	2524.750998
980.903664	2526.533046
981.200931	2526.835516
981.498162	2524.713190
981.795356	2525.784435
982.092513	2528.065557
982.389633	2527.291740
982.686717	2528.000022
982.983764	2528.988088
983.280775	2526.192768
983.577749	2522.910977
983.874686	2525.555063
984.171587	2526.596061
984.468451	2526.485155
984.765279	2527.417769
985.062070	2524.375433
985.358824	2526.018849
985.655543	2524.897192
985.952224	2523.508354
986.248869	2526.056657
986.545478	2524.236801
986.842050	2522.270751
987.138586	2521.718744
987.435086	2521.806965
987.731549	2520.554238
988.027975	2524.123375
988.324366	2524.698066
988.620719	2525.391225
988.917037	2524.728313
989.213318	2525.287881
989.509563	2524.045237
989.805772	2525.371060
990.101944	2525.676050
990.398080	2526.419620
990.694180	2525.542460
990.990244	2527.528674
991.286271	2523.205885
991.582262	2527.203520
991.878217	2525.413910
992.174136	2526.555732
992.470019	2525.638242
992.765865	2522.560617
993.061676	2525.804600
993.357450	2524.899713
993.653188	2525.686133
993.948890	2525.860052
994.244556	2525.297964
994.540186	2525.376102
994.835780	2528.297450
995.131337	2526.679240
995.426859	2527.911802
995.722345	2525.764270
996.017795	2523.606657
996.313208	2529.598068
996.608586	2522.482479
996.903928	2527.160670
997.199234	2521.081038
997.494504	2527.047244
997.789738	2526.341482
998.084936	2525.681091
998.380099	2523.629342
998.675225	2527.485824
998.970316	2526.003725
999.265371	2524.675381
999.560390	2524.982892
999.855373	2526.139836
1000.150320	2524.887110
1000.445232	2523.546163
1000.740108	2526.338962
1001.034948	2526.901051
1001.329752	2523.014321
1001.624521	2524.982892
1001.919254	2520.153466
1002.213951	2524.879548
1002.508613	2520.604649
1002.803239	2524.279651
1003.097829	2519.009124
1003.392384	2528.970444
1003.686903	2522.338806
1003.981386	2526.906092
1004.275834	2523.311749
1004.570246	2528.468849
1004.864623	2524.771163
1005.158964	2526.722090
1005.453270	2523.894002
1005.747540	2525.086235
1006.041775	2524.824095
1006.335974	2524.322500
1006.630138	2526.056657
1006.924266	2524.745957
1007.218359	2525.308046
1007.512416	2525.489528
1007.806438	2525.398787
1008.100425	2525.174455
1008.394376	2522.338806
1008.688292	2523.778056
1008.982172	2524.375432
1009.276017	2526.190248
1009.569827	2525.555063
1009.863602	2524.758560
1010.157341	2524.372912
1010.451045	2524.859383
1010.744714	2526.422141
1011.038347	2526.026410
1011.331945	2522.963909
1011.625508	2522.530370
1011.919036	2524.763601
1012.212528	2527.233767
1012.505986	2523.336955
1012.799408	2524.952645
1013.092795	2527.006915
1013.386147	2526.820392
1013.679464	2523.800741
1013.972745	2523.331914
1014.265992	2524.415762
1014.559204	2525.953314
1014.852380	2524.690505
1015.145521	2522.454753
1015.438628	2526.467511
1015.731699	2525.124044
1016.024736	2525.333252
1016.317737	2521.635565
1016.610703	2523.962058
1016.903635	2522.810154
1017.196531	2518.943589
1017.489393	2525.033303
1017.782219	2521.282685
1018.075011	2522.195133
1018.367768	2524.904754
1018.660490	2524.816533
1018.953177	2524.816533
1019.245829	2524.816533
