Dividing Wavelength (nm)	Counts (n)	Blue Motor Position (mm): 0.000000	Red Motor Position (mm): 4.500000	
326.493990	2149.626138
326.888308	2149.626138
327.282561	2149.626138
327.676750	2124.122941
328.070874	2127.087139
328.464933	2129.998405
328.858929	2139.760600
329.252859	2150.959523
329.646726	2166.992913
330.040528	2180.452794
330.434265	2199.248736
330.827938	2216.365974
331.221547	2237.417832
331.615091	2258.378950
332.008571	2277.459717
332.401986	2295.736420
332.795338	2318.464463
333.188625	2340.179233
333.581847	2356.396625
333.975006	2376.848586
334.368100	2394.573283
334.761129	2412.996179
335.154095	2428.119641
335.546996	2446.166972
335.939833	2458.059054
336.332606	2471.617237
336.725315	2484.588126
337.117960	2490.108189
337.510540	2500.326608
337.903056	2507.986641
338.295508	2517.610204
338.687896	2521.312932
339.080220	2529.671165
339.472480	2537.389171
339.864676	2541.044008
340.256807	2544.691282
340.648875	2545.006355
341.040879	2545.563402
341.432818	2546.211190
341.824694	2548.159596
342.216506	2548.086500
342.608253	2549.218239
342.999937	2547.834442
343.391557	2548.073897
343.783113	2544.938299
344.174605	2544.822352
344.566033	2545.626417
344.957397	2540.295396
345.348697	2541.046528
345.739934	2539.100643
346.131106	2536.562422
346.522215	2537.709284
346.913260	2531.503624
347.304241	2533.300795
347.695159	2528.317615
348.086012	2527.979857
348.476802	2525.386184
348.867528	2525.449198
349.258191	2521.176820
349.648789	2522.641276
350.039324	2520.690349
350.429796	2521.078518
350.820203	2520.483662
351.210548	2519.838394
351.600828	2519.546007
351.991045	2520.488703
352.381198	2518.293280
352.771288	2518.084072
353.161314	2516.793537
353.551276	2518.646161
353.941175	2517.511902
354.331010	2519.540966
354.720782	2516.118023
355.110490	2518.646161
355.500135	2516.881757
355.889717	2518.212622
356.279235	2517.895029
356.668689	2519.543487
357.058080	2519.392252
357.447408	2517.159021
357.836672	2515.129956
358.225873	2519.530884
358.615010	2515.142559
359.004084	2520.060205
359.393095	2521.292767
359.782043	2522.583302
360.170927	2523.853673
360.559748	2523.803262
360.948505	2523.946934
361.337199	2525.270237
361.725830	2522.588343
362.114398	2527.679909
362.502903	2525.126564
362.891344	2523.752850
363.279722	2526.477594
363.668037	2525.703777
364.056289	2526.190248
364.444478	2525.978519
364.832603	2525.774353
365.220665	2528.693181
365.608665	2526.777542
365.996601	2527.896678
366.384474	2529.330887
366.772284	2530.334076
367.160031	2528.516740
367.547715	2530.941535
367.935336	2532.058151
368.322893	2530.936494
368.710388	2532.894982
369.097820	2534.344314
369.485189	2531.725435
369.872495	2533.930940
370.259738	2531.117976
370.646918	2530.112266
371.034035	2532.370703
371.421090	2532.786598
371.808081	2532.874818
372.195010	2531.836340
372.581875	2533.625950
372.968678	2534.722401
373.355418	2534.944212
373.742096	2537.865560
374.128710	2535.859181
374.515262	2537.182484
374.901751	2540.542413
375.288177	2540.426466
375.674540	2538.946888
376.060841	2544.192208
376.447079	2543.196580
376.833254	2547.148845
377.219367	2540.194573
377.605417	2547.105995
377.991404	2549.193033
378.377329	2548.330996
378.763191	2548.283105
379.148991	2554.322407
379.534727	2558.136040
379.920402	2557.528581
380.306013	2560.023952
380.691563	2563.179714
381.077049	2562.330280
381.462474	2566.973183
381.847835	2569.463512
382.233134	2570.625498
382.618371	2574.741601
383.003545	2578.414081
383.388657	2577.869637
383.773706	2582.653692
384.158693	2582.084041
384.543618	2584.937334
384.928480	2589.451687
385.313280	2589.423961
385.698017	2592.625094
386.082692	2594.679364
386.467305	2593.862697
386.851856	2599.385281
387.236344	2599.150867
387.620770	2603.350149
388.005133	2604.617999
388.389435	2607.068000
388.773674	2606.256374
389.157851	2607.337701
389.541965	2606.395006
389.926018	2604.988524
390.310008	2606.359717
390.693936	2606.097577
391.077802	2606.800818
391.461606	2606.208483
391.845348	2605.974069
392.229027	2606.248812
392.612645	2601.961311
392.996200	2601.578183
393.379694	2604.282762
393.763125	2605.283431
394.146494	2601.290837
394.529801	2599.375199
394.913047	2600.088522
395.296230	2596.637852
395.679351	2594.313880
396.062410	2593.638366
396.445408	2585.527149
396.828343	2587.737695
397.211217	2581.416088
397.594028	2575.830490
397.976778	2574.686148
398.359466	2572.452917
398.742092	2566.784139
399.124656	2571.623647
399.507158	2569.680282
399.889598	2570.958215
400.271977	2564.598799
400.654294	2566.685837
401.036549	2560.036555
401.418742	2558.466235
401.800874	2558.602347
402.182944	2560.396997
402.564952	2560.548232
402.946898	2557.762994
403.328783	2556.875751
403.710606	2555.381049
404.092367	2554.161090
404.474067	2553.256203
404.855705	2554.599670
405.237282	2555.781821
405.618797	2551.522046
406.000250	2554.415668
406.381642	2552.467262
406.762972	2554.408107
407.144240	2552.247972
407.525447	2556.573282
407.906593	2554.024979
408.287677	2555.184444
408.668700	2552.227807
409.049661	2556.641338
409.430560	2552.994063
409.811399	2553.528425
410.192176	2552.111861
410.572891	2550.907025
410.953545	2552.472303
411.334138	2553.236038
411.714669	2554.345092
412.095139	2552.820143
412.475547	2553.039433
412.855894	2551.489278
413.236180	2555.028168
413.616405	2555.726368
413.996568	2553.581357
414.376670	2555.907850
414.756711	2555.343241
415.136691	2555.328117
415.516609	2555.809547
415.896466	2555.504558
416.276262	2554.604712
416.655997	2554.365257
417.035670	2553.208312
417.415283	2554.448436
417.794834	2549.883671
418.174324	2555.113868
418.553753	2559.527398
418.933121	2557.674774
419.312428	2556.790052
419.691674	2555.527243
420.070859	2558.309960
420.449983	2555.406255
420.829045	2555.421378
421.208047	2556.628735
421.586988	2558.269630
421.965867	2558.178890
422.344686	2556.389280
422.723444	2558.766184
423.102141	2556.706873
423.480777	2558.085628
423.859352	2559.119065
424.237866	2557.886503
424.616319	2559.260217
424.994712	2559.174518
425.373044	2558.937583
425.751314	2559.242573
426.129524	2557.054712
426.507673	2564.021587
426.885762	2559.698798
427.263789	2561.024621
427.641756	2560.223077
428.019662	2559.441699
428.397508	2556.742161
428.775292	2560.409600
429.153016	2559.116544
429.530679	2561.806000
429.908282	2559.832388
430.285824	2558.783828
430.663305	2560.676781
431.040726	2563.051165
431.418086	2561.289282
431.795385	2562.673078
432.172624	2562.005125
432.549802	2562.882286
432.926920	2562.388253
433.303977	2562.161401
433.680974	2562.350444
434.057910	2563.227605
434.434786	2562.849519
434.811601	2563.182235
435.188355	2561.871535
435.565050	2561.322049
435.941683	2560.701987
436.318257	2559.746688
436.694770	2559.108983
437.071222	2559.040927
437.447614	2559.376164
437.823946	2557.349620
438.200218	2562.315156
438.576429	2562.816751
438.952580	2564.414797
439.328670	2564.064437
439.704700	2562.448747
440.080670	2562.962945
440.456580	2562.960424
440.832429	2563.456978
441.208218	2563.585527
441.583947	2564.838254
441.959616	2563.222564
442.335224	2562.224416
442.710773	2564.351782
443.086261	2562.539488
443.461689	2564.283727
443.837057	2564.445044
444.212365	2564.349262
444.587612	2566.075857
444.962800	2563.320867
445.337927	2565.949828
445.712995	2564.160219
446.088002	2562.726010
446.462949	2567.537792
446.837837	2565.869170
447.212664	2567.699109
447.587431	2563.467060
447.962139	2568.074675
448.336786	2568.911506
448.711374	2566.557287
449.085901	2566.511917
449.460369	2565.279355
449.834776	2564.876062
450.209124	2565.561659
450.583412	2565.861608
450.957640	2566.620302
451.331808	2564.644169
451.705917	2565.375137
452.079965	2567.855384
452.453954	2565.685168
452.827883	2568.409911
453.201752	2564.934036
453.575562	2567.522668
453.949311	2568.125086
454.323001	2565.962431
454.696632	2566.824468
455.070202	2569.173646
455.443713	2566.610219
455.817164	2565.168449
456.190556	2564.901268
456.563888	2563.474622
456.937160	2562.085784
457.310373	2567.479818
457.683526	2567.371434
458.056619	2567.542833
458.429653	2564.876062
458.802628	2569.171126
459.175542	2568.654407
459.548398	2565.019735
459.921194	2569.357648
460.293930	2571.018708
460.666607	2569.332442
461.039224	2569.460992
461.411782	2569.518965
461.784280	2569.433266
462.156719	2570.315467
462.529099	2568.457802
462.901419	2568.299006
463.273680	2573.050293
463.645882	2569.292113
464.018024	2568.742628
464.390106	2568.596434
464.762130	2569.370251
465.134094	2569.004767
465.505999	2568.561146
465.877845	2570.973338
466.249631	2572.271435
466.621358	2571.666497
466.993026	2575.666652
467.364634	2572.523493
467.736184	2572.190777
468.107674	2569.380333
468.479105	2569.808832
468.850477	2571.046435
469.221790	2573.330078
469.593043	2567.744479
469.964238	2570.136507
470.335373	2568.198183
470.706449	2569.972669
471.077467	2570.600293
471.448425	2572.296641
471.819324	2571.071641
472.190164	2572.183215
472.560945	2571.933678
472.931667	2573.451065
473.302330	2570.070972
473.672934	2572.309244
474.043479	2569.455951
474.413965	2569.823955
474.784393	2565.211299
475.154761	2569.733214
475.525070	2565.896896
475.895321	2568.266238
476.265513	2566.153995
476.635645	2568.399829
477.005719	2571.084243
477.375734	2570.829665
477.745691	2571.706826
478.115588	2573.637588
478.485427	2572.853688
478.855207	2574.250088
479.224928	2572.767989
479.594591	2571.124573
479.964194	2571.981569
480.333739	2573.403174
480.703226	2572.294120
481.072653	2573.020047
481.442022	2572.571384
481.811333	2574.363514
482.180584	2570.416291
482.549777	2571.225396
482.918912	2569.531568
483.287988	2572.571384
483.657005	2575.273442
484.025964	2574.073648
484.394864	2570.741445
484.763706	2573.501477
485.132489	2572.420149
485.501213	2570.683472
485.869879	2572.425190
486.238487	2568.848492
486.607036	2575.084399
486.975527	2574.434090
487.343959	2570.819583
487.712333	2571.790005
488.080648	2570.968297
488.448905	2573.816549
488.817104	2573.050293
489.185244	2573.771178
489.553326	2571.139696
489.921350	2575.407033
490.289315	2574.020716
490.657222	2574.492063
491.025070	2568.661969
491.392861	2576.758062
491.760593	2570.806980
492.128267	2574.779409
492.495883	2572.077351
492.863440	2577.221848
493.230939	2573.836713
493.598380	2574.691189
493.965763	2571.711867
494.333088	2570.507031
494.700354	2571.003585
495.067563	2572.029460
495.434713	2570.943091
495.801805	2573.829152
496.168839	2576.223700
496.535815	2571.358986
496.902733	2575.616241
497.269593	2573.846796
497.636395	2576.256467
498.003139	2573.713205
498.369825	2575.699420
498.736453	2574.517269
499.103023	2573.932495
499.469535	2572.379820
499.835989	2572.289079
500.202385	2572.357135
500.568723	2576.687486
500.935003	2571.293451
501.301226	2572.531055
501.667390	2574.565160
502.033497	2576.362332
502.399546	2573.642629
502.765537	2572.533575
503.131470	2574.794533
503.497345	2572.568863
503.863163	2576.001889
504.228923	2572.762948
504.594625	2576.107753
504.960269	2574.015674
505.325856	2574.781930
505.691385	2573.728329
506.056856	2574.096333
506.422270	2574.897876
506.787625	2574.250088
507.152924	2575.316292
507.518164	2575.507856
507.883347	2575.076837
508.248472	2575.144893
508.613540	2575.603638
508.978550	2575.013823
509.343503	2577.635223
509.708398	2576.609348
510.073236	2575.820408
510.438016	2572.684810
510.802738	2575.404512
511.167403	2574.245047
511.532010	2573.156158
511.896561	2575.404512
512.261053	2577.088258
512.625488	2570.539799
512.989866	2570.398647
513.354186	2574.187074
513.718449	2569.985272
514.082655	2575.465006
514.446803	2576.528690
514.810894	2576.183371
515.174927	2575.243195
515.538904	2576.715212
515.902822	2574.860068
516.266684	2571.628688
516.630488	2577.980542
516.994235	2576.465675
517.357925	2571.966445
517.721558	2574.676066
518.085133	2574.834862
518.448651	2576.674883
518.812112	2575.606158
519.175516	2574.973494
519.538863	2575.260839
519.902152	2577.234451
520.265385	2575.303689
520.628560	2575.233113
520.991678	2575.021385
521.354739	2575.341498
521.717743	2574.471899
522.080690	2576.412743
522.443580	2575.215469
522.806413	2576.122877
523.169189	2575.323854
523.531908	2578.787127
523.894569	2578.915676
524.257174	2579.805440
524.619722	2575.772517
524.982213	2577.206725
525.344647	2576.382496
525.707025	2575.154975
526.069345	2578.804771
526.431608	2574.194635
526.793815	2575.654049
527.155964	2576.127918
527.518057	2577.781416
527.880093	2578.933320
528.242072	2577.463824
528.603995	2577.897363
528.965860	2576.579101
529.327669	2577.821746
529.689421	2577.063052
530.051117	2576.821077
530.412755	2576.639595
530.774337	2578.361149
531.135862	2575.505335
531.497331	2572.200859
531.858743	2571.028791
532.220098	2572.057186
532.581396	2570.746486
532.942638	2570.877556
533.303824	2579.134966
533.664953	2576.717733
534.026025	2577.305027
534.387040	2576.896694
534.747999	2576.150603
535.108902	2576.478278
535.469748	2576.808474
535.830537	2575.553226
536.191270	2577.032805
536.551947	2576.528690
536.912567	2575.737228
537.273131	2576.170768
537.633638	2575.356621
537.994089	2575.979204
538.354483	2579.112281
538.714821	2578.492219
539.075103	2578.046077
539.435328	2579.571026
539.795497	2576.511046
540.155609	2576.422825
540.515665	2574.479461
540.875665	2577.410892
541.235609	2576.074986
541.595496	2578.451890
541.955328	2578.454410
542.315102	2576.770665
542.674821	2574.756724
543.034483	2578.081365
543.394090	2576.274111
543.753640	2575.966601
544.113134	2575.752352
544.472571	2578.845100
544.831953	2575.628844
545.191278	2578.010789
545.550548	2576.753021
545.909761	2577.945254
546.268918	2575.296127
546.628019	2576.947105
546.987064	2577.249575
547.346053	2577.431056
547.704986	2575.283525
548.063863	2577.894842
548.422684	2575.893504
548.781449	2578.794688
549.140158	2577.783937
549.498811	2577.113463
549.857408	2578.162023
550.215949	2575.338977
550.574434	2572.460478
550.932864	2574.018195
551.291237	2572.503328
551.649555	2575.868298
552.007817	2575.303689
552.366022	2575.545665
552.724173	2579.891139
553.082267	2575.228072
553.440305	2575.671693
553.798288	2575.956519
554.156215	2577.499112
554.514086	2578.885429
554.871902	2574.900397
555.229661	2580.029771
555.587365	2576.044739
555.945014	2578.303176
556.302606	2574.673545
556.660143	2576.818556
557.017625	2577.279822
557.375050	2575.706982
557.732421	2576.364852
558.089735	2576.543813
558.446994	2577.158834
558.804197	2578.585480
559.161345	2575.694379
559.518437	2578.454410
559.875474	2578.872826
560.232455	2579.939030
560.589381	2578.000707
560.946251	2580.390213
561.303065	2577.360480
561.659825	2577.504153
562.016528	2575.966601
562.373177	2575.003741
562.729770	2577.332754
563.086307	2575.530541
563.442789	2576.526169
563.799216	2578.721592
564.155587	2578.961046
564.511904	2576.747980
564.868164	2576.442990
565.224370	2576.437949
565.580520	2578.973649
565.936615	2578.439287
566.292654	2576.695048
566.648638	2577.388206
567.004567	2578.744277
567.360441	2574.713874
567.716260	2576.866447
568.072023	2575.233113
568.427732	2574.628175
568.783385	2574.068607
569.138982	2571.716908
569.494525	2573.803946
569.850013	2573.662794
570.205445	2578.285532
570.560823	2579.049267
570.916145	2576.067424
571.271412	2576.695048
571.626625	2579.424832
571.981782	2579.722261
572.336884	2576.150603
572.691931	2579.003896
573.046923	2574.267732
573.401860	2577.438618
573.756743	2577.773855
574.111570	2578.272929
574.466342	2578.114132
574.821059	2577.136149
575.175722	2576.921900
575.530330	2577.494071
575.884882	2576.359811
576.239380	2579.336612
576.593823	2577.849472
576.948211	2575.467527
577.302544	2577.060531
577.656823	2578.366190
578.011047	2580.506160
578.365216	2578.013309
578.719330	2578.600604
579.073389	2575.321333
579.427394	2576.848803
579.781344	2574.577763
580.135239	2576.962229
580.489080	2577.277301
580.842866	2579.195460
581.196597	2581.108578
581.550273	2578.071283
581.903895	2579.485326
582.257463	2578.403999
582.610975	2577.100861
582.964434	2577.894842
583.317837	2575.817887
583.671186	2578.595563
584.024481	2579.815522
584.377721	2578.885429
584.730906	2577.864595
585.084037	2576.899214
585.437113	2580.029771
585.790135	2580.463310
586.143103	2577.420974
586.496016	2578.598083
586.848874	2575.598597
587.201679	2575.782599
587.554428	2577.814184
587.907124	2576.662280
588.259765	2574.199677
588.612352	2577.315110
588.964884	2579.097157
589.317362	2579.248392
589.669786	2577.710840
590.022155	2579.591191
590.374470	2575.694379
590.726731	2575.936354
591.078937	2577.390727
591.431090	2577.161354
591.783188	2575.500294
592.135232	2580.075141
592.487222	2577.657908
592.839157	2576.853844
593.191038	2577.355439
593.542866	2579.223186
593.894639	2577.030284
594.246358	2577.259657
594.598022	2578.308217
594.949633	2579.749987
595.301190	2578.109091
595.652692	2577.758731
596.004141	2575.197825
596.355535	2576.921900
596.706876	2577.647826
597.058162	2577.095819
597.409395	2580.332240
597.760573	2580.934658
598.111698	2576.140521
598.462768	2577.007599
598.813785	2578.230079
599.164748	2576.856365
599.515657	2576.385017
599.866511	2578.724112
600.217312	2577.902404
600.568060	2578.900553
600.918753	2577.615058
601.269392	2577.776375
601.619978	2575.918710
601.970510	2579.457600
602.320988	2577.247054
602.671412	2577.554564
603.021783	2577.468865
603.372100	2579.664287
603.722363	2578.252764
604.072572	2576.531210
604.422728	2578.671180
604.772830	2574.918041
605.122878	2574.025757
605.472872	2575.122208
605.822813	2575.890984
606.172701	2574.610531
606.522534	2575.916189
606.872314	2578.257805
607.222041	2576.314441
607.571714	2578.625810
607.921333	2577.942733
608.270899	2578.373752
608.620411	2576.165727
608.969870	2576.432908
609.319276	2576.248906
609.668627	2578.663618
610.017926	2576.795871
610.367171	2577.196642
610.716362	2579.016499
611.065500	2578.708989
611.414585	2577.282342
611.763616	2578.343505
612.112594	2578.262847
612.461518	2576.390058
612.810389	2576.725295
613.159207	2578.242682
613.507971	2576.488360
613.856682	2577.360480
614.205340	2577.594894
614.553945	2578.371231
614.902496	2577.541962
615.250994	2577.635223
615.599439	2576.158165
615.947830	2576.818556
616.296169	2576.448031
616.644454	2580.428022
616.992686	2577.010120
617.340864	2578.235120
617.688990	2576.458113
618.037063	2578.782085
618.385082	2579.876016
618.733048	2577.020202
619.080961	2576.639595
619.428821	2578.199832
619.776628	2577.544482
620.124382	2579.699575
620.472083	2577.330233
620.819731	2578.162023
621.167326	2576.284194
621.514868	2577.098340
621.862357	2575.916189
622.209793	2575.911148
622.557176	2577.839390
622.904506	2575.888463
623.251783	2571.885787
623.599007	2571.661456
623.946179	2573.319995
624.293297	2574.890315
624.640363	2577.189081
624.987376	2575.906107
625.334336	2578.083886
625.681243	2576.450552
626.028097	2575.180181
626.374899	2576.732856
626.721647	2575.480130
627.068343	2577.604976
627.414987	2578.106571
627.761577	2577.794019
628.108115	2574.913000
628.454600	2577.357959
628.801032	2577.771334
629.147412	2577.279822
629.493739	2576.289235
629.840014	2580.506160
630.186236	2574.260170
630.532405	2577.892322
630.878521	2573.612382
631.224585	2577.010120
631.570597	2575.754872
631.916556	2578.439287
632.262462	2576.354770
632.608316	2576.155644
632.954117	2574.983576
633.299866	2577.141190
633.645562	2579.059349
633.991206	2577.662949
634.336797	2575.084399
634.682336	2578.343505
635.027823	2575.306210
635.373257	2579.230748
635.718639	2577.340315
636.063968	2576.969791
636.409245	2577.171437
636.754470	2578.013309
637.099642	2575.964080
637.444762	2575.255798
637.789829	2576.367373
638.134845	2578.993814
638.479808	2575.175140
638.824719	2576.379976
639.169577	2576.357290
639.514383	2576.773186
639.859137	2577.683114
640.203839	2578.366190
640.548489	2576.274111
640.893086	2573.443503
641.237632	2573.488874
641.582125	2573.743452
641.926566	2573.786302
642.270955	2575.041549
642.615292	2575.417115
642.959576	2574.993658
643.303809	2576.281673
643.647990	2575.722105
643.992118	2576.606827
644.336195	2575.991807
644.680219	2577.085737
645.024192	2574.572722
645.368112	2575.643967
645.711981	2576.483319
646.055797	2576.473237
646.399562	2576.284194
646.743274	2576.579101
647.086935	2577.799060
647.430544	2577.574729
647.774101	2576.017012
648.117606	2576.886612
648.461059	2578.459452
648.804460	2578.981211
649.147810	2576.498443
649.491108	2575.318813
649.834354	2574.945767
650.177548	2576.987435
650.520690	2577.000037
650.863781	2574.471899
651.206820	2577.821746
651.549807	2573.509038
651.892742	2575.654049
652.235626	2577.811663
652.578458	2577.186560
652.921238	2577.577250
653.263967	2577.700758
653.606644	2577.809143
653.949269	2576.221179
654.291843	2573.937537
654.634365	2576.009451
654.976836	2577.244533
655.319255	2574.897876
655.661622	2576.195973
656.003938	2578.835017
656.346203	2577.310068
656.688416	2575.117167
657.030577	2576.488360
657.372687	2575.578432
657.714746	2575.696899
658.056753	2575.371745
658.398708	2571.815211
658.740612	2574.434090
659.082465	2570.421332
659.424266	2572.901579
659.766016	2571.220355
660.107715	2573.385530
660.449362	2575.981724
660.790958	2577.874678
661.132503	2573.395613
661.473996	2577.083217
661.815438	2575.870819
662.156829	2576.049780
662.498168	2574.587845
662.839456	2575.689337
663.180693	2576.493402
663.521879	2575.281004
663.863013	2578.134297
664.204097	2576.720253
664.545129	2578.209914
664.886110	2574.595407
665.227040	2578.146900
665.567918	2576.485840
665.908746	2573.970304
666.249522	2575.215469
666.590248	2575.112125
666.930922	2578.421643
667.271545	2571.797567
667.612118	2576.392578
667.952639	2575.278483
668.293109	2574.053483
668.633528	2577.627661
668.973896	2574.015674
669.314213	2575.835531
669.654480	2574.479461
669.994695	2576.957188
670.334859	2577.118505
670.674973	2573.453586
671.015035	2577.373083
671.355047	2575.283525
671.695008	2575.848134
672.034918	2573.887125
672.374777	2576.372414
672.714585	2572.949470
673.054342	2577.426015
673.394049	2576.563978
673.733705	2579.334092
674.073310	2575.936354
674.412864	2577.108422
674.752368	2574.194635
675.091820	2573.735890
675.431223	2576.062383
675.770574	2576.440469
676.109875	2571.401836
676.449125	2570.265056
676.788324	2573.274625
677.127473	2574.973494
677.466571	2574.630695
677.805619	2575.769996
678.144616	2573.627506
678.483562	2575.689338
678.822458	2575.696899
679.161303	2576.211097
679.500098	2573.970304
679.838842	2576.251426
680.177535	2575.374265
680.516179	2576.866447
680.854771	2577.768813
681.193314	2575.170099
681.531805	2575.119687
681.870247	2577.037846
682.208638	2577.897363
682.546978	2574.303020
682.885268	2575.679255
683.223508	2576.238823
683.561697	2575.192784
683.899836	2575.328895
684.237925	2576.473237
684.575963	2573.924934
684.913951	2574.789492
685.251889	2576.977352
685.589776	2573.186405
685.927614	2576.276632
686.265401	2574.388720
686.603137	2574.121539
686.940824	2576.271591
687.278460	2576.180850
687.616046	2574.174471
687.953582	2574.761765
688.291068	2574.113977
688.628504	2574.630695
688.965889	2573.909810
689.303224	2575.706982
689.640510	2575.182702
689.977745	2575.202866
690.314930	2574.706312
690.652065	2576.256467
690.989150	2574.020716
691.326185	2576.279152
691.663170	2575.669173
692.000105	2576.611869
692.336990	2573.433421
692.673825	2576.145562
693.010610	2573.002402
693.347345	2573.085582
693.684030	2570.678431
694.020665	2571.671538
694.357251	2571.139696
694.693786	2570.512072
695.030272	2574.383679
695.366707	2575.220510
695.703093	2576.402661
696.039429	2574.897876
696.375716	2575.384348
696.711952	2573.917372
697.048139	2575.437280
697.384276	2577.327712
697.720363	2576.490881
698.056400	2575.994327
698.392388	2574.595407
698.728326	2573.882084
699.064214	2573.138514
699.400053	2576.069945
699.735842	2573.516600
700.071581	2574.822259
700.407270	2575.621282
700.742910	2574.713874
701.078501	2573.834193
701.414042	2574.955850
701.749533	2572.999882
702.084974	2576.115315
702.420366	2575.248237
702.755709	2579.107240
703.091002	2571.898390
703.426246	2576.458113
703.761440	2572.901579
704.096584	2574.522310
704.431679	2571.951322
704.766725	2573.854358
705.101721	2573.919893
705.436668	2573.199007
705.771565	2573.564491
706.106413	2574.136662
706.441212	2573.743452
706.775961	2572.432752
707.110661	2573.123390
707.445311	2574.340829
707.779913	2575.212948
708.114465	2573.592217
708.448967	2575.843093
708.783421	2576.926941
709.117825	2572.979717
709.452180	2574.686148
709.786485	2572.168092
710.120742	2574.297979
710.454949	2576.319482
710.789107	2570.474264
711.123216	2570.660787
711.457275	2571.898390
711.791286	2571.427042
712.125247	2569.939902
712.459159	2573.279666
712.793023	2573.814028
713.126837	2574.182032
713.460602	2575.777558
713.794318	2572.142886
714.127985	2572.488205
714.461602	2573.186405
714.795171	2573.662794
715.128691	2573.017526
715.462162	2574.270253
715.795584	2573.236816
716.128957	2573.982907
716.462281	2572.478122
716.795556	2572.710016
717.128782	2575.006261
717.461960	2572.805797
717.795088	2573.972825
718.128167	2575.323854
718.461198	2572.629357
718.794180	2573.841755
719.127113	2572.198338
719.459997	2573.786302
719.792833	2576.316961
720.125619	2574.731518
720.458357	2573.773699
720.791046	2572.982238
721.123686	2572.437793
721.456278	2571.739593
721.788821	2574.698751
722.121315	2577.085737
722.453761	2571.734552
722.786158	2573.413257
723.118506	2574.413926
723.450805	2573.652711
723.783056	2572.251271
724.115259	2574.852506
724.447412	2573.105746
724.779518	2575.076837
725.111574	2575.356621
725.443582	2574.149265
725.775542	2573.070458
726.107453	2574.592887
726.439315	2573.075499
726.771129	2577.201684
727.102895	2573.272104
727.434612	2575.714543
727.766281	2571.651373
728.097901	2569.055179
728.429473	2572.077351
728.760996	2569.735735
729.092471	2569.765982
729.423897	2571.905952
729.755276	2572.490725
730.086606	2573.377968
730.417887	2572.692372
730.749120	2574.035839
731.080305	2573.395612
731.411442	2573.604820
731.742530	2573.763617
732.073570	2574.061045
732.404562	2573.761096
732.735506	2575.263360
733.066401	2573.942578
733.397249	2575.437280
733.728048	2574.517269
734.058798	2572.377299
734.389501	2575.288566
734.720156	2573.128431
735.050762	2574.618092
735.381320	2574.217321
735.711831	2573.607341
736.042293	2573.055335
736.372707	2574.023236
736.703073	2571.215313
737.033391	2573.612382
737.363661	2571.747155
737.693883	2572.773030
738.024056	2576.279152
738.354182	2571.817731
738.684260	2572.697413
739.014290	2572.485684
739.344272	2572.994841
739.674207	2571.764799
740.004093	2573.864440
740.333931	2569.791187
740.663722	2573.652711
740.993464	2573.715726
741.323159	2573.521641
741.652806	2570.774212
741.982405	2571.918554
742.311956	2571.590879
742.641460	2573.052814
742.970915	2570.872515
743.300323	2572.309244
743.629683	2572.644481
743.958996	2573.204049
744.288260	2571.716908
744.617477	2571.716908
744.946647	2571.522824
745.275768	2571.154820
745.604842	2569.955025
745.933869	2567.832699
746.262847	2568.263718
746.591778	2571.157340
746.920662	2572.233627
747.249498	2577.090778
747.578286	2571.429562
747.907027	2572.664645
748.235720	2571.353945
748.564365	2574.063565
748.892963	2573.438462
749.221514	2575.240675
749.550017	2574.023236
749.878473	2574.895356
750.206881	2574.111456
750.535242	2572.856209
750.863555	2571.689182
751.191821	2571.611044
751.520039	2572.316806
751.848210	2571.537947
752.176334	2572.044583
752.504411	2573.682958
752.832440	2572.770509
753.160421	2573.463668
753.488356	2572.614234
753.816243	2574.681107
754.144082	2573.932495
754.471875	2573.695561
754.799620	2574.487022
755.127318	2572.392423
755.454969	2571.709347
755.782572	2572.110118
756.110129	2573.788822
756.437638	2573.297310
756.765100	2572.773030
757.092515	2573.085582
757.419882	2572.944429
757.747203	2572.972156
758.074477	2571.311095
758.401703	2572.863771
758.728882	2573.630026
759.056014	2573.509038
759.383099	2571.059038
759.710138	2574.512228
760.037129	2571.621126
760.364073	2573.819069
760.690970	2573.105746
761.017820	2574.739080
761.344623	2570.882597
761.671379	2569.932340
761.998088	2568.299006
762.324751	2569.549212
762.651366	2571.976528
762.977935	2569.740776
763.304456	2567.550395
763.630931	2574.134142
763.957359	2572.609192
764.283740	2573.929975
764.610074	2572.949470
764.936362	2574.605489
765.262602	2573.256981
765.588796	2573.362845
765.914943	2571.500139
766.241044	2574.093812
766.567097	2573.624985
766.893104	2573.624985
767.219064	2571.797567
767.544978	2573.259501
767.870845	2572.268915
768.196665	2573.687999
768.522438	2573.698082
768.848165	2574.182032
769.173846	2573.360324
769.499479	2573.178843
769.825066	2569.448389
770.150607	2571.270766
770.476101	2570.350756
770.801548	2574.552557
771.126949	2572.248750
771.452303	2572.846127
771.777611	2571.255643
772.102872	2572.304203
772.428087	2574.499625
772.753256	2572.979717
773.078378	2572.208421
773.403453	2572.964594
773.728482	2572.647001
774.053465	2572.457958
774.378401	2570.012998
774.703291	2572.770509
775.028135	2569.909655
775.352932	2571.653894
775.677683	2572.273956
776.002388	2570.315467
776.327046	2570.701116
776.651658	2570.403688
776.976224	2570.474264
777.300743	2574.151786
777.625216	2573.105746
777.949643	2570.809501
778.274024	2574.270253
778.598359	2567.409242
778.922647	2565.997719
779.246889	2569.092988
779.571086	2567.948646
779.895236	2570.070972
780.219339	2568.951835
780.543397	2571.409398
780.867409	2571.961404
781.191374	2572.392423
781.515294	2572.180694
781.839167	2571.948801
782.162995	2572.115159
782.486776	2569.418142
782.810511	2570.476784
783.134201	2572.301682
783.457844	2571.719429
783.781441	2571.971487
784.104993	2570.355797
784.428498	2571.318657
784.751958	2571.094326
785.075372	2569.478636
785.398739	2569.786146
785.722061	2572.657083
786.045337	2570.375961
786.368568	2570.202042
786.691752	2567.278172
787.014891	2573.851837
787.337983	2572.969635
787.661030	2572.679769
787.984031	2573.599779
788.306987	2572.881415
788.629897	2572.319326
788.952760	2571.706826
789.275579	2570.620457
789.598351	2574.315623
789.921078	2569.813873
790.243759	2571.033832
790.566395	2569.060220
790.888984	2571.878225
791.211529	2571.618606
791.534027	2571.227916
791.856480	2571.250602
792.178888	2573.599779
792.501249	2570.005437
792.823566	2572.984758
793.145836	2570.076013
793.468062	2572.120201
793.790241	2573.488874
794.112375	2572.609192
794.434464	2571.749676
794.756507	2572.568863
795.078505	2571.754717
795.400457	2567.376475
795.722364	2569.317319
796.044226	2567.270611
796.366042	2566.695919
796.687812	2564.334138
797.009538	2571.686661
797.331218	2569.743297
797.652852	2571.711867
797.974442	2572.881415
798.295986	2570.595252
798.617484	2569.138358
798.938938	2569.241702
799.260346	2572.273956
799.581709	2569.473595
799.903026	2571.069120
800.224299	2567.641135
800.545526	2571.474933
800.866708	2572.757907
801.187845	2573.274625
801.508936	2570.159192
801.829983	2572.478122
802.150984	2570.975859
802.471940	2571.142217
802.792851	2571.331260
803.113717	2571.258163
803.434538	2572.188256
803.755314	2569.816393
804.076045	2572.042063
804.396731	2571.500139
804.717372	2571.127093
805.037967	2571.190108
805.358518	2571.326219
805.679024	2573.531724
805.999485	2570.544840
806.319901	2571.840417
806.640272	2570.310426
806.960598	2573.582135
807.280879	2569.511403
807.601115	2574.124059
807.921306	2571.265725
808.241453	2571.500139
808.561554	2570.207083
808.881611	2572.911662
809.201623	2571.744635
809.521590	2572.490725
809.841513	2571.580797
810.161390	2569.944943
810.481223	2569.675241
810.801011	2572.679769
811.120755	2568.934191
811.440453	2570.466702
811.760107	2571.502659
812.079716	2568.528378
812.399281	2566.549726
812.718801	2567.373954
813.038276	2564.979406
813.357707	2574.592887
813.677093	2569.738255
813.996434	2568.394788
814.315731	2573.619944
814.634983	2571.742114
814.954191	2569.166084
815.273354	2570.708677
815.592473	2571.079202
815.911547	2570.461661
816.230577	2570.708677
816.549562	2569.314798
816.868502	2571.381672
817.187399	2573.433421
817.506250	2572.190777
817.825058	2570.882597
818.143821	2569.408060
818.462539	2570.444017
818.781213	2569.902093
819.099843	2567.447051
819.418429	2573.539285
819.736970	2571.149778
820.055466	2569.092988
820.373919	2570.688513
820.692327	2570.509552
821.010691	2573.057855
821.329011	2570.615416
821.647286	2575.013823
821.965517	2573.609862
822.283704	2572.392423
822.601847	2573.012485
822.919945	2571.331260
823.237999	2570.549881
823.556010	2571.240519
823.873976	2572.074830
824.191897	2571.177505
824.509775	2570.421332
824.827609	2570.065930
825.145398	2572.397464
825.463144	2570.476784
825.780845	2571.111970
826.098502	2570.922927
826.416116	2570.076013
826.733685	2572.145406
827.051210	2574.297979
827.368692	2571.152299
827.686129	2571.386713
828.003522	2569.801270
828.320872	2568.495611
828.638177	2568.793039
828.955439	2565.944787
829.272656	2567.109294
829.589830	2563.935887
829.906960	2568.180539
830.224046	2569.130796
830.541088	2570.880077
830.858086	2570.592731
831.175041	2570.239850
831.491952	2572.089954
831.808819	2572.200859
832.125642	2570.983420
832.442421	2572.188256
832.759157	2570.073492
833.075849	2569.786146
833.392497	2569.317319
833.709101	2573.161199
834.025662	2569.786146
834.342179	2572.548699
834.658653	2572.014336
834.975083	2570.867474
835.291469	2573.579615
835.607811	2569.261866
835.924110	2570.585169
836.240366	2571.321178
836.556578	2567.376475
836.872746	2569.680282
837.188871	2571.850499
837.504952	2571.278328
837.820990	2573.062896
838.136984	2568.362020
838.452935	2570.267577
838.768842	2573.246898
839.084706	2568.964438
839.400526	2570.885118
839.716303	2570.917885
840.032037	2568.636763
840.347727	2570.315468
840.663373	2568.863615
840.978977	2567.384037
841.294537	2570.484346
841.610054	2568.914027
841.925527	2570.098698
842.240957	2569.246743
842.556344	2570.580128
842.871687	2570.685992
843.186987	2571.704305
843.502244	2568.946794
843.817458	2571.142217
844.132629	2569.249263
844.447756	2568.740107
844.762840	2565.624674
845.077881	2568.987123
845.392879	2565.697771
845.707833	2565.838923
846.022745	2567.537792
846.337613	2568.137689
846.652438	2568.825807
846.967221	2570.746486
847.281960	2571.870663
847.596656	2572.125242
847.911309	2570.219686
848.225919	2569.050138
848.540485	2567.308419
848.855009	2569.685323
849.169490	2568.793039
849.483928	2570.880077
849.798323	2569.423183
850.112675	2569.604665
850.426984	2567.701629
850.741251	2571.237999
851.055474	2570.731363
851.369654	2570.781774
851.683792	2568.238512
851.997887	2570.217165
852.311938	2568.228430
852.625947	2569.629871
852.939914	2569.634912
853.253837	2570.277659
853.567718	2569.811352
853.881555	2571.091805
854.195350	2568.046948
854.509103	2570.532237
854.822812	2570.093657
855.136479	2570.043245
855.450103	2568.813204
855.763685	2570.282700
856.077224	2567.978893
856.390720	2571.989131
856.704173	2569.158523
857.017584	2568.382185
857.330953	2567.431928
857.644278	2569.970148
857.957561	2572.226065
858.270802	2569.748338
858.584000	2567.520148
858.897155	2570.922927
859.210268	2569.957546
859.523339	2570.423852
859.836367	2567.961249
860.149352	2571.273287
860.462295	2570.076013
860.775195	2567.994016
861.088054	2566.973182
861.400869	2564.082081
861.713642	2563.698953
862.026373	2566.360682
862.339062	2567.464695
862.651708	2570.128945
862.964312	2569.776064
863.276873	2568.830848
863.589392	2571.603482
863.901869	2567.600806
864.214303	2571.290931
864.526696	2567.338666
864.839045	2568.273800
865.151353	2569.977710
865.463619	2567.439489
865.775842	2568.898903
866.088023	2565.763306
866.400162	2568.150292
866.712258	2566.983265
867.024313	2569.173646
867.336325	2568.634243
867.648296	2567.658779
867.960224	2567.308419
868.272110	2571.714388
868.583954	2567.242884
868.895755	2568.883780
869.207515	2569.783626
869.519233	2568.742627
869.830909	2566.393450
870.142542	2569.193811
870.454134	2568.490570
870.765684	2567.562998
871.077191	2569.622309
871.388657	2570.459140
871.700081	2569.392936
872.011463	2569.806311
872.322803	2565.992678
872.634101	2569.198852
872.945357	2567.555436
873.256571	2571.457289
873.567744	2570.171795
873.878874	2570.980900
874.189963	2572.102557
874.501010	2570.181877
874.812015	2568.533420
875.122979	2569.430745
875.433900	2569.221537
875.744780	2570.058369
876.055618	2567.111814
876.366415	2568.354459
876.677169	2568.447720
876.987882	2566.537123
877.298554	2567.837740
877.609183	2565.977555
877.919771	2565.760785
878.230317	2566.030487
878.540822	2569.203893
878.851285	2569.796229
879.161707	2567.323543
879.472087	2570.396126
879.782425	2566.751372
880.092722	2570.776733
880.402977	2571.628688
880.713191	2570.819583
881.023363	2571.734552
881.333494	2569.914696
881.643583	2570.527196
881.953631	2570.509552
882.263637	2570.406208
882.573602	2573.244378
882.883526	2571.815211
883.193408	2567.429407
883.503248	2569.670200
883.813048	2568.397308
884.122806	2567.694067
884.432522	2569.561815
884.742197	2570.474264
885.051831	2569.251784
885.361424	2569.813873
885.670975	2570.370920
885.980485	2568.379664
886.289954	2570.285221
886.599382	2567.837740
886.908768	2569.657597
887.218113	2566.917730
887.527417	2569.849161
887.836680	2567.021073
888.145901	2570.040725
888.455082	2567.429407
888.764221	2571.391754
889.073319	2566.378326
889.382376	2568.407391
889.691392	2568.266238
890.000366	2567.517627
890.309300	2568.054510
890.618193	2571.003585
890.927044	2568.425035
891.235855	2568.868656
891.544625	2569.738255
891.853353	2568.644325
892.162041	2566.148954
892.470687	2568.954356
892.779293	2568.760272
893.087858	2565.163408
893.396381	2566.035528
893.704864	2565.158367
894.013306	2564.802966
894.321707	2567.575600
894.630068	2568.135168
894.938387	2569.181208
895.246665	2566.728687
895.554903	2565.720456
895.863100	2568.409911
896.171256	2572.067268
896.479371	2568.745148
896.787446	2569.733214
897.095480	2568.689695
897.403473	2569.823955
897.711425	2568.341856
898.019336	2566.539643
898.327207	2568.296485
898.635038	2570.622978
898.942827	2568.641804
899.250576	2566.932853
899.558284	2569.047617
899.865952	2567.225240
900.173579	2567.575600
900.481165	2569.952504
900.788711	2569.609706
901.096216	2567.825137
901.403681	2567.285734
901.711105	2571.066599
902.018489	2568.356979
902.325832	2571.230437
902.633135	2567.565518
902.940397	2568.104922
903.247619	2566.103583
903.554800	2565.909499
903.861941	2568.094839
904.169041	2567.263049
904.476101	2567.021073
904.783121	2568.777916
905.090100	2567.021073
905.397039	2570.869994
905.703938	2569.375292
906.010796	2569.145920
906.317614	2567.648697
906.624391	2567.525189
906.931129	2566.746331
907.237826	2569.670200
907.544483	2568.961918
907.851099	2567.789849
908.157675	2568.866136
908.464211	2568.306568
908.770707	2563.711556
909.077163	2565.869170
909.383578	2565.622153
909.689954	2563.204920
909.996289	2562.221895
910.302584	2568.183059
910.608839	2567.626012
910.915054	2567.610888
911.221229	2565.153326
911.527363	2567.048800
911.833458	2569.314798
912.139513	2569.418142
912.445527	2567.366393
912.751502	2567.336146
913.057436	2563.971175
913.363331	2567.016032
913.669186	2566.128789
913.975000	2568.659448
914.280775	2565.881773
914.586510	2568.276321
914.892205	2569.115673
915.197859	2567.948646
915.503475	2568.235992
915.809050	2570.224727
916.114585	2569.700447
916.420081	2568.535940
916.725536	2567.159705
917.030952	2567.323543
917.336328	2569.632391
917.641665	2568.820765
917.946961	2568.241033
918.252218	2566.161557
918.557435	2569.183728
918.862612	2568.135168
919.167750	2567.328584
919.472848	2565.622153
919.777906	2565.662482
920.082925	2568.026784
920.387904	2567.376475
920.692843	2567.525189
920.997743	2566.738769
921.302603	2567.479818
921.607423	2566.096022
921.912204	2568.200703
922.216946	2568.644325
922.521647	2567.247925
922.826310	2566.297668
923.130932	2567.825138
923.435516	2568.795560
923.740059	2568.641804
924.044564	2567.885631
924.349028	2567.941084
924.653454	2562.035372
924.957840	2567.341187
925.262186	2565.085270
925.566493	2562.458829
925.870761	2562.567214
926.174989	2567.860426
926.479178	2565.652400
926.783328	2565.460836
927.087438	2567.268090
927.391509	2568.384706
927.695541	2567.981413
927.999533	2566.620302
928.303486	2566.101063
928.607400	2564.278686
928.911275	2568.795560
929.215110	2565.833882
929.518906	2566.156516
929.822663	2566.665672
930.126381	2568.190621
930.430060	2565.700291
930.733699	2569.284552
931.037299	2565.828841
931.340861	2565.929664
931.644383	2568.462843
931.947866	2569.075344
932.251309	2565.347410
932.554714	2567.878070
932.858080	2569.029973
933.161407	2565.904458
933.464694	2569.662638
933.767943	2569.549212
934.071153	2565.745662
934.374323	2566.965621
934.677455	2568.485529
934.980548	2567.237843
935.283602	2567.608368
935.586617	2567.754561
935.889593	2566.789180
936.192530	2567.633574
936.495428	2566.015363
936.798287	2564.674416
937.101108	2567.956207
937.403890	2565.274314
937.706632	2569.715570
938.009336	2567.845302
938.312002	2569.118193
938.614628	2567.263049
938.917216	2565.944787
939.219765	2566.980744
939.522275	2567.777247
939.824747	2568.233471
940.127179	2563.966134
940.429573	2564.162739
940.731929	2560.661658
941.034246	2564.868501
941.336524	2565.110476
941.638763	2567.923440
941.940964	2567.648697
942.243126	2566.169118
942.545250	2567.726835
942.847335	2567.857905
943.149381	2564.324056
943.451389	2566.242215
943.753359	2567.484860
944.055290	2565.821279
944.357182	2566.799263
944.659036	2567.605847
944.960851	2567.230281
945.262628	2567.457133
945.564367	2565.649880
945.866067	2567.499983
946.167729	2564.419838
946.469352	2565.055023
946.770937	2566.834551
947.072484	2564.944118
947.373992	2566.779098
947.675462	2566.839592
947.976893	2566.653069
948.278286	2565.259190
948.579641	2565.919581
948.880958	2564.671896
949.182236	2565.765826
949.483476	2564.266083
949.784678	2565.690209
950.085841	2566.378326
950.386967	2567.378995
950.688054	2567.091650
950.989103	2567.699109
951.290114	2564.651731
951.591087	2568.485529
951.892021	2565.843964
952.192917	2570.262535
952.493776	2566.776578
952.794596	2566.781619
953.095378	2566.763975
953.396122	2565.775908
953.696828	2565.362534
953.997496	2568.488049
954.298126	2565.962431
954.598718	2565.221382
954.899272	2566.746331
955.199788	2567.411763
955.500266	2567.999057
955.800706	2563.076371
956.101108	2562.539488
956.401472	2564.142575
956.701798	2563.121741
957.002087	2564.129972
957.302337	2565.523851
957.602550	2569.642473
957.902724	2568.503173
958.202861	2565.975034
958.502960	2566.259859
958.803022	2567.293296
959.103045	2568.583831
959.403031	2567.101732
959.702979	2566.012843
960.002889	2564.331618
960.302762	2565.249108
960.602596	2565.402863
960.902393	2565.150805
961.202153	2566.380847
961.501875	2566.655590
961.801559	2565.007132
962.101205	2564.984447
962.400814	2566.451423
962.700385	2566.106104
962.999918	2567.242884
963.299414	2566.698440
963.598873	2566.378326
963.898293	2565.720456
964.197677	2567.547874
964.497022	2567.951166
964.796331	2566.771536
965.095601	2563.779612
965.394835	2569.183728
965.694030	2566.973182
965.993189	2568.684654
966.292309	2567.016032
966.591393	2565.486042
966.890439	2565.284396
967.189447	2563.895558
967.488419	2564.896227
967.787353	2565.385219
968.086249	2566.343038
968.385108	2564.311453
968.683930	2565.947308
968.982714	2565.344890
969.281462	2567.747000
969.580172	2564.429920
969.878844	2565.135682
970.177480	2567.051320
970.476078	2565.624674
970.774639	2563.711556
971.073162	2566.335477
971.371649	2563.600651
971.670098	2560.485217
971.968510	2565.561659
972.266885	2559.802141
972.565223	2564.298850
972.863524	2563.824982
973.161788	2565.604509
973.460014	2565.455795
973.758204	2566.607699
974.056356	2564.984447
974.354471	2566.743810
974.652550	2561.619477
974.950591	2566.970662
975.248595	2564.966803
975.546563	2566.239695
975.844493	2565.576783
976.142386	2566.829510
976.440243	2565.279355
976.738062	2567.741958
977.035845	2565.932184
977.333590	2563.227605
977.631299	2564.324056
977.928971	2564.563511
978.226606	2564.364385
978.524204	2566.176680
978.821765	2565.924622
979.119290	2565.087791
979.416777	2566.670713
979.714228	2567.636094
980.011642	2567.169787
980.309020	2566.784139
980.606360	2564.656772
980.903664	2567.351269
981.200931	2566.479149
981.498162	2566.486711
981.795356	2565.743141
982.092513	2567.588203
982.389633	2564.755075
982.686717	2568.142730
982.983764	2565.884293
983.280775	2566.101063
983.577749	2564.687019
983.874686	2567.373954
984.171587	2564.576114
984.468451	2563.671227
984.765279	2566.504355
985.062070	2565.596947
985.358824	2565.609550
985.655543	2566.887483
985.952224	2565.110476
986.248869	2564.376988
986.545478	2561.259035
986.842050	2563.666186
987.138586	2562.000084
987.435086	2565.569221
987.731549	2561.458160
988.027975	2566.093501
988.324366	2565.594427
988.620719	2571.059038
988.917037	2565.022256
989.213318	2567.046279
989.509563	2565.100394
989.805772	2568.972000
990.101944	2562.899930
990.398080	2564.679457
990.694180	2565.052503
990.990244	2566.993347
991.286271	2563.772050
991.582262	2565.188614
991.878217	2566.912689
992.174136	2565.049982
992.470019	2568.399829
992.765865	2565.002091
993.061676	2562.441185
993.357450	2567.532751
993.653188	2563.797256
993.948890	2565.942267
994.244556	2566.239695
994.540186	2565.291958
994.835780	2564.092163
995.131337	2564.165260
995.426859	2564.044272
995.722345	2563.719118
996.017795	2565.004612
996.313208	2565.985116
996.608586	2564.261042
996.903928	2565.324725
997.199234	2564.714746
997.494504	2563.346072
997.789738	2564.646690
998.084936	2564.339180
998.380099	2565.014694
998.675225	2566.489232
998.970316	2565.493604
999.265371	2567.499983
999.560390	2565.486042
999.855373	2565.604509
1000.150320	2568.165415
1000.445232	2563.298181
1000.740108	2562.511761
1001.034948	2564.185424
1001.329752	2564.581155
1001.624521	2564.538305
1001.919254	2561.745506
1002.213951	2561.072512
1002.508613	2560.041596
1002.803239	2564.747513
1003.097829	2558.902295
1003.392384	2566.101063
1003.686903	2564.949159
1003.981386	2567.356310
1004.275834	2566.882442
1004.570246	2566.176680
1004.864623	2564.127451
1005.158964	2565.218861
1005.453270	2565.680127
1005.747540	2564.293809
1006.041775	2565.231464
1006.335974	2562.403377
1006.630138	2564.172822
1006.924266	2565.791032
1007.218359	2564.533264
1007.512416	2564.881104
1007.806438	2563.066288
1008.100425	2567.036197
1008.394376	2563.376319
1008.688292	2565.544015
1008.982172	2565.866649
1009.276017	2564.533264
1009.569827	2563.565362
1009.863602	2566.254818
1010.157341	2566.133830
1010.451045	2564.349262
1010.744714	2565.483522
1011.038347	2565.450754
1011.331945	2566.413614
1011.625508	2564.687019
1011.919036	2567.089129
1012.212528	2565.528892
1012.505986	2565.223902
1012.799408	2566.975703
1013.092795	2564.359344
1013.386147	2563.693912
1013.679464	2566.312791
1013.972745	2564.921433
1014.265992	2564.306412
1014.559204	2563.419169
1014.852380	2565.657441
1015.145521	2562.526885
1015.438628	2566.401012
1015.731699	2565.919581
1016.024736	2564.921433
1016.317737	2563.991340
1016.610703	2562.768860
1016.903635	2562.239539
1017.196531	2561.339693
1017.489393	2560.878427
1017.782219	2562.602502
1018.075011	2561.541339
1018.367768	2567.217678
1018.660490	2565.087791
1018.953177	2565.087791
1019.245829	2565.087791
