Dividing Wavelength (nm)	Counts (n)	Blue Motor Position (mm): 0.000000	Red Motor Position (mm): 27.500000	
326.493990	2078.190467
326.888308	2078.190467
327.282561	2078.190467
327.676750	2056.783208
328.070874	2059.858311
328.464933	2065.824517
328.858929	2075.102761
329.252859	2087.761098
329.646726	2099.859867
330.040528	2117.887033
330.434265	2135.778088
330.827938	2156.729124
331.221547	2174.279901
331.615091	2196.675227
332.008571	2217.555686
332.401986	2235.761813
332.795338	2256.254103
333.188625	2275.763369
333.581847	2294.196348
333.975006	2314.055973
334.368100	2330.984168
334.761129	2346.425222
335.154095	2362.486338
335.546996	2388.657489
335.939833	2419.360636
336.332606	2427.262645
336.725315	2440.097422
337.117960	2443.283432
337.510540	2454.442026
337.903056	2465.063737
338.295508	2472.002885
338.687896	2478.896663
339.080220	2484.139463
339.472480	2491.988540
339.864676	2492.863180
340.256807	2497.458192
340.648875	2496.616319
341.040879	2500.704695
341.432818	2499.900631
341.824694	2503.016064
342.216506	2501.886845
342.608253	2503.946157
342.999937	2500.155209
343.391557	2500.424911
343.783113	2497.216216
344.174605	2500.747544
344.566033	2493.193375
344.957397	2493.952069
345.348697	2491.761688
345.739934	2488.704228
346.131106	2488.986533
346.522215	2488.885709
346.913260	2484.678867
347.304241	2485.949237
347.695159	2484.225163
348.086012	2487.605256
348.476802	2480.154431
348.867528	2480.580408
349.258191	2478.407671
349.648789	2478.284163
350.039324	2472.809470
350.429796	2480.104019
350.820203	2476.484471
351.210548	2474.856178
351.600828	2474.876343
351.991045	2475.362814
352.381198	2473.658904
352.771288	2472.597741
353.161314	2473.590849
353.551276	2474.967084
353.941175	2471.927268
354.331010	2473.742083
354.720782	2472.292752
355.110490	2474.644450
355.500135	2476.494553
355.889717	2476.635706
356.279235	2476.948257
356.668689	2477.921200
357.058080	2477.885912
357.447408	2478.402630
357.836672	2473.646301
358.225873	2478.624441
358.615010	2476.761734
359.004084	2480.194760
359.393095	2482.637199
359.782043	2484.275574
360.170927	2482.445635
360.559748	2483.789103
360.948505	2484.963692
361.337199	2486.135760
361.725830	2486.753301
362.114398	2485.689618
362.502903	2487.506954
362.891344	2486.665081
363.279722	2490.130874
363.668037	2492.180103
364.056289	2495.093890
364.444478	2490.256903
364.832603	2492.205309
365.220665	2494.887203
365.608665	2496.490290
365.996601	2494.990547
366.384474	2495.018273
366.772284	2496.759992
367.160031	2495.978613
367.547715	2499.081443
367.935336	2497.841319
368.322893	2503.474809
368.710388	2503.283245
369.097820	2502.562360
369.485189	2499.925836
369.872495	2503.063955
370.259738	2506.910355
370.646918	2508.175685
371.034035	2508.805829
371.421090	2513.355470
371.808081	2513.857065
372.195010	2518.862931
372.581875	2520.823940
372.968678	2528.491535
373.355418	2536.285158
373.742096	2544.088865
374.128710	2553.644372
374.515262	2564.397153
374.901751	2577.163875
375.288177	2592.007552
375.674540	2609.936416
376.060841	2626.723458
376.447079	2648.715492
376.833254	2672.905469
377.219367	2696.515713
377.605417	2724.302553
377.991404	2746.062693
378.377329	2787.443005
378.763191	2818.017603
379.148991	2865.258256
379.534727	2912.012437
379.920402	2951.814867
380.306013	2998.503513
380.691563	3058.009293
381.077049	3110.510390
381.462474	3164.191117
381.847835	3235.115110
382.233134	3299.409987
382.618371	3353.730940
383.003545	3439.062551
383.388657	3514.122811
383.773706	3601.546501
384.158693	3667.961182
384.543618	3759.697580
384.928480	3830.697190
385.313280	3932.941873
385.698017	4029.028786
386.082692	4147.644615
386.467305	4203.329200
386.851856	4322.759176
387.236344	4470.258297
387.620770	4531.208367
388.005133	4643.036283
388.389435	4787.669507
388.773674	4863.289336
389.157851	4990.495291
389.541965	5117.043376
389.926018	5147.416328
390.310008	5312.917409
390.693936	5430.041057
391.077802	5545.770826
391.461606	5672.863355
391.845348	5776.446464
392.229027	5898.500360
392.612645	6109.843173
392.996200	6225.512448
393.379694	6397.728346
393.763125	6607.064780
394.146494	6700.124480
394.529801	6825.596279
394.913047	7062.081847
395.296230	7060.662762
395.679351	7113.526822
396.062410	7359.845161
396.445408	7264.355624
396.828343	7411.766525
397.211217	7545.185702
397.594028	7440.488499
397.976778	7636.909497
398.359466	7800.179867
398.742092	7782.906353
399.124656	7920.865090
399.507158	8108.108667
399.889598	8128.495093
400.271977	8337.697937
400.654294	8373.643884
401.036549	8567.841733
401.418742	8597.909695
401.800874	8890.253769
402.182944	8973.291655
402.564952	9331.248866
402.946898	9163.824585
403.328783	9223.060663
403.710606	9417.883615
404.092367	9669.028859
404.474067	10021.861737
404.855705	9823.993928
405.237282	9774.661197
405.618797	10210.562208
406.000250	10448.476943
406.381642	10799.714296
406.762972	10752.450958
407.144240	10572.007897
407.525447	10817.189456
407.906593	10764.305232
408.287677	11024.839624
408.668700	11165.787765
409.049661	11154.977011
409.430560	11320.959522
409.811399	11296.305759
410.192176	11445.644900
410.572891	11527.974504
410.953545	11995.065134
411.334138	11495.007879
411.714669	12067.206567
412.095139	11424.058679
412.475547	11900.021740
412.855894	11770.252358
413.236180	12085.919330
413.616405	11780.208637
413.996568	12059.191132
414.376670	12035.507791
414.756711	11928.872264
415.136691	12197.686752
415.516609	12368.695293
415.896466	12447.034824
416.276262	12734.093247
416.655997	13195.583155
417.035670	13244.066453
417.415283	13855.830636
417.794834	13933.731587
418.174324	13694.231409
418.553753	13604.415691
418.933121	14087.499382
419.312428	13922.033589
419.691674	13832.089322
420.070859	14295.966217
420.449983	13943.786168
420.829045	14502.126724
421.208047	14252.435853
421.586988	14702.038721
421.965867	14957.542042
422.344686	14958.867865
422.723444	15524.263516
423.102141	14228.394591
423.480777	15414.149593
423.859352	14914.079734
424.237866	16019.105698
424.616319	15731.800258
424.994712	16378.721449
425.373044	16162.362688
425.751314	16858.828338
426.129524	15999.238511
426.507673	17063.010193
426.885762	16793.300900
427.263789	16966.131819
427.641756	17160.165830
428.019662	17220.369810
428.397508	17264.459742
428.775292	17552.596972
429.153016	17532.697017
429.530679	17608.644520
429.908282	17648.578021
430.285824	17371.859004
430.663305	18085.683868
431.040726	17700.789251
431.418086	17536.314045
431.795385	18167.708482
432.172624	18606.276264
432.549802	18179.068722
432.926920	18380.140184
433.303977	18264.332278
433.680974	18519.754940
434.057910	18827.320778
434.434786	18865.318475
434.811601	18795.261560
435.188355	19834.538275
435.565050	19502.575773
435.941683	19465.092274
436.318257	20362.089984
436.694770	20160.721093
437.071222	20755.234449
437.447614	19815.457508
437.823946	19854.705411
438.200218	20033.084119
438.576429	19807.928544
438.952580	20110.866602
439.328670	20092.305074
439.704700	20511.792088
440.080670	20068.057124
440.456580	20687.836742
440.832429	20859.556086
441.208218	19862.930053
441.583947	20303.471447
441.959616	20431.489028
442.335224	20673.782005
442.710773	20816.960857
443.086261	21370.517358
443.461689	20705.894155
443.837057	20860.017352
444.212365	21513.423987
444.587612	21513.597907
444.962800	21125.633228
445.337927	21549.647198
445.712995	20265.710684
446.088002	22144.909165
446.462949	22349.506914
446.837837	22537.569679
447.212664	22541.448847
447.587431	25509.778534
447.962139	28469.283681
448.336786	30759.114390
448.711374	29106.145250
449.085901	25376.487906
449.460369	25386.013166
449.834776	25377.165941
450.209124	27925.756556
450.583412	27403.114931
450.957640	27901.095231
451.331808	26549.899642
451.705917	25161.538147
452.079965	25206.651433
452.453954	25592.229126
452.827883	25498.337635
453.201752	25288.502127
453.575562	25454.976151
453.949311	26570.777581
454.323001	26643.289538
454.696632	26415.449549
455.070202	28001.303287
455.443713	28174.164453
455.817164	28745.841381
456.190556	29294.986873
456.563888	28695.392034
456.937160	29124.144689
457.310373	27404.929746
457.683526	27835.398914
458.056619	27818.526172
458.429653	27776.372044
458.802628	28367.076808
459.175542	28494.965840
459.548398	29844.633959
459.921194	31423.576276
460.293930	32119.270630
460.666607	34155.241434
461.039224	35892.491105
461.411782	36207.948868
461.784280	34914.661014
462.156719	34338.137016
462.529099	33724.893253
462.901419	32377.125649
463.273680	31300.617492
463.645882	31405.075241
464.018024	31355.314011
464.390106	32215.309652
464.762130	34998.359291
465.134094	39140.012495
465.505999	44379.129932
465.877845	48763.265156
466.249631	49691.399552
466.621358	47752.264273
466.993026	45490.280898
467.364634	43295.917040
467.736184	41307.277630
468.107674	40001.699442
468.479105	39113.861509
468.850477	38329.468053
469.221790	36844.122319
469.593043	35063.024692
469.964238	34107.635297
470.335373	33951.510763
470.706449	35570.658802
471.077467	38034.870584
471.448425	42273.717234
471.819324	44763.913643
472.190164	42733.765372
472.560945	39196.906957
472.931667	36135.136963
473.302330	34984.183566
473.672934	34074.736727
474.043479	34409.822223
474.413965	33561.446443
474.784393	33078.264449
475.154761	33755.682100
475.525070	33647.461130
475.895321	33069.215578
476.265513	33459.030361
476.635645	34196.233576
477.005719	33870.060840
477.375734	34126.267402
477.745691	34593.731078
478.115588	35587.276966
478.485427	37218.024700
478.855207	40022.269870
479.224928	42122.293575
479.594591	43308.983711
479.964194	42057.207238
480.333739	41957.044552
480.703226	41768.270984
481.072653	42066.034298
481.442022	42216.737072
481.811333	42118.074129
482.180584	40725.006717
482.549777	39997.837918
482.918912	39256.531204
483.287988	38694.908857
483.657005	37736.799760
484.025964	36897.702223
484.394864	36617.988760
484.763706	35989.621536
485.132489	34992.627499
485.501213	34581.705405
485.869879	34405.605298
486.238487	33787.650578
486.607036	33643.478619
486.975527	32927.286933
487.343959	32778.275466
487.712333	32538.067006
488.080648	32136.342497
488.448905	32164.673782
488.817104	31708.419112
489.185244	32103.121293
489.553326	33011.852289
489.921350	34650.368441
490.289315	36480.118244
490.657222	36540.123098
491.025070	36347.709817
491.392861	35212.071447
491.760593	33857.150445
492.128267	32274.991872
492.495883	30847.364829
492.863440	29557.867922
493.230939	28331.448453
493.598380	27310.763513
493.965763	26762.553156
494.333088	25949.621728
494.700354	25336.503994
495.067563	24835.471275
495.434713	24432.688124
495.801805	24150.582634
496.168839	23609.878555
496.535815	23092.318413
496.902733	22801.713538
497.269593	22246.727870
497.636395	21906.588617
498.003139	21792.845062
498.369825	21195.536387
498.736453	21031.126716
499.103023	20490.626804
499.469535	20126.801690
499.835989	19851.196768
500.202385	19389.341376
500.568723	19089.024718
500.935003	18871.624958
501.301226	18490.397781
501.667390	18435.938196
502.033497	18231.700889
502.399546	17696.529476
502.765537	17103.997294
503.131470	16955.563040
503.497345	16799.922456
503.863163	16023.877150
504.228923	15958.737881
504.594625	15822.727550
504.960269	15293.648372
505.325856	15239.118211
505.691385	14759.893523
506.056856	14537.313978
506.422270	14396.718718
506.787625	14004.642977
507.152924	13810.077124
507.518164	13565.472778
507.883347	13082.089138
508.248472	12887.896330
508.613540	12767.952157
508.978550	12594.289448
509.343503	12271.348092
509.708398	12071.778893
510.073236	11963.837707
510.438016	11726.452293
510.802738	11368.127078
511.167403	11274.419589
511.532010	11087.244067
511.896561	10933.055336
512.261053	10874.920750
512.625488	10559.026926
512.989866	10314.132714
513.354186	10064.446884
513.718449	9845.239871
514.082655	9758.589998
514.446803	9502.985854
514.810894	9395.183300
515.174927	9182.491978
515.538904	8968.268145
515.902822	8879.052325
516.266684	8611.422508
516.630488	8488.017583
516.994235	8290.437119
517.357925	8189.283847
517.721558	8040.741208
518.085133	7906.893532
518.448651	7757.168742
518.812112	7562.650780
519.175516	7413.173007
519.538863	7293.395191
519.902152	7134.200594
520.265385	7036.182919
520.628560	6890.430558
520.991678	6730.953657
521.354739	6619.849146
521.717743	6507.963257
522.080690	6371.683225
522.443580	6290.117356
522.806413	6169.250651
523.169189	6040.970930
523.531908	5942.131547
523.894569	5813.178831
524.257174	5713.958841
524.619722	5629.330471
524.982213	5518.616650
525.344647	5417.760806
525.707025	5320.947967
526.069345	5249.976083
526.431608	5158.569881
526.793815	5081.853602
527.155964	4975.860822
527.518057	4899.237804
527.880093	4811.506603
528.242072	4763.293008
528.603995	4675.155995
528.965860	4603.143112
529.327669	4540.042989
529.689421	4467.546156
530.051117	4406.767484
530.412755	4352.809494
530.774337	4299.280002
531.135862	4238.297164
531.497331	4191.825287
531.858743	4137.965600
532.220098	4100.280454
532.581396	4041.782905
532.942638	3985.705109
533.303824	3956.105975
533.664953	3914.103081
534.026025	3867.878221
534.387040	3847.111187
534.747999	3811.513079
535.108902	3784.290849
535.469748	3737.274527
535.830537	3707.466185
536.191270	3688.251827
536.551947	3650.896877
536.912567	3632.834423
537.273131	3608.914148
537.633638	3573.285793
537.994089	3561.224832
538.354483	3527.673433
538.714821	3518.869058
539.075103	3505.814990
539.435328	3484.294304
539.795497	3463.194554
540.155609	3446.455403
540.515665	3438.850823
540.875665	3411.290834
541.235609	3403.159453
541.595496	3386.523646
541.955328	3384.030795
542.315102	3357.700848
542.674821	3339.530009
543.034483	3329.152794
543.394090	3318.571412
543.753640	3306.550781
544.113134	3311.392809
544.472571	3284.667132
544.831953	3293.423616
545.191278	3271.618105
545.550548	3255.055394
545.909761	3255.849376
546.268918	3249.530290
546.628019	3244.746235
546.987064	3228.644789
547.346053	3210.761296
547.704986	3217.239179
548.063863	3202.720656
548.422684	3198.160932
548.781449	3187.854293
549.140158	3188.532328
549.498811	3181.935978
549.857408	3162.540139
550.215949	3164.657424
550.574434	3158.091321
550.932864	3147.358704
551.291237	3149.455824
551.649555	3145.054897
552.007817	3138.778660
552.366022	3129.510499
552.724173	3127.874645
553.082267	3128.635859
553.440305	3125.036475
553.798288	3112.244547
554.156215	3111.417798
554.514086	3107.715070
554.871902	3098.678802
555.229661	3096.264089
555.587365	3088.072214
555.945014	3084.286308
556.302606	3079.275401
556.660143	3077.453024
557.017625	3078.887232
557.375050	3069.465316
557.732421	3071.819534
558.089735	3068.671334
558.446994	3061.185220
558.804197	3065.064388
559.161345	3059.680436
559.518437	3047.826163
559.875474	3046.727191
560.232455	3046.321378
560.589381	3045.971018
560.946251	3044.730894
561.303065	3042.787529
561.659825	3037.625388
562.016528	3033.068185
562.373177	3024.979653
562.729770	3029.410828
563.086307	3022.474200
563.442789	3021.186185
563.799216	3020.815660
564.155587	3017.014630
564.511904	3014.567150
564.868164	3013.677387
565.224370	3014.378107
565.580520	3010.937519
565.936615	3007.166736
566.292654	3003.718587
566.648638	3004.729338
567.004567	3001.233298
567.360441	3001.442506
567.716260	2997.835561
568.072023	2999.491580
568.427732	2996.033348
568.783385	2987.927173
569.138982	2988.950527
569.494525	2988.630414
569.850013	2980.236893
570.205445	2987.415496
570.560823	2982.938951
570.916145	2979.521049
571.271412	2982.455000
571.626625	2978.071717
571.981782	2974.547950
572.336884	2973.287662
572.691931	2973.338073
573.046923	2968.170891
573.401860	2965.912454
573.756743	2964.442958
574.111570	2963.364151
574.466342	2960.329376
574.821059	2961.057823
575.175722	2954.113633
575.530330	2956.104889
575.884882	2952.137501
576.239380	2951.298149
576.593823	2949.455607
576.948211	2948.621296
577.302544	2940.719288
577.656823	2941.082251
578.011047	2942.579473
578.365216	2940.137034
578.719330	2935.660490
579.073389	2935.726025
579.427394	2934.569080
579.781344	2931.236877
580.135239	2928.882658
580.489080	2927.050199
580.842866	2922.155238
581.196597	2926.122627
581.550273	2925.893254
581.903895	2922.918973
582.257463	2927.647576
582.610975	2920.347985
582.964434	2919.523756
583.317837	2916.045360
583.671186	2918.286153
584.024481	2918.533169
584.377721	2912.602252
584.730906	2915.231214
585.084037	2914.338929
585.437113	2908.166037
585.790135	2911.132756
586.143103	2904.160840
586.496016	2905.274935
586.848874	2900.979872
587.201679	2904.241498
587.554428	2898.640776
587.907124	2899.084398
588.259765	2896.019376
588.612352	2901.166394
588.964884	2894.824623
589.317362	2894.930487
589.669786	2895.485014
590.022155	2895.182545
590.374470	2893.879407
590.726731	2892.107441
591.078937	2886.652913
591.431090	2890.678274
591.783188	2885.251472
592.135232	2881.886502
592.487222	2883.101420
592.839157	2881.604197
593.191038	2878.332488
593.542866	2877.803167
593.894639	2869.303782
594.246358	2874.438197
594.598022	2873.377034
594.949633	2867.902341
595.301190	2869.369317
595.652692	2866.773122
596.004141	2868.250180
596.355535	2859.065198
596.706876	2857.830115
597.058162	2858.692153
597.409395	2862.553677
597.760573	2861.106865
598.111698	2856.073273
598.462768	2859.468490
598.813785	2857.431864
599.164748	2853.288036
599.515657	2854.830629
599.866511	2851.919362
600.217312	2851.669825
600.568060	2844.236644
600.918753	2851.185875
601.269392	2848.478775
601.619978	2848.705627
601.970510	2849.277798
602.320988	2846.154803
602.671412	2851.836183
603.021783	2847.866275
603.372100	2845.464165
603.722363	2842.857888
604.072572	2846.452231
604.422728	2844.143383
604.772830	2841.854699
605.122878	2840.750686
605.472872	2842.525172
605.822813	2840.022239
606.172701	2838.562825
606.522534	2841.017867
606.872314	2846.353929
607.222041	2840.266735
607.571714	2842.552899
607.921333	2836.374965
608.270899	2842.321006
608.620411	2843.021726
608.969870	2843.785461
609.319276	2837.526868
609.668627	2838.197342
610.017926	2842.333608
610.367171	2842.368897
610.716362	2841.239678
611.065500	2841.431242
611.414585	2842.555419
611.763616	2844.665142
612.112594	2843.820749
612.461518	2844.970132
612.810389	2843.800584
613.159207	2843.719926
613.507971	2840.057527
613.856682	2847.662108
614.205340	2846.306038
614.553945	2847.838548
614.902496	2844.284535
615.250994	2844.816377
615.599439	2843.183043
615.947830	2846.616069
616.296169	2846.532890
616.644454	2843.956860
616.992686	2845.625482
617.340864	2848.882067
617.688990	2847.067252
618.037063	2849.575226
618.385082	2846.555575
618.733048	2850.530525
619.080961	2850.555730
619.428821	2847.226048
619.776628	2846.991635
620.124382	2846.416943
620.472083	2845.869978
620.819731	2848.720750
621.167326	2841.378310
621.514868	2841.648012
621.862357	2836.480829
622.209793	2836.624502
622.557176	2834.701302
622.904506	2828.432627
623.251783	2826.148984
623.599007	2823.512461
623.946179	2817.523570
624.293297	2818.864517
624.640363	2817.387459
624.987376	2816.185143
625.334336	2814.561892
625.681243	2812.588280
626.028097	2807.481591
626.374899	2807.499235
626.721647	2810.521407
627.068343	2805.059317
627.414987	2805.180305
627.761577	2803.335242
628.108115	2805.114770
628.454600	2797.699232
628.801032	2801.054120
629.147412	2798.548667
629.493739	2799.221661
629.840014	2794.861063
630.186236	2796.917853
630.532405	2793.835188
630.878521	2793.409210
631.224585	2793.331072
631.570597	2791.947276
631.916556	2791.029786
632.262462	2786.306225
632.608316	2788.980557
632.954117	2788.320166
633.299866	2786.865793
633.645562	2786.923766
633.991206	2786.059208
634.336797	2780.362704
634.682336	2780.546706
635.027823	2776.370110
635.373257	2778.671397
635.718639	2773.163937
636.063968	2770.597989
636.409245	2767.253184
636.754470	2766.592792
637.099642	2764.755292
637.444762	2760.049375
637.789829	2760.568614
638.134845	2758.466452
638.479808	2758.600043
638.824719	2757.725403
639.169577	2753.939496
639.514383	2754.718355
639.859137	2753.001842
640.203839	2753.263982
640.548489	2749.513363
640.893086	2750.030082
641.237632	2745.114957
641.582125	2746.060173
641.926566	2744.303331
642.270955	2748.099320
642.615292	2745.351891
642.959576	2745.389699
643.303809	2746.997827
643.647990	2746.284504
643.992118	2745.215780
644.336195	2739.899883
644.680219	2745.256109
645.024192	2743.849627
645.368112	2744.706623
645.711981	2746.216449
646.055797	2747.980852
646.399562	2750.715678
646.743274	2756.916298
647.086935	2758.756319
647.430544	2754.390680
647.774101	2755.514857
648.117606	2755.708941
648.461059	2757.987543
648.804460	2759.540218
649.147810	2754.032758
649.491108	2750.483785
649.834354	2746.839031
650.177548	2741.089595
650.520690	2737.429717
650.863781	2738.740417
651.206820	2742.518762
651.549807	2738.019532
651.892742	2734.342011
652.235626	2734.296640
652.578458	2731.876887
652.921238	2726.404714
653.263967	2729.303377
653.606644	2725.280537
653.949269	2725.610732
654.291843	2722.800289
654.634365	2725.371277
654.976836	2723.644682
655.319255	2722.575958
655.661622	2721.141749
656.003938	2718.893395
656.346203	2718.278374
656.688416	2721.187120
657.030577	2719.473127
657.372687	2718.691749
657.714746	2719.921790
658.056753	2718.076728
658.398708	2711.109853
658.740612	2712.959957
659.082465	2712.498691
659.424266	2712.027343
659.766016	2708.082640
660.107715	2710.061293
660.449362	2713.640512
660.790958	2712.385265
661.132503	2714.240410
661.473996	2715.082282
661.815438	2713.607745
662.156829	2712.196222
662.498168	2712.004658
662.839456	2709.562219
663.180693	2712.060111
663.521879	2714.512632
663.863013	2715.349464
664.204097	2712.443238
664.545129	2715.457848
664.886110	2715.382231
665.227040	2716.279557
665.567918	2717.197047
665.908746	2717.721327
666.249522	2714.918445
666.590248	2716.836604
666.930922	2716.022458
667.271545	2714.497509
667.612118	2717.708724
667.952639	2711.737477
668.293109	2714.880636
668.633528	2713.017930
668.973896	2712.780996
669.314213	2711.336705
669.654480	2711.518187
669.994695	2709.567260
670.334859	2710.751931
670.674973	2708.763196
671.015035	2711.130018
671.355047	2708.758155
671.695008	2709.937785
672.034918	2706.819831
672.374777	2707.686910
672.714585	2709.826880
673.054342	2710.840152
673.394049	2706.308154
673.733705	2709.615151
674.073310	2707.434852
674.412864	2706.973587
674.752368	2704.168184
675.091820	2707.104657
675.431223	2705.698175
675.770574	2699.532843
676.109875	2697.781042
676.449125	2697.455888
676.788324	2697.072760
677.127473	2691.227542
677.466571	2691.232584
677.805619	2694.819365
678.144616	2693.566638
678.483562	2693.856504
678.822458	2687.406348
679.161303	2687.832325
679.500098	2689.586647
679.838842	2690.945238
680.177535	2688.901050
680.516179	2692.371884
680.854771	2690.244517
681.193314	2696.689633
681.531805	2703.306147
681.870247	2704.044676
682.208638	2704.359748
682.546978	2710.827549
682.885268	2711.455172
683.223508	2708.639688
683.561697	2706.492156
683.899836	2704.271528
684.237925	2702.683565
684.575963	2702.204655
684.913951	2698.486804
685.251889	2702.592824
685.589776	2699.200127
685.927614	2699.026207
686.265401	2699.404294
686.603137	2699.747092
686.940824	2704.236240
687.278460	2705.758668
687.616046	2705.062989
687.953582	2708.932075
688.291068	2706.282948
688.628504	2711.540872
688.965889	2709.317723
689.303224	2705.816642
689.640510	2702.408822
689.977745	2698.378419
690.314930	2695.822554
690.652065	2693.236442
690.989150	2690.756195
691.326185	2685.800740
691.663170	2678.125584
692.000105	2677.974349
692.336990	2672.590397
692.673825	2672.366065
693.010610	2668.973369
693.347345	2663.584375
693.684030	2657.663540
694.020665	2658.359219
694.357251	2653.837304
694.693786	2654.714465
695.030272	2656.675474
695.366707	2652.597181
695.703093	2653.527273
696.039429	2652.181285
696.375716	2650.086686
696.711952	2649.391007
697.048139	2647.596356
697.384276	2647.503095
697.720363	2647.798002
698.056400	2645.428660
698.392388	2645.637868
698.728326	2644.155768
699.064214	2639.404481
699.400053	2641.940181
699.735842	2642.000675
700.071581	2638.149234
700.407270	2638.814666
700.742910	2638.517238
701.078501	2633.375261
701.414042	2634.196969
701.749533	2630.164046
702.084974	2631.789818
702.420366	2630.504324
702.755709	2629.854015
703.091002	2627.431741
703.426246	2627.265382
703.761440	2627.726648
704.096584	2625.269086
704.431679	2626.458798
704.766725	2625.112810
705.101721	2621.248765
705.436668	2622.635083
705.771565	2620.230452
706.106413	2625.435444
706.441212	2626.360495
706.775961	2624.281019
707.110661	2625.934518
707.445311	2626.652882
707.779913	2628.150105
708.114465	2628.407204
708.448967	2627.807307
708.783421	2632.177987
709.117825	2631.714201
709.452180	2635.845426
709.786485	2636.536064
710.120742	2644.173412
710.454949	2644.435552
710.789107	2641.854482
711.123216	2644.599390
711.457275	2645.849596
711.791286	2647.997128
712.125247	2653.076090
712.459159	2652.622386
712.793023	2658.192861
713.126837	2649.723723
713.460602	2649.002838
713.794318	2648.889412
714.127985	2647.450162
714.461602	2641.993113
714.795171	2641.100829
715.128691	2633.143368
715.462162	2632.956845
715.795584	2631.744448
716.128957	2628.800414
716.462281	2627.056175
716.795556	2624.482666
717.128782	2620.757253
717.461960	2620.273302
717.795088	2621.339506
718.128167	2615.259875
718.461198	2613.588732
718.794180	2614.733074
719.127113	2613.230810
719.459997	2611.814246
719.792833	2608.350973
720.125619	2608.214862
720.458357	2604.426435
720.791046	2609.714605
721.123686	2603.909717
721.456278	2606.387444
721.788821	2603.541712
722.121315	2603.690427
722.453761	2602.016763
722.786158	2603.491301
723.118506	2599.803697
723.450805	2602.064654
723.783056	2603.314861
724.115259	2601.792432
724.447412	2600.527102
724.779518	2601.550457
725.111574	2604.166816
725.443582	2604.938112
725.775542	2605.767382
726.107453	2609.323916
726.439315	2606.178236
726.771129	2612.073865
727.102895	2614.049998
727.434612	2614.836418
727.766281	2614.793568
728.097901	2613.301386
728.429473	2611.458845
728.760996	2610.213680
729.092471	2612.247785
729.423897	2614.067642
729.755276	2616.454628
730.086606	2618.753394
730.417887	2616.111830
730.749120	2620.706841
731.080305	2622.524177
731.411442	2623.096348
731.742530	2624.611215
732.073570	2626.410907
732.404562	2626.955352
732.735506	2625.831174
733.066401	2622.037706
733.397249	2623.119033
733.728048	2613.732405
734.058798	2611.433639
734.389501	2608.396344
734.720156	2606.163113
735.050762	2604.111363
735.381320	2601.152206
735.711831	2602.772937
736.042293	2596.620208
736.372707	2597.691453
736.703073	2597.946032
737.033391	2597.575507
737.363661	2596.342945
737.693883	2598.515682
738.024056	2602.800663
738.354182	2602.006681
738.684260	2601.026177
739.014290	2605.190170
739.344272	2603.594645
739.674207	2607.055397
740.004093	2609.109667
740.333931	2606.768051
740.663722	2610.884153
740.993464	2607.713267
741.323159	2607.403236
741.652806	2605.225458
741.982405	2603.400560
742.311956	2603.234202
742.641460	2600.242277
742.970915	2600.617843
743.300323	2597.000815
743.629683	2598.011567
743.958996	2596.312698
744.288260	2593.111565
744.617477	2591.473190
744.946647	2586.313569
745.275768	2586.482448
745.604842	2584.748291
745.933869	2582.457087
746.262847	2580.531366
746.591778	2586.943713
746.920662	2587.427664
747.249498	2582.600759
747.578286	2585.776686
747.907027	2585.257447
748.235720	2590.326328
748.564365	2591.490834
748.892963	2586.779876
749.221514	2589.023189
749.550017	2587.679722
749.878473	2590.238107
750.206881	2586.358940
750.535242	2584.723085
750.863555	2586.376584
751.191821	2587.236100
751.520039	2586.185020
751.848210	2582.114288
752.176334	2585.015472
752.504411	2584.418095
752.832440	2583.172930
753.160421	2584.942375
753.488356	2581.970615
753.816243	2581.254771
754.144082	2580.062538
754.471875	2580.029771
754.799620	2579.621437
755.127318	2577.418453
755.454969	2579.434915
755.782572	2579.006417
756.110129	2578.605645
756.437638	2581.411047
756.765100	2579.185378
757.092515	2580.178485
757.419882	2580.412899
757.747203	2579.772672
758.074477	2578.792168
758.401703	2581.388362
758.728882	2582.709144
759.056014	2583.437591
759.383099	2584.496233
759.710138	2583.235945
760.037129	2584.907087
760.364073	2587.208374
760.690970	2584.612180
761.017820	2587.606625
761.344623	2586.706779
761.671379	2587.725092
761.998088	2593.466967
762.324751	2603.415684
762.651366	2623.371091
762.977935	2650.522746
763.304456	2663.072698
763.630931	2669.588390
763.957359	2662.624036
764.283740	2651.107520
764.610074	2636.699902
764.936362	2623.519805
765.262602	2611.111005
765.588796	2599.418049
765.914943	2594.906216
766.241044	2587.631831
766.567097	2581.950451
766.893104	2577.141190
767.219064	2574.575243
767.544978	2573.554409
767.870845	2571.784964
768.196665	2566.751372
768.522438	2567.028635
768.848165	2565.748182
769.173846	2565.874211
769.499479	2564.356824
769.825066	2561.097718
770.150607	2559.807182
770.476101	2558.083108
770.801548	2558.073025
771.126949	2559.829868
771.452303	2558.443550
771.777611	2556.706873
772.102872	2557.664692
772.428087	2556.112017
772.753256	2555.534804
773.078378	2551.509443
773.403453	2552.842828
773.728482	2552.220246
774.053465	2548.832590
774.378401	2550.551624
774.703291	2549.530790
775.028135	2546.642209
775.352932	2547.194215
775.677683	2547.473999
776.002388	2547.816798
776.327046	2549.225800
776.651658	2547.017775
776.976224	2543.476364
777.300743	2546.985008
777.625216	2546.264122
777.949643	2546.533824
778.274024	2547.705893
778.598359	2540.209697
778.922647	2540.499563
779.246889	2541.520397
779.571086	2540.975952
779.895236	2541.530479
780.219339	2545.354194
780.543397	2544.928217
780.867409	2543.627599
781.191374	2545.550799
781.515294	2541.706919
781.839167	2548.497354
782.162995	2543.783875
782.486776	2543.902342
782.810511	2546.584236
783.134201	2545.278577
783.457844	2542.369831
783.781441	2544.030891
784.104993	2543.473844
784.428498	2541.792619
784.751958	2544.247661
785.075372	2544.877805
785.398739	2544.482075
785.722061	2543.715819
786.045337	2545.510470
786.368568	2546.155738
786.691752	2545.480223
787.014891	2547.393341
787.337983	2549.908877
787.661030	2553.414999
787.984031	2553.278888
788.306987	2559.998746
788.629897	2562.932698
788.952760	2558.199054
789.275579	2556.507747
789.598351	2559.870197
789.921078	2553.175544
790.243759	2551.698486
790.566395	2546.821170
790.888984	2547.882333
791.211529	2543.977959
791.534027	2546.052394
791.856480	2542.722712
792.178888	2545.250851
792.501249	2546.117929
792.823566	2543.012578
793.145836	2541.051569
793.468062	2540.691127
793.790241	2543.015099
794.112375	2540.512166
794.434464	2543.269677
794.756507	2542.188350
795.078505	2545.044163
795.400457	2543.904863
795.722364	2545.107178
796.044226	2552.018600
796.366042	2547.988197
796.687812	2547.962991
797.009538	2551.764021
797.331218	2550.531459
797.652852	2549.792930
797.974442	2548.313352
798.295986	2549.429967
798.617484	2546.758156
798.938938	2545.185316
799.260346	2546.848896
799.581709	2544.557692
799.903026	2544.242620
800.224299	2544.421581
800.545526	2545.215562
800.866708	2540.824718
801.187845	2540.459234
801.508936	2541.086858
801.829983	2543.110881
802.150984	2539.703061
802.471940	2541.129707
802.792851	2538.508307
803.113717	2540.068544
803.434538	2539.284645
803.755314	2538.657021
804.076045	2537.074099
804.396731	2537.406815
804.717372	2536.703574
805.037967	2538.223482
805.358518	2540.970911
805.679024	2538.609130
805.999485	2539.030067
806.319901	2538.155427
806.640272	2541.641384
806.960598	2539.430838
807.280879	2539.009902
807.601115	2538.893956
807.921306	2540.923020
808.241453	2541.543082
808.561554	2538.765406
808.881611	2541.651467
809.201623	2537.076620
809.521590	2541.293545
809.841513	2540.146682
810.161390	2537.694161
810.481223	2538.830941
810.801011	2537.457227
811.120755	2537.933616
811.440453	2538.304141
811.760107	2536.554860
812.079716	2536.577545
812.399281	2535.619726
812.718801	2533.946063
813.038276	2535.150899
813.357707	2532.723583
813.677093	2533.888090
813.996434	2534.871115
814.315731	2538.435211
814.634983	2535.382792
814.954191	2537.757175
815.273354	2536.575025
815.592473	2536.665766
815.911547	2539.534182
816.230577	2539.945036
816.549562	2542.211035
816.868502	2541.278421
817.187399	2539.705581
817.506250	2543.254554
817.825058	2544.514842
818.143821	2545.825542
818.462539	2548.749411
818.781213	2549.326623
819.099843	2556.848025
819.418429	2563.620815
819.736970	2568.808163
820.055466	2579.316448
820.373919	2590.964034
820.692327	2607.367948
821.010691	2643.109729
821.329011	2714.000955
821.647286	2818.199084
821.965517	2936.197373
822.283704	3001.991992
822.601847	3015.580422
822.919945	2967.371868
823.237999	2908.178639
823.556010	2854.210567
823.873976	2803.057979
824.191897	2753.516039
824.509775	2718.391800
824.827609	2691.804755
825.145398	2669.926147
825.463144	2663.322235
825.780845	2663.717966
826.098502	2679.688341
826.416116	2702.713812
826.733685	2730.256156
827.051210	2732.804459
827.368692	2720.388097
827.686129	2693.780887
828.003522	2665.159736
828.320872	2630.864766
828.638177	2615.491768
828.955439	2603.206476
829.272656	2587.644434
829.589830	2575.021385
829.906960	2568.876218
830.224046	2562.945301
830.541088	2555.897768
830.858086	2553.362067
831.175041	2550.385266
831.491952	2550.163455
831.808819	2552.482386
832.125642	2555.716286
832.442421	2562.065619
832.759157	2578.608166
833.075849	2600.753954
833.392497	2622.715741
833.709101	2634.108749
834.025662	2633.284520
834.342179	2620.250617
834.658653	2604.267639
834.975083	2591.780701
835.291469	2582.389031
835.607811	2569.672720
835.924110	2559.214847
836.240366	2553.936759
836.556578	2548.348640
836.872746	2544.345963
837.188871	2541.631302
837.504952	2536.781712
837.820990	2531.700229
838.136984	2532.688295
838.452935	2529.235105
838.768842	2534.155271
839.084706	2534.971938
839.400526	2548.353681
839.716303	2561.206102
840.032037	2566.567370
840.347727	2566.562328
840.663373	2559.688715
840.978977	2549.866027
841.294537	2545.550799
841.610054	2539.569470
841.925527	2533.492359
842.240957	2531.281813
842.556344	2532.123686
842.871687	2526.676719
843.186987	2527.392563
843.502244	2522.139681
843.817458	2524.214116
844.132629	2521.025586
844.447756	2522.142201
844.762840	2515.966788
845.077881	2515.404699
845.392879	2515.248423
845.707833	2517.688342
846.022745	2514.623320
846.337613	2518.013496
846.652438	2516.226407
846.967221	2517.211953
847.281960	2518.378980
847.596656	2518.494927
847.911309	2517.789165
848.225919	2518.157169
848.540485	2516.846469
848.855009	2513.610048
849.169490	2517.615245
849.483928	2518.610873
849.798323	2515.797909
850.112675	2515.578619
850.426984	2515.956706
850.741251	2516.475944
851.055474	2517.416120
851.369654	2516.899401
851.683792	2515.888650
851.997887	2516.831346
852.311938	2516.788496
852.625947	2513.965450
852.939914	2513.720954
853.253837	2517.216994
853.567718	2515.787827
853.881555	2515.911335
854.195350	2516.828825
854.509103	2515.732374
854.822812	2513.158865
855.136479	2518.126922
855.450103	2515.429905
855.763685	2515.772703
856.077224	2513.909997
856.390720	2515.051818
856.704173	2516.150790
857.017584	2518.232787
857.330953	2517.141377
857.644278	2514.822446
857.957561	2517.932838
858.270802	2518.449556
858.584000	2517.529546
858.897155	2517.708507
859.210268	2516.750687
859.523339	2514.993845
859.836367	2516.544000
860.149352	2516.438136
860.462295	2519.601460
860.775195	2514.162055
861.088054	2510.272805
861.400869	2514.129287
861.713642	2509.899759
862.026373	2513.350429
862.339062	2516.659947
862.651708	2518.149608
862.964312	2514.262878
863.276873	2515.480317
863.589392	2515.631551
863.901869	2517.096006
864.214303	2515.220697
864.526696	2517.963085
864.839045	2516.087776
865.151353	2519.692201
865.463619	2516.856552
865.775842	2517.252282
866.088023	2516.498630
866.400162	2521.575072
866.712258	2516.352436
867.024313	2522.981553
867.336325	2521.106244
867.648296	2520.130781
867.960224	2517.385873
868.272110	2516.859072
868.583954	2518.089114
868.895755	2516.460821
869.207515	2521.338137
869.519233	2517.968126
869.830909	2521.948117
870.142542	2521.030627
870.454134	2519.208250
870.765684	2521.736388
871.077191	2519.606501
871.388657	2521.562469
871.700081	2520.602129
872.011463	2521.680936
872.322803	2521.814526
872.634101	2523.611698
872.945357	2523.185720
873.256571	2524.635052
873.567744	2523.861235
873.878874	2523.405010
874.189963	2524.650175
874.501010	2525.272758
874.812015	2525.093797
875.122979	2524.597243
875.433900	2524.196472
875.744780	2526.482635
876.055618	2525.050947
876.366415	2526.943900
876.677169	2526.064219
876.987882	2526.288550
877.298554	2522.507685
877.609183	2525.965917
877.919771	2527.067409
878.230317	2528.496576
878.540822	2533.628470
878.851285	2537.023687
879.161707	2541.890922
879.472087	2552.633620
879.782425	2563.837585
880.092722	2591.185844
880.402977	2626.690691
880.713191	2668.859943
881.023363	2713.375852
881.333494	2737.991806
881.643583	2749.117633
881.953631	2741.583628
882.263637	2724.564693
882.573602	2710.867878
882.883526	2694.768953
883.193408	2677.835717
883.503248	2658.926349
883.813048	2642.409009
884.122806	2628.508027
884.432522	2611.889863
884.742197	2601.399222
885.051831	2587.624269
885.361424	2576.422825
885.670975	2567.671382
885.980485	2560.618808
886.289954	2555.436502
886.599382	2548.595656
886.908768	2542.185829
887.218113	2542.054759
887.527417	2539.682896
887.836680	2534.235929
888.145901	2533.802390
888.455082	2531.523789
888.764221	2528.030269
889.073319	2528.534384
889.382376	2527.853829
889.691392	2527.677388
890.000366	2528.262162
890.309300	2525.645803
890.618193	2528.383150
890.927044	2527.074970
891.235855	2529.925743
891.544625	2528.178983
891.853353	2529.046062
892.162041	2528.302491
892.470687	2531.538912
892.779293	2536.668286
893.087858	2538.760365
893.396381	2542.420243
893.704864	2552.565565
894.013306	2563.721638
894.321707	2579.795357
894.630068	2586.535380
894.938387	2590.971595
895.246665	2587.223498
895.554903	2582.386510
895.863100	2576.649677
896.171256	2569.455951
896.479371	2563.824982
896.787446	2557.140412
897.095480	2555.002963
897.403473	2547.385779
897.711425	2544.333361
898.019336	2542.712630
898.327207	2538.243647
898.635038	2535.508821
898.942827	2533.860363
899.250576	2533.988913
899.558284	2529.968593
899.865952	2528.186545
900.173579	2528.715866
900.481165	2526.487676
900.788711	2522.701769
901.096216	2524.367871
901.403681	2522.490041
901.711105	2522.868128
902.018489	2523.407531
902.325832	2524.307377
902.633135	2526.616225
902.940397	2530.515558
903.247619	2541.719522
903.554800	2558.904816
903.861941	2582.830132
904.169041	2599.420569
904.476101	2607.413319
904.783121	2599.486104
905.090100	2589.960844
905.397039	2580.160841
905.703938	2569.587021
906.010796	2565.806155
906.317614	2556.550597
906.624391	2551.617828
906.931129	2546.342260
907.237826	2541.858154
907.544483	2536.033101
907.851099	2532.068233
908.157675	2527.805938
908.464211	2522.119516
908.770707	2518.557941
909.077163	2519.515760
909.383578	2514.494771
909.689954	2512.874040
909.996289	2511.694410
910.302584	2513.751201
910.608839	2514.913187
910.915054	2513.917559
911.221229	2514.948475
911.527363	2515.671880
911.833458	2515.094668
912.139513	2517.814371
912.445527	2514.996366
912.751502	2517.191788
913.057436	2516.969977
913.363331	2521.007942
913.669186	2522.956348
913.975000	2524.844260
914.280775	2532.017822
914.586510	2536.932947
914.892205	2550.982642
915.197859	2561.153170
915.503475	2575.732187
915.809050	2593.615681
916.114585	2597.451999
916.420081	2599.564242
916.725536	2601.646239
917.030952	2597.890579
917.336328	2587.828436
917.641665	2582.941037
917.946961	2578.088927
918.252218	2570.849830
918.557435	2565.486042
918.862612	2561.357337
919.167750	2555.970864
919.472848	2551.156562
919.777906	2547.473999
920.082925	2539.745911
920.387904	2536.196938
920.692843	2534.107380
920.997743	2529.232584
921.302603	2528.186545
921.607423	2527.392563
921.912204	2524.506502
922.216946	2522.258148
922.521647	2520.854187
922.826310	2516.763290
923.130932	2520.418127
923.435516	2517.390914
923.740059	2516.937210
924.044564	2515.419823
924.349028	2515.714730
924.653454	2510.126611
924.957840	2510.091323
925.262186	2506.630571
925.566493	2511.245747
925.870761	2505.773575
926.174989	2511.656601
926.479178	2509.451097
926.783328	2511.273474
927.087438	2509.549399
927.391509	2509.887156
927.695541	2508.954543
927.999533	2507.903462
928.303486	2507.399347
928.607400	2507.381703
928.911275	2506.033194
929.215110	2508.684841
929.518906	2508.725170
929.822663	2506.532268
930.126381	2507.343894
930.430060	2507.270798
930.733699	2510.300531
931.037299	2507.845489
931.340861	2505.604696
931.644383	2509.133504
931.947866	2508.034532
932.251309	2504.384737
932.554714	2504.472957
932.858080	2508.014368
933.161407	2503.759634
933.464694	2505.791219
933.767943	2505.710560
934.071153	2505.324912
934.374323	2506.375993
934.677455	2506.353308
934.980548	2507.285921
935.283602	2506.925478
935.586617	2505.690396
935.889593	2506.214676
936.192530	2506.494460
936.495428	2506.360869
936.798287	2504.495642
937.101108	2506.761641
937.403890	2508.158041
937.706632	2509.922444
938.009336	2509.630058
938.312002	2513.844462
938.614628	2513.799092
938.917216	2514.018382
939.219765	2514.832528
939.522275	2514.527538
939.824747	2513.181550
940.127179	2509.312465
940.429573	2508.407578
940.731929	2510.376148
941.034246	2510.056035
941.336524	2512.004441
941.638763	2510.056035
941.940964	2511.805315
942.243126	2514.736746
942.545250	2512.165758
942.847335	2511.495284
943.149381	2510.005623
943.451389	2508.987310
943.753359	2507.112001
944.055290	2508.238699
944.357182	2509.685510
944.659036	2509.788854
944.960851	2508.271467
945.262628	2505.403050
945.564367	2508.954543
945.866067	2507.676610
946.167729	2511.248268
946.469352	2507.217865
946.770937	2509.027640
947.072484	2507.001096
947.373992	2510.779441
947.675462	2510.517301
947.976893	2506.398678
948.278286	2505.561846
948.579641	2506.512104
948.880958	2505.312309
949.182236	2510.108967
949.483476	2507.210304
949.784678	2511.303721
950.085841	2508.919255
950.386967	2506.454131
950.688054	2505.808863
950.989103	2509.700634
951.290114	2506.466733
951.591087	2508.757938
951.892021	2510.098885
952.192917	2510.739111
952.493776	2506.834738
952.794596	2509.887156
953.095378	2509.564523
953.396122	2510.655932
953.696828	2509.488905
953.997496	2511.666684
954.298126	2506.373472
954.598718	2509.337671
954.899272	2506.441528
955.199788	2509.892198
955.500266	2509.998062
955.800706	2504.909017
956.101108	2500.934067
956.401472	2502.406084
956.701798	2500.109838
957.002087	2504.873729
957.302337	2506.204593
957.602550	2506.411281
957.902724	2502.915241
958.202861	2506.864985
958.502960	2504.707371
958.803022	2503.101763
959.103045	2501.231495
959.403031	2502.685868
959.702979	2500.886176
960.002889	2500.140085
960.302762	2501.249139
960.602596	2499.948522
960.902393	2502.668224
961.202153	2501.037411
961.501875	2501.488594
961.801559	2500.371978
962.101205	2499.756958
962.400814	2501.657473
962.700385	2501.052534
962.999918	2499.807369
963.299414	2498.481546
963.598873	2500.742503
963.898293	2498.156391
964.197677	2503.401712
964.497022	2496.512975
964.796331	2501.813748
965.095601	2498.950373
965.394835	2500.618995
965.694030	2499.744355
965.993189	2500.094715
966.292309	2500.949191
966.591393	2498.146309
966.890439	2497.725373
967.189447	2499.494818
967.488419	2500.979438
967.787353	2498.269817
968.086249	2500.152688
968.385108	2498.262256
968.683930	2502.136382
968.982714	2501.039931
969.281462	2498.370640
969.580172	2500.472802
969.878844	2501.067658
970.177480	2499.860301
970.476078	2503.132010
970.774639	2499.822493
971.073162	2498.794097
971.371649	2500.349293
971.670098	2499.020949
971.968510	2498.579848
972.266885	2496.321411
972.565223	2500.417349
972.863524	2502.476660
973.161788	2501.682678
973.460014	2501.380209
973.758204	2501.801146
974.056356	2501.546567
974.354471	2499.278048
974.652550	2500.051865
974.950591	2502.302740
975.248595	2499.363748
975.546563	2500.881135
975.844493	2500.984479
976.142386	2500.976917
976.440243	2500.480363
976.738062	2501.675117
977.035845	2499.572956
977.333590	2500.457678
977.631299	2498.978099
977.928971	2502.161588
978.226606	2498.965497
978.524204	2502.118738
978.821765	2497.856443
979.119290	2499.590600
979.416777	2495.224960
979.714228	2500.203100
980.011642	2500.578666
980.309020	2502.821979
980.606360	2502.514469
980.903664	2501.370127
981.200931	2506.033194
981.498162	2500.659324
981.795356	2507.091837
982.092513	2505.803822
982.389633	2507.633761
982.686717	2509.325068
982.983764	2511.228103
983.280775	2513.615090
983.577749	2508.389934
983.874686	2507.795078
984.171587	2511.240706
984.468451	2508.904131
984.765279	2509.430932
985.062070	2508.952022
985.358824	2505.503873
985.655543	2506.628050
985.952224	2505.501352
986.248869	2504.120076
986.545478	2500.830723
986.842050	2499.620847
987.138586	2498.937770
987.435086	2499.701505
987.731549	2496.722183
988.027975	2499.928357
988.324366	2498.814262
988.620719	2501.024808
988.917037	2500.072030
989.213318	2499.136896
989.509563	2494.998108
989.805772	2497.722852
990.101944	2497.359889
990.398080	2498.511793
990.694180	2498.728562
990.990244	2498.950373
991.286271	2496.598675
991.582262	2497.543891
991.878217	2499.971207
992.174136	2498.819303
992.470019	2499.421721
992.765865	2499.507421
993.061676	2499.691423
993.357450	2500.001454
993.653188	2499.086484
993.948890	2500.780312
994.244556	2499.237719
994.540186	2502.622854
994.835780	2500.881135
995.131337	2502.542195
995.426859	2502.577483
995.722345	2503.689058
996.017795	2503.026146
996.313208	2504.006650
996.608586	2501.019767
996.903928	2506.350787
997.199234	2504.034377
997.494504	2505.072854
997.789738	2505.057731
998.084936	2503.114366
998.380099	2502.718636
998.675225	2501.740652
998.970316	2501.317195
999.265371	2500.714777
999.560390	2500.760147
999.855373	2500.618995
1000.150320	2501.443224
1000.445232	2497.427945
1000.740108	2501.216372
1001.034948	2498.721001
1001.329752	2498.521875
1001.624521	2497.410301
1001.919254	2496.480208
1002.213951	2495.950887
1002.508613	2493.258910
1002.803239	2494.758654
1003.097829	2494.229332
1003.392384	2499.078922
1003.686903	2499.825013
1003.981386	2497.901813
1004.275834	2497.521206
1004.570246	2497.082626
1004.864623	2495.335866
1005.158964	2494.181442
1005.453270	2492.933756
1005.747540	2497.324601
1006.041775	2497.259066
1006.335974	2496.886021
1006.630138	2497.243942
1006.924266	2499.575476
1007.218359	2497.490959
1007.512416	2495.356030
1007.806438	2496.167656
1008.100425	2498.511793
1008.394376	2496.195383
1008.688292	2495.794611
1008.982172	2495.414004
1009.276017	2498.095898
1009.569827	2494.370485
1009.863602	2496.835609
1010.157341	2496.197903
1010.451045	2494.410814
1010.744714	2498.451299
1011.038347	2496.258397
1011.331945	2497.085146
1011.625508	2494.511637
1011.919036	2495.870228
1012.212528	2495.252687
1012.505986	2495.877790
1012.799408	2496.182780
1013.092795	2497.463233
1013.386147	2498.781494
1013.679464	2496.742348
1013.972745	2496.563387
1014.265992	2496.591113
1014.559204	2497.037255
1014.852380	2495.146823
1015.145521	2497.417862
1015.438628	2498.201762
1015.731699	2495.446771
1016.024736	2495.691267
1016.317737	2496.177738
1016.610703	2498.408449
1016.903635	2491.494507
1017.196531	2495.338386
1017.489393	2493.636997
1017.782219	2491.597850
1018.075011	2494.214209
1018.367768	2493.702532
1018.660490	2496.966679
1018.953177	2496.966679
1019.245829	2496.966679
