Dividing Wavelength (nm)	Counts (n)	Blue Motor Position (mm): 0.000000	Red Motor Position (mm): 42.900000	
326.493990	2125.751233
326.888308	2125.751233
327.282561	2125.751233
327.676750	2095.050606
328.070874	2094.659917
328.464933	2097.966914
328.858929	2104.565784
329.252859	2111.590632
329.646726	2125.247118
330.040528	2137.819756
330.434265	2157.006387
330.827938	2172.381906
331.221547	2191.417303
331.615091	2210.107381
332.008571	2228.978941
332.401986	2249.264544
332.795338	2266.422111
333.188625	2289.034206
333.581847	2303.174643
333.975006	2323.714824
334.368100	2345.059070
334.761129	2359.582634
335.154095	2378.252547
335.546996	2397.391288
335.939833	2418.246541
336.332606	2432.523089
336.725315	2446.010696
337.117960	2456.135853
337.510540	2465.202369
337.903056	2478.016982
338.295508	2481.036633
338.687896	2491.229846
339.080220	2497.463233
339.472480	2507.550582
339.864676	2510.706344
340.256807	2514.570388
340.648875	2517.436284
341.040879	2522.553055
341.432818	2522.053981
341.824694	2524.468694
342.216506	2524.690505
342.608253	2526.016328
342.999937	2524.662778
343.391557	2523.301667
343.783113	2523.336955
344.174605	2524.972809
344.566033	2521.575072
344.957397	2519.238497
345.348697	2517.625328
345.739934	2512.506036
346.131106	2514.706499
346.522215	2512.753052
346.913260	2509.307424
347.304241	2510.842455
347.695159	2503.681496
348.086012	2505.672752
348.476802	2503.147134
348.867528	2503.479850
349.258191	2500.689571
349.648789	2498.461381
350.039324	2500.082112
350.429796	2498.501710
350.820203	2493.949548
351.210548	2490.980309
351.600828	2496.870897
351.991045	2493.891575
352.381198	2495.287975
352.771288	2493.034579
353.161314	2493.241266
353.551276	2493.294198
353.941175	2491.491986
354.331010	2491.555000
354.720782	2496.268479
355.110490	2493.982316
355.500135	2493.936946
355.889717	2491.542397
356.279235	2495.958448
356.668689	2496.893582
357.058080	2492.777480
357.447408	2493.742861
357.836672	2489.898981
358.225873	2494.587254
358.615010	2494.191524
359.004084	2495.235043
359.393095	2495.078767
359.782043	2500.702174
360.170927	2498.468943
360.559748	2500.006495
360.948505	2498.584889
361.337199	2501.360045
361.725830	2503.976403
362.114398	2502.764006
362.502903	2501.682678
362.891344	2501.816269
363.279722	2503.623523
363.668037	2504.868688
364.056289	2503.500014
364.444478	2506.801970
364.832603	2506.496980
365.220665	2506.146620
365.608665	2507.727022
365.996601	2508.747856
366.384474	2509.367917
366.772284	2509.078051
367.160031	2514.819925
367.547715	2515.729854
367.935336	2517.721109
368.322893	2517.771521
368.710388	2523.019362
369.097820	2529.698891
369.485189	2530.185362
369.872495	2537.411856
370.259738	2543.546941
370.646918	2552.981460
371.034035	2557.306770
371.421090	2567.749520
371.808081	2582.746953
372.195010	2586.132088
372.581875	2599.002153
372.968678	2614.642333
373.355418	2624.777573
373.742096	2643.510501
374.128710	2656.660351
374.515262	2674.213648
374.901751	2688.976667
375.288177	2699.487473
375.674540	2723.097717
376.060841	2740.426683
376.447079	2762.847215
376.833254	2782.628703
377.219367	2792.900054
377.605417	2829.040086
377.991404	2841.332939
378.377329	2862.029397
378.763191	2880.948847
379.148991	2914.749783
379.534727	2941.939247
379.920402	2972.334884
380.306013	2986.185454
380.691563	3032.385108
381.077049	3053.459652
381.462474	3070.390367
381.847835	3111.803446
382.233134	3133.475367
382.618371	3132.250366
383.003545	3201.422559
383.388657	3208.659135
383.773706	3242.613827
384.158693	3256.499685
384.543618	3285.778707
384.928480	3320.358501
385.313280	3368.120913
385.698017	3363.432640
386.082692	3419.775096
386.467305	3421.723502
386.851856	3455.499233
387.236344	3477.246771
387.620770	3508.625433
388.005133	3533.553939
388.389435	3562.386818
388.773674	3573.278231
389.157851	3618.204994
389.541965	3634.069505
389.926018	3597.349741
390.310008	3667.106707
390.693936	3685.922814
391.077802	3724.147363
391.461606	3711.481464
391.845348	3776.136782
392.229027	3778.669962
392.612645	3791.323258
392.996200	3867.522819
393.379694	3909.697112
393.763125	3974.874190
394.146494	3939.812965
394.529801	4001.864528
394.913047	4052.437383
395.296230	4012.279552
395.679351	4072.917071
396.062410	4096.308025
396.445408	4077.328081
396.828343	4109.382257
397.211217	4132.052326
397.594028	4052.830593
397.976778	4121.715440
398.359466	4144.458606
398.742092	4173.084798
399.124656	4097.918673
399.507158	4178.529244
399.889598	4202.399108
400.271977	4267.298922
400.654294	4234.728027
401.036549	4244.122217
401.418742	4216.652970
401.800874	4314.458916
402.182944	4340.304912
402.564952	4401.214653
402.946898	4388.163106
403.328783	4386.272673
403.710606	4300.063902
404.092367	4492.764528
404.474067	4456.760607
404.855705	4465.078511
405.237282	4390.146800
405.618797	4500.931197
406.000250	4536.637690
406.381642	4619.705823
406.762972	4579.832817
407.144240	4589.771451
407.525447	4587.533179
407.906593	4648.566429
408.287677	4693.178120
408.668700	4616.368579
409.049661	4674.470398
409.430560	4714.817272
409.811399	4643.610974
410.192176	4799.813647
410.572891	4738.520778
410.953545	4840.233618
411.334138	4722.399168
411.714669	4790.454745
412.095139	4682.924413
412.475547	4827.890353
412.855894	4808.129030
413.236180	4812.812262
413.616405	4769.748205
413.996568	4859.173233
414.376670	4796.587308
414.756711	4753.717336
415.136691	4787.263694
415.516609	4865.575499
415.896466	4902.557403
416.276262	4938.079894
416.655997	4917.174229
417.035670	5095.744501
417.415283	5184.088202
417.794834	5131.609790
418.174324	5090.037915
418.553753	4995.486033
418.933121	5182.593500
419.312428	5248.297378
419.691674	5185.373696
420.070859	5314.545702
420.449983	5223.562957
420.829045	5343.809600
421.208047	5241.015432
421.586988	5316.746165
421.965867	5331.138659
422.344686	5464.139421
422.723444	5316.983099
423.102141	5138.317045
423.480777	5433.378301
423.859352	5203.267272
424.237866	5461.949040
424.616319	5454.427638
424.994712	5556.851282
425.373044	5439.052119
425.751314	5583.748358
426.129524	5384.819386
426.507673	5578.440023
426.885762	5658.818701
427.263789	5591.453762
427.641756	5477.594261
428.019662	5598.647488
428.397508	5600.318631
428.775292	5551.865581
429.153016	5648.312936
429.530679	5575.097738
429.908282	5660.925903
430.285824	5532.225245
430.663305	5808.515764
431.040726	5536.895874
431.418086	5541.717738
431.795385	5645.008460
432.172624	5657.074461
432.549802	5654.238812
432.926920	5664.968908
433.303977	5676.472821
433.680974	5712.297781
434.057910	5730.561882
434.434786	5733.221090
434.811601	5707.614549
435.188355	5935.507471
435.565050	5810.128933
435.941683	5793.709895
436.318257	6012.498493
436.694770	5994.640205
437.071222	6023.750348
437.447614	5954.338701
437.823946	5874.184355
438.200218	6027.188415
438.576429	5893.275204
438.952580	5989.442776
439.328670	6033.820053
439.704700	5939.618532
440.080670	5928.117139
440.456580	6197.713006
440.832429	6082.865439
441.208218	5928.419608
441.583947	6081.138843
441.959616	6088.836685
442.335224	6015.011508
442.710773	6147.893803
443.086261	6179.678278
443.461689	5974.092462
443.837057	6122.607375
444.212365	6277.217043
444.587612	6164.678324
444.962800	6326.693447
445.337927	6301.802750
445.712995	5910.561321
446.088002	6489.379044
446.462949	6322.005174
446.837837	6249.105048
447.212664	6424.080978
447.587431	6568.288225
447.962139	7106.227231
448.336786	8036.042852
448.711374	7780.899974
449.085901	6855.644076
449.460369	6770.536797
449.834776	6704.888371
450.209124	7095.739111
450.583412	7243.518015
450.957640	7395.745738
451.331808	7161.180849
451.705917	6710.027827
452.079965	6638.645088
452.453954	6848.415062
452.827883	6724.374951
453.201752	6819.703170
453.575562	6621.817717
453.949311	6820.335835
454.323001	6708.245779
454.696632	6780.732530
455.070202	6923.465240
455.443713	7075.042653
455.817164	7176.241296
456.190556	7253.570076
456.563888	7331.498752
456.937160	7373.728498
457.310373	7038.138887
457.683526	7056.254273
458.056619	6950.926925
458.429653	6933.134173
458.802628	6874.707200
459.175542	6979.243086
459.548398	7330.803073
459.921194	7499.638877
460.293930	7503.576018
460.666607	8025.897530
461.039224	8334.988317
461.411782	8460.008932
461.784280	8483.558682
462.156719	8369.426959
462.529099	8251.211901
462.901419	7840.251999
463.273680	7735.300217
463.645882	7745.478306
464.018024	7612.167513
464.390106	7774.406968
464.762130	8168.118562
465.134094	8637.714646
465.505999	9658.767590
465.877845	10877.960566
466.249631	11528.100533
466.621358	11143.533591
466.993026	10520.711637
467.364634	10260.542728
467.736184	9897.138550
468.107674	9566.547242
468.479105	9595.808620
468.850477	9363.827323
469.221790	9135.442889
469.593043	8808.458527
469.964238	8667.044079
470.335373	8682.533024
470.706449	8731.230571
471.077467	8715.287922
471.448425	10027.369198
471.819324	11101.810482
472.190164	11127.885850
472.560945	9874.619716
472.931667	9089.069315
473.302330	8949.777193
473.672934	8590.078263
474.043479	8955.796330
474.413965	8896.129233
474.784393	8779.436604
475.154761	8936.687837
475.525070	9022.521043
475.895321	8841.684772
476.265513	9024.582875
476.635645	9196.513947
477.005719	9190.590591
477.375734	9305.959918
477.745691	9542.503459
478.115588	9680.310961
478.485427	9922.828270
478.855207	10457.780392
479.224928	11276.970413
479.594591	11902.559961
479.964194	11712.473173
480.333739	11658.023671
480.703226	11568.402038
481.072653	11660.345122
481.442022	11898.985783
481.811333	12089.795977
482.180584	11895.444373
482.549777	11606.964344
482.918912	11432.280801
483.287988	11453.514141
483.657005	11462.565533
484.025964	11140.677778
484.394864	11274.296081
484.763706	11246.196689
485.132489	11002.829946
485.501213	10963.919800
485.869879	11037.006449
486.238487	10882.739579
486.607036	10990.811836
486.975527	10775.718404
487.343959	10963.869389
487.712333	11008.720535
488.080648	10942.333580
488.448905	10983.260187
488.817104	10919.718963
489.185244	11188.414984
489.553326	11343.604385
489.921350	11873.059129
490.289315	12936.180502
490.657222	13280.019962
491.025070	13197.854195
491.392861	13064.596334
491.760593	12687.989375
492.128267	12341.331910
492.495883	12007.831857
492.863440	11663.755463
493.230939	11338.167500
493.598380	11265.852148
493.965763	11141.063426
494.333088	11037.923939
494.700354	10961.260592
495.067563	11021.494818
495.434713	10852.603562
495.801805	10978.450926
496.168839	10898.989739
496.535815	10841.240801
496.902733	10836.277785
497.269593	10772.847467
497.636395	10867.248114
498.003139	10856.505415
498.369825	10722.960208
498.736453	10879.427541
499.103023	10808.869032
499.469535	10833.235449
499.835989	10824.448717
500.202385	10783.527151
500.568723	10639.503906
500.935003	10859.525066
501.301226	10667.051292
501.667390	10923.028481
502.033497	11028.275170
502.399546	10881.922913
502.765537	10798.333020
503.131470	10864.288956
503.497345	11038.531398
503.863163	10650.370113
504.228923	10960.905190
504.594625	11023.486074
504.960269	10775.836871
505.325856	10995.555561
505.691385	10786.420773
506.056856	10941.463981
506.422270	10959.191198
506.787625	10858.509273
507.152924	10970.672426
507.518164	10960.693462
507.883347	10875.402180
508.248472	10793.261619
508.613540	11028.088648
508.978550	10910.967520
509.343503	10881.295289
509.708398	10999.253248
510.073236	11114.163829
510.438016	11123.928544
510.802738	11075.588920
511.167403	11125.410643
511.532010	11019.866526
511.896561	11244.167625
512.261053	11320.044552
512.625488	11193.355315
512.989866	11173.120123
513.354186	11160.234934
513.718449	11064.793289
514.082655	11259.437280
514.446803	11156.282669
514.810894	11271.919177
515.174927	11145.860084
515.538904	11162.173258
515.902822	11319.926085
516.266684	11213.081350
516.630488	11150.412246
516.994235	11208.168745
517.357925	11269.655699
517.721558	11360.925789
518.085133	11375.855166
518.448651	11384.203317
518.812112	11263.679411
519.175516	11267.462797
519.538863	11397.143959
519.902152	11310.123561
520.265385	11473.030968
520.628560	11388.836138
520.991678	11358.382527
521.354739	11425.094637
521.717743	11354.384892
522.080690	11334.628610
522.443580	11464.390431
522.806413	11430.619741
523.169189	11463.674587
523.531908	11515.374140
523.894569	11343.609426
524.257174	11339.251348
524.619722	11459.969339
524.982213	11401.461707
525.344647	11448.644387
525.707025	11406.185268
526.069345	11500.659012
526.431608	11416.688512
526.793815	11530.018692
527.155964	11315.159674
527.518057	11367.146573
527.880093	11316.261166
528.242072	11386.963349
528.603995	11291.312496
528.965860	11206.903416
529.327669	11268.763415
529.689421	11212.216792
530.051117	11186.164109
530.412755	11290.379882
530.774337	11170.100472
531.135862	11158.687300
531.497331	11178.982985
531.858743	11038.927128
532.220098	11196.385048
532.581396	11071.500544
532.942638	11059.318596
533.303824	11019.054900
533.664953	11031.940089
534.026025	10944.569331
534.387040	11047.371061
534.747999	11039.040554
535.108902	11099.592374
535.469748	10857.740498
535.830537	10965.117074
536.191270	10943.440113
536.551947	10965.694287
536.912567	10962.422578
537.273131	10889.139324
537.633638	10868.238700
537.994089	10857.375014
538.354483	10810.431789
538.714821	10947.276431
539.075103	10950.774992
539.435328	10924.440004
539.795497	10752.002296
540.155609	10909.107335
540.515665	10994.590180
540.875665	10728.109747
541.235609	10802.076077
541.595496	10796.566096
541.955328	10949.297934
542.315102	10834.901550
542.674821	10781.770309
543.034483	10788.364138
543.394090	10789.931937
543.753640	10715.527027
544.113134	10934.355954
544.472571	10794.549634
544.831953	10935.177662
545.191278	10737.700542
545.550548	10768.242373
545.909761	10906.753116
546.268918	10871.565862
546.628019	10964.461724
546.987064	10823.052318
547.346053	10751.140258
547.704986	10849.868736
548.063863	10833.099338
548.422684	10833.437095
548.781449	10741.819165
549.140158	10845.258601
549.498811	10719.295289
549.857408	10578.309340
550.215949	10805.690584
550.574434	10652.537810
550.932864	10757.383727
551.291237	10817.955711
551.649555	10762.155179
552.007817	10773.717066
552.366022	10737.879503
552.724173	10734.201981
553.082267	10720.447193
553.440305	10847.905206
553.798288	10657.384879
554.156215	10802.529781
554.514086	10781.674527
554.871902	10631.826229
555.229661	10674.918012
555.587365	10648.895576
555.945014	10543.326253
556.302606	10668.326703
556.660143	10565.474562
557.017625	10714.075175
557.375050	10618.021029
557.732421	10750.684034
558.089735	10663.058698
558.446994	10658.398151
558.804197	10698.485406
559.161345	10698.210663
559.518437	10551.848323
559.875474	10642.878959
560.232455	10662.405868
560.589381	10615.490370
560.946251	10618.288210
561.303065	10724.366690
561.659825	10659.393779
562.016528	10579.967879
562.373177	10466.549480
562.729770	10577.439741
563.086307	10502.785293
563.442789	10585.999620
563.799216	10466.526794
564.155587	10517.492860
564.511904	10469.755653
564.868164	10465.384973
565.224370	10475.920985
565.580520	10402.705787
565.936615	10407.467157
566.292654	10273.506055
566.648638	10407.484801
567.004567	10359.611483
567.360441	10352.866419
567.716260	10256.048539
568.072023	10349.612354
568.427732	10303.833636
568.783385	10210.221930
569.138982	10284.231110
569.494525	10298.235435
569.850013	10172.965282
570.205445	10258.448128
570.560823	10153.261933
570.916145	10072.752185
571.271412	10139.484459
571.626625	10083.252909
571.981782	10057.694259
572.336884	10032.667450
572.691931	10044.814111
573.046923	9981.320778
573.401860	9948.452455
573.756743	9888.223269
574.111570	9929.588457
574.466342	9909.239840
574.821059	9939.738820
575.175722	9829.481224
575.530330	9836.410290
575.884882	9834.860135
576.239380	9759.373898
576.593823	9736.466894
576.948211	9755.204863
577.302544	9637.262028
577.656823	9639.051637
578.011047	9649.038163
578.365216	9623.809709
578.719330	9537.026245
579.073389	9560.207991
579.427394	9506.020629
579.781344	9477.112132
580.135239	9426.267054
580.489080	9435.734341
580.842866	9340.431328
581.196597	9344.330660
581.550273	9381.675528
581.903895	9352.646043
582.257463	9416.756918
582.610975	9294.576992
582.964434	9322.353750
583.317837	9247.406916
583.671186	9229.770439
584.024481	9220.824912
584.377721	9141.202407
584.730906	9116.251216
585.084037	9153.954006
585.437113	9086.241227
585.790135	9106.970452
586.143103	9004.819031
586.496016	8978.847006
586.848874	9036.772385
587.201679	9027.484059
587.554428	8915.704034
587.907124	8957.754819
588.259765	8928.465715
588.612352	8938.953835
588.964884	8811.732756
589.317362	8819.738109
589.669786	8822.639293
590.022155	8870.676448
590.374470	8888.872492
590.726731	8827.211619
591.078937	8682.346502
591.431090	8788.588819
591.783188	8653.478334
592.135232	8655.552769
592.487222	8652.830546
592.839157	8704.504893
593.191038	8636.522413
593.542866	8584.948889
593.894639	8483.493147
594.246358	8528.359416
594.598022	8546.424391
594.949633	8452.235473
595.301190	8422.112058
595.652692	8453.710010
596.004141	8560.842091
596.355535	8337.634922
596.706876	8319.607756
597.058162	8251.123681
597.409395	8324.527922
597.760573	8385.362046
598.111698	8294.795197
598.462768	8283.845811
598.813785	8249.321469
599.164748	8213.345274
599.515657	8208.525931
599.866511	8120.441850
600.217312	8238.041887
600.568060	8099.374868
600.918753	8204.568625
601.269392	8172.206938
601.619978	8089.567303
601.970510	8146.746591
602.320988	8145.032598
602.671412	8202.847071
603.021783	8137.062534
603.372100	8109.963812
603.722363	8113.696786
604.072572	8090.434382
604.422728	8099.054755
604.772830	8029.726287
605.122878	8032.952625
605.472872	8029.834671
605.822813	8057.437509
606.172701	8006.068152
606.522534	8080.037002
606.872314	8077.173627
607.222041	8044.643061
607.571714	8106.727391
607.921333	8056.756953
608.270899	8064.948828
608.620411	8153.874782
608.969870	8062.445896
609.319276	8051.672950
609.668627	8063.204589
610.017926	8102.800332
610.367171	8145.057804
610.716362	8122.483517
611.065500	8110.593956
611.414585	8139.177298
611.763616	8122.460832
612.112594	8105.726722
612.461518	8126.743292
612.810389	8180.464348
613.159207	8115.405737
613.507971	8065.074857
613.856682	8181.691869
614.205340	8137.009602
614.553945	8215.699493
614.902496	8110.152855
615.250994	8160.299733
615.599439	8142.517063
615.947830	8154.721696
616.296169	8121.311449
616.644454	8141.854151
616.992686	8133.833675
617.340864	8185.392076
617.688990	8090.416738
618.037063	8183.297477
618.385082	8128.724466
618.733048	8210.370993
619.080961	8147.480079
619.428821	8168.471443
619.776628	8167.952204
620.124382	8113.361549
620.472083	8098.417049
620.819731	8121.898743
621.167326	8017.622476
621.514868	8022.121706
621.862357	7907.374962
622.209793	7930.148375
622.557176	7857.817899
622.904506	7828.982499
623.251783	7759.117148
623.599007	7717.169707
623.946179	7713.671146
624.293297	7669.906369
624.640363	7592.257476
624.987376	7574.043788
625.334336	7518.182762
625.681243	7470.511090
626.028097	7452.005015
626.374899	7422.428565
626.721647	7415.985970
627.068343	7350.483738
627.414987	7317.156670
627.761577	7271.703106
628.108115	7302.290307
628.454600	7197.721653
628.801032	7242.366111
629.147412	7201.835234
629.493739	7190.790066
629.840014	7117.514375
630.186236	7178.792120
630.532405	7054.462143
630.878521	7100.727332
631.224585	7058.749644
631.570597	6977.864331
631.916556	7002.755028
632.262462	6999.821076
632.608316	6954.153264
632.954117	6926.822648
633.299866	6911.263127
633.645562	6902.854482
633.991206	6817.351472
634.336797	6759.310147
634.682336	6718.408745
635.027823	6680.242169
635.373257	6675.632034
635.718639	6597.544561
636.063968	6607.581498
636.409245	6504.749522
636.754470	6499.055538
637.099642	6461.740918
637.444762	6400.816053
637.789829	6410.124543
638.134845	6346.021231
638.479808	6327.827707
638.824719	6331.469941
639.169577	6257.097798
639.514383	6269.640189
639.859137	6198.196956
640.203839	6209.423606
640.548489	6187.217323
640.893086	6162.956770
641.237632	6127.719105
641.582125	6144.856507
641.926566	6111.050530
642.270955	6113.886179
642.615292	6107.504078
642.959576	6118.292147
643.303809	6103.972750
643.647990	6103.115754
643.992118	6093.038487
644.336195	6038.682246
644.680219	6055.302930
645.024192	6042.805910
645.368112	6124.507890
645.711981	6134.398634
646.055797	6200.188212
646.399562	6156.062992
646.743274	6256.024032
647.086935	6303.068080
647.430544	6285.754237
647.774101	6300.403830
648.117606	6304.517412
648.461059	6285.393794
648.804460	6242.962403
649.147810	6161.903169
649.491108	6124.797756
649.834354	6100.138952
650.177548	6013.307598
650.520690	5934.181647
650.863781	5909.212812
651.206820	5923.045738
651.549807	5847.317525
651.892742	5787.968021
652.235626	5786.173370
652.578458	5765.797026
652.921238	5680.205796
653.263967	5708.365681
653.606644	5654.836189
653.949269	5649.321167
654.291843	5589.865798
654.634365	5626.885512
654.976836	5575.821144
655.319255	5570.366615
655.661622	5547.762081
656.003938	5533.006624
656.346203	5499.735009
656.688416	5518.299058
657.030577	5473.180731
657.372687	5440.259476
657.714746	5424.455458
658.056753	5452.199448
658.398708	5395.231889
658.740612	5383.251587
659.082465	5416.850878
659.424266	5404.101800
659.766016	5398.712806
660.107715	5360.208473
660.449362	5374.573241
660.790958	5367.843301
661.132503	5345.074929
661.473996	5369.154001
661.815438	5350.274879
662.156829	5344.810269
662.498168	5331.242003
662.839456	5311.359692
663.180693	5327.191436
663.521879	5322.011650
663.863013	5311.808355
664.204097	5308.110669
664.545129	5338.856666
664.886110	5320.443852
665.227040	5341.750288
665.567918	5312.599816
665.908746	5319.521320
666.249522	5317.451927
666.590248	5305.617818
666.930922	5320.925282
667.271545	5324.748997
667.612118	5318.311443
667.952639	5291.011075
668.293109	5295.749759
668.633528	5254.480353
668.973896	5258.472947
669.314213	5243.193210
669.654480	5211.441503
669.994695	5210.045103
670.334859	5192.995921
670.674973	5171.810472
671.015035	5172.390204
671.355047	5153.717770
671.695008	5139.214371
672.034918	5115.669662
672.374777	5117.759220
672.714585	5099.792548
673.054342	5092.873564
673.394049	5081.362089
673.733705	5089.448100
674.073310	5071.118465
674.412864	5041.771388
674.752368	5019.071072
675.091820	5016.069065
675.431223	4963.469665
675.770574	4959.041012
676.109875	4915.654321
676.449125	4907.505296
676.788324	4880.706522
677.127473	4829.765662
677.466571	4815.847037
677.805619	4803.108041
678.144616	4785.519455
678.483562	4764.926342
678.822458	4733.046085
679.161303	4722.174837
679.500098	4712.291654
679.838842	4695.023182
680.177535	4691.771638
680.516179	4698.778842
680.854771	4693.662070
681.193314	4747.521758
681.531805	4815.085822
681.870247	4906.194596
682.208638	4973.589782
682.546978	4980.342407
682.885268	4953.309220
683.223508	4887.731370
683.561697	4840.959545
683.899836	4808.456705
684.237925	4772.409935
684.575963	4746.314402
684.913951	4709.894586
685.251889	4734.349223
685.589776	4720.843972
685.927614	4695.456721
686.265401	4727.886464
686.603137	4716.702664
686.940824	4752.830093
687.278460	4766.932721
687.616046	4760.291001
687.953582	4802.145181
688.291068	4782.809835
688.628504	4807.582065
688.965889	4786.779744
689.303224	4745.406994
689.640510	4702.768915
689.977745	4644.609123
690.314930	4566.982915
690.652065	4530.618552
690.989150	4466.860559
691.326185	4404.410745
691.663170	4353.313610
692.000105	4300.746978
692.336990	4249.276797
692.673825	4219.440728
693.010610	4170.181093
693.347345	4132.485865
693.684030	4096.844908
694.020665	4071.334149
694.357251	4016.085623
694.693786	4019.027136
695.030272	3993.886902
695.366707	3961.023620
695.703093	3937.652831
696.039429	3943.009057
696.375716	3917.168102
696.711952	3904.083787
697.048139	3897.046337
697.384276	3875.931464
697.720363	3875.414746
698.056400	3871.964076
698.392388	3839.002491
698.728326	3830.384639
699.064214	3813.650529
699.400053	3799.313487
699.735842	3769.858025
700.071581	3752.145931
700.407270	3735.943663
700.742910	3717.586301
701.078501	3686.429450
701.414042	3670.459074
701.749533	3648.615755
702.084974	3617.973101
702.420366	3637.207623
702.755709	3603.555401
703.091002	3573.810073
703.426246	3586.032350
703.761440	3565.524936
704.096584	3541.793705
704.431679	3540.384702
704.766725	3531.146788
705.101721	3522.007176
705.436668	3524.263092
705.771565	3503.624608
706.106413	3517.089530
706.441212	3521.233359
706.775961	3518.927031
707.110661	3516.146834
707.445311	3530.181407
707.779913	3525.271323
708.114465	3536.767674
708.448967	3552.395251
708.783421	3574.253694
709.117825	3596.820419
709.452180	3597.697580
709.786485	3619.462762
710.120742	3659.476921
710.454949	3654.385355
710.789107	3684.062628
711.123216	3715.481619
711.457275	3713.147565
711.791286	3745.567225
712.125247	3746.819952
712.459159	3708.988613
712.793023	3747.427411
713.126837	3698.878579
713.460602	3693.489586
713.794318	3662.862055
714.127985	3649.409736
714.461602	3592.764811
714.795171	3586.513780
715.128691	3538.670710
715.462162	3505.252901
715.795584	3472.273673
716.128957	3460.870583
716.462281	3436.673044
716.795556	3414.965836
717.128782	3391.779048
717.461960	3352.805888
717.795088	3355.059284
718.128167	3335.557580
718.461198	3302.694298
718.794180	3297.885038
719.127113	3278.925258
719.459997	3266.690377
719.792833	3243.377562
720.125619	3239.722725
720.458357	3217.224055
720.791046	3213.440669
721.123686	3198.879297
721.456278	3179.032274
721.788821	3181.787264
722.121315	3169.691016
722.453761	3158.645848
722.786158	3154.479334
723.118506	3160.992505
723.450805	3145.165802
723.783056	3152.309117
724.115259	3148.664363
724.447412	3147.814929
724.779518	3151.812564
725.111574	3148.339209
725.443582	3162.187258
725.775542	3151.187461
726.107453	3167.621622
726.439315	3168.077847
726.771129	3181.164682
727.102895	3190.987370
727.434612	3210.542006
727.766281	3214.337995
728.097901	3213.627192
728.429473	3209.511090
728.760996	3207.590410
729.092471	3204.369113
729.423897	3194.216229
729.755276	3186.538552
730.086606	3184.663243
730.417887	3202.718135
730.749120	3228.551528
731.080305	3241.358579
731.411442	3251.955085
731.742530	3242.144999
732.073570	3240.672982
732.404562	3251.602204
732.735506	3248.640526
733.066401	3233.214595
733.397249	3199.736293
733.728048	3165.161539
734.058798	3120.038171
734.389501	3085.982656
734.720156	3065.084553
735.050762	3043.125287
735.381320	3032.052392
735.711831	3020.581247
736.042293	3005.130110
736.372707	3008.180008
736.703073	2996.885303
737.033391	2999.799090
737.363661	3000.414111
737.693883	3004.293279
738.024056	3012.528003
738.354182	3013.306862
738.684260	3031.780170
739.014290	3039.777961
739.344272	3039.846016
739.674207	3053.149621
740.004093	3055.849159
740.333931	3050.737429
740.663722	3048.277346
740.993464	3047.783313
741.323159	3037.222096
741.652806	3019.010927
741.982405	3006.150944
742.311956	2989.525218
742.641460	2981.862665
742.970915	2968.836323
743.300323	2952.402162
743.629683	2941.566201
743.958996	2929.159922
744.288260	2916.582243
744.617477	2903.303844
744.946647	2894.718759
745.275768	2886.216853
745.604842	2879.076058
745.933869	2867.874614
746.262847	2859.360106
746.591778	2867.330170
746.920662	2857.809951
747.249498	2855.002028
747.578286	2860.595188
747.907027	2867.113400
748.235720	2873.835779
748.564365	2875.595142
748.892963	2870.405274
749.221514	2864.688605
749.550017	2858.946731
749.878473	2854.568489
750.206881	2844.002230
750.535242	2839.732373
750.863555	2838.272959
751.191821	2833.151147
751.520039	2831.941270
751.848210	2825.133192
752.176334	2827.200065
752.504411	2827.232832
752.832440	2819.184630
753.160421	2814.385452
753.488356	2810.370172
753.816243	2813.432673
754.144082	2804.033442
754.471875	2801.714511
754.799620	2802.382464
755.127318	2800.610499
755.454969	2800.023204
755.782572	2799.672844
756.110129	2793.318470
756.437638	2789.046092
756.765100	2788.678087
757.092515	2790.951648
757.419882	2791.032306
757.747203	2788.950310
758.074477	2788.894857
758.401703	2793.315949
758.728882	2795.891979
759.056014	2796.133954
759.383099	2796.622946
759.710138	2797.885755
760.037129	2803.420942
760.364073	2804.958494
760.690970	2798.939356
761.017820	2796.081022
761.344623	2799.022535
761.671379	2807.695840
761.998088	2812.893270
762.324751	2845.731346
762.651366	2917.918149
762.977935	3060.925601
763.304456	3173.857529
763.630931	3179.564116
763.957359	3081.228848
764.283740	2985.157059
764.610074	2923.435692
764.936362	2869.399563
765.262602	2835.114676
765.588796	2802.700057
765.914943	2782.923610
766.241044	2757.163314
766.567097	2750.428333
766.893104	2738.110273
767.219064	2728.224571
767.544978	2723.939590
767.870845	2711.218238
768.196665	2709.337888
768.522438	2699.469829
768.848165	2697.949921
769.173846	2690.836853
769.499479	2691.691329
769.825066	2685.289063
770.150607	2680.701613
770.476101	2677.802950
770.801548	2674.488391
771.126949	2666.893893
771.452303	2664.285096
771.777611	2662.810558
772.102872	2658.674292
772.428087	2654.386790
772.753256	2653.381080
773.078378	2650.729433
773.403453	2645.436222
773.728482	2641.126035
774.053465	2642.903042
774.378401	2640.790798
774.703291	2636.284007
775.028135	2634.877525
775.352932	2633.869294
775.677683	2630.045579
776.002388	2627.373767
776.327046	2628.548356
776.651658	2625.085083
776.976224	2622.572068
777.300743	2625.470732
777.625216	2621.208436
777.949643	2618.786162
778.274024	2619.847325
778.598359	2612.711571
778.922647	2614.536469
779.246889	2614.818774
779.571086	2610.755604
779.895236	2613.931531
780.219339	2616.590739
780.543397	2615.645523
780.867409	2616.343723
781.191374	2615.322889
781.515294	2615.953033
781.839167	2615.927827
782.162995	2613.051849
782.486776	2613.480347
782.810511	2610.528752
783.134201	2610.266612
783.457844	2609.359204
783.781441	2607.118411
784.104993	2604.121445
784.428498	2604.928030
784.751958	2603.408122
785.075372	2605.414501
785.398739	2603.309819
785.722061	2601.212699
786.045337	2602.747731
786.368568	2601.913420
786.691752	2602.793101
787.014891	2608.620675
787.337983	2616.457149
787.661030	2625.130454
787.984031	2634.524644
788.306987	2645.080820
788.629897	2643.182826
788.952760	2633.506331
789.275579	2624.618777
789.598351	2619.476800
789.921078	2610.218721
790.243759	2606.238730
790.566395	2602.236054
790.888984	2597.305805
791.211529	2595.443099
791.534027	2596.592482
791.856480	2593.023345
792.178888	2590.575865
792.501249	2590.724579
792.823566	2589.517222
793.145836	2590.815320
793.468062	2585.133939
793.790241	2585.902715
794.112375	2588.491348
794.434464	2588.335072
794.756507	2588.451018
795.078505	2591.160639
795.400457	2594.838160
795.722364	2596.380753
796.044226	2603.549274
796.366042	2603.730756
796.687812	2601.288317
797.009538	2607.100767
797.331218	2603.156064
797.652852	2598.200610
797.974442	2598.359406
798.295986	2597.628439
798.617484	2592.325145
798.938938	2590.863211
799.260346	2590.127202
799.581709	2587.851121
799.903026	2587.929259
800.224299	2585.877509
800.545526	2584.211408
800.866708	2583.838363
801.187845	2580.052456
801.508936	2579.291242
801.829983	2583.079669
802.150984	2577.751169
802.471940	2579.392065
802.792851	2577.350398
803.113717	2577.710840
803.434538	2578.303176
803.755314	2575.160016
804.076045	2574.897876
804.396731	2578.383834
804.717372	2578.063721
805.037967	2577.925089
805.358518	2577.282342
805.679024	2577.090778
805.999485	2577.637743
806.319901	2579.145048
806.640272	2575.482650
806.960598	2577.647826
807.280879	2577.173957
807.601115	2582.331058
807.921306	2577.519276
808.241453	2578.991293
808.561554	2579.266036
808.881611	2579.813001
809.201623	2578.940882
809.521590	2577.819225
809.841513	2578.658577
810.161390	2574.078689
810.481223	2576.896694
810.801011	2574.489543
811.120755	2572.289079
811.440453	2574.920562
811.760107	2574.260170
812.079716	2568.853533
812.399281	2567.991496
812.718801	2567.641135
813.038276	2567.938563
813.357707	2568.213306
813.677093	2569.798749
813.996434	2568.321691
814.315731	2571.583318
814.634983	2567.406722
814.954191	2566.116186
815.273354	2571.696744
815.592473	2568.896383
815.911547	2569.158523
816.230577	2574.522310
816.549562	2573.065417
816.868502	2573.241857
817.187399	2573.178843
817.506250	2574.935685
817.825058	2575.747311
818.143821	2575.414595
818.462539	2578.494740
818.781213	2582.535224
819.099843	2585.433888
819.418429	2598.258583
819.736970	2602.470467
820.055466	2613.477827
820.373919	2624.097017
820.692327	2635.474902
821.010691	2659.748057
821.329011	2729.111814
821.647286	2897.440982
821.965517	3150.214518
822.283704	3289.355405
822.601847	3271.106428
822.919945	3126.289202
823.237999	3001.601303
823.556010	2902.041035
823.873976	2819.078766
824.191897	2762.983326
824.509775	2718.623693
824.827609	2687.156811
825.145398	2668.491939
825.463144	2667.667710
825.780845	2674.586694
826.098502	2690.511699
826.416116	2732.655745
826.733685	2773.957918
827.051210	2782.893363
827.368692	2765.171187
827.686129	2717.842314
828.003522	2681.997190
828.320872	2647.581232
828.638177	2629.715383
828.955439	2612.076386
829.272656	2599.269335
829.589830	2587.352047
829.906960	2585.446491
830.224046	2579.881057
830.541088	2577.962898
830.858086	2572.977197
831.175041	2572.117680
831.491952	2572.631878
831.808819	2572.389902
832.125642	2577.748649
832.442421	2581.721078
832.759157	2595.702718
833.075849	2614.654936
833.392497	2647.369504
833.709101	2666.740138
834.025662	2661.751916
834.342179	2643.903711
834.658653	2622.667850
834.975083	2604.917947
835.291469	2594.525609
835.607811	2582.242837
835.924110	2576.160685
836.240366	2572.664645
836.556578	2567.356310
836.872746	2566.675754
837.188871	2563.023438
837.504952	2559.391287
837.820990	2557.223591
838.136984	2560.270968
838.452935	2556.356512
838.768842	2556.674105
839.084706	2557.619322
839.400526	2565.947308
839.716303	2583.820719
840.032037	2595.352358
840.347727	2594.311360
840.663373	2585.423806
840.978977	2575.114646
841.294537	2568.984603
841.610054	2561.725341
841.925527	2558.178890
842.240957	2555.305432
842.556344	2553.117571
842.871687	2550.901984
843.186987	2552.021120
843.502244	2549.820657
843.817458	2550.720502
844.132629	2551.466593
844.447756	2549.598846
844.762840	2544.623227
845.077881	2544.446787
845.392879	2543.136087
845.707833	2544.824873
846.022745	2543.302445
846.337613	2549.631613
846.652438	2544.663556
846.967221	2546.790923
847.281960	2546.838814
847.596656	2546.765717
847.911309	2545.407126
848.225919	2544.643392
848.540485	2544.451828
848.855009	2545.331509
849.169490	2545.412167
849.483928	2544.862682
849.798323	2544.232538
850.112675	2543.441076
850.426984	2546.402754
850.741251	2544.285470
851.055474	2544.960984
851.369654	2548.565409
851.683792	2543.879657
851.997887	2543.859492
852.311938	2547.380738
852.625947	2546.639688
852.939914	2545.621375
853.253837	2545.366797
853.567718	2546.528783
853.881555	2545.495347
854.195350	2545.742363
854.509103	2541.417053
854.822812	2545.891077
855.136479	2546.264122
855.450103	2542.173226
855.763685	2549.593805
856.077224	2545.059287
856.390720	2546.133053
856.704173	2546.584236
857.017584	2545.102137
857.330953	2544.247661
857.644278	2547.600028
857.957561	2546.637168
858.270802	2546.125491
858.584000	2545.366797
858.897155	2548.129349
859.210268	2544.270346
859.523339	2543.763710
859.836367	2544.540048
860.149352	2547.715975
860.462295	2544.517363
860.775195	2541.573329
861.088054	2544.005686
861.400869	2545.414688
861.713642	2538.914120
862.026373	2541.399409
862.339062	2545.429812
862.651708	2543.683052
862.964312	2545.102137
863.276873	2545.533155
863.589392	2545.661705
863.901869	2543.597352
864.214303	2546.422919
864.526696	2545.124822
864.839045	2547.443753
865.151353	2546.909390
865.463619	2544.547610
865.775842	2545.449976
866.088023	2546.992569
866.400162	2548.963660
866.712258	2546.100285
867.024313	2546.314534
867.336325	2547.312682
867.648296	2546.828732
867.960224	2545.616334
868.272110	2547.345450
868.583954	2546.889226
868.895755	2547.037940
869.207515	2546.841335
869.519233	2546.906870
869.830909	2547.196736
870.142542	2548.245296
870.454134	2545.296221
870.765684	2546.591798
871.077191	2547.100954
871.388657	2553.992211
871.700081	2548.015923
872.011463	2548.325954
872.322803	2549.253527
872.634101	2550.539021
872.945357	2550.554144
873.256571	2551.489278
873.567744	2549.407282
873.878874	2548.658671
874.189963	2550.735626
874.501010	2550.579350
874.812015	2549.828218
875.122979	2548.719164
875.433900	2548.585574
875.744780	2551.448949
876.055618	2550.042467
876.366415	2551.945503
876.677169	2551.118754
876.987882	2550.584391
877.298554	2546.919473
877.609183	2550.859134
877.919771	2548.898125
878.230317	2550.370142
878.540822	2555.978426
878.851285	2555.728889
879.161707	2557.957079
879.472087	2565.435631
879.782425	2570.872515
880.092722	2583.472879
880.402977	2605.522886
880.713191	2645.521921
881.023363	2695.063861
881.333494	2730.180538
881.643583	2742.191087
881.953631	2733.701784
882.263637	2710.056252
882.573602	2688.686801
882.883526	2667.418173
883.193408	2647.974442
883.503248	2632.457771
883.813048	2618.493775
884.122806	2606.715119
884.432522	2595.848912
884.742197	2586.603436
885.051831	2580.196129
885.361424	2574.217321
885.670975	2570.418811
885.980485	2564.722307
886.289954	2563.013356
886.599382	2561.082594
886.908768	2559.280382
887.218113	2558.753581
887.527417	2557.967161
887.836680	2554.629917
888.145901	2555.073539
888.455082	2554.367777
888.764221	2552.681511
889.073319	2550.173537
889.382376	2550.705379
889.691392	2552.121943
890.000366	2550.254196
890.309300	2553.304094
890.618193	2551.065822
890.927044	2552.530277
891.235855	2552.603373
891.544625	2550.602035
891.853353	2553.296532
892.162041	2553.883827
892.470687	2555.625545
892.779293	2558.110834
893.087858	2556.502706
893.396381	2559.237532
893.704864	2563.570404
894.013306	2572.329408
894.321707	2587.704928
894.630068	2592.884713
894.938387	2601.885693
895.246665	2598.835795
895.554903	2588.367839
895.863100	2584.045050
896.171256	2575.709502
896.479371	2569.899572
896.787446	2568.583831
897.095480	2565.133161
897.403473	2562.279868
897.711425	2559.219888
898.019336	2559.403890
898.327207	2554.231666
898.635038	2553.702345
898.942827	2555.749053
899.250576	2552.323589
899.558284	2550.113043
899.865952	2550.579350
900.173579	2550.518856
900.481165	2550.707900
900.788711	2551.975750
901.096216	2549.326623
901.403681	2551.877447
901.711105	2549.150183
902.018489	2547.602549
902.325832	2551.847200
902.633135	2547.189174
902.940397	2550.216387
903.247619	2556.003632
903.554800	2565.665003
903.861941	2583.722416
904.169041	2606.425252
904.476101	2619.854886
904.783121	2615.902622
905.090100	2605.583380
905.397039	2594.820516
905.703938	2581.605132
906.010796	2574.544996
906.317614	2564.853377
906.624391	2563.842626
906.931129	2559.045968
907.237826	2553.979608
907.544483	2552.739485
907.851099	2550.947354
908.157675	2550.163455
908.464211	2546.102806
908.770707	2540.464275
909.077163	2544.260264
909.383578	2542.924358
909.689954	2542.815973
909.996289	2538.631816
910.302584	2543.841848
910.608839	2544.923176
910.915054	2545.505429
911.221229	2544.293031
911.527363	2543.501570
911.833458	2544.270346
912.139513	2545.389482
912.445527	2542.901673
912.751502	2545.283618
913.057436	2543.884698
913.363331	2546.334699
913.669186	2548.361243
913.975000	2551.907694
914.280775	2553.755277
914.586510	2557.425237
914.892205	2563.769529
915.197859	2574.086251
915.503475	2584.118147
915.809050	2593.799683
916.114585	2601.500045
916.420081	2604.686054
916.725536	2603.481219
917.030952	2596.889910
917.336328	2589.928077
917.641665	2584.854155
917.946961	2579.001376
918.252218	2571.411918
918.557435	2568.014181
918.862612	2561.574107
919.167750	2559.973540
919.472848	2558.471277
919.777906	2554.703014
920.082925	2551.791748
920.387904	2553.467931
920.692843	2548.961140
920.997743	2548.938455
921.302603	2548.898125
921.607423	2545.979297
921.912204	2547.758825
922.216946	2545.520552
922.521647	2544.547610
922.826310	2545.354194
923.130932	2545.651622
923.435516	2544.444266
923.740059	2542.155582
924.044564	2541.071734
924.349028	2542.077444
924.653454	2538.525951
924.957840	2539.874460
925.262186	2536.615354
925.566493	2538.503266
925.870761	2538.795653
926.174989	2540.484440
926.479178	2540.348328
926.783328	2538.594007
927.087438	2539.514017
927.391509	2539.022505
927.695541	2538.054603
927.999533	2537.547968
928.303486	2537.129552
928.607400	2538.599048
928.911275	2538.467978
929.215110	2537.338760
929.518906	2538.498225
929.822663	2538.195756
930.126381	2536.837165
930.430060	2538.858668
930.733699	2536.796836
931.037299	2537.684079
931.340861	2539.133410
931.644383	2539.468647
931.947866	2538.127700
932.251309	2537.986548
932.554714	2540.469316
932.858080	2541.036446
933.161407	2538.982176
933.464694	2539.390509
933.767943	2536.640560
934.071153	2540.807073
934.374323	2536.587628
934.677455	2540.928061
934.980548	2537.547967
935.283602	2537.318595
935.586617	2538.979655
935.889593	2540.325643
936.192530	2536.688451
936.495428	2538.220962
936.798287	2537.668955
937.101108	2538.026877
937.403890	2540.693647
937.706632	2542.420243
938.009336	2538.888914
938.312002	2542.712630
938.614628	2538.110056
938.917216	2541.192722
939.219765	2540.159285
939.522275	2542.077444
939.824747	2544.666077
940.127179	2537.590817
940.429573	2538.105015
940.731929	2537.232895
941.034246	2537.036290
941.336524	2538.304141
941.638763	2541.696837
941.940964	2543.267157
942.243126	2540.315561
942.545250	2539.687937
942.847335	2540.444110
943.149381	2539.014943
943.451389	2538.135262
943.753359	2537.084181
944.055290	2537.366486
944.357182	2538.712474
944.659036	2537.192566
944.960851	2536.222144
945.262628	2539.400592
945.564367	2537.444624
945.866067	2536.428831
946.167729	2536.587628
946.469352	2538.911600
946.770937	2537.462268
947.072484	2538.301620
947.373992	2540.391178
947.675462	2539.042670
947.976893	2536.126362
948.278286	2539.912269
948.579641	2536.698533
948.880958	2537.459747
949.182236	2536.368337
949.483476	2536.522093
949.784678	2537.762217
950.085841	2537.147196
950.386967	2535.914634
950.688054	2537.958822
950.989103	2537.931095
951.290114	2534.790456
951.591087	2538.614172
951.892021	2537.386651
952.192917	2539.884542
952.493776	2537.006043
952.794596	2538.967052
953.095378	2539.193904
953.396122	2539.239275
953.696828	2538.493184
953.997496	2539.004861
954.298126	2537.437062
954.598718	2538.919161
954.899272	2534.510672
955.199788	2539.098122
955.500266	2536.242309
955.800706	2534.823224
956.101108	2531.138140
956.401472	2532.610157
956.701798	2532.012781
957.002087	2531.468336
957.302337	2531.546474
957.602550	2535.385313
957.902724	2536.088553
958.202861	2535.690302
958.502960	2534.495549
958.803022	2535.249201
959.103045	2534.581248
959.403031	2530.772657
959.702979	2533.477236
960.002889	2534.238450
960.302762	2534.924047
960.602596	2535.430683
960.902393	2534.251053
961.202153	2531.664941
961.501875	2534.619057
961.801559	2532.763912
962.101205	2532.040507
962.400814	2533.038655
962.700385	2533.205013
962.999918	2534.568646
963.299414	2531.004550
963.598873	2534.830786
963.898293	2533.114273
964.197677	2533.381454
964.497022	2533.943542
964.796331	2531.879190
965.095601	2531.866587
965.394835	2531.019673
965.694030	2531.082688
965.993189	2532.431196
966.292309	2533.721732
966.591393	2531.985054
966.890439	2529.860208
967.189447	2532.088398
967.488419	2532.078316
967.787353	2531.765764
968.086249	2531.294416
968.385108	2532.751310
968.683930	2531.473377
968.982714	2534.437576
969.281462	2531.675023
969.580172	2530.036648
969.878844	2532.310209
970.177480	2532.955476
970.476078	2529.703932
970.774639	2533.595703
971.073162	2532.499252
971.371649	2530.891124
971.670098	2528.680578
971.968510	2529.121679
972.266885	2531.087729
972.565223	2532.771474
972.863524	2531.722914
973.161788	2530.654190
973.460014	2530.271062
973.758204	2531.027235
974.056356	2533.661238
974.354471	2530.704601
974.652550	2531.871628
974.950591	2532.779036
975.248595	2534.677030
975.546563	2534.548481
975.844493	2532.925229
976.142386	2533.300795
976.440243	2534.944212
976.738062	2531.375075
977.035845	2531.990095
977.333590	2531.637215
977.631299	2530.308871
977.928971	2531.377595
978.226606	2529.842564
978.524204	2531.990095
978.821765	2532.776515
979.119290	2528.872142
979.416777	2532.312729
979.714228	2530.810465
980.011642	2530.719725
980.309020	2534.964376
980.606360	2529.971113
980.903664	2530.760054
981.200931	2533.141999
981.498162	2533.381454
981.795356	2533.925898
982.092513	2533.225178
982.389633	2530.684437
982.686717	2535.997813
982.983764	2533.973789
983.280775	2536.902700
983.577749	2532.968079
983.874686	2535.251722
984.171587	2533.620909
984.468451	2533.968748
984.765279	2529.918181
985.062070	2533.827596
985.358824	2530.001360
985.655543	2530.621422
985.952224	2529.736700
986.248869	2531.203675
986.545478	2526.795186
986.842050	2529.298119
987.138586	2527.465660
987.435086	2527.967255
987.731549	2524.264527
988.027975	2530.213089
988.324366	2529.807276
988.620719	2532.809283
988.917037	2528.516740
989.213318	2532.569828
989.509563	2528.262162
989.805772	2528.967924
990.101944	2531.672503
990.398080	2527.642100
990.694180	2528.476411
990.990244	2532.511855
991.286271	2528.904909
991.582262	2527.584127
991.878217	2530.734848
992.174136	2529.915661
992.470019	2530.152595
992.765865	2529.638397
993.061676	2530.008922
993.357450	2530.966741
993.653188	2530.742410
993.948890	2528.831813
994.244556	2529.845084
994.540186	2531.173428
994.835780	2530.795342
995.131337	2530.800383
995.426859	2528.176463
995.722345	2530.392050
996.017795	2530.563449
996.313208	2531.543953
996.608586	2530.381967
996.903928	2529.716535
997.199234	2528.136133
997.494504	2528.766278
997.789738	2530.636546
998.084936	2530.926412
998.380099	2529.466998
998.675225	2530.883562
998.970316	2529.219981
999.265371	2529.840043
999.560390	2530.989426
999.855373	2530.238294
1000.150320	2528.597399
1000.445232	2528.589837
1000.740108	2528.736031
1001.034948	2529.799714
1001.329752	2530.359282
1001.624521	2529.749303
1001.919254	2525.640762
1002.213951	2526.384332
1002.508613	2524.488858
1002.803239	2527.397604
1003.097829	2523.238652
1003.392384	2529.414066
1003.686903	2527.992460
1003.981386	2530.964221
1004.275834	2532.602596
1004.570246	2531.140661
1004.864623	2528.436082
1005.158964	2527.488345
1005.453270	2526.699404
1005.747540	2527.584127
1006.041775	2532.156453
1006.335974	2526.817872
1006.630138	2530.177801
1006.924266	2529.424148
1007.218359	2529.020856
1007.512416	2527.193438
1007.806438	2528.431041
1008.100425	2529.540095
1008.394376	2527.962213
1008.688292	2528.221833
1008.982172	2528.191586
1009.276017	2528.544467
1009.569827	2527.957172
1009.863602	2530.901206
1010.157341	2528.052954
1010.451045	2526.170083
1010.744714	2530.213089
1011.038347	2529.230064
1011.331945	2529.824920
1011.625508	2526.966586
1011.919036	2529.227543
1012.212528	2527.881555
1012.505986	2529.943387
1012.799408	2527.657224
1013.092795	2526.008766
1013.386147	2527.190917
1013.679464	2525.819723
1013.972745	2528.799045
1014.265992	2527.347193
1014.559204	2529.358613
1014.852380	2528.978006
1015.145521	2528.292409
1015.438628	2527.102697
1015.731699	2529.900537
1016.024736	2526.492717
1016.317737	2530.424817
1016.610703	2527.783252
1016.903635	2524.234280
1017.196531	2522.933663
1017.489393	2524.264527
1017.782219	2523.853673
1018.075011	2527.392563
1018.367768	2529.048582
1018.660490	2529.159487
1018.953177	2529.159487
1019.245829	2529.159487
