Dividing Wavelength (nm)	Counts (n)	Blue Motor Position (mm): 0.000000	Red Motor Position (mm): 30.100000	
326.493990	2126.570421
326.888308	2126.570421
327.282561	2126.570421
327.676750	2096.018508
328.070874	2092.638414
328.464933	2097.787953
328.858929	2104.545620
329.252859	2114.378390
329.646726	2123.452467
330.040528	2136.627523
330.434265	2152.953299
330.827938	2171.502225
331.221547	2187.510409
331.615091	2208.486650
332.008571	2226.518858
332.401986	2245.755901
332.795338	2264.372882
333.188625	2287.098403
333.581847	2303.898048
333.975006	2324.634835
334.368100	2340.234685
334.761129	2359.837212
335.154095	2375.616024
335.546996	2391.871224
335.939833	2410.808319
336.332606	2426.335072
336.725315	2439.399223
337.117960	2447.137394
337.510540	2457.822119
337.903056	2471.428194
338.295508	2479.057980
338.687896	2479.209215
339.080220	2493.773108
339.472480	2498.443737
339.864676	2503.353821
340.256807	2506.819614
340.648875	2511.182733
341.040879	2511.608710
341.432818	2514.623320
341.824694	2515.102230
342.216506	2515.356808
342.608253	2517.300173
342.999937	2517.327899
343.391557	2515.729854
343.783113	2515.727333
344.174605	2515.818074
344.566033	2511.835562
344.957397	2512.143073
345.348697	2506.154182
345.739934	2507.759789
346.131106	2506.295334
346.522215	2504.009171
346.913260	2503.769716
347.304241	2501.362565
347.695159	2499.023470
348.086012	2497.047337
348.476802	2495.343428
348.867528	2493.243787
349.258191	2491.640700
349.648789	2492.646410
350.039324	2490.934938
350.429796	2492.752274
350.820203	2488.759681
351.210548	2488.273209
351.600828	2485.563589
351.991045	2485.757673
352.381198	2485.389669
352.771288	2484.993939
353.161314	2486.627272
353.551276	2484.230204
353.941175	2483.942858
354.331010	2486.531491
354.720782	2485.445122
355.110490	2485.175420
355.500135	2484.751963
355.889717	2483.849597
356.279235	2485.757673
356.668689	2485.941676
357.058080	2486.075266
357.447408	2486.672643
357.836672	2483.239617
358.225873	2484.895636
358.615010	2484.245327
359.004084	2488.447129
359.393095	2488.540390
359.782043	2489.861173
360.170927	2489.039465
360.559748	2492.762357
360.948505	2492.432161
361.337199	2491.761688
361.725830	2490.912253
362.114398	2494.120948
362.502903	2496.805362
362.891344	2492.255721
363.279722	2494.151195
363.668037	2496.654128
364.056289	2496.949035
364.444478	2500.717297
364.832603	2498.726042
365.220665	2496.470125
365.608665	2499.532626
365.996601	2498.070692
366.384474	2501.682678
366.772284	2502.897597
367.160031	2504.472957
367.547715	2507.253153
367.935336	2508.805829
368.322893	2510.166940
368.710388	2514.242713
369.097820	2520.140863
369.485189	2521.222191
369.872495	2527.725279
370.259738	2537.837834
370.646918	2543.146169
371.034035	2549.550955
371.421090	2560.949004
371.808081	2571.311095
372.195010	2582.517580
372.581875	2594.278592
372.968678	2605.906014
373.355418	2616.510081
373.742096	2635.419449
374.128710	2649.287663
374.515262	2665.989006
374.901751	2679.388393
375.288177	2691.958510
375.674540	2716.193857
376.060841	2732.990982
376.447079	2752.802716
376.833254	2773.075716
377.219367	2784.483847
377.605417	2823.930876
377.991404	2832.936898
378.377329	2854.863396
378.763191	2872.174719
379.148991	2909.764082
379.534727	2932.779470
379.920402	2961.846763
380.306013	2975.178095
380.691563	3025.309849
381.077049	3044.078065
381.462474	3064.590520
381.847835	3103.944287
382.233134	3127.108389
382.618371	3124.136629
383.003545	3196.696477
383.388657	3202.760985
383.773706	3234.386664
384.158693	3250.067173
384.543618	3275.086419
384.928480	3311.183601
385.313280	3358.303266
385.698017	3357.269830
386.082692	3410.353180
386.467305	3414.557502
386.851856	3447.821556
387.236344	3469.957262
387.620770	3502.407170
388.005133	3526.519008
388.389435	3555.601425
388.773674	3562.946386
389.157851	3605.322325
389.541965	3620.329840
389.926018	3586.602001
390.310008	3659.134122
390.693936	3676.107687
391.077802	3719.459090
391.461606	3705.742110
391.845348	3770.752830
392.229027	3768.801903
392.612645	3783.204480
392.996200	3861.070142
393.379694	3901.112027
393.763125	3968.040906
394.146494	3932.344496
394.529801	3995.638703
394.913047	4043.282648
395.296230	4006.333511
395.679351	4064.568920
396.062410	4086.432404
396.445408	4068.281730
396.828343	4104.623408
397.211217	4123.784834
397.594028	4044.951270
397.976778	4115.411477
398.359466	4139.021721
398.742092	4170.917102
399.124656	4087.460800
399.507158	4168.512471
399.889598	4192.316800
400.271977	4254.575050
400.654294	4225.722006
401.036549	4230.208633
401.418742	4204.387843
401.800874	4308.265859
402.182944	4326.950896
402.564952	4387.792581
402.946898	4379.457033
403.328783	4375.386302
403.710606	4289.331285
404.092367	4480.358248
404.474067	4449.143424
404.855705	4452.400009
405.237282	4381.838979
405.618797	4489.326461
406.000250	4525.005227
406.381642	4605.018421
406.762972	4566.330086
407.144240	4578.625460
407.525447	4577.818876
407.906593	4637.427999
408.287677	4680.121531
408.668700	4611.002271
409.049661	4659.011699
409.430560	4705.234039
409.811399	4629.067246
410.192176	4791.399961
410.572891	4731.150611
410.953545	4835.925952
411.334138	4713.519175
411.714669	4780.455616
412.095139	4674.321684
412.475547	4818.065144
412.855894	4798.760046
413.236180	4810.463084
413.616405	4762.670425
413.996568	4848.617057
414.376670	4791.120177
414.756711	4743.874483
415.136691	4777.007467
415.516609	4851.724929
415.896466	4891.282863
416.276262	4925.648409
416.655997	4909.496552
417.035670	5090.176547
417.415283	5178.830278
417.794834	5120.110918
418.174324	5077.366975
418.553753	4983.414991
418.933121	5171.064381
419.312428	5238.469649
419.691674	5176.760885
420.070859	5302.222601
420.449983	5213.974682
420.829045	5328.557589
421.208047	5231.291046
421.586988	5305.910205
421.965867	5320.199356
422.344686	5450.041835
422.723444	5306.646213
423.102141	5123.730467
423.480777	5423.162402
423.859352	5190.780333
424.237866	5448.398418
424.616319	5438.323673
424.994712	5552.210900
425.373044	5429.146252
425.751314	5569.572633
426.129524	5374.061564
426.507673	5567.909053
426.885762	5652.786960
427.263789	5579.097894
427.641756	5465.132529
428.019662	5588.358493
428.397508	5594.357466
428.775292	5539.335793
429.153016	5639.193489
429.530679	5563.732457
429.908282	5649.454757
430.285824	5518.757803
430.663305	5796.686697
431.040726	5531.068300
431.418086	5527.741139
431.795385	5638.797758
432.172624	5647.014839
432.549802	5639.238859
432.926920	5657.170243
433.303977	5659.300131
433.680974	5702.986770
434.057910	5721.051745
434.434786	5725.596345
434.811601	5696.040060
435.188355	5931.799702
435.565050	5803.610721
435.941683	5781.858142
436.318257	5998.899980
436.694770	5983.930274
437.071222	6015.021590
437.447614	5945.612463
437.823946	5861.273960
438.200218	6013.889851
438.576429	5880.805910
438.952580	5977.792669
439.328670	6018.482342
439.704700	5931.754332
440.080670	5917.770171
440.456580	6185.314288
440.832429	6066.451442
441.208218	5915.463843
441.583947	6075.165076
441.959616	6075.681794
442.335224	5999.946020
442.710773	6141.410879
443.086261	6163.859137
443.461689	5958.666531
443.837057	6111.494151
444.212365	6267.467451
444.587612	6153.950749
444.962800	6307.484131
445.337927	6291.581811
445.712995	5902.724847
446.088002	6476.808927
446.462949	6306.879192
446.837837	6236.555096
447.212664	6412.869452
447.587431	6552.466563
447.962139	7094.614933
448.336786	8020.281685
448.711374	7762.918178
449.085901	6836.805284
449.460369	6755.667913
449.834776	6687.907244
450.209124	7087.332987
450.583412	7232.409832
450.957640	7381.741412
451.331808	7143.761142
451.705917	6695.037956
452.079965	6620.620443
452.453954	6835.514749
452.827883	6711.993877
453.201752	6798.731970
453.575562	6599.714778
453.949311	6803.727753
454.323001	6691.645259
454.696632	6764.580673
455.070202	6905.417909
455.443713	7061.902886
455.817164	7160.457444
456.190556	7241.390648
456.563888	7312.339847
456.937160	7356.102104
457.310373	7018.128027
457.683526	7037.521345
458.056619	6929.428925
458.429653	6916.969713
458.802628	6852.016966
459.175542	6959.887576
459.548398	7317.731361
459.921194	7470.692572
460.293930	7475.171637
460.666607	8001.263932
461.039224	8307.022516
461.411782	8428.211854
461.784280	8452.462325
462.156719	8344.198505
462.529099	8223.757777
462.901419	7804.099364
463.273680	7692.916716
463.645882	7705.625465
464.018024	7575.684683
464.390106	7734.259218
464.762130	8120.101572
465.134094	8576.295748
465.505999	9576.750538
465.877845	10784.212748
466.249631	11422.226220
466.621358	11036.575430
466.993026	10410.431355
467.364634	10155.611110
467.736184	9786.301221
468.107674	9448.538872
468.479105	9468.922777
468.850477	9233.374864
469.221790	8994.338472
469.593043	8667.230602
469.964238	8521.022017
470.335373	8525.233901
470.706449	8570.087567
471.077467	8543.379534
471.448425	9790.626531
471.819324	10818.822790
472.190164	10832.128915
472.560945	9617.483061
472.931667	8831.902413
473.302330	8696.925519
473.672934	8335.900765
474.043479	8655.598139
474.413965	8580.152231
474.784393	8455.010628
475.154761	8584.409485
475.525070	8644.968867
475.895321	8463.661248
476.265513	8611.838403
476.635645	8751.914425
477.005719	8718.778921
477.375734	8809.640677
477.745691	8998.255449
478.115588	9090.800951
478.485427	9285.008882
478.855207	9731.544208
479.224928	10410.643083
479.594591	10946.283324
479.964194	10740.332024
480.333739	10658.728347
480.703226	10538.547239
481.072653	10575.140975
481.442022	10711.844464
481.811333	10827.007103
482.180584	10610.983578
482.549777	10311.206324
482.918912	10101.305281
483.287988	10059.110823
483.657005	10024.694866
484.025964	9703.212923
484.394864	9756.024051
484.763706	9672.681175
485.132489	9423.721272
485.501213	9329.257610
485.869879	9344.146658
486.238487	9143.266760
486.607036	9181.602214
486.975527	8933.406046
487.343959	9022.231176
487.712333	8988.384869
488.080648	8875.704999
488.448905	8833.109769
488.817104	8718.032830
489.185244	8851.542748
489.553326	8876.088126
489.921350	9178.645577
490.289315	9800.083735
490.657222	9967.518099
491.025070	9812.074120
491.392861	9648.105550
491.760593	9321.403493
492.128267	9009.396399
492.495883	8714.393117
492.863440	8411.966736
493.230939	8109.437011
493.598380	7987.287333
493.965763	7815.116806
494.333088	7692.528547
494.700354	7545.689818
495.067563	7524.070829
495.434713	7336.005544
495.801805	7332.353228
496.168839	7211.557100
496.535815	7088.626042
496.902733	7022.831423
497.269593	6903.678711
497.636395	6887.116000
498.003139	6790.300640
498.369825	6659.084447
498.736453	6651.026162
499.103023	6547.513630
499.469535	6474.870603
499.835989	6404.095323
500.202385	6296.779240
500.568723	6158.308827
500.935003	6196.220824
501.301226	6009.551938
501.667390	6063.898097
502.033497	6026.212952
502.399546	5896.234362
502.765537	5783.062978
503.131470	5735.658488
503.497345	5726.677673
503.863163	5514.780332
504.228923	5548.009098
504.594625	5502.641234
504.960269	5344.535526
505.325856	5347.061144
505.691385	5208.409248
506.056856	5193.605900
506.422270	5127.259274
506.787625	5040.077560
507.152924	4997.442001
507.518164	4936.897743
507.883347	4841.443495
508.248472	4763.600518
508.613540	4766.610087
508.978550	4674.084749
509.343503	4607.793576
509.708398	4573.264193
510.073236	4541.192372
510.438016	4484.497036
510.802738	4415.392899
511.167403	4372.956466
511.532010	4291.415802
511.896561	4294.057367
512.261053	4254.116305
512.625488	4169.480373
512.989866	4109.775467
513.354186	4058.469124
513.718449	3988.954133
514.082655	3984.767455
514.446803	3917.135335
514.810894	3892.237076
515.174927	3820.163699
515.538904	3785.475520
515.902822	3758.369236
516.266684	3703.324877
516.630488	3654.304697
516.994235	3625.726396
517.357925	3585.026640
517.721558	3562.434709
518.085133	3525.644368
518.448651	3490.227742
518.812112	3444.754014
519.175516	3406.879825
519.538863	3384.383676
519.902152	3347.159796
520.265385	3325.442505
520.628560	3295.941673
520.991678	3257.112185
521.354739	3238.260790
521.717743	3206.564536
522.080690	3177.522448
522.443580	3155.666526
522.806413	3132.993936
523.169189	3112.685648
523.531908	3089.829057
523.894569	3058.871331
524.257174	3036.150850
524.619722	3020.946730
524.982213	3007.370903
525.344647	2983.059939
525.707025	2964.107721
526.069345	2950.179013
526.431608	2927.498862
526.793815	2917.819846
527.155964	2895.527864
527.518057	2884.679301
527.880093	2863.992926
528.242072	2857.399097
528.603995	2838.683813
528.965860	2825.523881
529.327669	2813.367138
529.689421	2803.594862
530.051117	2794.341824
530.412755	2784.829167
530.774337	2776.309617
531.135862	2763.885693
531.497331	2754.113416
531.858743	2741.845768
532.220098	2739.610017
532.581396	2731.115672
532.942638	2722.122254
533.303824	2720.531770
533.664953	2713.224617
534.026025	2705.955273
534.387040	2701.622402
534.747999	2698.685930
535.108902	2693.543953
535.469748	2687.499609
535.830537	2685.621779
536.191270	2679.547189
536.551947	2676.242713
536.912567	2673.686848
537.273131	2671.778771
537.633638	2666.248625
537.994089	2663.284427
538.354483	2661.572955
538.714821	2661.530105
539.075103	2658.389466
539.435328	2657.444250
539.795497	2651.765390
540.155609	2652.965185
540.515665	2650.406799
540.875665	2648.508805
541.235609	2644.228865
541.595496	2643.938999
541.955328	2645.269863
542.315102	2641.680562
542.674821	2638.892804
543.034483	2638.897845
543.394090	2635.230406
543.753640	2637.009933
544.113134	2635.124541
544.472571	2636.941877
544.831953	2635.835344
545.191278	2632.500621
545.550548	2629.312091
545.909761	2630.582462
546.268918	2631.217647
546.628019	2632.011629
546.987064	2628.250928
547.346053	2623.965947
547.704986	2625.563993
548.063863	2625.715228
548.422684	2625.634569
548.781449	2624.011318
549.140158	2624.994343
549.498811	2623.537449
549.857408	2621.916718
550.215949	2619.028137
550.574434	2617.624176
550.932864	2618.607201
551.291237	2618.589557
551.649555	2620.535442
552.007817	2622.360340
552.366022	2616.804988
552.724173	2619.005452
553.082267	2618.040071
553.440305	2620.757253
553.798288	2619.862448
554.156215	2616.900770
554.514086	2617.389762
554.871902	2615.423712
555.229661	2614.546551
555.587365	2617.120060
555.945014	2615.128805
556.302606	2613.802981
556.660143	2617.876233
557.017625	2615.017899
557.375050	2612.623351
557.732421	2615.766511
558.089735	2614.365070
558.446994	2613.500512
558.804197	2616.240379
559.161345	2614.952364
559.518437	2614.531428
559.875474	2612.162086
560.232455	2613.354318
560.589381	2612.212497
560.946251	2616.232817
561.303065	2613.354318
561.659825	2613.001438
562.016528	2610.218721
562.373177	2613.616458
562.729770	2612.399020
563.086307	2609.286107
563.442789	2611.753752
563.799216	2612.267950
564.155587	2614.430605
564.511904	2609.326437
564.868164	2610.097733
565.224370	2611.131170
565.580520	2606.465582
565.936615	2609.762496
566.292654	2607.118411
566.648638	2609.664194
567.004567	2606.999944
567.360441	2608.592949
567.716260	2608.625716
568.072023	2609.860799
568.427732	2603.085488
568.783385	2605.154882
569.138982	2605.878287
569.494525	2603.365272
569.850013	2606.740325
570.205445	2608.998762
570.560823	2606.233689
570.916145	2607.642691
571.271412	2607.433483
571.626625	2606.826024
571.981782	2604.756631
572.336884	2606.400047
572.691931	2607.534306
573.046923	2605.311157
573.401860	2605.285952
573.756743	2606.405088
574.111570	2604.355859
574.466342	2604.852412
574.821059	2604.451641
575.175722	2601.197576
575.530330	2603.932402
575.884882	2605.386775
576.239380	2604.101281
576.593823	2604.020622
576.948211	2602.218410
577.302544	2603.652618
577.656823	2604.237392
578.011047	2602.147833
578.365216	2601.376537
578.719330	2602.147833
579.073389	2599.312184
579.427394	2600.239757
579.781344	2599.947370
580.135239	2602.319233
580.489080	2600.118769
580.842866	2602.258739
581.196597	2599.884355
581.550273	2599.314705
581.903895	2600.834613
582.257463	2601.467278
582.610975	2596.670620
582.964434	2598.707246
583.317837	2600.239757
583.671186	2599.428131
584.024481	2600.776640
584.377721	2596.075764
584.730906	2598.127513
585.084037	2598.160281
585.437113	2599.299582
585.790135	2599.496187
586.143103	2598.843357
586.496016	2598.077102
586.848874	2595.349837
587.201679	2596.489138
587.554428	2594.674323
587.907124	2595.107862
588.259765	2592.625094
588.612352	2596.605085
588.964884	2593.764395
589.317362	2595.506113
589.669786	2595.813624
590.022155	2596.910075
590.374470	2592.980495
590.726731	2596.779005
591.078937	2595.112903
591.431090	2594.913778
591.783188	2593.449322
592.135232	2593.285485
592.487222	2592.665423
592.839157	2596.259766
593.191038	2595.601895
593.542866	2595.632142
593.894639	2593.373705
594.246358	2592.597367
594.598022	2592.289857
594.949633	2590.764908
595.301190	2588.108220
595.652692	2592.322625
596.004141	2592.531833
596.355535	2594.087028
596.706876	2589.713827
597.058162	2590.470001
597.409395	2590.502768
597.760573	2594.606267
598.111698	2590.447315
598.462768	2590.611153
598.813785	2590.651482
599.164748	2591.881524
599.515657	2589.739033
599.866511	2591.775659
600.217312	2592.554518
600.568060	2591.332038
600.918753	2593.787080
601.269392	2590.475042
601.619978	2587.142839
601.970510	2590.038982
602.320988	2591.934456
602.671412	2588.947572
603.021783	2591.316914
603.372100	2589.229877
603.722363	2589.139136
604.072572	2590.447315
604.422728	2590.061667
604.772830	2586.984043
605.122878	2585.456573
605.472872	2587.646954
605.822813	2584.234093
606.172701	2587.510843
606.522534	2586.789958
606.872314	2592.738520
607.222041	2588.158632
607.571714	2589.852459
607.921333	2588.599732
608.270899	2589.353385
608.620411	2592.085690
608.969870	2590.096955
609.319276	2590.709455
609.668627	2593.005701
610.017926	2594.810434
610.367171	2595.927050
610.716362	2598.823192
611.065500	2595.183479
611.414585	2595.140630
611.763616	2594.760022
612.112594	2593.537543
612.461518	2593.751792
612.810389	2591.314394
613.159207	2590.911102
613.507971	2590.717017
613.856682	2589.557552
614.205340	2592.176431
614.553945	2589.459249
614.902496	2591.518561
615.250994	2591.422779
615.599439	2591.112748
615.947830	2590.618715
616.296169	2590.275916
616.644454	2590.311204
616.992686	2590.769949
617.340864	2591.584096
617.688990	2589.272727
618.037063	2592.957810
618.385082	2590.931266
618.733048	2593.955958
619.080961	2589.489496
619.428821	2594.177769
619.776628	2591.599219
620.124382	2592.567121
620.472083	2589.113930
620.819731	2593.517378
621.167326	2589.499578
621.514868	2588.130905
621.862357	2586.066553
622.209793	2586.008579
622.557176	2590.079311
622.904506	2584.541604
623.251783	2583.193095
623.599007	2587.425144
623.946179	2585.111254
624.293297	2581.196798
624.640363	2585.890112
624.987376	2588.025041
625.334336	2585.617890
625.681243	2584.740729
626.028097	2585.025554
626.374899	2584.740729
626.721647	2587.654516
627.068343	2585.421285
627.414987	2584.198805
627.761577	2583.795513
628.108115	2584.133270
628.454600	2582.247879
628.801032	2585.005390
629.147412	2581.469020
629.493739	2582.371387
629.840014	2582.394072
630.186236	2586.079156
630.532405	2582.394072
630.878521	2582.837694
631.224585	2582.227714
631.570597	2578.514904
631.916556	2580.168403
632.262462	2580.624627
632.608316	2582.280646
632.954117	2580.601942
633.299866	2577.874678
633.645562	2579.674370
633.991206	2580.758218
634.336797	2578.277970
634.682336	2578.139338
635.027823	2579.525656
635.373257	2577.882239
635.718639	2575.059193
636.063968	2578.852662
636.409245	2574.199677
636.754470	2578.673701
637.099642	2575.089440
637.444762	2576.891653
637.789829	2574.968452
638.134845	2576.112794
638.479808	2577.274780
638.824719	2577.078175
639.169577	2573.561971
639.514383	2576.279152
639.859137	2576.780747
640.203839	2576.543813
640.548489	2573.514080
640.893086	2570.002916
641.237632	2568.800601
641.582125	2573.635067
641.926566	2570.615416
642.270955	2573.264542
642.615292	2572.261353
642.959576	2573.299831
643.303809	2576.009451
643.647990	2571.348904
643.992118	2573.108267
644.336195	2573.287228
644.680219	2573.481312
645.024192	2576.034657
645.368112	2573.241857
645.711981	2573.761096
646.055797	2573.725808
646.399562	2578.063721
646.743274	2575.777558
647.086935	2574.388720
647.430544	2576.296797
647.774101	2578.431725
648.117606	2575.018864
648.461059	2577.020202
648.804460	2579.699575
649.147810	2572.858730
649.491108	2576.400140
649.834354	2577.322671
650.177548	2571.364028
650.520690	2573.541806
650.863781	2575.301169
651.206820	2574.754203
651.549807	2571.921075
651.892742	2571.109449
652.235626	2570.539799
652.578458	2573.914851
652.921238	2573.151117
653.263967	2570.053327
653.606644	2572.616754
653.949269	2570.043245
654.291843	2570.968297
654.634365	2569.614747
654.976836	2570.552402
655.319255	2572.286559
655.661622	2566.910168
656.003938	2571.863102
656.346203	2569.518965
656.688416	2568.959397
657.030577	2570.267577
657.372687	2567.648697
657.714746	2570.133986
658.056753	2569.178687
658.398708	2564.868501
658.740612	2570.809501
659.082465	2567.936043
659.424266	2566.650549
659.766016	2563.986299
660.107715	2567.749520
660.449362	2568.256156
660.790958	2568.036866
661.132503	2570.945612
661.473996	2568.898903
661.815438	2571.656414
662.156829	2570.915365
662.498168	2569.597103
662.839456	2570.280179
663.180693	2570.325550
663.521879	2568.689695
663.863013	2571.805128
664.204097	2568.016701
664.545129	2571.006106
664.886110	2570.403688
665.227040	2570.197000
665.567918	2569.098029
665.908746	2571.752196
666.249522	2571.220355
666.590248	2568.621640
666.930922	2569.650035
667.271545	2572.180694
667.612118	2571.028791
667.952639	2572.054666
668.293109	2570.244891
668.633528	2572.117680
668.973896	2569.156002
669.314213	2570.181877
669.654480	2570.010478
669.994695	2570.365879
670.334859	2571.764799
670.674973	2568.059551
671.015035	2569.304716
671.355047	2569.297154
671.695008	2571.462330
672.034918	2572.094995
672.374777	2569.859243
672.714585	2566.403532
673.054342	2568.404870
673.394049	2571.253122
673.733705	2567.288255
674.073310	2570.108780
674.412864	2569.410580
674.752368	2570.880077
675.091820	2569.665159
675.431223	2568.281362
675.770574	2567.933522
676.109875	2563.265414
676.449125	2565.569221
676.788324	2563.772050
677.127473	2566.088460
677.466571	2563.819941
677.805619	2568.059551
678.144616	2565.559139
678.483562	2568.898903
678.822458	2567.976372
679.161303	2568.089798
679.500098	2565.385219
679.838842	2566.771536
680.177535	2566.479149
680.516179	2567.469736
680.854771	2570.118862
681.193314	2567.759603
681.531805	2567.595765
681.870247	2571.364027
682.208638	2573.415777
682.546978	2571.089285
682.885268	2570.302865
683.223508	2568.490570
683.561697	2568.692216
683.899836	2569.854202
684.237925	2567.593244
684.575963	2566.431258
684.913951	2570.444017
685.251889	2571.560632
685.589776	2568.750189
685.927614	2567.290775
686.265401	2566.222051
686.603137	2569.435786
686.940824	2570.842268
687.278460	2570.343194
687.616046	2568.813204
687.953582	2573.239337
688.291068	2568.851012
688.628504	2569.834037
688.965889	2571.527865
689.303224	2570.685992
689.640510	2571.174984
689.977745	2571.033832
690.314930	2567.623491
690.652065	2567.111814
690.989150	2567.104252
691.326185	2565.090312
691.663170	2564.646690
692.000105	2564.240877
692.336990	2562.110990
692.673825	2564.969324
693.010610	2563.779612
693.347345	2560.475135
693.684030	2558.209137
694.020665	2559.640824
694.357251	2555.701163
694.693786	2560.409600
695.030272	2563.509910
695.366707	2558.856925
695.703093	2560.402038
696.039429	2561.856411
696.375716	2558.957748
696.711952	2561.133006
697.048139	2561.082594
697.384276	2563.325908
697.720363	2559.350958
698.056400	2559.298026
698.392388	2558.372974
698.728326	2560.399518
699.064214	2560.180228
699.400053	2558.133519
699.735842	2561.576627
700.071581	2557.125288
700.407270	2556.895916
700.742910	2557.344579
701.078501	2555.557490
701.414042	2558.405742
701.749533	2554.584547
702.084974	2558.352809
702.420366	2555.741492
702.755709	2556.903478
703.091002	2557.243756
703.426246	2554.730740
703.761440	2553.646892
704.096584	2558.814075
704.431679	2554.692932
704.766725	2557.596636
705.101721	2555.136553
705.436668	2557.513457
705.771565	2554.062788
706.106413	2554.760987
706.441212	2555.446584
706.775961	2556.941286
707.110661	2556.139743
707.445311	2556.989177
707.779913	2556.245607
708.114465	2556.366595
708.448967	2556.555638
708.783421	2559.088818
709.117825	2557.984805
709.452180	2558.761143
709.786485	2557.813406
710.120742	2558.672923
710.454949	2560.341545
710.789107	2558.292316
711.123216	2557.594116
711.457275	2558.403221
711.791286	2558.398180
712.125247	2558.438509
712.459159	2562.501679
712.793023	2563.459498
713.126837	2561.047306
713.460602	2561.014539
713.794318	2558.199054
714.127985	2561.727862
714.461602	2559.713921
714.795171	2557.699980
715.128691	2558.229301
715.462162	2560.563355
715.795584	2556.505227
716.128957	2555.834753
716.462281	2554.826522
716.795556	2557.359702
717.128782	2556.157387
717.461960	2555.630586
717.795088	2554.173693
718.128167	2552.658826
718.461198	2553.057077
718.794180	2554.718137
719.127113	2552.699155
719.459997	2554.894578
719.792833	2552.447098
720.125619	2554.634958
720.458357	2553.251162
720.791046	2554.423230
721.123686	2552.363919
721.456278	2553.939279
721.788821	2553.687222
722.121315	2551.514484
722.453761	2551.781665
722.786158	2552.857952
723.118506	2554.957592
723.450805	2551.534649
723.783056	2552.870555
724.115259	2552.167314
724.447412	2551.544731
724.779518	2555.670916
725.111574	2551.827036
725.443582	2554.166131
725.775542	2553.508261
726.107453	2552.341233
726.439315	2551.529608
726.771129	2555.902809
727.102895	2554.818961
727.434612	2552.245452
727.766281	2554.629917
728.097901	2551.922818
728.429473	2551.007848
728.760996	2554.899619
729.092471	2548.116747
729.423897	2553.684701
729.755276	2557.715103
730.086606	2552.379042
730.417887	2553.566234
730.749120	2554.665205
731.080305	2557.394990
731.411442	2558.907336
731.742530	2556.807696
732.073570	2555.257541
732.404562	2556.694270
732.735506	2559.348437
733.066401	2556.046482
733.397249	2559.640824
733.728048	2554.629917
734.058798	2555.542366
734.389501	2551.522046
734.720156	2553.435164
735.050762	2553.941800
735.381320	2552.726882
735.711831	2549.324103
736.042293	2550.014741
736.372707	2550.249155
736.703073	2551.786707
737.033391	2549.797971
737.363661	2554.103117
737.693883	2553.518343
738.024056	2551.247303
738.354182	2550.642365
738.684260	2553.230997
739.014290	2553.460370
739.344272	2552.164793
739.674207	2552.184958
740.004093	2555.260062
740.333931	2552.348795
740.663722	2554.531615
740.993464	2553.737633
741.323159	2556.046482
741.652806	2553.190668
741.982405	2552.784855
742.311956	2550.886861
742.641460	2552.119423
742.970915	2551.375852
743.300323	2550.118085
743.629683	2552.333672
743.958996	2550.397869
744.288260	2550.208825
744.617477	2550.604556
744.946647	2544.519883
745.275768	2547.141283
745.604842	2544.998793
745.933869	2548.172199
746.262847	2545.974256
746.591778	2549.916438
746.920662	2552.631100
747.249498	2549.513146
747.578286	2548.996428
747.907027	2548.724206
748.235720	2550.264278
748.564365	2549.722354
748.892963	2548.550286
749.221514	2550.017262
749.550017	2549.671942
749.878473	2547.610111
750.206881	2551.275029
750.535242	2550.095399
750.863555	2550.604556
751.191821	2549.487940
751.520039	2549.674463
751.848210	2546.463248
752.176334	2550.758311
752.504411	2546.879143
752.832440	2547.400903
753.160421	2548.517518
753.488356	2548.290666
753.816243	2548.809905
754.144082	2548.159596
754.471875	2547.537014
754.799620	2547.806716
755.127318	2548.580533
755.454969	2549.407282
755.782572	2551.917777
756.110129	2549.298897
756.437638	2548.963660
756.765100	2547.234545
757.092515	2548.572971
757.419882	2549.682025
757.747203	2548.005841
758.074477	2547.249668
758.401703	2547.408464
758.728882	2548.174720
759.056014	2547.398382
759.383099	2548.671273
759.710138	2552.424412
760.037129	2548.575492
760.364073	2549.258568
760.690970	2547.965512
761.017820	2548.895605
761.344623	2549.921480
761.671379	2549.419885
761.998088	2544.971067
762.324751	2551.481717
762.651366	2554.181255
762.977935	2563.827503
763.304456	2566.030487
763.630931	2570.670869
763.957359	2566.617781
764.283740	2561.289282
764.610074	2558.383056
764.936362	2553.490617
765.262602	2551.431305
765.588796	2553.304094
765.914943	2550.140770
766.241044	2548.215049
766.567097	2549.248486
766.893104	2547.577343
767.219064	2548.038609
767.544978	2548.436860
767.870845	2544.323278
768.196665	2547.216901
768.522438	2545.981818
768.848165	2546.803526
769.173846	2543.516694
769.499479	2545.129863
769.825066	2546.773279
770.150607	2544.751776
770.476101	2543.307486
770.801548	2543.690613
771.126949	2545.407126
771.452303	2547.267312
771.777611	2543.531817
772.102872	2542.833617
772.428087	2541.711961
772.753256	2542.221117
773.078378	2541.459903
773.403453	2542.183308
773.728482	2542.216076
774.053465	2544.963505
774.378401	2541.759852
774.703291	2543.176416
775.028135	2540.809594
775.352932	2542.551313
775.677683	2541.780016
776.002388	2542.884029
776.327046	2543.015099
776.651658	2543.438556
776.976224	2540.600386
777.300743	2541.623740
777.625216	2539.559388
777.949643	2541.419574
778.274024	2540.857485
778.598359	2537.240457
778.922647	2535.768440
779.246889	2538.087371
779.571086	2535.266845
779.895236	2540.192053
780.219339	2544.887888
780.543397	2542.478216
780.867409	2543.337733
781.191374	2539.637526
781.515294	2541.628782
781.839167	2540.733977
782.162995	2542.122815
782.486776	2541.427135
782.810511	2541.230530
783.134201	2542.518545
783.457844	2539.869419
783.781441	2538.649460
784.104993	2542.793288
784.428498	2542.158103
784.751958	2540.300438
785.075372	2540.965870
785.398739	2539.088040
785.722061	2540.187012
786.045337	2540.378575
786.368568	2543.980480
786.691752	2540.895294
787.014891	2540.411343
787.337983	2539.138452
787.661030	2541.021322
787.984031	2541.704399
788.306987	2544.529966
788.629897	2545.870912
788.952760	2543.541899
789.275579	2542.798329
789.598351	2543.458720
789.921078	2539.629964
790.243759	2542.891591
790.566395	2541.049049
790.888984	2540.676003
791.211529	2543.970397
791.534027	2542.929399
791.856480	2538.183153
792.178888	2541.328833
792.501249	2541.749769
792.823566	2539.297248
793.145836	2541.984183
793.468062	2539.897145
793.790241	2541.550644
794.112375	2539.045190
794.434464	2541.772454
794.756507	2542.037115
795.078505	2538.843544
795.400457	2540.965870
795.722364	2539.451003
796.044226	2539.241795
796.366042	2537.426980
796.687812	2538.954449
797.009538	2542.077444
797.331218	2541.888401
797.652852	2542.148020
797.974442	2542.049718
798.295986	2542.057280
798.617484	2541.447300
798.938938	2539.922351
799.260346	2541.164995
799.581709	2541.754810
799.903026	2542.566436
800.224299	2539.012423
800.545526	2541.792619
800.866708	2537.973945
801.187845	2537.802546
801.508936	2539.945036
801.829983	2540.744059
802.150984	2539.743390
802.471940	2540.701209
802.792851	2538.220962
803.113717	2539.723225
803.434538	2537.878163
803.755314	2538.772968
804.076045	2536.469161
804.396731	2539.395550
804.717372	2535.990251
805.037967	2538.858667
805.358518	2540.970911
805.679024	2541.311189
805.999485	2538.800694
806.319901	2536.617875
806.640272	2538.074768
806.960598	2538.238606
807.280879	2537.268183
807.601115	2538.334388
807.921306	2541.764893
808.241453	2539.824048
808.561554	2539.866898
808.881611	2538.626774
809.201623	2539.511497
809.521590	2539.592155
809.841513	2539.912269
810.161390	2541.023843
810.481223	2536.325488
810.801011	2540.557536
811.120755	2538.752803
811.440453	2538.815818
811.760107	2539.375386
812.079716	2537.802546
812.399281	2535.324819
812.718801	2537.507638
813.038276	2533.938501
813.357707	2536.403626
813.677093	2535.246681
813.996434	2538.581404
814.315731	2539.319933
814.634983	2539.821528
814.954191	2538.934285
815.273354	2540.832279
815.592473	2537.943698
815.911547	2540.834800
816.230577	2540.454193
816.549562	2539.201466
816.868502	2541.296065
817.187399	2539.027546
817.506250	2539.521579
817.825058	2543.539379
818.143821	2541.732125
818.462539	2542.304296
818.781213	2542.533669
819.099843	2540.139121
819.418429	2543.501570
819.736970	2546.490974
820.055466	2548.381407
820.373919	2553.309135
820.692327	2552.903322
821.010691	2557.997408
821.329011	2575.351580
821.647286	2606.440376
821.965517	2638.650828
822.283704	2658.482728
822.601847	2663.536484
822.919945	2651.157931
823.237999	2630.075826
823.556010	2610.306941
823.873976	2595.687595
824.191897	2584.352560
824.509775	2575.533062
824.827609	2567.056362
825.145398	2564.513099
825.463144	2565.135682
825.780845	2564.321536
826.098502	2569.178687
826.416116	2578.411561
826.733685	2584.413054
827.051210	2594.213057
827.368692	2588.216605
827.686129	2577.577250
828.003522	2568.208265
828.320872	2559.108983
828.638177	2553.707386
828.955439	2547.042981
829.272656	2544.323278
829.589830	2544.456869
829.906960	2544.698844
830.224046	2543.705737
830.541088	2542.510983
830.858086	2542.760521
831.175041	2543.867054
831.491952	2543.186498
831.808819	2542.019471
832.125642	2540.789429
832.442421	2544.318237
832.759157	2549.470296
833.075849	2553.518343
833.392497	2560.172666
833.709101	2562.718449
834.025662	2561.990002
834.342179	2563.824982
834.658653	2555.854918
834.975083	2551.436346
835.291469	2555.623025
835.607811	2549.976932
835.924110	2542.518545
836.240366	2541.467465
836.556578	2543.005017
836.872746	2541.003678
837.188871	2541.308668
837.504952	2539.854295
837.820990	2539.902186
838.136984	2535.397915
838.452935	2535.997813
838.768842	2539.869419
839.084706	2536.373379
839.400526	2539.009902
839.716303	2544.572815
840.032037	2547.446273
840.347727	2548.015923
840.663373	2548.600697
840.978977	2544.267826
841.294537	2538.813297
841.610054	2540.008051
841.925527	2539.514017
842.240957	2537.817669
842.556344	2537.444624
842.871687	2534.913965
843.186987	2538.291538
843.502244	2536.491846
843.817458	2536.101156
844.132629	2534.114942
844.447756	2538.336908
844.762840	2531.619571
845.077881	2530.949097
845.392879	2532.877338
845.707833	2530.218130
846.022745	2530.192924
846.337613	2532.773995
846.652438	2534.727442
846.967221	2532.763913
847.281960	2532.915147
847.596656	2535.075282
847.911309	2533.474715
848.225919	2536.267514
848.540485	2534.845909
848.855009	2532.549663
849.169490	2530.828109
849.483928	2534.160312
849.798323	2533.762061
850.112675	2536.532175
850.426984	2533.613347
850.741251	2534.215765
851.055474	2532.728624
851.369654	2535.503780
851.683792	2533.683923
851.997887	2535.478574
852.311938	2532.232071
852.625947	2531.027235
852.939914	2533.285672
853.253837	2535.188708
853.567718	2535.718029
853.881555	2534.979500
854.195350	2534.828265
854.509103	2534.072092
854.822812	2530.694519
855.136479	2533.144520
855.450103	2535.712988
855.763685	2533.746938
856.077224	2534.087215
856.390720	2533.552853
856.704173	2534.493028
857.017584	2531.886752
857.330953	2531.654859
857.644278	2532.600075
857.957561	2536.595189
858.270802	2534.419932
858.584000	2531.574200
858.897155	2533.903213
859.210268	2532.111083
859.523339	2534.677030
859.836367	2532.630322
860.149352	2534.735004
860.462295	2535.707946
860.775195	2529.691329
861.088054	2529.023376
861.400869	2530.404652
861.713642	2528.990609
862.026373	2532.993285
862.339062	2536.131403
862.651708	2533.278110
862.964312	2536.249870
863.276873	2533.656197
863.589392	2534.833306
863.901869	2534.296423
864.214303	2532.350538
864.526696	2531.639735
864.839045	2534.424973
865.151353	2530.697039
865.463619	2533.257946
865.775842	2532.690816
866.088023	2536.542257
866.400162	2539.559388
866.712258	2533.590662
867.024313	2533.605785
867.336325	2534.054448
867.648296	2534.112421
867.960224	2533.421783
868.272110	2533.900693
868.583954	2533.941022
868.895755	2535.405477
869.207515	2534.656866
869.519233	2533.399098
869.830909	2534.162833
870.142542	2533.643594
870.454134	2533.066382
870.765684	2535.718029
871.077191	2536.441434
871.388657	2538.248688
871.700081	2535.828934
872.011463	2535.407998
872.322803	2534.903882
872.634101	2535.095446
872.945357	2535.597041
873.256571	2533.709129
873.567744	2537.487474
873.878874	2535.723070
874.189963	2535.559232
874.501010	2536.605272
874.812015	2534.477905
875.122979	2538.576363
875.433900	2535.907072
875.744780	2535.592000
876.055618	2532.978162
876.366415	2533.706608
876.677169	2535.788605
876.987882	2532.378264
877.298554	2529.721576
877.609183	2534.946732
877.919771	2534.440096
878.230317	2537.076620
878.540822	2539.077958
878.851285	2538.392361
879.161707	2542.190870
879.472087	2541.646426
879.782425	2546.874102
880.092722	2550.586912
880.402977	2562.904971
880.713191	2574.209759
881.023363	2594.475197
881.333494	2606.241250
881.643583	2608.222424
881.953631	2604.998606
882.263637	2598.636670
882.573602	2598.462750
882.883526	2589.214753
883.193408	2576.732856
883.503248	2569.849161
883.813048	2567.202555
884.122806	2560.928839
884.432522	2560.775084
884.742197	2550.768393
885.051831	2550.954916
885.361424	2549.571119
885.670975	2549.039278
885.980485	2543.420912
886.289954	2540.890252
886.599382	2538.510828
886.908768	2543.335212
887.218113	2542.198432
887.527417	2538.833462
887.836680	2535.967566
888.145901	2537.769778
888.455082	2536.506969
888.764221	2539.095602
889.073319	2538.878832
889.382376	2535.816331
889.691392	2533.991433
890.000366	2536.416228
890.309300	2536.506969
890.618193	2537.053934
890.927044	2535.705426
891.235855	2535.155940
891.544625	2535.478574
891.853353	2538.208359
892.162041	2536.393543
892.470687	2538.563760
892.779293	2537.981507
893.087858	2538.362114
893.396381	2540.481919
893.704864	2543.241951
894.013306	2543.370500
894.321707	2552.104299
894.630068	2555.076059
894.938387	2561.226267
895.246665	2561.352296
895.554903	2555.938097
895.863100	2552.643703
896.171256	2552.835267
896.479371	2548.628424
896.787446	2543.980480
897.095480	2546.851417
897.403473	2541.913607
897.711425	2540.640715
898.019336	2540.464275
898.327207	2540.446631
898.635038	2541.727084
898.942827	2536.575025
899.250576	2536.748945
899.558284	2534.692154
899.865952	2539.317412
900.173579	2535.894469
900.481165	2536.322967
900.788711	2535.773481
901.096216	2536.796836
901.403681	2534.871115
901.711105	2535.614685
902.018489	2536.575025
902.325832	2535.458409
902.633135	2538.949408
902.940397	2538.450334
903.247619	2539.778678
903.554800	2542.145500
903.861941	2553.949362
904.169041	2562.625187
904.476101	2567.149623
904.783121	2569.652556
905.090100	2561.727862
905.397039	2560.475135
905.703938	2551.396017
906.010796	2551.940462
906.317614	2543.925027
906.624391	2541.795140
906.931129	2540.925541
907.237826	2538.268852
907.544483	2535.740714
907.851099	2533.946063
908.157675	2535.826413
908.464211	2535.223996
908.770707	2530.911288
909.077163	2531.307019
909.383578	2528.650331
909.689954	2528.945238
909.996289	2528.350382
910.302584	2528.390712
910.608839	2532.310209
910.915054	2534.636701
911.221229	2533.094108
911.527363	2535.528985
911.833458	2530.770136
912.139513	2533.578059
912.445527	2533.898172
912.751502	2531.165867
913.057436	2534.177956
913.363331	2536.549819
913.669186	2536.048224
913.975000	2535.937319
914.280775	2537.540406
914.586510	2541.858154
914.892205	2545.144986
915.197859	2548.149514
915.503475	2554.009855
915.809050	2559.169476
916.114585	2566.900086
916.420081	2563.724159
916.725536	2566.353121
917.030952	2563.368757
917.336328	2560.016390
917.641665	2550.813764
917.946961	2552.195040
918.252218	2548.956099
918.557435	2545.344112
918.862612	2542.450490
919.167750	2540.280273
919.472848	2540.068544
919.777906	2538.246167
920.082925	2536.960673
920.387904	2537.553009
920.692843	2536.244829
920.997743	2537.941178
921.302603	2536.328008
921.607423	2535.975127
921.912204	2532.506814
922.216946	2536.766589
922.521647	2535.140817
922.826310	2533.721732
923.130932	2535.539068
923.435516	2530.457585
923.740059	2531.947246
924.044564	2531.538912
924.349028	2531.458254
924.653454	2529.340969
924.957840	2529.358613
925.262186	2527.921884
925.566493	2526.338962
925.870761	2527.629497
926.174989	2530.213089
926.479178	2530.981865
926.783328	2530.283665
927.087438	2530.860877
927.391509	2531.647297
927.695541	2529.038500
927.999533	2528.557070
928.303486	2528.882224
928.607400	2530.568490
928.911275	2529.535053
929.215110	2529.714014
929.518906	2530.755013
929.822663	2530.616381
930.126381	2527.962213
930.430060	2527.589168
930.733699	2530.374406
931.037299	2528.610002
931.340861	2530.059333
931.644383	2531.039838
931.947866	2531.503624
932.251309	2529.406504
932.554714	2527.810979
932.858080	2532.501772
933.161407	2530.331556
933.464694	2529.920702
933.767943	2528.544467
934.071153	2529.212420
934.374323	2529.393901
934.677455	2529.414066
934.980548	2529.346010
935.283602	2527.092614
935.586617	2527.397604
935.889593	2529.565300
936.192530	2530.069416
936.495428	2529.149405
936.798287	2530.313912
937.101108	2529.555218
937.403890	2530.971782
937.706632	2531.483459
938.009336	2532.227030
938.312002	2529.187214
938.614628	2529.242667
938.917216	2531.034797
939.219765	2529.461957
939.522275	2534.112421
939.824747	2533.167205
940.127179	2529.714014
940.429573	2525.658406
940.731929	2528.899868
941.034246	2526.457429
941.336524	2529.255269
941.638763	2529.043541
941.940964	2533.167205
942.243126	2531.969931
942.545250	2531.846423
942.847335	2532.693336
943.149381	2531.428007
943.451389	2530.288706
943.753359	2532.524458
944.055290	2531.881711
944.357182	2530.639066
944.659036	2531.148223
944.960851	2529.812317
945.262628	2526.003725
945.564367	2528.267203
945.866067	2530.636546
946.167729	2529.928263
946.469352	2526.742254
946.770937	2527.982378
947.072484	2529.172090
947.373992	2529.557739
947.675462	2527.982378
947.976893	2530.928932
948.278286	2530.737369
948.579641	2530.346679
948.880958	2531.039838
949.182236	2530.931453
949.483476	2528.662934
949.784678	2528.801566
950.085841	2525.648324
950.386967	2530.379447
950.688054	2527.972296
950.989103	2530.439941
951.290114	2528.884745
951.591087	2531.977493
951.892021	2529.472039
952.192917	2532.350538
952.493776	2528.710825
952.794596	2529.492204
953.095378	2530.288706
953.396122	2532.481608
953.696828	2533.225178
953.997496	2527.395084
954.298126	2529.509848
954.598718	2530.636546
954.899272	2527.553880
955.199788	2527.019518
955.500266	2530.502955
955.800706	2526.412059
956.101108	2523.994825
956.401472	2525.749147
956.701798	2520.763446
957.002087	2525.907943
957.302337	2526.316277
957.602550	2528.171421
957.902724	2527.410207
958.202861	2529.174611
958.502960	2527.115300
958.803022	2528.000022
959.103045	2528.365506
959.403031	2526.858201
959.702979	2531.027235
960.002889	2528.607481
960.302762	2527.274096
960.602596	2528.718387
960.902393	2527.642100
961.202153	2526.926256
961.501875	2528.060516
961.801559	2527.881555
962.101205	2525.676050
962.400814	2528.665454
962.700385	2527.695032
962.999918	2525.865093
963.299414	2526.674199
963.598873	2527.626977
963.898293	2529.497245
964.197677	2527.470701
964.497022	2526.107069
964.796331	2526.938859
965.095601	2528.625125
965.394835	2526.737213
965.694030	2526.865763
965.993189	2530.654190
966.292309	2528.347862
966.591393	2526.248221
966.890439	2528.877183
967.189447	2526.525485
967.488419	2525.141688
967.787353	2529.736700
968.086249	2527.505989
968.385108	2525.786956
968.683930	2526.989271
968.982714	2525.870135
969.281462	2525.703777
969.580172	2523.468025
969.878844	2527.654703
970.177480	2527.178314
970.476078	2527.788294
970.774639	2530.260980
971.073162	2525.676050
971.371649	2525.449198
971.670098	2522.820237
971.968510	2525.577748
972.266885	2521.592716
972.565223	2527.692512
972.863524	2524.758560
973.161788	2526.407018
973.460014	2525.610515
973.758204	2529.421627
974.056356	2528.725948
974.354471	2526.744775
974.652550	2526.643952
974.950591	2528.420958
975.248595	2526.938859
975.546563	2529.088911
975.844493	2523.599095
976.142386	2526.170083
976.440243	2527.881555
976.738062	2528.902389
977.035845	2523.062212
977.333590	2528.143695
977.631299	2527.321987
977.928971	2527.639580
978.226606	2524.509023
978.524204	2525.781914
978.821765	2528.647810
979.119290	2526.452388
979.416777	2523.341996
979.714228	2525.754188
980.011642	2528.168901
980.309020	2528.879703
980.606360	2526.555732
980.903664	2525.245032
981.200931	2526.293592
981.498162	2525.580268
981.795356	2525.282840
982.092513	2527.684950
982.389633	2527.500948
982.686717	2528.625125
982.983764	2528.131092
983.280775	2528.410876
983.577749	2528.433561
983.874686	2530.790301
984.171587	2527.163191
984.468451	2529.046062
984.765279	2526.591020
985.062070	2528.937677
985.358824	2526.611184
985.655543	2527.637059
985.952224	2527.579086
986.248869	2526.651513
986.545478	2520.236645
986.842050	2525.489527
987.138586	2521.983405
987.435086	2523.631862
987.731549	2522.759743
988.027975	2526.633869
988.324366	2524.733354
988.620719	2522.548014
988.917037	2526.570855
989.213318	2525.996163
989.509563	2524.647655
989.805772	2525.096318
990.101944	2525.849970
990.398080	2524.682943
990.694180	2524.587161
990.990244	2522.626152
991.286271	2525.562624
991.582262	2523.838550
991.878217	2528.481452
992.174136	2525.091276
992.470019	2524.894671
992.765865	2526.384332
993.061676	2525.683612
993.357450	2526.331400
993.653188	2525.562624
993.948890	2525.933149
994.244556	2527.611853
994.540186	2526.996833
994.835780	2523.760412
995.131337	2526.570855
995.426859	2524.143539
995.722345	2525.237470
996.017795	2525.923067
996.313208	2524.491379
996.608586	2528.214271
996.903928	2526.223015
997.199234	2527.437933
997.494504	2524.839219
997.789738	2525.015659
998.084936	2525.751667
998.380099	2523.508354
998.675225	2524.778725
998.970316	2524.566996
999.265371	2526.691843
999.560390	2525.161853
999.855373	2525.396266
1000.150320	2525.607995
1000.445232	2526.795186
1000.740108	2526.137316
1001.034948	2525.595392
1001.329752	2523.959537
1001.624521	2527.536236
1001.919254	2523.062212
1002.213951	2521.262520
1002.508613	2524.299815
1002.803239	2524.791328
1003.097829	2519.102386
1003.392384	2526.906092
1003.686903	2526.966586
1003.981386	2529.124199
1004.275834	2526.417100
1004.570246	2522.777387
1004.864623	2523.248735
1005.158964	2522.850483
1005.453270	2524.398118
1005.747540	2524.022552
1006.041775	2524.075484
1006.335974	2523.679753
1006.630138	2523.843591
1006.924266	2527.105217
1007.218359	2524.781245
1007.512416	2526.361647
1007.806438	2526.301153
1008.100425	2522.832839
1008.394376	2524.748478
1008.688292	2525.512213
1008.982172	2527.286699
1009.276017	2524.186389
1009.569827	2525.504651
1009.863602	2529.958510
1010.157341	2523.730165
1010.451045	2522.467356
1010.744714	2524.393077
1011.038347	2524.473735
1011.331945	2525.338293
1011.625508	2523.962058
1011.919036	2525.474404
1012.212528	2527.390042
1012.505986	2524.166225
1012.799408	2525.797038
1013.092795	2523.982223
1013.386147	2526.217974
1013.679464	2526.044054
1013.972745	2525.509692
1014.265992	2524.884589
1014.559204	2524.093128
1014.852380	2524.897192
1015.145521	2524.103210
1015.438628	2522.928621
1015.731699	2524.713190
1016.024736	2523.856194
1016.317737	2527.281658
1016.610703	2526.432223
1016.903635	2522.253107
1017.196531	2520.334948
1017.489393	2521.930473
1017.782219	2518.356295
1018.075011	2521.653209
1018.367768	2523.916687
1018.660490	2524.453570
1018.953177	2524.453570
1019.245829	2524.453570
