Dividing Wavelength (nm)	Counts (n)	Blue Motor Position (mm): 0.000000	Red Motor Position (mm): 37.000000	
326.493990	2079.165931
326.888308	2079.165931
327.282561	2079.165931
327.676750	2056.311860
328.070874	2057.506613
328.464933	2060.654814
328.858929	2072.844324
329.252859	2086.722620
329.646726	2098.859198
330.040528	2116.094903
330.434265	2136.047790
330.827938	2155.368012
331.221547	2173.483398
331.615091	2192.980061
332.008571	2215.801364
332.401986	2236.452451
332.795338	2255.379463
333.188625	2276.764038
333.581847	2295.708694
333.975006	2314.560089
334.368100	2330.472491
334.761129	2347.783813
335.154095	2364.744775
335.546996	2389.816954
335.939833	2435.020981
336.332606	2445.516663
336.725315	2456.360185
337.117960	2467.143213
337.510540	2477.149903
337.903056	2483.970584
338.295508	2489.178096
338.687896	2499.109169
339.080220	2504.896414
339.472480	2510.366066
339.864676	2513.378155
340.256807	2517.514422
340.648875	2517.723630
341.040879	2517.607683
341.432818	2518.631038
341.824694	2522.416944
342.216506	2520.392921
342.608253	2524.798889
342.999937	2520.047602
343.391557	2520.108096
343.783113	2519.351923
344.174605	2516.498630
344.566033	2513.559637
344.957397	2513.370594
345.348697	2512.138032
345.739934	2511.885974
346.131106	2510.388751
346.522215	2506.602845
346.913260	2505.564367
347.304241	2506.491939
347.695159	2502.297699
348.086012	2504.364572
348.476802	2501.705364
348.867528	2500.361896
349.258191	2499.769561
349.648789	2499.782163
350.039324	2495.524909
350.429796	2496.954076
350.820203	2495.202275
351.210548	2495.479539
351.600828	2495.098932
351.991045	2496.628922
352.381198	2494.229333
352.771288	2494.443582
353.161314	2492.981647
353.551276	2495.161946
353.941175	2496.061792
354.331010	2493.984837
354.720782	2495.484580
355.110490	2495.744199
355.500135	2495.809734
355.889717	2494.907368
356.279235	2497.246463
356.668689	2496.883500
357.058080	2496.896103
357.447408	2495.098932
357.836672	2497.027173
358.225873	2497.223778
358.615010	2496.250835
359.004084	2501.312154
359.393095	2499.199910
359.782043	2502.025477
360.170927	2500.256032
360.559748	2505.564367
360.948505	2505.559326
361.337199	2508.493277
361.725830	2506.272649
362.114398	2508.049656
362.502903	2507.384223
362.891344	2512.637106
363.279722	2510.272805
363.668037	2510.560150
364.056289	2510.978566
364.444478	2513.229441
364.832603	2513.725995
365.220665	2515.848321
365.608665	2514.313289
365.996601	2517.471572
366.384474	2516.042405
366.772284	2516.846469
367.160031	2518.467200
367.547715	2519.871162
367.935336	2517.637930
368.322893	2522.394259
368.710388	2522.802593
369.097820	2525.338293
369.485189	2524.327542
369.872495	2525.386184
370.259738	2528.423479
370.646918	2530.286185
371.034035	2530.266021
371.421090	2530.535723
371.808081	2536.582587
372.195010	2540.393699
372.581875	2548.812426
372.968678	2550.251675
373.355418	2558.743499
373.742096	2569.027453
374.128710	2576.392578
374.515262	2589.887747
374.901751	2599.226485
375.288177	2614.959926
375.674540	2631.510034
376.060841	2650.142139
376.447079	2669.437155
376.833254	2693.135619
377.219367	2715.520863
377.605417	2749.624269
377.991404	2772.687547
378.377329	2809.750111
378.763191	2841.194308
379.148991	2886.635268
379.534727	2932.197217
379.920402	2974.124493
380.306013	3019.005886
380.691563	3082.080803
381.077049	3131.693319
381.462474	3186.677184
381.847835	3254.135384
382.233134	3323.970488
382.618371	3376.113663
383.003545	3455.862196
383.388657	3532.586037
383.773706	3617.690796
384.158693	3684.405426
384.543618	3777.139972
384.928480	3853.687373
385.313280	3948.844192
385.698017	4049.916807
386.082692	4163.415865
386.467305	4220.103640
386.851856	4338.583358
387.236344	4486.881501
387.620770	4546.674627
388.005133	4660.428264
388.389435	4798.583605
388.773674	4878.455647
389.157851	5001.026262
389.541965	5132.083659
389.926018	5156.971835
390.310008	5319.601979
390.693936	5442.805258
391.077802	5554.610489
391.461606	5680.503224
391.845348	5787.766375
392.229027	5907.773563
392.612645	6119.464216
392.996200	6236.202215
393.379694	6401.715899
393.763125	6612.239525
394.146494	6703.776796
394.529801	6839.585481
394.913047	7074.140287
395.296230	7069.925882
395.679351	7122.938656
396.062410	7362.297682
396.445408	7268.126407
396.828343	7424.255983
397.211217	7559.343783
397.594028	7446.351361
397.976778	7643.294118
398.359466	7804.283366
398.742092	7791.526726
399.124656	7925.913805
399.507158	8120.535111
399.889598	8145.355232
400.271977	8345.816715
400.654294	8384.230307
401.036549	8575.136283
401.418742	8606.207435
401.800874	8901.246005
402.182944	8980.581163
402.564952	9340.953087
402.946898	9176.210700
403.328783	9227.106189
403.710606	9421.775386
404.092367	9680.316002
404.474067	10028.609322
404.855705	9835.928860
405.237282	9785.416498
405.618797	10206.055416
406.000250	10447.009967
406.381642	10802.320573
406.762972	10753.123952
407.144240	10571.488659
407.525447	10823.178347
407.906593	10763.932186
408.287677	11026.848524
408.668700	11163.892291
409.049661	11162.160655
409.430560	11316.747637
409.811399	11293.565892
410.192176	11457.312651
410.572891	11532.541790
410.953545	12005.056701
411.334138	11500.318734
411.714669	12068.454252
412.095139	11432.371542
412.475547	11896.261040
412.855894	11773.645055
413.236180	12090.514341
413.616405	11785.383381
413.996568	12066.750342
414.376670	12045.199409
414.756711	11927.619537
415.136691	12199.206659
415.516609	12363.381917
415.896466	12456.723921
416.276262	12748.982295
416.655997	13192.560984
417.035670	13241.379517
417.415283	13862.197614
417.794834	13948.103916
418.174324	13687.534236
418.553753	13605.406278
418.933121	14091.408797
419.312428	13915.512857
419.691674	13822.601871
420.070859	14297.360096
420.449983	13949.896047
420.829045	14508.576880
421.208047	14256.778808
421.586988	14703.286407
421.965867	14954.464417
422.344686	14957.741167
422.723444	15528.800555
423.102141	14223.792017
423.480777	15416.226548
423.859352	14916.305403
424.237866	16013.951118
424.616319	15732.929477
424.994712	16378.028290
425.373044	16173.186045
425.751314	16860.287752
426.129524	15994.613252
426.507673	17067.060760
426.885762	16790.964325
427.263789	16976.811503
427.641756	17152.241136
428.019662	17218.502062
428.397508	17272.122295
428.775292	17547.507927
429.153016	17544.092545
429.530679	17603.638655
429.908282	17647.723545
430.285824	17375.503758
430.663305	18098.216176
431.040726	17699.581895
431.418086	17539.366464
431.795385	18168.976332
432.172624	18607.559237
432.549802	18177.211057
432.926920	18385.892141
433.303977	18260.637112
433.680974	18523.225775
434.057910	18835.253033
434.434786	18866.321664
434.811601	18796.489081
435.188355	19835.344859
435.565050	19505.529890
435.941683	19474.511670
436.318257	20369.707167
436.694770	20167.095632
437.071222	20763.363309
437.447614	19831.095167
437.823946	19866.683192
438.200218	20045.737415
438.576429	19811.046498
438.952580	20126.408480
439.328670	20089.799620
439.704700	20504.283290
440.080670	20087.281564
440.456580	20693.492917
440.832429	20858.114316
441.208218	19884.851511
441.583947	20323.159673
441.959616	20436.273083
442.335224	20693.797907
442.710773	20828.031231
443.086261	21386.901108
443.461689	20708.366841
443.837057	20879.824045
444.212365	21540.318543
444.587612	21537.003984
444.962800	21137.089250
445.337927	21571.843398
445.712995	20279.715009
446.088002	22171.342455
446.462949	22373.449874
446.837837	22564.471797
447.212664	22578.450916
447.587431	25529.459199
447.962139	28498.411468
448.336786	30797.107046
448.711374	29143.585899
449.085901	25415.957620
449.460369	25431.186946
449.834776	25417.764873
450.209124	27980.311923
450.583412	27456.268857
450.957640	27949.210524
451.331808	26610.877439
451.705917	25224.996192
452.079965	25271.752893
452.453954	25657.421327
452.827883	25574.103657
453.201752	25377.717947
453.575562	25530.089343
453.949311	26661.099935
454.323001	26742.837203
454.696632	26517.626176
455.070202	28120.317368
455.443713	28296.661971
455.817164	28880.735097
456.190556	29455.131727
456.563888	28861.762714
456.937160	29291.783219
457.310373	27595.981915
457.683526	28025.846145
458.056619	28030.332772
458.429653	28017.417336
458.802628	28635.815678
459.175542	28755.462423
459.548398	30133.613062
459.921194	31757.139343
460.293930	32500.490245
460.666607	34588.140438
461.039224	36392.308906
461.411782	36745.620693
461.784280	35445.983506
462.156719	34891.386006
462.529099	34340.208930
462.901419	32995.193796
463.273680	31933.778853
463.645882	32089.757195
464.018024	32082.923911
464.390106	33019.766900
464.762130	35937.369977
465.134094	40258.788206
465.505999	45759.539007
465.877845	50291.536315
466.249631	51300.578710
466.621358	49423.668913
466.993026	47196.275415
467.364634	45042.013936
467.736184	43077.909822
468.107674	41821.324088
468.479105	41028.942923
468.850477	40297.887395
469.221790	38870.613233
469.593043	37067.841165
469.964238	36182.967430
470.335373	36129.400130
470.706449	37976.191553
471.077467	40740.989695
471.448425	45421.086020
471.819324	48191.903300
472.190164	46185.869388
472.560945	42561.799011
472.931667	39401.045961
473.302330	38305.681368
473.672934	37442.363608
474.043479	37988.950713
474.413965	37201.325878
474.784393	36828.323343
475.154761	37760.165508
475.525070	37802.279307
475.895321	37321.723755
476.265513	37945.543858
476.635645	38950.490316
477.005719	38799.258221
477.375734	39296.588213
477.745691	40031.555676
478.115588	41405.761611
478.485427	43532.253894
478.855207	46995.793768
479.224928	49648.839611
479.594591	51212.696275
479.964194	50095.448033
480.333739	50232.728735
480.703226	50313.145221
481.072653	50962.488686
481.442022	51427.832556
481.811333	51645.665855
482.180584	50360.287571
482.549777	49829.517085
482.918912	49317.807202
483.287988	48984.244135
483.657005	48153.895520
484.025964	47466.675346
484.394864	47468.684245
484.763706	47024.858540
485.132489	46123.585932
485.501213	45969.041799
485.869879	46140.582182
486.238487	45715.527213
486.607036	45903.045534
486.975527	45354.757038
487.343959	45581.906390
487.712333	45630.591333
488.080648	45529.191044
488.448905	45982.988151
488.817104	45789.488502
489.185244	46798.561144
489.553326	48581.960058
489.921350	51352.305989
490.289315	54179.871538
490.657222	54708.096241
491.025070	54930.907679
491.392861	54000.103992
491.760593	52732.276484
492.128267	51019.995648
492.495883	49472.348815
492.863440	48036.817243
493.230939	46680.061261
493.598380	45574.274083
493.965763	45233.797072
494.333088	44413.354325
494.700354	43925.622691
495.067563	43612.383035
495.434713	43458.350579
495.801805	43551.596802
496.168839	43155.049558
496.535815	42804.802791
496.902733	42823.598733
497.269593	42384.022721
497.636395	42328.703619
498.003139	42732.011050
498.369825	42168.589011
498.736453	42475.799447
499.103023	41992.955211
499.469535	41868.118598
499.835989	41955.612864
500.202385	41614.185597
500.568723	41635.814667
500.935003	41816.035917
501.301226	41613.762140
501.667390	42219.600447
502.033497	42461.999289
502.399546	41889.001578
502.765537	41172.144460
503.131470	41550.039434
503.497345	41911.671647
503.863163	40544.223378
504.228923	41208.912115
504.594625	41607.155708
504.960269	40851.559843
505.325856	41554.909189
505.691385	40911.814234
506.056856	41047.958155
506.422270	41477.928249
506.787625	41039.998173
507.152924	41236.343554
507.518164	41339.621673
507.883347	40523.542044
508.248472	40756.249267
508.613540	41260.057142
508.978550	41548.461553
509.343503	41283.395163
509.708398	41504.469924
510.073236	42030.075748
510.438016	42023.776826
510.802738	41468.193781
511.167403	42098.327930
511.532010	42306.729230
511.896561	42598.329733
512.261053	43439.715954
512.625488	42972.166578
512.989866	42868.805281
513.354186	42681.511292
513.718449	42682.809389
514.082655	43350.540463
514.446803	42998.090712
514.810894	43551.866503
515.174927	43443.940441
515.538904	43335.545551
515.902822	44000.541798
516.266684	43431.476188
516.630488	43849.125702
516.994235	43690.155436
517.357925	44266.566008
517.721558	44442.401454
518.085133	44733.775105
518.448651	44851.430594
518.812112	44619.928207
519.175516	44702.477101
519.538863	45032.070260
519.902152	44992.056102
520.265385	45439.818948
520.628560	45449.782788
520.991678	45241.681437
521.354739	45459.865096
521.717743	45769.830523
522.080690	45639.126006
522.443580	46190.832404
522.806413	46215.526496
523.169189	46146.981927
523.531908	46324.044894
523.894569	46161.334092
524.257174	46329.098651
524.619722	46595.967253
524.982213	46557.886377
525.344647	46466.913715
525.707025	46508.861156
526.069345	46902.219870
526.431608	46777.763864
526.793815	47087.993951
527.155964	46618.647404
527.518057	46780.395346
527.880093	46530.001235
528.242072	47032.929427
528.603995	46716.047538
528.965860	46691.991152
529.327669	46774.298071
529.689421	46664.947882
530.051117	46602.230887
530.412755	46739.879593
530.774337	46769.045188
531.135862	46574.998574
531.497331	46734.541011
531.858743	46616.996427
532.220098	46933.011238
532.581396	46606.457894
532.942638	46242.836947
533.303824	46551.663073
533.664953	46484.832496
534.026025	46167.136460
534.387040	46612.144316
534.747999	46520.846499
535.108902	46661.043508
535.469748	46159.627662
535.830537	46227.242138
536.191270	46394.953764
536.551947	46005.194434
536.912567	46285.356559
537.273131	46374.032976
537.633638	45844.764754
537.994089	46139.112686
538.354483	45695.637341
538.714821	46228.588126
539.075103	46512.947011
539.435328	46243.885507
539.795497	46092.482013
540.155609	46037.324228
540.515665	46457.955584
540.875665	45867.699483
541.235609	46135.304094
541.595496	46069.650627
541.955328	46666.861000
542.315102	45992.188257
542.674821	45738.711480
543.034483	45715.426390
543.394090	45652.328788
543.753640	45556.516618
544.113134	46471.183572
544.472571	45438.699812
544.831953	46591.377283
545.191278	45760.953051
545.550548	45422.248006
545.909761	45824.728688
546.268918	45932.687518
546.628019	46182.827052
546.987064	45674.928281
547.346053	44893.715793
547.704986	45675.520617
548.063863	45196.328697
548.422684	45292.662626
548.781449	45044.995779
549.140158	45385.135032
549.498811	45133.803265
549.857408	44504.362276
550.215949	45255.605104
550.574434	45088.117809
550.932864	44765.599909
551.291237	45387.801802
551.649555	44925.585968
552.007817	45071.502166
552.366022	44637.652904
552.724173	44714.870778
553.082267	44995.506771
553.440305	45181.026274
553.798288	44427.986274
554.156215	44629.927336
554.514086	44723.801182
554.871902	44373.902255
555.229661	44286.712979
555.587365	44021.971743
555.945014	44004.259649
556.302606	43842.995658
556.660143	43925.940283
557.017625	43894.652362
557.375050	43602.313330
557.732421	43798.441941
558.089735	43675.173126
558.446994	43473.320285
558.804197	43793.133606
559.161345	43589.085342
559.518437	42786.677323
559.875474	42960.823982
560.232455	42992.744568
560.589381	43022.033672
560.946251	42629.801656
561.303065	43109.071714
561.659825	42780.650623
562.016528	42355.709080
562.373177	41964.835655
562.729770	42262.384720
563.086307	41695.935468
563.442789	41958.219141
563.799216	41863.626930
564.155587	41550.238560
564.511904	41417.366347
564.868164	41348.499145
565.224370	41409.708835
565.580520	41020.395647
565.936615	41053.082488
566.292654	40643.667699
566.648638	40711.072967
567.004567	40511.594510
567.360441	40395.479092
567.716260	40110.797573
568.072023	40196.479544
568.427732	40001.223053
568.783385	39439.804873
569.138982	39596.511661
569.494525	39395.979602
569.850013	39012.194039
570.205445	38818.850665
570.560823	38606.098850
570.916145	38323.761467
571.271412	38176.393416
571.626625	37777.975904
571.981782	37634.877711
572.336884	37202.235806
572.691931	37275.937475
573.046923	36760.318177
573.401860	36460.195604
573.756743	36254.864367
574.111570	36155.057082
574.466342	35851.035176
574.821059	35744.041727
575.175722	35178.212537
575.530330	35013.283627
575.884882	34596.186119
576.239380	34376.366606
576.593823	34161.444573
576.948211	33922.629992
577.302544	33359.787686
577.656823	33171.568645
578.011047	33159.719413
578.365216	32759.497168
578.719330	32405.109094
579.073389	32081.824939
579.427394	31955.700311
579.781344	31721.702552
580.135239	31272.167740
580.489080	31120.802055
580.842866	30571.613714
581.196597	30660.733752
581.550273	30424.096949
581.903895	30137.373763
582.257463	30188.211279
582.610975	29578.095552
582.964434	29575.693442
583.317837	29109.162380
583.671186	28797.077148
584.024481	28732.172293
584.377721	28222.965343
584.730906	28191.122894
585.084037	28028.301187
585.437113	27629.500547
585.790135	27441.740252
586.143103	26993.826171
586.496016	26856.064039
586.848874	26667.265266
587.201679	26474.032798
587.554428	25960.886186
587.907124	25867.619799
588.259765	25521.660534
588.612352	25449.902229
588.964884	24900.192129
589.317362	24865.095616
589.669786	24635.786130
590.022155	24298.290962
590.374470	24326.037473
590.726731	23876.386715
591.078937	23391.039546
591.431090	23266.686883
591.783188	22883.833934
592.135232	22530.325541
592.487222	22469.761119
592.839157	22300.960603
593.191038	21940.729831
593.542866	21633.148870
593.894639	21154.118267
594.246358	21098.184145
594.598022	20900.908671
594.949633	20520.420023
595.301190	20302.178391
595.652692	20061.853984
596.004141	20024.468787
596.355535	19387.917250
596.706876	19175.757770
597.058162	18936.812118
597.409395	18964.790522
597.760573	18829.241457
598.111698	18466.359039
598.462768	18295.290003
598.813785	18128.760527
599.164748	17723.272797
599.515657	17699.934775
599.866511	17325.641705
600.217312	17412.568842
600.568060	16828.621745
600.918753	16958.701158
601.269392	16763.542969
601.619978	16469.913402
601.970510	16395.271557
602.320988	16297.614325
602.671412	16239.230202
603.021783	15987.487581
603.372100	15699.433530
603.722363	15586.090747
604.072572	15451.088648
604.422728	15303.055165
604.772830	15082.207256
605.122878	14957.831908
605.472872	14787.627431
605.822813	14728.524943
606.172701	14518.235731
606.522534	14460.209530
606.872314	14396.804417
607.222041	14177.010110
607.571714	14145.303773
607.921333	13844.876209
608.270899	13776.762659
608.620411	13741.892998
608.969870	13536.816339
609.319276	13401.650401
609.668627	13274.789765
610.017926	13271.412192
610.367171	13180.182430
610.716362	13070.381058
611.065500	12919.905137
611.414585	12822.676402
611.763616	12771.269236
612.112594	12608.684463
612.461518	12538.887167
612.810389	12490.018222
613.159207	12321.719301
613.507971	12215.250132
613.856682	12204.908204
614.205340	12050.404401
614.553945	12098.116401
614.902496	11843.273472
615.250994	11832.808036
615.599439	11729.184598
615.947830	11658.298413
616.296169	11557.387116
616.644454	11461.733743
616.992686	11391.565922
617.340864	11397.227138
617.688990	11227.025181
618.037063	11243.063612
618.385082	11130.454318
618.733048	11081.527399
619.080961	10966.558844
619.428821	10862.516991
619.776628	10787.802050
620.124382	10637.613474
620.472083	10551.321523
620.819731	10459.595208
621.167326	10293.557244
621.514868	10178.414770
621.862357	9983.415377
622.209793	9884.404595
622.557176	9724.882323
622.904506	9567.232839
623.251783	9405.910875
623.599007	9264.002394
623.946179	9130.575655
624.293297	9029.127475
624.640363	8846.695679
624.987376	8747.513498
625.334336	8626.792986
625.681243	8493.053695
626.028097	8401.949963
626.374899	8297.804766
626.721647	8217.899957
627.068343	8126.092983
627.414987	8016.823453
627.761577	7903.883963
628.108115	7884.621714
628.454600	7734.574291
628.801032	7692.727673
629.147412	7622.116231
629.493739	7542.944909
629.840014	7437.131090
630.186236	7415.880106
630.532405	7304.082437
630.878521	7270.228569
631.224585	7194.172681
631.570597	7101.002075
631.916556	7065.996303
632.262462	7004.426170
632.608316	6943.584485
632.954117	6872.569750
633.299866	6815.166132
633.645562	6749.134578
633.991206	6634.125694
634.336797	6524.798191
634.682336	6463.671680
635.027823	6381.518516
635.373257	6303.501619
635.718639	6224.700823
636.063968	6149.910264
636.409245	6042.546290
636.754470	5995.502243
637.099642	5921.934164
637.444762	5829.267674
637.789829	5796.341378
638.134845	5717.921188
638.479808	5665.586450
638.824719	5614.002843
639.169577	5537.740267
639.514383	5505.721379
639.859137	5434.467190
640.203839	5420.906486
640.548489	5347.860167
640.893086	5308.193848
641.237632	5251.921968
641.582125	5219.628336
641.926566	5178.341286
642.270955	5140.981295
642.615292	5108.140698
642.959576	5071.380605
643.303809	5039.540677
643.647990	5015.708622
643.992118	4976.717818
644.336195	4945.152633
644.680219	4913.799177
645.024192	4912.087705
645.368112	4915.997120
645.711981	4888.172471
646.055797	4921.824693
646.399562	4893.614397
646.743274	4932.194347
647.086935	4937.860604
647.430544	4904.498248
647.774101	4880.537643
648.117606	4867.786045
648.461059	4851.548488
648.804460	4796.738543
649.147810	4721.085947
649.491108	4672.743802
649.834354	4622.007110
650.177548	4544.234709
650.520690	4485.853106
650.863781	4459.991987
651.206820	4427.496709
651.549807	4375.464440
651.892742	4324.591636
652.235626	4286.823311
652.578458	4257.140997
652.921238	4202.857853
653.263967	4197.781411
653.606644	4159.695493
653.949269	4138.918378
654.291843	4094.689814
654.634365	4095.761060
654.976836	4057.135739
655.319255	4032.797048
655.661622	4016.768699
656.003938	3981.793174
656.346203	3958.399700
656.688416	3946.006023
657.030577	3916.295983
657.372687	3889.537538
657.714746	3885.149214
658.056753	3872.770660
658.398708	3827.059998
658.740612	3811.727328
659.082465	3804.304229
659.424266	3783.360756
659.766016	3770.263838
660.107715	3754.956374
660.449362	3742.976072
660.790958	3731.119278
661.132503	3713.102195
661.473996	3698.460163
661.815438	3689.751570
662.156829	3681.209335
662.498168	3658.042712
662.839456	3640.930516
663.180693	3630.278558
663.521879	3622.580716
663.863013	3604.399794
664.204097	3589.790530
664.545129	3593.669698
664.886110	3581.296186
665.227040	3570.679516
665.567918	3557.764080
665.908746	3553.244686
666.249522	3549.201680
666.590248	3533.755585
666.930922	3527.504554
667.271545	3513.769930
667.612118	3503.233919
667.952639	3483.013851
668.293109	3474.721153
668.633528	3460.865541
668.973896	3442.394754
669.314213	3433.862601
669.654480	3414.204621
669.994695	3405.009557
670.334859	3389.835684
670.674973	3374.417315
671.015035	3368.284751
671.355047	3360.102958
671.695008	3344.293900
672.034918	3335.983558
672.374777	3330.539112
672.714585	3318.102585
673.054342	3318.679797
673.394049	3303.884011
673.733705	3300.012404
674.073310	3285.796351
674.412864	3280.969446
674.752368	3261.129985
675.091820	3256.824839
675.431223	3236.564442
675.770574	3222.713872
676.109875	3208.218034
676.449125	3196.552804
676.788324	3186.639375
677.127473	3170.285872
677.466571	3161.489058
677.805619	3150.093530
678.144616	3144.991882
678.483562	3136.610964
678.822458	3124.124026
679.161303	3118.450207
679.500098	3109.597941
679.838842	3101.920264
680.177535	3100.332301
680.516179	3096.294336
680.854771	3101.017897
681.193314	3110.979218
681.531805	3127.672998
681.870247	3139.723877
682.208638	3148.664363
682.546978	3142.554485
682.885268	3140.716984
683.223508	3130.256590
683.561697	3116.295114
683.899836	3109.660956
684.237925	3097.703339
684.575963	3092.004314
684.913951	3079.466965
685.251889	3082.269846
685.589776	3075.252560
685.927614	3073.052097
686.265401	3069.606468
686.603137	3070.218968
686.940824	3075.701223
687.278460	3078.438569
687.616046	3077.815987
687.953582	3086.396031
688.291068	3081.833787
688.628504	3083.920824
688.965889	3078.977973
689.303224	3072.457240
689.640510	3057.916032
689.977745	3044.413302
690.314930	3027.112062
690.652065	3015.096471
690.989150	3000.560304
691.326185	2985.227635
691.663170	2972.397898
692.000105	2959.164869
692.336990	2940.936057
692.673825	2933.762495
693.010610	2925.230342
693.347345	2916.264650
693.684030	2900.311919
694.020665	2895.353944
694.357251	2881.964639
694.693786	2881.105123
695.030272	2876.331150
695.366707	2868.943339
695.703093	2859.087883
696.039429	2864.781867
696.375716	2854.318952
696.711952	2852.889785
697.048139	2850.603621
697.384276	2848.057839
697.720363	2847.203363
698.056400	2844.476099
698.392388	2838.078875
698.728326	2838.005778
699.064214	2832.175683
699.400053	2832.248780
699.735842	2825.450784
700.071581	2819.290494
700.407270	2814.100626
700.742910	2811.396047
701.078501	2805.036632
701.414042	2802.475726
701.749533	2798.127730
702.084974	2791.760753
702.420366	2794.379632
702.755709	2787.818571
703.091002	2782.205246
703.426246	2781.002931
703.761440	2777.574946
704.096584	2774.683844
704.431679	2772.727877
704.766725	2770.224944
705.101721	2770.834923
705.436668	2769.405756
705.771565	2765.665220
706.106413	2771.366765
706.441212	2767.648914
706.775961	2770.358534
707.110661	2769.718308
707.445311	2774.772065
707.779913	2770.875253
708.114465	2771.076899
708.448967	2775.253495
708.783421	2783.649537
709.117825	2783.241203
709.452180	2786.520474
709.786485	2792.355609
710.120742	2803.093267
710.454949	2803.040335
710.789107	2804.623257
711.123216	2812.873105
711.457275	2815.116419
711.791286	2821.158242
712.125247	2820.429795
712.459159	2819.187151
712.793023	2826.917760
713.126837	2812.023671
713.460602	2816.631286
713.794318	2807.128711
714.127985	2803.592341
714.461602	2794.871145
714.795171	2795.365178
715.128691	2780.360184
715.462162	2772.763165
715.795584	2766.522216
716.128957	2762.567431
716.462281	2757.808582
716.795556	2752.822881
717.128782	2747.912797
717.461960	2742.352404
717.795088	2741.031622
718.128167	2732.872514
718.461198	2730.777915
718.794180	2728.103583
719.127113	2723.226267
719.459997	2721.668550
719.792833	2716.463559
720.125619	2716.014896
720.458357	2713.937941
720.791046	2712.700337
721.123686	2710.252857
721.456278	2707.525593
721.788821	2703.018801
722.121315	2702.474357
722.453761	2703.931250
722.786158	2700.815817
723.118506	2699.248018
723.450805	2700.896476
723.783056	2700.604089
724.115259	2699.026208
724.447412	2699.699202
724.779518	2703.354038
725.111574	2704.785726
725.443582	2706.764379
725.775542	2704.468133
726.107453	2709.093392
726.439315	2706.351004
726.771129	2715.846017
727.102895	2715.346943
727.434612	2719.251317
727.766281	2720.753581
728.097901	2721.802141
728.429473	2719.339537
728.760996	2722.505382
729.092471	2721.671071
729.423897	2720.534290
729.755276	2718.931203
730.086606	2723.160732
730.417887	2728.781618
730.749120	2733.661455
731.080305	2734.573904
731.411442	2738.077506
731.742530	2739.516755
732.073570	2740.988772
732.404562	2743.368197
732.735506	2741.150089
733.066401	2740.245202
733.397249	2730.104921
733.728048	2723.886658
734.058798	2717.428940
734.389501	2709.335367
734.720156	2703.001157
735.050762	2695.946062
735.381320	2693.193592
735.711831	2692.664271
736.042293	2686.882068
736.372707	2685.034485
736.703073	2681.031809
737.033391	2684.913497
737.363661	2687.527336
737.693883	2684.167407
738.024056	2688.921215
738.354182	2690.438602
738.684260	2693.135619
739.014290	2696.117462
739.344272	2698.552339
739.674207	2701.163657
740.004093	2706.489636
740.333931	2702.494521
740.663722	2703.752289
740.993464	2704.631971
741.323159	2702.547453
741.652806	2695.928418
741.982405	2698.499407
742.311956	2690.037830
742.641460	2690.186544
742.970915	2689.115299
743.300323	2681.117508
743.629683	2678.322189
743.958996	2677.016530
744.288260	2672.726508
744.617477	2669.308606
744.946647	2665.106804
745.275768	2665.747030
745.604842	2659.987512
745.933869	2657.696308
746.262847	2657.966009
746.591778	2658.797800
746.920662	2661.182266
747.249498	2662.311484
747.578286	2659.712769
747.907027	2663.153357
748.235720	2664.181752
748.564365	2666.213337
748.892963	2664.905158
749.221514	2663.914571
749.550017	2665.104283
749.878473	2662.918943
750.206881	2660.915084
750.535242	2660.945331
750.863555	2657.865186
751.191821	2656.930052
751.520039	2657.774446
751.848210	2658.588592
752.176334	2657.184631
752.504411	2656.741009
752.832440	2654.853097
753.160421	2655.568941
753.488356	2657.093890
753.816243	2656.320073
754.144082	2652.042654
754.471875	2650.981491
754.799620	2650.323620
755.127318	2650.033754
755.454969	2649.816984
755.782572	2652.103147
756.110129	2651.407468
756.437638	2648.153403
756.765100	2646.383958
757.092515	2650.361429
757.419882	2649.433857
757.747203	2648.783548
758.074477	2650.202632
758.401703	2649.985863
758.728882	2652.786224
759.056014	2654.089362
759.383099	2655.959630
759.710138	2656.299908
760.037129	2658.810403
760.364073	2658.364261
760.690970	2657.101452
761.017820	2658.835608
761.344623	2662.039262
761.671379	2663.768377
761.998088	2668.386074
762.324751	2691.565300
762.651366	2726.326576
762.977935	2774.404060
763.304456	2795.614715
763.630931	2808.830100
763.957359	2794.949283
764.283740	2772.228802
764.610074	2749.626789
764.936362	2722.379353
765.262602	2704.984851
765.588796	2684.800071
765.914943	2673.081909
766.241044	2661.361227
766.567097	2649.736326
766.893104	2644.675007
767.219064	2640.528658
767.544978	2634.995992
767.870845	2629.163377
768.196665	2628.830661
768.522438	2625.216153
768.848165	2624.225567
769.173846	2619.471759
769.499479	2618.067797
769.825066	2614.869185
770.150607	2613.452621
770.476101	2614.312138
770.801548	2614.670060
771.126949	2608.214862
771.452303	2608.701333
771.777611	2603.836620
772.102872	2606.858792
772.428087	2604.592793
772.753256	2603.279572
773.078378	2604.426435
773.403453	2599.327308
773.728482	2598.757658
774.053465	2600.327977
774.378401	2595.420414
774.703291	2593.305650
775.028135	2591.712645
775.352932	2593.156936
775.677683	2591.747933
776.002388	2590.424630
776.327046	2591.936976
776.651658	2589.973447
776.976224	2591.324476
777.300743	2588.521595
777.625216	2586.716862
777.949643	2587.788107
778.274024	2587.185689
778.598359	2581.852148
778.922647	2586.207705
779.246889	2581.852148
779.571086	2583.818198
779.895236	2584.012282
780.219339	2584.778538
780.543397	2586.109402
780.867409	2588.173755
781.191374	2585.733837
781.515294	2584.665112
781.839167	2586.734506
782.162995	2588.531677
782.486776	2589.121492
782.810511	2583.878692
783.134201	2586.255596
783.457844	2587.488158
783.781441	2585.209557
784.104993	2583.538414
784.428498	2585.262489
784.751958	2582.638568
785.075372	2584.087900
785.398739	2582.704103
785.722061	2582.331058
786.045337	2581.269895
786.368568	2585.779207
786.691752	2588.380442
787.014891	2592.168869
787.337983	2594.049220
787.661030	2599.045003
787.984031	2607.549430
788.306987	2612.676283
788.629897	2610.029677
788.952760	2613.044287
789.275579	2609.321395
789.598351	2607.728391
789.921078	2599.957452
790.243759	2598.097266
790.566395	2594.137440
790.888984	2591.122830
791.211529	2588.254413
791.534027	2586.119485
791.856480	2586.051429
792.178888	2586.943713
792.501249	2581.567323
792.823566	2579.482806
793.145836	2582.406675
793.468062	2579.109760
793.790241	2579.326530
794.112375	2580.687642
794.434464	2580.710327
794.756507	2584.087900
795.078505	2584.619742
795.400457	2589.786924
795.722364	2589.232397
796.044226	2594.434868
796.366042	2595.274220
796.687812	2598.263624
797.009538	2597.353696
797.331218	2600.360744
797.652852	2595.065012
797.974442	2593.832450
798.295986	2593.161977
798.617484	2591.387491
798.938938	2588.415730
799.260346	2588.259455
799.581709	2585.002869
799.903026	2587.296594
800.224299	2581.958012
800.545526	2581.279977
800.866708	2582.346181
801.187845	2580.244020
801.508936	2577.549523
801.829983	2580.115471
802.150984	2576.059862
802.471940	2576.934502
802.792851	2573.143555
803.113717	2575.374265
803.434538	2576.984914
803.755314	2575.996848
804.076045	2576.856365
804.396731	2574.300500
804.717372	2574.025757
805.037967	2575.018864
805.358518	2575.591035
805.679024	2577.055490
805.999485	2576.107753
806.319901	2576.949626
806.640272	2576.934503
806.960598	2581.136304
807.280879	2577.194122
807.601115	2581.854669
807.921306	2575.858216
808.241453	2577.673032
808.561554	2581.227045
808.881611	2581.073290
809.201623	2578.403999
809.521590	2574.360993
809.841513	2578.620768
810.161390	2579.795357
810.481223	2576.947105
810.801011	2578.172106
811.120755	2575.066755
811.440453	2574.610531
811.760107	2572.278997
812.079716	2571.273287
812.399281	2570.554922
812.718801	2569.632391
813.038276	2567.464695
813.357707	2571.515262
813.677093	2572.561302
813.996434	2571.590879
814.315731	2571.006106
814.634983	2572.213462
814.954191	2571.895869
815.273354	2573.882084
815.592473	2575.749831
815.911547	2578.739236
816.230577	2576.967270
816.549562	2581.206880
816.868502	2581.290059
817.187399	2583.369535
817.506250	2587.135277
817.825058	2588.834146
818.143821	2592.045361
818.462539	2595.939652
818.781213	2599.304623
819.099843	2609.046652
819.418429	2622.728344
819.736970	2635.500107
820.055466	2648.786068
820.373919	2670.437824
820.692327	2704.689944
821.010691	2760.195568
821.329011	2886.710886
821.647286	3082.418560
821.965517	3287.379273
822.283704	3405.433014
822.601847	3440.000206
822.919945	3350.726412
823.237999	3252.164293
823.556010	3152.614107
823.873976	3054.828325
824.191897	2971.477888
824.509775	2906.068917
824.827609	2850.855679
825.145398	2813.266315
825.463144	2797.111938
825.780845	2799.231743
826.098502	2824.460197
826.416116	2870.407794
826.733685	2916.630134
827.051210	2930.362237
827.368692	2905.403484
827.686129	2854.165197
828.003522	2804.358597
828.320872	2752.593508
828.638177	2720.761142
828.955439	2692.016483
829.272656	2670.770540
829.589830	2649.839669
829.906960	2632.747637
830.224046	2621.805813
830.541088	2612.330964
830.858086	2607.115891
831.175041	2601.311002
831.491952	2599.801176
831.808819	2602.614140
832.125642	2607.214193
832.442421	2623.509723
832.759157	2648.397899
833.075849	2686.302335
833.392497	2723.213664
833.709101	2747.731315
834.025662	2743.544637
834.342179	2724.174003
834.658653	2696.936649
834.975083	2674.080058
835.291469	2655.395021
835.607811	2636.649490
835.924110	2621.510905
836.240366	2613.253495
836.556578	2598.339242
836.872746	2589.867583
837.188871	2578.172106
837.504952	2578.109091
837.820990	2568.661969
838.136984	2569.599624
838.452935	2570.033163
838.768842	2569.571897
839.084706	2575.858216
839.400526	2593.764395
839.716303	2615.910183
840.032037	2631.721762
840.347727	2627.893006
840.663373	2610.780809
840.978977	2600.862339
841.294537	2588.821543
841.610054	2578.570357
841.925527	2573.834193
842.240957	2565.203737
842.556344	2565.211299
842.871687	2557.684857
843.186987	2556.568241
843.502244	2551.300235
843.817458	2547.602549
844.132629	2546.518701
844.447756	2544.920655
844.762840	2538.420087
845.077881	2544.308155
845.392879	2537.399253
845.707833	2541.197763
846.022745	2535.430683
846.337613	2541.197763
846.652438	2540.474357
846.967221	2540.471837
847.281960	2538.024357
847.596656	2536.363296
847.911309	2539.498894
848.225919	2537.048893
848.540485	2535.556712
848.855009	2538.278935
849.169490	2536.355735
849.483928	2536.547298
849.798323	2537.190046
850.112675	2538.518390
850.426984	2536.978317
850.741251	2536.794315
851.055474	2536.050745
851.369654	2535.828934
851.683792	2534.850950
851.997887	2536.534696
852.311938	2534.445137
852.625947	2536.859850
852.939914	2537.762217
853.253837	2537.028729
853.567718	2538.601569
853.881555	2538.261291
854.195350	2534.840868
854.509103	2535.092926
854.822812	2534.626619
855.136479	2536.242309
855.450103	2536.406146
855.763685	2538.271373
856.077224	2538.016795
856.390720	2536.887576
856.704173	2540.832279
857.017584	2536.955632
857.330953	2537.406815
857.644278	2537.018646
857.957561	2540.018133
858.270802	2539.289686
858.584000	2539.897145
858.897155	2536.466640
859.210268	2537.633667
859.523339	2535.909592
859.836367	2539.181301
860.149352	2538.788091
860.462295	2539.619882
860.775195	2532.988244
861.088054	2534.868594
861.400869	2532.181659
861.713642	2531.521268
862.026373	2532.726104
862.339062	2536.504449
862.651708	2536.365817
862.964312	2535.710467
863.276873	2538.536034
863.589392	2537.444624
863.901869	2541.671631
864.214303	2539.914789
864.526696	2542.417722
864.839045	2541.666590
865.151353	2540.678524
865.463619	2544.482075
865.775842	2544.640871
866.088023	2542.548792
866.400162	2545.127342
866.712258	2540.860006
867.024313	2543.715819
867.336325	2541.835469
867.648296	2543.773793
867.960224	2542.599204
868.272110	2547.035419
868.583954	2543.730943
868.895755	2544.063659
869.207515	2542.715150
869.519233	2545.611293
869.830909	2542.591642
870.142542	2544.920655
870.454134	2546.120450
870.765684	2546.576674
871.077191	2546.571633
871.388657	2547.831921
871.700081	2548.414175
872.011463	2547.922662
872.322803	2549.223280
872.634101	2549.175389
872.945357	2552.129505
873.256571	2553.152859
873.567744	2552.179917
873.878874	2551.491799
874.189963	2555.108827
874.501010	2554.337530
874.812015	2554.829043
875.122979	2553.800647
875.433900	2555.363405
875.744780	2558.453632
876.055618	2555.996070
876.366415	2558.108313
876.677169	2556.379198
876.987882	2555.595298
877.298554	2557.044630
877.609183	2559.950855
877.919771	2562.436144
878.230317	2567.663821
878.540822	2574.968452
878.851285	2580.370049
879.161707	2590.170052
879.472087	2605.782505
879.782425	2630.930301
880.092722	2673.341529
880.402977	2735.521641
880.713191	2816.046512
881.023363	2885.228787
881.333494	2929.207813
881.643583	2947.492078
881.953631	2939.015378
882.263637	2916.662901
882.573602	2887.633417
882.883526	2858.119982
883.193408	2826.012873
883.503248	2794.752678
883.813048	2766.935591
884.122806	2739.599934
884.432522	2712.980121
884.742197	2689.556400
885.051831	2669.424552
885.361424	2649.020482
885.670975	2635.961373
885.980485	2621.190792
886.289954	2613.981942
886.599382	2603.108173
886.908768	2594.618870
887.218113	2587.720051
887.527417	2580.773341
887.836680	2577.690676
888.145901	2575.112125
888.455082	2568.435117
888.764221	2568.626681
889.073319	2562.481514
889.382376	2565.075188
889.691392	2562.161401
890.000366	2561.768191
890.309300	2559.688715
890.618193	2560.563355
890.927044	2559.663509
891.235855	2559.383725
891.544625	2560.812892
891.853353	2564.074519
892.162041	2566.942936
892.470687	2571.575756
892.779293	2574.910479
893.087858	2579.490367
893.396381	2590.628797
893.704864	2611.781478
894.013306	2628.586165
894.321707	2654.003662
894.630068	2670.228616
894.938387	2674.805984
895.246665	2667.700477
895.554903	2655.760505
895.863100	2645.257261
896.171256	2633.743265
896.479371	2624.916205
896.787446	2615.731222
897.095480	2607.912393
897.403473	2600.333018
897.711425	2594.306319
898.019336	2587.309197
898.327207	2582.152097
898.635038	2581.252251
898.942827	2572.503328
899.250576	2568.079716
899.558284	2566.857236
899.865952	2564.404715
900.173579	2560.646534
900.481165	2558.410783
900.788711	2556.545556
901.096216	2554.909701
901.403681	2553.046995
901.711105	2553.462890
902.018489	2557.125288
902.325832	2557.306770
902.633135	2559.608057
902.940397	2566.577452
903.247619	2586.326172
903.554800	2619.197016
903.861941	2658.830567
904.169041	2689.377439
904.476101	2698.030580
904.783121	2689.541277
905.090100	2674.863957
905.397039	2655.964671
905.703938	2642.628299
906.010796	2627.144395
906.317614	2615.685852
906.624391	2604.802001
906.931129	2593.832450
907.237826	2586.079156
907.544483	2578.192270
907.851099	2574.285376
908.157675	2563.250290
908.464211	2554.027499
908.770707	2548.618341
909.077163	2544.834955
909.383578	2541.180119
909.689954	2539.350180
909.996289	2534.997144
910.302584	2539.423277
910.608839	2538.276414
910.915054	2537.500077
911.221229	2536.098636
911.527363	2538.730118
911.833458	2537.686599
912.139513	2537.860519
912.445527	2539.990407
912.751502	2539.889583
913.057436	2542.979811
913.363331	2547.358053
913.669186	2553.349464
913.975000	2556.485062
914.280775	2566.302709
914.586510	2581.254771
914.892205	2600.078440
915.197859	2625.097686
915.503475	2652.516522
915.809050	2672.245078
916.114585	2687.607994
916.420081	2690.753674
916.725536	2691.005732
917.030952	2681.286387
917.336328	2672.008143
917.641665	2662.210661
917.946961	2650.984011
918.252218	2641.403298
918.557435	2631.174797
918.862612	2623.126595
919.167750	2612.315841
919.472848	2603.665221
919.777906	2593.383787
920.082925	2587.934300
920.387904	2577.713361
920.692843	2572.415108
920.997743	2566.234653
921.302603	2563.025959
921.607423	2558.544373
921.912204	2553.868703
922.216946	2550.012220
922.521647	2548.310831
922.826310	2548.106664
923.130932	2546.362425
923.435516	2542.765562
923.740059	2541.558205
924.044564	2540.033256
924.349028	2538.190715
924.653454	2529.610671
924.957840	2530.175280
925.262186	2528.972965
925.566493	2530.941535
925.870761	2525.648324
926.174989	2530.795342
926.479178	2528.299971
926.783328	2529.159487
927.087438	2524.932480
927.391509	2532.037986
927.695541	2525.222346
927.999533	2526.391894
928.303486	2523.815864
928.607400	2524.312418
928.911275	2523.916688
929.215110	2522.532891
929.518906	2521.670853
929.822663	2525.885258
930.126381	2520.949968
930.430060	2523.742768
930.733699	2522.858045
931.037299	2521.688498
931.340861	2523.712521
931.644383	2521.244876
931.947866	2522.963909
932.251309	2522.916018
932.554714	2526.021369
932.858080	2523.135309
933.161407	2524.665299
933.464694	2524.481297
933.767943	2521.544825
934.071153	2521.784279
934.374323	2520.511388
934.677455	2523.644465
934.980548	2521.151615
935.283602	2521.542304
935.586617	2521.670853
935.889593	2523.135309
936.192530	2520.713034
936.495428	2523.311749
936.798287	2524.262007
937.101108	2523.384846
937.403890	2528.020187
937.706632	2530.666793
938.009336	2528.975485
938.312002	2530.024045
938.614628	2533.245343
938.917216	2531.223840
939.219765	2533.484797
939.522275	2536.063348
939.824747	2534.823224
940.127179	2534.366999
940.429573	2530.283665
940.731929	2531.412883
941.034246	2530.313912
941.336524	2533.862884
941.638763	2533.933460
941.940964	2531.165867
942.243126	2532.789118
942.545250	2529.295599
942.847335	2531.357431
943.149381	2528.060516
943.451389	2529.114117
943.753359	2529.479601
944.055290	2525.648324
944.357182	2528.408356
944.659036	2524.448529
944.960851	2528.287368
945.262628	2524.486338
945.564367	2525.381143
945.866067	2525.539939
946.167729	2528.088242
946.469352	2524.892151
946.770937	2524.962727
947.072484	2524.914836
947.373992	2526.084384
947.675462	2525.734023
947.976893	2525.713859
948.278286	2522.941224
948.579641	2524.897192
948.880958	2522.311080
949.182236	2522.089269
949.483476	2522.351409
949.784678	2524.539270
950.085841	2522.094310
950.386967	2526.714528
950.688054	2524.874507
950.989103	2524.962727
951.290114	2522.356450
951.591087	2524.476256
951.892021	2523.717562
952.192917	2527.962213
952.493776	2527.548839
952.794596	2528.277286
953.095378	2526.646472
953.396122	2528.090763
953.696828	2527.052285
953.997496	2530.510517
954.298126	2523.304187
954.598718	2523.513395
954.899272	2523.957017
955.199788	2522.805113
955.500266	2524.534229
955.800706	2522.159845
956.101108	2518.041223
956.401472	2517.421161
956.701798	2515.329082
957.002087	2518.321007
957.302337	2514.691376
957.602550	2517.794206
957.902724	2516.440656
958.202861	2515.737415
958.502960	2516.070132
958.803022	2514.527538
959.103045	2515.790348
959.403031	2515.608866
959.702979	2513.080727
960.002889	2513.053001
960.302762	2511.245747
960.602596	2512.075017
960.902393	2514.525018
961.202153	2511.104595
961.501875	2512.773217
961.801559	2510.479492
962.101205	2511.419667
962.400814	2510.920593
962.700385	2510.242558
962.999918	2511.613752
963.299414	2510.217352
963.598873	2510.960922
963.898293	2510.834893
964.197677	2508.795747
964.497022	2510.363545
964.796331	2510.996210
965.095601	2510.136693
965.394835	2511.369256
965.694030	2509.821621
965.993189	2510.013185
966.292309	2511.220542
966.591393	2510.161899
966.890439	2509.045284
967.189447	2511.535614
967.488419	2510.040912
967.787353	2508.967146
968.086249	2508.606703
968.385108	2510.088802
968.683930	2507.537979
968.982714	2507.890859
969.281462	2510.045953
969.580172	2510.653412
969.878844	2507.527896
970.177480	2509.776251
970.476078	2511.707013
970.774639	2510.151817
971.073162	2508.702485
971.371649	2508.760458
971.670098	2507.439676
971.968510	2505.208966
972.266885	2507.606034
972.565223	2512.629544
972.863524	2507.946312
973.161788	2511.737260
973.460014	2507.056548
973.758204	2511.127280
974.056356	2509.990500
974.354471	2512.982425
974.652550	2511.669204
974.950591	2510.986128
975.248595	2511.626354
975.546563	2511.442352
975.844493	2509.090654
976.142386	2510.464368
976.440243	2511.205418
976.738062	2511.782630
977.035845	2511.956550
977.333590	2509.136024
977.631299	2511.477640
977.928971	2508.450427
978.226606	2511.694410
978.524204	2510.242558
978.821765	2507.535458
979.119290	2507.719460
979.416777	2510.862620
979.714228	2508.823473
980.011642	2510.209790
980.309020	2510.998731
980.606360	2510.542506
980.903664	2513.894874
981.200931	2514.429236
981.498162	2511.701972
981.795356	2517.048115
982.092513	2518.867972
982.389633	2521.827129
982.686717	2526.512882
982.983764	2526.858201
983.280775	2529.731658
983.577749	2530.770136
983.874686	2527.591689
984.171587	2525.983561
984.468451	2526.235618
984.765279	2523.715041
985.062070	2522.064063
985.358824	2522.979033
985.655543	2520.498785
985.952224	2519.775380
986.248869	2515.165244
986.545478	2508.105108
986.842050	2511.507887
987.138586	2505.004799
987.435086	2508.321878
987.731549	2503.802484
988.027975	2508.725170
988.324366	2504.483039
988.620719	2506.015550
988.917037	2506.197032
989.213318	2507.457320
989.509563	2507.812722
989.805772	2503.058913
990.101944	2506.822135
990.398080	2506.433966
990.694180	2506.060921
990.990244	2503.116887
991.286271	2504.515807
991.582262	2502.743841
991.878217	2506.265087
992.174136	2507.232989
992.470019	2506.386075
992.765865	2503.986486
993.061676	2504.997237
993.357450	2507.359018
993.653188	2504.598986
993.948890	2506.910355
994.244556	2505.682834
994.540186	2507.459841
994.835780	2511.006293
995.131337	2509.405726
995.426859	2512.866478
995.722345	2512.112826
996.017795	2514.570388
996.313208	2514.812364
996.608586	2514.527538
996.903928	2518.230266
997.199234	2516.097858
997.494504	2519.175482
997.789738	2516.556603
998.084936	2518.303363
998.380099	2515.306397
998.675225	2511.523011
998.970316	2512.196005
999.265371	2510.741632
999.560390	2508.183246
999.855373	2511.114677
1000.150320	2505.208966
1000.445232	2509.488905
1000.740108	2507.699296
1001.034948	2505.602176
1001.329752	2502.355673
1001.624521	2506.489419
1001.919254	2500.666886
1002.213951	2502.582524
1002.508613	2499.482215
1002.803239	2502.025477
1003.097829	2498.083295
1003.392384	2504.203255
1003.686903	2503.467247
1003.981386	2502.121259
1004.275834	2501.269304
1004.570246	2499.225116
1004.864623	2503.328615
1005.158964	2501.508759
1005.453270	2502.002792
1005.747540	2503.389109
1006.041775	2502.758965
1006.335974	2502.486743
1006.630138	2502.779129
1006.924266	2501.970024
1007.218359	2501.145796
1007.512416	2501.032370
1007.806438	2502.801815
1008.100425	2499.212513
1008.394376	2501.294510
1008.688292	2500.997082
1008.982172	2503.613440
1009.276017	2499.935919
1009.569827	2502.048162
1009.863602	2500.142606
1010.157341	2500.457678
1010.451045	2501.748213
1010.744714	2498.516834
1011.038347	2501.528923
1011.331945	2502.910199
1011.625508	2500.853409
1011.919036	2502.378358
1012.212528	2502.237205
1012.505986	2497.841319
1012.799408	2502.700992
1013.092795	2501.743172
1013.386147	2500.409787
1013.679464	2500.296361
1013.972745	2499.910713
1014.265992	2501.783502
1014.559204	2501.528923
1014.852380	2501.415497
1015.145521	2500.412308
1015.438628	2502.882473
1015.731699	2501.836434
1016.024736	2499.925836
1016.317737	2498.605054
1016.610703	2502.844664
1016.903635	2495.782008
1017.196531	2498.680671
1017.489393	2499.063799
1017.782219	2496.810403
1018.075011	2501.695281
1018.367768	2499.794766
1018.660490	2500.066989
1018.953177	2500.066989
1019.245829	2500.066989
