Dividing Wavelength (nm)	Counts (n)	Blue Motor Position (mm): 0.000000	Red Motor Position (mm): 7.100000	
326.493990	2114.764038
326.888308	2114.764038
327.282561	2114.764038
327.676750	2046.708462
328.070874	2114.764038
328.464933	2094.599423
328.858929	2059.311346
329.252859	2076.955385
329.646726	2026.543846
330.040528	2114.764038
330.434265	2084.517115
330.827938	2197.943077
331.221547	2157.613846
331.615091	2177.778462
332.008571	2215.587115
332.401986	2165.175577
332.795338	2187.860769
333.188625	2278.601538
333.581847	2223.148846
333.975006	2240.792885
334.368100	2341.615962
334.761129	2243.313462
335.154095	2334.054231
335.546996	2381.945192
335.939833	2399.589231
336.332606	2399.589231
336.725315	2346.657115
337.117960	2331.533654
337.510540	2414.712692
337.903056	2389.506923
338.295508	2389.506923
338.687896	2502.932885
339.080220	2419.753846
339.472480	2447.480192
339.864676	2399.589231
340.256807	2550.823846
340.648875	2500.412308
341.040879	2429.836154
341.432818	2457.562500
341.824694	2470.165385
342.216506	2455.041923
342.608253	2455.041923
342.999937	2485.288846
343.391557	2528.138654
343.783113	2530.659231
344.174605	2467.644808
344.566033	2412.192115
344.957397	2432.356731
345.348697	2432.356731
345.739934	2475.206538
346.131106	2482.768269
346.522215	2460.083077
346.913260	2444.959615
347.304241	2450.000769
347.695159	2467.644808
348.086012	2429.836154
348.476802	2475.206538
348.867528	2417.233269
349.258191	2439.918462
349.648789	2538.220962
350.039324	2510.494615
350.429796	2507.974038
350.820203	2402.109808
351.210548	2404.630385
351.600828	2442.439038
351.991045	2535.700385
352.381198	2482.768269
352.771288	2404.630385
353.161314	2442.439038
353.551276	2404.630385
353.941175	2432.356731
354.331010	2470.165385
354.720782	2467.644808
355.110490	2495.371154
355.500135	2326.492500
355.889717	2414.712692
356.279235	2460.083077
356.668689	2412.192115
357.058080	2402.109808
357.447408	2356.739423
357.836672	2447.480192
358.225873	2465.124231
358.615010	2470.165385
359.004084	2359.260000
359.393095	2412.192115
359.782043	2452.521346
360.170927	2523.097500
360.559748	2490.330000
360.948505	2389.506923
361.337199	2379.424615
361.725830	2439.918462
362.114398	2450.000769
362.502903	2470.165385
362.891344	2455.041923
363.279722	2444.959615
363.668037	2389.506923
364.056289	2450.000769
364.444478	2394.548077
364.832603	2492.850577
365.220665	2422.274423
365.608665	2550.823846
365.996601	2419.753846
366.384474	2402.109808
366.772284	2409.671538
367.160031	2470.165385
367.547715	2460.083077
367.935336	2540.741538
368.322893	2394.548077
368.710388	2505.453462
369.097820	2475.206538
369.485189	2495.371154
369.872495	2485.288846
370.259738	2417.233269
370.646918	2457.562500
371.034035	2447.480192
371.421090	2492.850577
371.808081	2462.603654
372.195010	2447.480192
372.581875	2502.932885
372.968678	2497.891731
373.355418	2313.889615
373.742096	2475.206538
374.128710	2502.932885
374.515262	2444.959615
374.901751	2487.809423
375.288177	2467.644808
375.674540	2397.068654
376.060841	2485.288846
376.447079	2487.809423
376.833254	2502.932885
377.219367	2513.015192
377.605417	2523.097500
377.991404	2467.644808
378.377329	2336.574808
378.763191	2404.630385
379.148991	2465.124231
379.534727	2444.959615
379.920402	2492.850577
380.306013	2452.521346
380.691563	2407.150962
381.077049	2427.315577
381.462474	2513.015192
381.847835	2434.877308
382.233134	2490.330000
382.618371	2442.439038
383.003545	2487.809423
383.388657	2434.877308
383.773706	2513.015192
384.158693	2475.206538
384.543618	2374.383462
384.928480	2528.138654
385.313280	2482.768269
385.698017	2490.330000
386.082692	2381.945192
386.467305	2492.850577
386.851856	2482.768269
387.236344	2409.671538
387.620770	2485.288846
388.005133	2515.535769
388.389435	2439.918462
388.773674	2540.741538
389.157851	2444.959615
389.541965	2462.603654
389.926018	2447.480192
390.310008	2434.877308
390.693936	2460.083077
391.077802	2447.480192
391.461606	2414.712692
391.845348	2432.356731
392.229027	2588.632500
392.612645	2465.124231
392.996200	2538.220962
393.379694	2402.109808
393.763125	2490.330000
394.146494	2492.850577
394.529801	2523.097500
394.913047	2518.056346
395.296230	2444.959615
395.679351	2434.877308
396.062410	2460.083077
396.445408	2490.330000
396.828343	2548.303269
397.211217	2502.932885
397.594028	2366.821731
397.976778	2495.371154
398.359466	2409.671538
398.742092	2477.727115
399.124656	2424.795000
399.507158	2427.315577
399.889598	2487.809423
400.271977	2515.535769
400.654294	2507.974038
401.036549	2548.303269
401.418742	2472.685962
401.800874	2482.768269
402.182944	2543.262115
402.564952	2472.685962
402.946898	2467.644808
403.328783	2480.247692
403.710606	2520.576923
404.092367	2439.918462
404.474067	2510.494615
404.855705	2482.768269
405.237282	2455.041923
405.618797	2465.124231
406.000250	2460.083077
406.381642	2414.712692
406.762972	2414.712692
407.144240	2457.562500
407.525447	2548.303269
407.906593	2369.342308
408.287677	2528.138654
408.668700	2538.220962
409.049661	2487.809423
409.430560	2518.056346
409.811399	2490.330000
410.192176	2482.768269
410.572891	2402.109808
410.953545	2548.303269
411.334138	2462.603654
411.714669	2485.288846
412.095139	2414.712692
412.475547	2490.330000
412.855894	2457.562500
413.236180	2444.959615
413.616405	2513.015192
413.996568	2452.521346
414.376670	2465.124231
414.756711	2447.480192
415.136691	2376.904038
415.516609	2399.589231
415.896466	2505.453462
416.276262	2523.097500
416.655997	2407.150962
417.035670	2507.974038
417.415283	2460.083077
417.794834	2467.644808
418.174324	2439.918462
418.553753	2502.932885
418.933121	2462.603654
419.312428	2520.576923
419.691674	2477.727115
420.070859	2510.494615
420.449983	2424.795000
420.829045	2586.111923
421.208047	2465.124231
421.586988	2558.385577
421.965867	2485.288846
422.344686	2452.521346
422.723444	2548.303269
423.102141	2513.015192
423.480777	2533.179808
423.859352	2422.274423
424.237866	2505.453462
424.616319	2513.015192
424.994712	2490.330000
425.373044	2485.288846
425.751314	2465.124231
426.129524	2507.974038
426.507673	2510.494615
426.885762	2465.124231
427.263789	2513.015192
427.641756	2467.644808
428.019662	2432.356731
428.397508	2555.865000
428.775292	2452.521346
429.153016	2455.041923
429.530679	2523.097500
429.908282	2555.865000
430.285824	2467.644808
430.663305	2480.247692
431.040726	2427.315577
431.418086	2500.412308
431.795385	2487.809423
432.172624	2402.109808
432.549802	2560.906154
432.926920	2437.397885
433.303977	2535.700385
433.680974	2427.315577
434.057910	2450.000769
434.434786	2460.083077
434.811601	2452.521346
435.188355	2447.480192
435.565050	2432.356731
435.941683	2500.412308
436.318257	2530.659231
436.694770	2500.412308
437.071222	2543.262115
437.447614	2520.576923
437.823946	2439.918462
438.200218	2520.576923
438.576429	2404.630385
438.952580	2505.453462
439.328670	2455.041923
439.704700	2490.330000
440.080670	2429.836154
440.456580	2492.850577
440.832429	2427.315577
441.208218	2518.056346
441.583947	2510.494615
441.959616	2480.247692
442.335224	2470.165385
442.710773	2492.850577
443.086261	2502.932885
443.461689	2560.906154
443.837057	2414.712692
444.212365	2475.206538
444.587612	2429.836154
444.962800	2555.865000
445.337927	2515.535769
445.712995	2507.974038
446.088002	2538.220962
446.462949	2505.453462
446.837837	2482.768269
447.212664	2482.768269
447.587431	2523.097500
447.962139	2603.755962
448.336786	2402.109808
448.711374	2490.330000
449.085901	2480.247692
449.460369	2520.576923
449.834776	2495.371154
450.209124	2510.494615
450.583412	2419.753846
450.957640	2414.712692
451.331808	2444.959615
451.705917	2548.303269
452.079965	2480.247692
452.453954	2439.918462
452.827883	2518.056346
453.201752	2518.056346
453.575562	2487.809423
453.949311	2510.494615
454.323001	2495.371154
454.696632	2558.385577
455.070202	2392.027500
455.443713	2472.685962
455.817164	2399.589231
456.190556	2578.550192
456.563888	2467.644808
456.937160	2535.700385
457.310373	2495.371154
457.683526	2515.535769
458.056619	2492.850577
458.429653	2457.562500
458.802628	2487.809423
459.175542	2427.315577
459.548398	2492.850577
459.921194	2470.165385
460.293930	2412.192115
460.666607	2492.850577
461.039224	2497.891731
461.411782	2540.741538
461.784280	2530.659231
462.156719	2490.330000
462.529099	2505.453462
462.901419	2467.644808
463.273680	2465.124231
463.645882	2490.330000
464.018024	2510.494615
464.390106	2472.685962
464.762130	2472.685962
465.134094	2513.015192
465.505999	2414.712692
465.877845	2535.700385
466.249631	2429.836154
466.621358	2465.124231
466.993026	2455.041923
467.364634	2472.685962
467.736184	2513.015192
468.107674	2480.247692
468.479105	2523.097500
468.850477	2437.397885
469.221790	2540.741538
469.593043	2545.782692
469.964238	2515.535769
470.335373	2550.823846
470.706449	2502.932885
471.077467	2540.741538
471.448425	2563.426731
471.819324	2381.945192
472.190164	2480.247692
472.560945	2510.494615
472.931667	2505.453462
473.302330	2485.288846
473.672934	2480.247692
474.043479	2540.741538
474.413965	2576.029615
474.784393	2437.397885
475.154761	2518.056346
475.525070	2465.124231
475.895321	2510.494615
476.265513	2462.603654
476.635645	2548.303269
477.005719	2462.603654
477.375734	2487.809423
477.745691	2550.823846
478.115588	2515.535769
478.485427	2497.891731
478.855207	2490.330000
479.224928	2523.097500
479.594591	2535.700385
479.964194	2497.891731
480.333739	2497.891731
480.703226	2485.288846
481.072653	2439.918462
481.442022	2523.097500
481.811333	2507.974038
482.180584	2533.179808
482.549777	2518.056346
482.918912	2480.247692
483.287988	2490.330000
483.657005	2518.056346
484.025964	2520.576923
484.394864	2563.426731
484.763706	2525.618077
485.132489	2455.041923
485.501213	2523.097500
485.869879	2460.083077
486.238487	2470.165385
486.607036	2497.891731
486.975527	2447.480192
487.343959	2510.494615
487.712333	2505.453462
488.080648	2490.330000
488.448905	2513.015192
488.817104	2467.644808
489.185244	2560.906154
489.553326	2462.603654
489.921350	2404.630385
490.289315	2455.041923
490.657222	2523.097500
491.025070	2480.247692
491.392861	2424.795000
491.760593	2457.562500
492.128267	2467.644808
492.495883	2515.535769
492.863440	2586.111923
493.230939	2573.509038
493.598380	2487.809423
493.965763	2502.932885
494.333088	2482.768269
494.700354	2432.356731
495.067563	2460.083077
495.434713	2528.138654
495.801805	2465.124231
496.168839	2530.659231
496.535815	2465.124231
496.902733	2434.877308
497.269593	2397.068654
497.636395	2558.385577
498.003139	2515.535769
498.369825	2492.850577
498.736453	2538.220962
499.103023	2462.603654
499.469535	2467.644808
499.835989	2462.603654
500.202385	2550.823846
500.568723	2447.480192
500.935003	2414.712692
501.301226	2543.262115
501.667390	2465.124231
502.033497	2510.494615
502.399546	2538.220962
502.765537	2402.109808
503.131470	2545.782692
503.497345	2502.932885
503.863163	2530.659231
504.228923	2538.220962
504.594625	2485.288846
504.960269	2548.303269
505.325856	2530.659231
505.691385	2475.206538
506.056856	2457.562500
506.422270	2543.262115
506.787625	2467.644808
507.152924	2500.412308
507.518164	2523.097500
507.883347	2452.521346
508.248472	2404.630385
508.613540	2497.891731
508.978550	2570.988462
509.343503	2515.535769
509.708398	2515.535769
510.073236	2513.015192
510.438016	2492.850577
510.802738	2570.988462
511.167403	2553.344423
511.532010	2492.850577
511.896561	2535.700385
512.261053	2475.206538
512.625488	2490.330000
512.989866	2570.988462
513.354186	2570.988462
513.718449	2497.891731
514.082655	2507.974038
514.446803	2545.782692
514.810894	2535.700385
515.174927	2480.247692
515.538904	2497.891731
515.902822	2462.603654
516.266684	2523.097500
516.630488	2432.356731
516.994235	2576.029615
517.357925	2447.480192
517.721558	2545.782692
518.085133	2576.029615
518.448651	2520.576923
518.812112	2543.262115
519.175516	2538.220962
519.538863	2497.891731
519.902152	2482.768269
520.265385	2500.412308
520.628560	2444.959615
520.991678	2492.850577
521.354739	2523.097500
521.717743	2520.576923
522.080690	2550.823846
522.443580	2482.768269
522.806413	2515.535769
523.169189	2500.412308
523.531908	2515.535769
523.894569	2570.988462
524.257174	2505.453462
524.619722	2422.274423
524.982213	2520.576923
525.344647	2492.850577
525.707025	2460.083077
526.069345	2497.891731
526.431608	2510.494615
526.793815	2510.494615
527.155964	2465.124231
527.518057	2480.247692
527.880093	2447.480192
528.242072	2429.836154
528.603995	2535.700385
528.965860	2437.397885
529.327669	2565.947308
529.689421	2462.603654
530.051117	2505.453462
530.412755	2538.220962
530.774337	2482.768269
531.135862	2518.056346
531.497331	2500.412308
531.858743	2442.439038
532.220098	2553.344423
532.581396	2510.494615
532.942638	2487.809423
533.303824	2460.083077
533.664953	2485.288846
534.026025	2480.247692
534.387040	2606.276538
534.747999	2497.891731
535.108902	2495.371154
535.469748	2487.809423
535.830537	2490.330000
536.191270	2482.768269
536.551947	2492.850577
536.912567	2437.397885
537.273131	2523.097500
537.633638	2500.412308
537.994089	2555.865000
538.354483	2465.124231
538.714821	2477.727115
539.075103	2444.959615
539.435328	2510.494615
539.795497	2457.562500
540.155609	2513.015192
540.515665	2558.385577
540.875665	2563.426731
541.235609	2555.865000
541.595496	2462.603654
541.955328	2460.083077
542.315102	2492.850577
542.674821	2475.206538
543.034483	2543.262115
543.394090	2444.959615
543.753640	2399.589231
544.113134	2500.412308
544.472571	2442.439038
544.831953	2570.988462
545.191278	2518.056346
545.550548	2495.371154
545.909761	2444.959615
546.268918	2520.576923
546.628019	2439.918462
546.987064	2507.974038
547.346053	2513.015192
547.704986	2477.727115
548.063863	2540.741538
548.422684	2490.330000
548.781449	2543.262115
549.140158	2510.494615
549.498811	2462.603654
549.857408	2515.535769
550.215949	2439.918462
550.574434	2550.823846
550.932864	2444.959615
551.291237	2530.659231
551.649555	2432.356731
552.007817	2444.959615
552.366022	2389.506923
552.724173	2538.220962
553.082267	2520.576923
553.440305	2520.576923
553.798288	2482.768269
554.156215	2510.494615
554.514086	2462.603654
554.871902	2525.618077
555.229661	2495.371154
555.587365	2570.988462
555.945014	2581.070769
556.302606	2444.959615
556.660143	2513.015192
557.017625	2528.138654
557.375050	2525.618077
557.732421	2470.165385
558.089735	2477.727115
558.446994	2455.041923
558.804197	2487.809423
559.161345	2487.809423
559.518437	2465.124231
559.875474	2467.644808
560.232455	2568.467885
560.589381	2523.097500
560.946251	2523.097500
561.303065	2447.480192
561.659825	2513.015192
562.016528	2447.480192
562.373177	2616.358846
562.729770	2500.412308
563.086307	2543.262115
563.442789	2515.535769
563.799216	2492.850577
564.155587	2497.891731
564.511904	2424.795000
564.868164	2510.494615
565.224370	2548.303269
565.580520	2535.700385
565.936615	2497.891731
566.292654	2548.303269
566.648638	2540.741538
567.004567	2467.644808
567.360441	2497.891731
567.716260	2598.714808
568.072023	2477.727115
568.427732	2450.000769
568.783385	2422.274423
569.138982	2497.891731
569.494525	2407.150962
569.850013	2502.932885
570.205445	2505.453462
570.560823	2455.041923
570.916145	2553.344423
571.271412	2538.220962
571.626625	2505.453462
571.981782	2452.521346
572.336884	2518.056346
572.691931	2525.618077
573.046923	2558.385577
573.401860	2497.891731
573.756743	2470.165385
574.111570	2487.809423
574.466342	2442.439038
574.821059	2467.644808
575.175722	2538.220962
575.530330	2500.412308
575.884882	2528.138654
576.239380	2470.165385
576.593823	2533.179808
576.948211	2437.397885
577.302544	2429.836154
577.656823	2467.644808
578.011047	2535.700385
578.365216	2455.041923
578.719330	2548.303269
579.073389	2505.453462
579.427394	2427.315577
579.781344	2538.220962
580.135239	2467.644808
580.489080	2538.220962
580.842866	2513.015192
581.196597	2518.056346
581.550273	2583.591346
581.903895	2507.974038
582.257463	2513.015192
582.610975	2490.330000
582.964434	2447.480192
583.317837	2505.453462
583.671186	2477.727115
584.024481	2439.918462
584.377721	2495.371154
584.730906	2417.233269
585.084037	2497.891731
585.437113	2472.685962
585.790135	2495.371154
586.143103	2583.591346
586.496016	2487.809423
586.848874	2518.056346
587.201679	2505.453462
587.554428	2437.397885
587.907124	2545.782692
588.259765	2477.727115
588.612352	2513.015192
588.964884	2407.150962
589.317362	2502.932885
589.669786	2583.591346
590.022155	2502.932885
590.374470	2535.700385
590.726731	2538.220962
591.078937	2560.906154
591.431090	2470.165385
591.783188	2550.823846
592.135232	2447.480192
592.487222	2497.891731
592.839157	2480.247692
593.191038	2480.247692
593.542866	2475.206538
593.894639	2412.192115
594.246358	2502.932885
594.598022	2565.947308
594.949633	2500.412308
595.301190	2487.809423
595.652692	2475.206538
596.004141	2545.782692
596.355535	2442.439038
596.706876	2394.548077
597.058162	2543.262115
597.409395	2487.809423
597.760573	2432.356731
598.111698	2520.576923
598.462768	2432.356731
598.813785	2576.029615
599.164748	2563.426731
599.515657	2480.247692
599.866511	2530.659231
600.217312	2520.576923
600.568060	2477.727115
600.918753	2510.494615
601.269392	2576.029615
601.619978	2434.877308
601.970510	2525.618077
602.320988	2548.303269
602.671412	2424.795000
603.021783	2543.262115
603.372100	2558.385577
603.722363	2482.768269
604.072572	2533.179808
604.422728	2447.480192
604.772830	2520.576923
605.122878	2502.932885
605.472872	2550.823846
605.822813	2515.535769
606.172701	2523.097500
606.522534	2520.576923
606.872314	2545.782692
607.222041	2495.371154
607.571714	2513.015192
607.921333	2545.782692
608.270899	2460.083077
608.620411	2467.644808
608.969870	2442.439038
609.319276	2535.700385
609.668627	2553.344423
610.017926	2424.795000
610.367171	2548.303269
610.716362	2490.330000
611.065500	2578.550192
611.414585	2581.070769
611.763616	2507.974038
612.112594	2507.974038
612.461518	2586.111923
612.810389	2457.562500
613.159207	2530.659231
613.507971	2563.426731
613.856682	2528.138654
614.205340	2507.974038
614.553945	2417.233269
614.902496	2419.753846
615.250994	2505.453462
615.599439	2467.644808
615.947830	2462.603654
616.296169	2553.344423
616.644454	2439.918462
616.992686	2513.015192
617.340864	2523.097500
617.688990	2540.741538
618.037063	2455.041923
618.385082	2505.453462
618.733048	2576.029615
619.080961	2560.906154
619.428821	2540.741538
619.776628	2497.891731
620.124382	2452.521346
620.472083	2467.644808
620.819731	2399.589231
621.167326	2510.494615
621.514868	2457.562500
621.862357	2520.576923
622.209793	2583.591346
622.557176	2540.741538
622.904506	2475.206538
623.251783	2528.138654
623.599007	2545.782692
623.946179	2530.659231
624.293297	2480.247692
624.640363	2558.385577
624.987376	2497.891731
625.334336	2447.480192
625.681243	2470.165385
626.028097	2520.576923
626.374899	2492.850577
626.721647	2543.262115
627.068343	2482.768269
627.414987	2485.288846
627.761577	2505.453462
628.108115	2490.330000
628.454600	2601.235385
628.801032	2576.029615
629.147412	2507.974038
629.493739	2437.397885
629.840014	2505.453462
630.186236	2540.741538
630.532405	2523.097500
630.878521	2452.521346
631.224585	2502.932885
631.570597	2553.344423
631.916556	2500.412308
632.262462	2515.535769
632.608316	2470.165385
632.954117	2530.659231
633.299866	2510.494615
633.645562	2460.083077
633.991206	2452.521346
634.336797	2525.618077
634.682336	2545.782692
635.027823	2490.330000
635.373257	2520.576923
635.718639	2404.630385
636.063968	2462.603654
636.409245	2538.220962
636.754470	2470.165385
637.099642	2500.412308
637.444762	2507.974038
637.789829	2500.412308
638.134845	2502.932885
638.479808	2510.494615
638.824719	2444.959615
639.169577	2497.891731
639.514383	2515.535769
639.859137	2490.330000
640.203839	2465.124231
640.548489	2467.644808
640.893086	2472.685962
641.237632	2487.809423
641.582125	2465.124231
641.926566	2502.932885
642.270955	2513.015192
642.615292	2455.041923
642.959576	2533.179808
643.303809	2467.644808
643.647990	2515.535769
643.992118	2460.083077
644.336195	2482.768269
644.680219	2495.371154
645.024192	2538.220962
645.368112	2639.044038
645.711981	2515.535769
646.055797	2520.576923
646.399562	2533.179808
646.743274	2422.274423
647.086935	2533.179808
647.430544	2553.344423
647.774101	2485.288846
648.117606	2434.877308
648.461059	2465.124231
648.804460	2525.618077
649.147810	2495.371154
649.491108	2538.220962
649.834354	2533.179808
650.177548	2437.397885
650.520690	2528.138654
650.863781	2502.932885
651.206820	2538.220962
651.549807	2545.782692
651.892742	2482.768269
652.235626	2487.809423
652.578458	2460.083077
652.921238	2513.015192
653.263967	2497.891731
653.606644	2500.412308
653.949269	2523.097500
654.291843	2510.494615
654.634365	2475.206538
654.976836	2487.809423
655.319255	2470.165385
655.661622	2520.576923
656.003938	2550.823846
656.346203	2518.056346
656.688416	2528.138654
657.030577	2465.124231
657.372687	2500.412308
657.714746	2475.206538
658.056753	2497.891731
658.398708	2447.480192
658.740612	2417.233269
659.082465	2455.041923
659.424266	2497.891731
659.766016	2467.644808
660.107715	2634.002885
660.449362	2386.986346
660.790958	2467.644808
661.132503	2487.809423
661.473996	2507.974038
661.815438	2460.083077
662.156829	2533.179808
662.498168	2452.521346
662.839456	2558.385577
663.180693	2432.356731
663.521879	2500.412308
663.863013	2429.836154
664.204097	2480.247692
664.545129	2462.603654
664.886110	2389.506923
665.227040	2545.782692
665.567918	2495.371154
665.908746	2601.235385
666.249522	2495.371154
666.590248	2495.371154
666.930922	2518.056346
667.271545	2427.315577
667.612118	2480.247692
667.952639	2487.809423
668.293109	2497.891731
668.633528	2543.262115
668.973896	2467.644808
669.314213	2460.083077
669.654480	2482.768269
669.994695	2553.344423
670.334859	2450.000769
670.674973	2487.809423
671.015035	2525.618077
671.355047	2550.823846
671.695008	2545.782692
672.034918	2444.959615
672.374777	2558.385577
672.714585	2482.768269
673.054342	2560.906154
673.394049	2507.974038
673.733705	2558.385577
674.073310	2477.727115
674.412864	2419.753846
674.752368	2525.618077
675.091820	2613.838269
675.431223	2487.809423
675.770574	2568.467885
676.109875	2565.947308
676.449125	2568.467885
676.788324	2540.741538
677.127473	2487.809423
677.466571	2482.768269
677.805619	2507.974038
678.144616	2553.344423
678.483562	2450.000769
678.822458	2538.220962
679.161303	2455.041923
679.500098	2407.150962
679.838842	2520.576923
680.177535	2460.083077
680.516179	2543.262115
680.854771	2568.467885
681.193314	2543.262115
681.531805	2439.918462
681.870247	2530.659231
682.208638	2475.206538
682.546978	2563.426731
682.885268	2500.412308
683.223508	2475.206538
683.561697	2550.823846
683.899836	2548.303269
684.237925	2560.906154
684.575963	2444.959615
684.913951	2482.768269
685.251889	2429.836154
685.589776	2523.097500
685.927614	2394.548077
686.265401	2467.644808
686.603137	2480.247692
686.940824	2399.589231
687.278460	2560.906154
687.616046	2533.179808
687.953582	2492.850577
688.291068	2439.918462
688.628504	2505.453462
688.965889	2434.877308
689.303224	2530.659231
689.640510	2540.741538
689.977745	2525.618077
690.314930	2497.891731
690.652065	2518.056346
690.989150	2525.618077
691.326185	2450.000769
691.663170	2462.603654
692.000105	2543.262115
692.336990	2482.768269
692.673825	2497.891731
693.010610	2530.659231
693.347345	2389.506923
693.684030	2409.671538
694.020665	2485.288846
694.357251	2553.344423
694.693786	2450.000769
695.030272	2545.782692
695.366707	2485.288846
695.703093	2457.562500
696.039429	2570.988462
696.375716	2520.576923
696.711952	2457.562500
697.048139	2392.027500
697.384276	2538.220962
697.720363	2450.000769
698.056400	2460.083077
698.392388	2528.138654
698.728326	2510.494615
699.064214	2533.179808
699.400053	2490.330000
699.735842	2505.453462
700.071581	2543.262115
700.407270	2455.041923
700.742910	2586.111923
701.078501	2470.165385
701.414042	2533.179808
701.749533	2455.041923
702.084974	2477.727115
702.420366	2467.644808
702.755709	2470.165385
703.091002	2490.330000
703.426246	2412.192115
703.761440	2482.768269
704.096584	2497.891731
704.431679	2455.041923
704.766725	2470.165385
705.101721	2409.671538
705.436668	2525.618077
705.771565	2417.233269
706.106413	2538.220962
706.441212	2444.959615
706.775961	2530.659231
707.110661	2523.097500
707.445311	2457.562500
707.779913	2553.344423
708.114465	2507.974038
708.448967	2535.700385
708.783421	2460.083077
709.117825	2518.056346
709.452180	2480.247692
709.786485	2502.932885
710.120742	2432.356731
710.454949	2510.494615
710.789107	2513.015192
711.123216	2525.618077
711.457275	2450.000769
711.791286	2419.753846
712.125247	2485.288846
712.459159	2480.247692
712.793023	2457.562500
713.126837	2419.753846
713.460602	2540.741538
713.794318	2427.315577
714.127985	2480.247692
714.461602	2513.015192
714.795171	2535.700385
715.128691	2465.124231
715.462162	2502.932885
715.795584	2424.795000
716.128957	2495.371154
716.462281	2487.809423
716.795556	2452.521346
717.128782	2555.865000
717.461960	2472.685962
717.795088	2457.562500
718.128167	2507.974038
718.461198	2450.000769
718.794180	2558.385577
719.127113	2576.029615
719.459997	2518.056346
719.792833	2437.397885
720.125619	2480.247692
720.458357	2412.192115
720.791046	2528.138654
721.123686	2447.480192
721.456278	2467.644808
721.788821	2505.453462
722.121315	2505.453462
722.453761	2432.356731
722.786158	2538.220962
723.118506	2507.974038
723.450805	2487.809423
723.783056	2523.097500
724.115259	2480.247692
724.447412	2538.220962
724.779518	2563.426731
725.111574	2442.439038
725.443582	2485.288846
725.775542	2384.465769
726.107453	2477.727115
726.439315	2485.288846
726.771129	2500.412308
727.102895	2497.891731
727.434612	2523.097500
727.766281	2412.192115
728.097901	2487.809423
728.429473	2500.412308
728.760996	2513.015192
729.092471	2444.959615
729.423897	2535.700385
729.755276	2573.509038
730.086606	2535.700385
730.417887	2444.959615
730.749120	2422.274423
731.080305	2492.850577
731.411442	2500.412308
731.742530	2518.056346
732.073570	2497.891731
732.404562	2535.700385
732.735506	2555.865000
733.066401	2409.671538
733.397249	2432.356731
733.728048	2507.974038
734.058798	2502.932885
734.389501	2548.303269
734.720156	2490.330000
735.050762	2535.700385
735.381320	2588.632500
735.711831	2525.618077
736.042293	2507.974038
736.372707	2465.124231
736.703073	2563.426731
737.033391	2518.056346
737.363661	2558.385577
737.693883	2518.056346
738.024056	2528.138654
738.354182	2429.836154
738.684260	2452.521346
739.014290	2402.109808
739.344272	2472.685962
739.674207	2412.192115
740.004093	2404.630385
740.333931	2570.988462
740.663722	2460.083077
740.993464	2525.618077
741.323159	2434.877308
741.652806	2492.850577
741.982405	2450.000769
742.311956	2460.083077
742.641460	2447.480192
742.970915	2553.344423
743.300323	2414.712692
743.629683	2515.535769
743.958996	2419.753846
744.288260	2497.891731
744.617477	2434.877308
744.946647	2472.685962
745.275768	2467.644808
745.604842	2560.906154
745.933869	2583.591346
746.262847	2523.097500
746.591778	2444.959615
746.920662	2518.056346
747.249498	2419.753846
747.578286	2485.288846
747.907027	2495.371154
748.235720	2578.550192
748.564365	2452.521346
748.892963	2555.865000
749.221514	2462.603654
749.550017	2563.426731
749.878473	2523.097500
750.206881	2555.865000
750.535242	2442.439038
750.863555	2596.194231
751.191821	2565.947308
751.520039	2444.959615
751.848210	2538.220962
752.176334	2515.535769
752.504411	2568.467885
752.832440	2502.932885
753.160421	2558.385577
753.488356	2492.850577
753.816243	2482.768269
754.144082	2523.097500
754.471875	2444.959615
754.799620	2497.891731
755.127318	2535.700385
755.454969	2460.083077
755.782572	2429.836154
756.110129	2518.056346
756.437638	2563.426731
756.765100	2487.809423
757.092515	2409.671538
757.419882	2540.741538
757.747203	2518.056346
758.074477	2601.235385
758.401703	2548.303269
758.728882	2470.165385
759.056014	2465.124231
759.383099	2477.727115
759.710138	2525.618077
760.037129	2442.439038
760.364073	2455.041923
760.690970	2543.262115
761.017820	2477.727115
761.344623	2513.015192
761.671379	2490.330000
761.998088	2482.768269
762.324751	2581.070769
762.651366	2563.426731
762.977935	2520.576923
763.304456	2515.535769
763.630931	2535.700385
763.957359	2500.412308
764.283740	2379.424615
764.610074	2596.194231
764.936362	2528.138654
765.262602	2507.974038
765.588796	2429.836154
765.914943	2520.576923
766.241044	2452.521346
766.567097	2467.644808
766.893104	2573.509038
767.219064	2550.823846
767.544978	2495.371154
767.870845	2530.659231
768.196665	2492.850577
768.522438	2399.589231
768.848165	2465.124231
769.173846	2442.439038
769.499479	2475.206538
769.825066	2525.618077
770.150607	2535.700385
770.476101	2452.521346
770.801548	2550.823846
771.126949	2467.644808
771.452303	2543.262115
771.777611	2487.809423
772.102872	2480.247692
772.428087	2470.165385
772.753256	2472.685962
773.078378	2530.659231
773.403453	2502.932885
773.728482	2591.153077
774.053465	2475.206538
774.378401	2555.865000
774.703291	2455.041923
775.028135	2455.041923
775.352932	2414.712692
775.677683	2523.097500
776.002388	2472.685962
776.327046	2437.397885
776.651658	2543.262115
776.976224	2427.315577
777.300743	2530.659231
777.625216	2470.165385
777.949643	2492.850577
778.274024	2505.453462
778.598359	2497.891731
778.922647	2460.083077
779.246889	2480.247692
779.571086	2455.041923
779.895236	2553.344423
780.219339	2447.480192
780.543397	2475.206538
780.867409	2475.206538
781.191374	2502.932885
781.515294	2560.906154
781.839167	2462.603654
782.162995	2467.644808
782.486776	2427.315577
782.810511	2530.659231
783.134201	2439.918462
783.457844	2515.535769
783.781441	2467.644808
784.104993	2482.768269
784.428498	2460.083077
784.751958	2555.865000
785.075372	2482.768269
785.398739	2462.603654
785.722061	2439.918462
786.045337	2384.465769
786.368568	2553.344423
786.691752	2444.959615
787.014891	2525.618077
787.337983	2550.823846
787.661030	2538.220962
787.984031	2540.741538
788.306987	2553.344423
788.629897	2502.932885
788.952760	2560.906154
789.275579	2523.097500
789.598351	2460.083077
789.921078	2485.288846
790.243759	2530.659231
790.566395	2485.288846
790.888984	2540.741538
791.211529	2495.371154
791.534027	2492.850577
791.856480	2455.041923
792.178888	2528.138654
792.501249	2505.453462
792.823566	2523.097500
793.145836	2480.247692
793.468062	2427.315577
793.790241	2442.439038
794.112375	2518.056346
794.434464	2455.041923
794.756507	2475.206538
795.078505	2422.274423
795.400457	2465.124231
795.722364	2452.521346
796.044226	2467.644808
796.366042	2528.138654
796.687812	2545.782692
797.009538	2492.850577
797.331218	2485.288846
797.652852	2442.439038
797.974442	2543.262115
798.295986	2482.768269
798.617484	2480.247692
798.938938	2442.439038
799.260346	2525.618077
799.581709	2439.918462
799.903026	2540.741538
800.224299	2480.247692
800.545526	2485.288846
800.866708	2457.562500
801.187845	2419.753846
801.508936	2535.700385
801.829983	2500.412308
802.150984	2492.850577
802.471940	2487.809423
802.792851	2490.330000
803.113717	2583.591346
803.434538	2495.371154
803.755314	2490.330000
804.076045	2603.755962
804.396731	2455.041923
804.717372	2500.412308
805.037967	2457.562500
805.358518	2500.412308
805.679024	2596.194231
805.999485	2467.644808
806.319901	2480.247692
806.640272	2507.974038
806.960598	2444.959615
807.280879	2533.179808
807.601115	2402.109808
807.921306	2540.741538
808.241453	2507.974038
808.561554	2467.644808
808.881611	2450.000769
809.201623	2475.206538
809.521590	2535.700385
809.841513	2487.809423
810.161390	2518.056346
810.481223	2465.124231
810.801011	2528.138654
811.120755	2477.727115
811.440453	2568.467885
811.760107	2437.397885
812.079716	2482.768269
812.399281	2482.768269
812.718801	2442.439038
813.038276	2427.315577
813.357707	2518.056346
813.677093	2444.959615
813.996434	2475.206538
814.315731	2545.782692
814.634983	2553.344423
814.954191	2533.179808
815.273354	2412.192115
815.592473	2371.862885
815.911547	2528.138654
816.230577	2475.206538
816.549562	2465.124231
816.868502	2369.342308
817.187399	2434.877308
817.506250	2507.974038
817.825058	2487.809423
818.143821	2467.644808
818.462539	2485.288846
818.781213	2487.809423
819.099843	2543.262115
819.418429	2502.932885
819.736970	2472.685962
820.055466	2472.685962
820.373919	2634.002885
820.692327	2480.247692
821.010691	2555.865000
821.329011	2495.371154
821.647286	2500.412308
821.965517	2480.247692
822.283704	2490.330000
822.601847	2457.562500
822.919945	2533.179808
823.237999	2490.330000
823.556010	2500.412308
823.873976	2480.247692
824.191897	2457.562500
824.509775	2475.206538
824.827609	2450.000769
825.145398	2444.959615
825.463144	2495.371154
825.780845	2467.644808
826.098502	2513.015192
826.416116	2500.412308
826.733685	2553.344423
827.051210	2477.727115
827.368692	2518.056346
827.686129	2475.206538
828.003522	2450.000769
828.320872	2480.247692
828.638177	2568.467885
828.955439	2452.521346
829.272656	2543.262115
829.589830	2429.836154
829.906960	2505.453462
830.224046	2467.644808
830.541088	2530.659231
830.858086	2495.371154
831.175041	2480.247692
831.491952	2513.015192
831.808819	2518.056346
832.125642	2505.453462
832.442421	2487.809423
832.759157	2540.741538
833.075849	2601.235385
833.392497	2492.850577
833.709101	2371.862885
834.025662	2513.015192
834.342179	2581.070769
834.658653	2550.823846
834.975083	2409.671538
835.291469	2500.412308
835.607811	2455.041923
835.924110	2535.700385
836.240366	2455.041923
836.556578	2490.330000
836.872746	2419.753846
837.188871	2513.015192
837.504952	2467.644808
837.820990	2427.315577
838.136984	2510.494615
838.452935	2495.371154
838.768842	2475.206538
839.084706	2452.521346
839.400526	2442.439038
839.716303	2520.576923
840.032037	2523.097500
840.347727	2553.344423
840.663373	2465.124231
840.978977	2424.795000
841.294537	2404.630385
841.610054	2495.371154
841.925527	2414.712692
842.240957	2548.303269
842.556344	2533.179808
842.871687	2492.850577
843.186987	2472.685962
843.502244	2462.603654
843.817458	2381.945192
844.132629	2490.330000
844.447756	2470.165385
844.762840	2520.576923
845.077881	2434.877308
845.392879	2505.453462
845.707833	2475.206538
846.022745	2495.371154
846.337613	2560.906154
846.652438	2482.768269
846.967221	2518.056346
847.281960	2528.138654
847.596656	2452.521346
847.911309	2480.247692
848.225919	2540.741538
848.540485	2447.480192
848.855009	2427.315577
849.169490	2535.700385
849.483928	2490.330000
849.798323	2490.330000
850.112675	2442.439038
850.426984	2407.150962
850.741251	2457.562500
851.055474	2485.288846
851.369654	2465.124231
851.683792	2515.535769
851.997887	2523.097500
852.311938	2442.439038
852.625947	2502.932885
852.939914	2507.974038
853.253837	2432.356731
853.567718	2389.506923
853.881555	2465.124231
854.195350	2460.083077
854.509103	2457.562500
854.822812	2500.412308
855.136479	2520.576923
855.450103	2553.344423
855.763685	2500.412308
856.077224	2533.179808
856.390720	2490.330000
856.704173	2520.576923
857.017584	2500.412308
857.330953	2490.330000
857.644278	2530.659231
857.957561	2570.988462
858.270802	2465.124231
858.584000	2535.700385
858.897155	2429.836154
859.210268	2349.177692
859.523339	2560.906154
859.836367	2442.439038
860.149352	2457.562500
860.462295	2465.124231
860.775195	2434.877308
861.088054	2475.206538
861.400869	2460.083077
861.713642	2472.685962
862.026373	2558.385577
862.339062	2513.015192
862.651708	2507.974038
862.964312	2455.041923
863.276873	2505.453462
863.589392	2518.056346
863.901869	2576.029615
864.214303	2568.467885
864.526696	2507.974038
864.839045	2518.056346
865.151353	2502.932885
865.463619	2513.015192
865.775842	2487.809423
866.088023	2482.768269
866.400162	2523.097500
866.712258	2434.877308
867.024313	2480.247692
867.336325	2492.850577
867.648296	2500.412308
867.960224	2565.947308
868.272110	2452.521346
868.583954	2510.494615
868.895755	2515.535769
869.207515	2545.782692
869.519233	2462.603654
869.830909	2485.288846
870.142542	2490.330000
870.454134	2457.562500
870.765684	2507.974038
871.077191	2495.371154
871.388657	2528.138654
871.700081	2596.194231
872.011463	2472.685962
872.322803	2533.179808
872.634101	2467.644808
872.945357	2518.056346
873.256571	2538.220962
873.567744	2485.288846
873.878874	2505.453462
874.189963	2467.644808
874.501010	2513.015192
874.812015	2513.015192
875.122979	2507.974038
875.433900	2477.727115
875.744780	2487.809423
876.055618	2490.330000
876.366415	2455.041923
876.677169	2487.809423
876.987882	2513.015192
877.298554	2351.698269
877.609183	2414.712692
877.919771	2543.262115
878.230317	2538.220962
878.540822	2505.453462
878.851285	2500.412308
879.161707	2543.262115
879.472087	2414.712692
879.782425	2492.850577
880.092722	2502.932885
880.402977	2495.371154
880.713191	2485.288846
881.023363	2507.974038
881.333494	2470.165385
881.643583	2581.070769
881.953631	2437.397885
882.263637	2523.097500
882.573602	2432.356731
882.883526	2450.000769
883.193408	2455.041923
883.503248	2507.974038
883.813048	2434.877308
884.122806	2510.494615
884.432522	2475.206538
884.742197	2417.233269
885.051831	2452.521346
885.361424	2477.727115
885.670975	2475.206538
885.980485	2523.097500
886.289954	2548.303269
886.599382	2515.535769
886.908768	2487.809423
887.218113	2467.644808
887.527417	2490.330000
887.836680	2533.179808
888.145901	2442.439038
888.455082	2422.274423
888.764221	2447.480192
889.073319	2485.288846
889.382376	2535.700385
889.691392	2439.918462
890.000366	2530.659231
890.309300	2482.768269
890.618193	2462.603654
890.927044	2523.097500
891.235855	2384.465769
891.544625	2515.535769
891.853353	2404.630385
892.162041	2485.288846
892.470687	2424.795000
892.779293	2467.644808
893.087858	2457.562500
893.396381	2497.891731
893.704864	2472.685962
894.013306	2407.150962
894.321707	2533.179808
894.630068	2442.439038
894.938387	2523.097500
895.246665	2565.947308
895.554903	2472.685962
895.863100	2560.906154
896.171256	2470.165385
896.479371	2510.494615
896.787446	2563.426731
897.095480	2500.412308
897.403473	2485.288846
897.711425	2535.700385
898.019336	2510.494615
898.327207	2540.741538
898.635038	2429.836154
898.942827	2507.974038
899.250576	2457.562500
899.558284	2505.453462
899.865952	2404.630385
900.173579	2485.288846
900.481165	2492.850577
900.788711	2497.891731
901.096216	2482.768269
901.403681	2507.974038
901.711105	2513.015192
902.018489	2470.165385
902.325832	2427.315577
902.633135	2434.877308
902.940397	2482.768269
903.247619	2505.453462
903.554800	2485.288846
903.861941	2538.220962
904.169041	2472.685962
904.476101	2510.494615
904.783121	2568.467885
905.090100	2472.685962
905.397039	2502.932885
905.703938	2480.247692
906.010796	2419.753846
906.317614	2533.179808
906.624391	2505.453462
906.931129	2586.111923
907.237826	2581.070769
907.544483	2515.535769
907.851099	2570.988462
908.157675	2432.356731
908.464211	2543.262115
908.770707	2525.618077
909.077163	2477.727115
909.383578	2460.083077
909.689954	2475.206538
909.996289	2485.288846
910.302584	2457.562500
910.608839	2482.768269
910.915054	2490.330000
911.221229	2523.097500
911.527363	2528.138654
911.833458	2568.467885
912.139513	2555.865000
912.445527	2570.988462
912.751502	2465.124231
913.057436	2538.220962
913.363331	2502.932885
913.669186	2432.356731
913.975000	2495.371154
914.280775	2457.562500
914.586510	2533.179808
914.892205	2545.782692
915.197859	2520.576923
915.503475	2472.685962
915.809050	2462.603654
916.114585	2495.371154
916.420081	2487.809423
916.725536	2535.700385
917.030952	2631.482308
917.336328	2520.576923
917.641665	2482.768269
917.946961	2482.768269
918.252218	2472.685962
918.557435	2480.247692
918.862612	2490.330000
919.167750	2450.000769
919.472848	2495.371154
919.777906	2495.371154
920.082925	2424.795000
920.387904	2439.918462
920.692843	2444.959615
920.997743	2472.685962
921.302603	2538.220962
921.607423	2457.562500
921.912204	2520.576923
922.216946	2548.303269
922.521647	2480.247692
922.826310	2442.439038
923.130932	2432.356731
923.435516	2581.070769
923.740059	2422.274423
924.044564	2470.165385
924.349028	2439.918462
924.653454	2465.124231
924.957840	2525.618077
925.262186	2505.453462
925.566493	2626.441154
925.870761	2535.700385
926.174989	2573.509038
926.479178	2442.439038
926.783328	2533.179808
927.087438	2492.850577
927.391509	2437.397885
927.695541	2530.659231
927.999533	2510.494615
928.303486	2505.453462
928.607400	2495.371154
928.911275	2507.974038
929.215110	2530.659231
929.518906	2576.029615
929.822663	2502.932885
930.126381	2528.138654
930.430060	2507.974038
930.733699	2404.630385
931.037299	2477.727115
931.340861	2429.836154
931.644383	2492.850577
931.947866	2563.426731
932.251309	2457.562500
932.554714	2457.562500
932.858080	2570.988462
933.161407	2490.330000
933.464694	2480.247692
933.767943	2507.974038
934.071153	2462.603654
934.374323	2475.206538
934.677455	2535.700385
934.980548	2586.111923
935.283602	2492.850577
935.586617	2520.576923
935.889593	2412.192115
936.192530	2417.233269
936.495428	2412.192115
936.798287	2470.165385
937.101108	2515.535769
937.403890	2490.330000
937.706632	2528.138654
938.009336	2490.330000
938.312002	2439.918462
938.614628	2513.015192
938.917216	2409.671538
939.219765	2553.344423
939.522275	2475.206538
939.824747	2490.330000
940.127179	2500.412308
940.429573	2480.247692
940.731929	2434.877308
941.034246	2472.685962
941.336524	2444.959615
941.638763	2560.906154
941.940964	2450.000769
942.243126	2513.015192
942.545250	2409.671538
942.847335	2533.179808
943.149381	2465.124231
943.451389	2475.206538
943.753359	2545.782692
944.055290	2545.782692
944.357182	2490.330000
944.659036	2533.179808
944.960851	2568.467885
945.262628	2381.945192
945.564367	2477.727115
945.866067	2475.206538
946.167729	2530.659231
946.469352	2477.727115
946.770937	2465.124231
947.072484	2492.850577
947.373992	2472.685962
947.675462	2424.795000
947.976893	2452.521346
948.278286	2432.356731
948.579641	2515.535769
948.880958	2500.412308
949.182236	2497.891731
949.483476	2515.535769
949.784678	2510.494615
950.085841	2492.850577
950.386967	2520.576923
950.688054	2427.315577
950.989103	2452.521346
951.290114	2490.330000
951.591087	2545.782692
951.892021	2525.618077
952.192917	2492.850577
952.493776	2485.288846
952.794596	2475.206538
953.095378	2407.150962
953.396122	2598.714808
953.696828	2465.124231
953.997496	2442.439038
954.298126	2497.891731
954.598718	2487.809423
954.899272	2427.315577
955.199788	2497.891731
955.500266	2505.453462
955.800706	2523.097500
956.101108	2467.644808
956.401472	2528.138654
956.701798	2392.027500
957.002087	2432.356731
957.302337	2560.906154
957.602550	2477.727115
957.902724	2487.809423
958.202861	2434.877308
958.502960	2470.165385
958.803022	2545.782692
959.103045	2477.727115
959.403031	2417.233269
959.702979	2523.097500
960.002889	2485.288846
960.302762	2528.138654
960.602596	2452.521346
960.902393	2558.385577
961.202153	2495.371154
961.501875	2523.097500
961.801559	2417.233269
962.101205	2485.288846
962.400814	2442.439038
962.700385	2497.891731
962.999918	2465.124231
963.299414	2497.891731
963.598873	2432.356731
963.898293	2450.000769
964.197677	2502.932885
964.497022	2482.768269
964.796331	2533.179808
965.095601	2591.153077
965.394835	2424.795000
965.694030	2495.371154
965.993189	2409.671538
966.292309	2480.247692
966.591393	2495.371154
966.890439	2487.809423
967.189447	2417.233269
967.488419	2475.206538
967.787353	2555.865000
968.086249	2548.303269
968.385108	2457.562500
968.683930	2558.385577
968.982714	2437.397885
969.281462	2528.138654
969.580172	2497.891731
969.878844	2482.768269
970.177480	2482.768269
970.476078	2462.603654
970.774639	2523.097500
971.073162	2528.138654
971.371649	2505.453462
971.670098	2455.041923
971.968510	2470.165385
972.266885	2470.165385
972.565223	2507.974038
972.863524	2452.521346
973.161788	2467.644808
973.460014	2500.412308
973.758204	2510.494615
974.056356	2588.632500
974.354471	2485.288846
974.652550	2578.550192
974.950591	2515.535769
975.248595	2545.782692
975.546563	2558.385577
975.844493	2447.480192
976.142386	2477.727115
976.440243	2432.356731
976.738062	2543.262115
977.035845	2533.179808
977.333590	2457.562500
977.631299	2462.603654
977.928971	2530.659231
978.226606	2439.918462
978.524204	2490.330000
978.821765	2402.109808
979.119290	2515.535769
979.416777	2525.618077
979.714228	2540.741538
980.011642	2500.412308
980.309020	2455.041923
980.606360	2507.974038
980.903664	2492.850577
981.200931	2470.165385
981.498162	2485.288846
981.795356	2407.150962
982.092513	2568.467885
982.389633	2495.371154
982.686717	2495.371154
982.983764	2513.015192
983.280775	2402.109808
983.577749	2472.685962
983.874686	2462.603654
984.171587	2528.138654
984.468451	2495.371154
984.765279	2530.659231
985.062070	2525.618077
985.358824	2485.288846
985.655543	2452.521346
985.952224	2472.685962
986.248869	2505.453462
986.545478	2492.850577
986.842050	2487.809423
987.138586	2470.165385
987.435086	2444.959615
987.731549	2452.521346
988.027975	2444.959615
988.324366	2482.768269
988.620719	2611.317692
988.917037	2528.138654
989.213318	2424.795000
989.509563	2432.356731
989.805772	2500.412308
990.101944	2520.576923
990.398080	2477.727115
990.694180	2583.591346
990.990244	2550.823846
991.286271	2465.124231
991.582262	2515.535769
991.878217	2528.138654
992.174136	2465.124231
992.470019	2510.494615
992.765865	2507.974038
993.061676	2507.974038
993.357450	2513.015192
993.653188	2422.274423
993.948890	2520.576923
994.244556	2502.932885
994.540186	2482.768269
994.835780	2450.000769
995.131337	2535.700385
995.426859	2485.288846
995.722345	2520.576923
996.017795	2576.029615
996.313208	2520.576923
996.608586	2513.015192
996.903928	2492.850577
997.199234	2535.700385
997.494504	2507.974038
997.789738	2535.700385
998.084936	2460.083077
998.380099	2480.247692
998.675225	2447.480192
998.970316	2492.850577
999.265371	2467.644808
999.560390	2535.700385
999.855373	2515.535769
1000.150320	2452.521346
1000.445232	2439.918462
1000.740108	2487.809423
1001.034948	2407.150962
1001.329752	2437.397885
1001.624521	2550.823846
1001.919254	2439.918462
1002.213951	2477.727115
1002.508613	2397.068654
1002.803239	2452.521346
1003.097829	2525.618077
1003.392384	2490.330000
1003.686903	2482.768269
1003.981386	2553.344423
1004.275834	2450.000769
1004.570246	2452.521346
1004.864623	2429.836154
1005.158964	2525.618077
1005.453270	2455.041923
1005.747540	2510.494615
1006.041775	2576.029615
1006.335974	2450.000769
1006.630138	2502.932885
1006.924266	2452.521346
1007.218359	2495.371154
1007.512416	2492.850577
1007.806438	2581.070769
1008.100425	2439.918462
1008.394376	2540.741538
1008.688292	2447.480192
1008.982172	2480.247692
1009.276017	2495.371154
1009.569827	2515.535769
1009.863602	2419.753846
1010.157341	2568.467885
1010.451045	2490.330000
1010.744714	2477.727115
1011.038347	2497.891731
1011.331945	2505.453462
1011.625508	2462.603654
1011.919036	2520.576923
1012.212528	2477.727115
1012.505986	2427.315577
1012.799408	2583.591346
1013.092795	2576.029615
1013.386147	2490.330000
1013.679464	2442.439038
1013.972745	2548.303269
1014.265992	2505.453462
1014.559204	2422.274423
1014.852380	2576.029615
1015.145521	2611.317692
1015.438628	2518.056346
1015.731699	2452.521346
1016.024736	2515.535769
1016.317737	2558.385577
1016.610703	2424.795000
1016.903635	2482.768269
1017.196531	2500.412308
1017.489393	2477.727115
1017.782219	2442.439038
1018.075011	2452.521346
1018.367768	2480.247692
1018.660490	2475.206538
1018.953177	2475.206538
1019.245829	2475.206538
