Dividing Wavelength (nm)	Counts (n)	Blue Motor Position (mm): 0.000000	Red Motor Position (mm): 29.500000	
326.493990	2126.567900
326.888308	2126.567900
327.282561	2126.567900
327.676750	2095.738724
328.070874	2095.947932
328.464933	2098.019846
328.858929	2104.618716
329.252859	2115.066508
329.646726	2123.659154
330.040528	2135.495784
330.434265	2155.937663
330.827938	2170.274704
331.221547	2188.314473
331.615091	2205.981197
332.008571	2226.975082
332.401986	2245.438308
332.795338	2268.846906
333.188625	2285.689401
333.581847	2304.460137
333.975006	2323.626604
334.368100	2340.325426
334.761129	2357.596419
335.154095	2373.085364
335.546996	2393.305432
335.939833	2409.888308
336.332606	2426.824064
336.725315	2438.131373
337.117960	2447.104626
337.510540	2456.914712
337.903056	2466.956690
338.295508	2473.679069
338.687896	2485.112406
339.080220	2491.376039
339.472480	2498.123624
339.864676	2503.878101
340.256807	2506.476816
340.648875	2510.471930
341.040879	2510.991169
341.432818	2512.100223
341.824694	2518.752025
342.216506	2518.424350
342.608253	2515.397137
342.999937	2515.424864
343.391557	2515.069462
343.783113	2512.274143
344.174605	2515.417302
344.566033	2511.139883
344.957397	2510.590397
345.348697	2510.842455
345.739934	2506.650736
346.131106	2504.485560
346.522215	2504.490601
346.913260	2500.873573
347.304241	2500.187976
347.695159	2499.898110
348.086012	2498.622698
348.476802	2495.035917
348.867528	2495.731596
349.258191	2491.703714
349.648789	2495.209837
350.039324	2492.555669
350.429796	2489.168014
350.820203	2488.578199
351.210548	2486.987715
351.600828	2485.354381
351.991045	2482.654843
352.381198	2486.667602
352.771288	2486.022334
353.161314	2486.949906
353.551276	2486.100472
353.941175	2487.131388
354.331010	2486.662561
354.720782	2483.040492
355.110490	2483.438743
355.500135	2486.075266
355.889717	2484.993939
356.279235	2483.630307
356.668689	2487.000318
357.058080	2483.937817
357.447408	2485.230873
357.836672	2484.298259
358.225873	2486.239104
358.615010	2484.961171
359.004084	2489.215905
359.393095	2489.147849
359.782043	2487.958137
360.170927	2489.374701
360.559748	2492.633807
360.948505	2491.784373
361.337199	2491.300422
361.725830	2491.867552
362.114398	2492.172542
362.502903	2494.776298
362.891344	2494.151195
363.279722	2493.571462
363.668037	2494.078098
364.056289	2496.518016
364.444478	2495.666061
364.832603	2498.829385
365.220665	2498.962976
365.608665	2498.070692
365.996601	2498.347955
366.384474	2500.029180
366.772284	2502.637977
367.160031	2503.086640
367.547715	2503.817607
367.935336	2509.022598
368.322893	2511.011334
368.710388	2517.085924
369.097820	2524.138498
369.485189	2523.021883
369.872495	2528.829292
370.259738	2535.090405
370.646918	2543.882177
371.034035	2549.167827
371.421090	2559.650907
371.808081	2572.100036
372.195010	2580.826273
372.581875	2595.657348
372.968678	2607.181426
373.355418	2618.312293
373.742096	2635.807618
374.128710	2649.786737
374.515262	2665.663851
374.901751	2681.024247
375.288177	2693.075125
375.674540	2717.605380
376.060841	2735.992989
376.447079	2756.727254
376.833254	2774.736777
377.219367	2787.072480
377.605417	2824.903819
377.991404	2833.856908
378.377329	2855.967409
378.763191	2873.072044
379.148991	2910.394227
379.534727	2936.343566
379.920402	2964.465643
380.306013	2976.375369
380.691563	3025.282123
381.077049	3047.647202
381.462474	3064.648493
381.847835	3102.043772
382.233134	3128.139305
382.618371	3124.212246
383.003545	3197.941642
383.388657	3200.247970
383.773706	3237.313053
384.158693	3251.088006
384.543618	3278.705968
384.928480	3314.505722
385.313280	3359.167824
385.698017	3355.117257
386.082692	3410.955598
386.467305	3417.511618
386.851856	3447.693006
387.236344	3468.011377
387.620770	3505.303312
388.005133	3530.793907
388.389435	3557.832136
388.773674	3564.330183
389.157851	3607.537912
389.541965	3622.505098
389.926018	3591.839759
390.310008	3662.151253
390.693936	3678.403933
391.077802	3720.167372
391.461606	3707.935012
391.845348	3772.955814
392.229027	3775.297430
392.612645	3783.232206
392.996200	3861.339844
393.379694	3900.413827
393.763125	3963.614773
394.146494	3935.238118
394.529801	3997.708097
394.913047	4042.594531
395.296230	4010.510107
395.679351	4067.994384
396.062410	4089.993980
396.445408	4073.148964
396.828343	4103.048047
397.211217	4128.972181
397.594028	4048.028894
397.976778	4114.493987
398.359466	4141.534737
398.742092	4169.863501
399.124656	4088.075821
399.507158	4169.644210
399.889598	4195.767470
400.271977	4258.429012
400.654294	4229.815423
401.036549	4237.525868
401.418742	4206.830282
401.800874	4309.778205
402.182944	4332.458356
402.564952	4394.857758
402.946898	4381.438207
403.328783	4377.995099
403.710606	4292.852531
404.092367	4483.952591
404.474067	4447.812559
404.855705	4456.564002
405.237282	4385.287128
405.618797	4491.249661
406.000250	4527.394734
406.381642	4611.594606
406.762972	4569.211105
407.144240	4581.582097
407.525447	4580.712498
407.906593	4641.163494
408.287677	4684.570349
408.668700	4615.486377
409.049661	4666.001259
409.430560	4705.022311
409.811399	4633.080004
410.192176	4793.078665
410.572891	4730.732195
410.953545	4837.120706
411.334138	4714.275348
411.714669	4782.204897
412.095139	4675.919729
412.475547	4822.234179
412.855894	4802.316580
413.236180	4808.055933
413.616405	4763.224952
413.996568	4851.861040
414.376670	4791.785609
414.756711	4746.518568
415.136691	4778.242550
415.516609	4853.880022
415.896466	4894.552051
416.276262	4925.776958
416.655997	4909.385646
417.035670	5092.755097
417.415283	5180.486297
417.794834	5124.902535
418.174324	5081.236060
418.553753	4985.847347
418.933121	5174.573024
419.312428	5240.566769
419.691674	5177.915309
420.070859	5303.089679
420.449983	5217.458120
420.829045	5328.900387
421.208047	5240.695318
421.586988	5306.668899
421.965867	5321.565508
422.344686	5450.208193
422.723444	5304.052540
423.102141	5126.203153
423.480777	5423.245581
423.859352	5191.039953
424.237866	5451.276917
424.616319	5443.816010
424.994712	5554.784409
425.373044	5432.226397
425.751314	5573.837450
426.129524	5375.314291
426.507673	5569.164300
426.885762	5655.337784
427.263789	5583.239202
427.641756	5466.188650
428.019662	5586.470581
428.397508	5597.125060
428.775292	5541.296802
429.153016	5640.403366
429.530679	5569.310493
429.908282	5653.258308
430.285824	5524.963463
430.663305	5798.297345
431.040726	5529.863465
431.418086	5532.633579
431.795385	5636.718282
432.172624	5650.236136
432.549802	5643.239015
432.926920	5653.404501
433.303977	5664.684083
433.680974	5701.106420
434.057910	5722.702723
434.434786	5727.723712
434.811601	5694.804977
435.188355	5930.332726
435.565050	5801.014527
435.941683	5785.888545
436.318257	5999.724209
436.694770	5987.567466
437.071222	6019.510738
437.447614	5951.024142
437.823946	5860.832859
438.200218	6016.297002
438.576429	5883.744903
438.952580	5976.930632
439.328670	6025.945771
439.704700	5925.868784
440.080670	5917.427372
440.456580	6188.913672
440.832429	6072.435291
441.208218	5918.541467
441.583947	6074.852525
441.959616	6076.052319
442.335224	6005.256875
442.710773	6141.073122
443.086261	6171.506567
443.461689	5961.345905
443.837057	6112.532629
444.212365	6267.636330
444.587612	6160.290000
444.962800	6308.862886
445.337927	6294.500639
445.712995	5900.194188
446.088002	6482.984340
446.462949	6309.203164
446.837837	6244.295788
447.212664	6416.960348
447.587431	6556.524692
447.962139	7099.436797
448.336786	8029.506996
448.711374	7764.750638
449.085901	6841.632189
449.460369	6759.945332
449.834776	6689.147368
450.209124	7086.055054
450.583412	7233.831438
450.957640	7381.070939
451.331808	7142.851214
451.705917	6697.780344
452.079965	6623.307378
452.453954	6831.907803
452.827883	6711.419185
453.201752	6804.284801
453.575562	6601.516990
453.949311	6807.838814
454.323001	6691.380599
454.696632	6765.861126
455.070202	6906.650471
455.443713	7058.638739
455.817164	7156.091804
456.190556	7234.670790
456.563888	7310.517470
456.937160	7351.219746
457.310373	7012.340782
457.683526	7030.587238
458.056619	6922.555311
458.429653	6907.497385
458.802628	6838.095820
459.175542	6947.935000
459.548398	7299.552961
459.921194	7456.315201
460.293930	7457.940973
460.666607	7977.716702
461.039224	8277.526724
461.411782	8397.816217
461.784280	8412.087723
462.156719	8302.424983
462.529099	8176.728853
462.901419	7763.606296
463.273680	7648.952813
463.645882	7660.154257
464.018024	7521.492279
464.390106	7674.060280
464.762130	8055.917601
465.134094	8494.707194
465.505999	9476.814704
465.877845	10647.728549
466.249631	11277.192224
466.621358	10898.170551
466.993026	10268.321228
467.364634	10011.416466
467.736184	9639.956525
468.107674	9309.224065
468.479105	9316.105240
468.850477	9075.017098
469.221790	8844.989248
469.593043	8516.754680
469.964238	8362.850774
470.335373	8352.077828
470.706449	8394.526864
471.077467	8349.337961
471.448425	9546.793481
471.819324	10523.834631
472.190164	10528.270847
472.560945	9344.970887
472.931667	8581.004186
473.302330	8434.319212
473.672934	8077.639933
474.043479	8376.726550
474.413965	8297.764437
474.784393	8157.658168
475.154761	8269.518852
475.525070	8316.136922
475.895321	8132.366699
476.265513	8253.127540
476.635645	8368.622895
477.005719	8317.790420
477.375734	8384.290801
477.745691	8545.335502
478.115588	8611.256150
478.485427	8776.938712
478.855207	9168.880862
479.224928	9771.785218
479.594591	10238.706970
479.964194	10032.702738
480.333739	9939.108676
480.703226	9799.186410
481.072653	9806.859046
481.442022	9895.525381
481.811333	9984.287497
482.180584	9765.309856
482.549777	9462.684350
482.918912	9260.922249
483.287988	9197.048309
483.657005	9135.001788
484.025964	8833.155140
484.394864	8853.876802
484.763706	8754.263602
485.132489	8518.461111
485.501213	8413.547138
485.869879	8399.177328
486.238487	8191.285185
486.607036	8213.393165
486.975527	7972.252092
487.343959	8030.633694
487.712333	7972.675548
488.080648	7851.193823
488.448905	7782.379553
488.817104	7670.541554
489.185244	7751.772187
489.553326	7749.823781
489.921350	7981.921025
490.289315	8479.119946
490.657222	8587.678674
491.025070	8426.999457
491.392861	8264.162626
491.760593	7970.434756
492.128267	7686.529574
492.495883	7417.770539
492.863440	7151.920250
493.230939	6891.625312
493.598380	6774.373115
493.965763	6618.109948
494.333088	6503.743812
494.700354	6371.342947
495.067563	6336.352298
495.434713	6157.426625
495.801805	6146.686446
496.168839	6035.415578
496.535815	5918.685140
496.902733	5855.136355
497.269593	5739.903140
497.636395	5716.078647
498.003139	5619.865705
498.369825	5511.397718
498.736453	5483.812524
499.103023	5390.808277
499.469535	5325.371579
499.835989	5252.877267
500.202385	5168.664792
500.568723	5054.767482
500.935003	5065.928597
501.301226	4921.073562
501.667390	4948.073982
502.033497	4901.425664
502.399546	4794.827946
502.765537	4705.690263
503.131470	4655.654291
503.497345	4635.456908
503.863163	4487.672962
504.228923	4487.887212
504.594625	4443.341056
504.960269	4332.347451
505.325856	4314.864729
505.691385	4219.090368
506.056856	4193.942572
506.422270	4140.133296
506.787625	4075.102411
507.152924	4040.381464
507.518164	3989.606962
507.883347	3921.861417
508.248472	3864.921584
508.613540	3854.814070
508.978550	3787.083648
509.343503	3742.441710
509.708398	3713.336608
510.073236	3682.588090
510.438016	3642.969662
510.802738	3596.157508
511.167403	3562.437230
511.532010	3509.242974
511.896561	3499.289216
512.261053	3471.462047
512.625488	3417.067997
512.989866	3376.138869
513.354186	3345.828931
513.718449	3299.818320
514.082655	3290.809778
514.446803	3247.294538
514.810894	3230.973802
515.174927	3192.313194
515.538904	3169.890141
515.902822	3149.047491
516.266684	3120.839714
516.630488	3086.438881
516.994235	3070.836509
517.357925	3051.405382
517.721558	3031.218081
518.085133	3011.502129
518.448651	2996.224912
518.812112	2966.988740
519.175516	2947.643312
519.538863	2934.657300
519.902152	2915.755494
520.265385	2903.157650
520.628560	2887.217522
520.991678	2870.221272
521.354739	2857.434385
521.717743	2841.030470
522.080690	2828.180569
522.443580	2818.579692
522.806413	2807.562250
523.169189	2796.844757
523.531908	2788.960392
523.894569	2775.006478
524.257174	2767.104470
524.619722	2756.684405
524.982213	2751.560072
525.344647	2743.524472
525.707025	2734.604151
526.069345	2729.744478
526.431608	2723.614435
526.793815	2715.543548
527.155964	2707.218082
527.518057	2704.085005
527.880093	2695.646114
528.242072	2695.084025
528.603995	2685.062211
528.965860	2683.025585
529.327669	2681.949299
529.689421	2674.019564
530.051117	2669.873215
530.412755	2666.858605
530.774337	2667.047648
531.135862	2662.787873
531.497331	2658.565907
531.858743	2650.830256
532.220098	2653.746564
532.581396	2648.090389
532.942638	2647.629123
533.303824	2647.818167
533.664953	2646.600728
534.026025	2643.386993
534.387040	2641.204173
534.747999	2642.199801
535.108902	2642.797177
535.469748	2636.805766
535.830537	2637.118318
536.191270	2634.446506
536.551947	2634.222175
536.912567	2629.826289
537.273131	2631.399129
537.633638	2628.329066
537.994089	2629.884262
538.354483	2629.155815
538.714821	2627.772018
539.075103	2626.947790
539.435328	2628.467698
539.795497	2624.001235
540.155609	2626.690691
540.515665	2624.570886
540.875665	2620.351440
541.235609	2620.981584
541.595496	2620.802623
541.955328	2623.091307
542.315102	2618.254320
542.674821	2618.385390
543.034483	2620.033847
543.394090	2617.611573
543.753640	2617.593929
544.113134	2618.932355
544.472571	2618.518981
544.831953	2618.302211
545.191278	2618.448404
545.550548	2613.631582
545.909761	2618.866820
546.268918	2613.555965
546.628019	2616.179885
546.987064	2616.371449
547.346053	2613.976901
547.704986	2613.414812
548.063863	2617.281377
548.422684	2613.858434
548.781449	2613.147631
549.140158	2612.973711
549.498811	2611.582353
549.857408	2611.295007
550.215949	2610.657301
550.574434	2608.799636
550.932864	2609.545727
551.291237	2606.858792
551.649555	2612.951026
552.007817	2611.511777
552.366022	2614.488578
552.724173	2613.069493
553.082267	2611.302569
553.440305	2610.674945
553.798288	2606.846189
554.156215	2610.483381
554.514086	2610.468258
554.871902	2607.385592
555.229661	2608.098916
555.587365	2608.794595
555.945014	2609.389451
556.302606	2609.404574
556.660143	2607.642691
557.017625	2606.747886
557.375050	2611.587394
557.732421	2608.754266
558.089735	2610.927003
558.446994	2607.607403
558.804197	2608.040942
559.161345	2609.596138
559.518437	2609.928854
559.875474	2607.935078
560.232455	2610.463217
560.589381	2607.085644
560.946251	2610.856427
561.303065	2609.172681
561.659825	2610.458176
562.016528	2609.031529
562.373177	2606.604213
562.729770	2610.601848
563.086307	2609.245778
563.442789	2608.222424
563.799216	2607.776282
564.155587	2605.706888
564.511904	2606.289141
564.868164	2607.047835
565.224370	2607.501539
565.580520	2605.880808
565.936615	2606.397526
566.292654	2606.047166
566.648638	2604.933071
567.004567	2605.696806
567.360441	2607.927516
567.716260	2602.641867
568.072023	2605.550612
568.427732	2601.053903
568.783385	2602.614140
569.138982	2601.507607
569.494525	2604.673452
569.850013	2603.130858
570.205445	2605.180087
570.560823	2603.193873
570.916145	2602.054572
571.271412	2602.288986
571.626625	2605.522886
571.981782	2601.295878
572.336884	2602.846033
572.691931	2602.145313
573.046923	2604.209665
573.401860	2602.092381
573.756743	2602.324274
574.111570	2605.538009
574.466342	2600.615323
574.821059	2601.028697
575.175722	2599.597010
575.530330	2602.856116
575.884882	2602.873760
576.239380	2600.083481
576.593823	2604.857454
576.948211	2599.929726
577.302544	2599.027359
577.656823	2599.786053
578.011047	2599.846547
578.365216	2600.980806
578.719330	2598.132554
579.073389	2598.631629
579.427394	2600.761516
579.781344	2600.325456
580.135239	2600.688419
580.489080	2598.987030
580.842866	2598.024170
581.196597	2600.214551
581.550273	2599.730600
581.903895	2596.862184
582.257463	2598.089705
582.610975	2596.123655
582.964434	2597.149529
583.317837	2596.065681
583.671186	2597.711618
584.024481	2596.428644
584.377721	2594.858325
584.730906	2597.051227
585.084037	2598.616505
585.437113	2597.147009
585.790135	2598.278748
586.143103	2595.964858
586.496016	2596.930239
586.848874	2591.097624
587.201679	2593.535022
587.554428	2591.258941
587.907124	2595.105342
588.259765	2590.618715
588.612352	2595.107862
588.964884	2596.274889
589.317362	2594.286154
589.669786	2592.814137
590.022155	2594.639035
590.374470	2594.946545
590.726731	2597.797318
591.078937	2594.548294
591.431090	2592.236925
591.783188	2596.335383
592.135232	2594.805393
592.487222	2596.174066
592.839157	2595.629622
593.191038	2592.383118
593.542866	2592.546956
593.894639	2593.325814
594.246358	2590.109558
594.598022	2592.027717
594.949633	2589.514702
595.301190	2590.028900
595.652692	2592.584765
596.004141	2590.273396
596.355535	2592.748602
596.706876	2592.862028
597.058162	2587.697366
597.409395	2589.882706
597.760573	2591.180803
598.111698	2587.805751
598.462768	2590.464959
598.813785	2589.827253
599.164748	2589.295412
599.515657	2588.677870
599.866511	2589.403797
600.217312	2589.328179
600.568060	2588.163673
600.918753	2590.807758
601.269392	2588.473704
601.619978	2589.212233
601.970510	2588.592171
602.320988	2587.835998
602.671412	2590.477562
603.021783	2587.392376
603.372100	2587.379773
603.722363	2587.904053
604.072572	2588.372881
604.422728	2590.240628
604.772830	2583.813157
605.122878	2583.119998
605.472872	2583.240986
605.822813	2584.012283
606.172701	2584.768456
606.522534	2586.185020
606.872314	2588.629979
607.222041	2589.698704
607.571714	2590.008735
607.921333	2588.831626
608.270899	2588.229208
608.620411	2588.766091
608.969870	2590.979157
609.319276	2587.538570
609.668627	2592.587285
610.017926	2593.348499
610.367171	2594.354210
610.716362	2595.019642
611.065500	2594.366812
611.414585	2593.419076
611.763616	2594.528129
612.112594	2592.173911
612.461518	2591.740371
612.810389	2591.369847
613.159207	2585.761563
613.507971	2589.376070
613.856682	2590.835484
614.205340	2588.168714
614.553945	2593.729107
614.902496	2588.924887
615.250994	2589.532346
615.599439	2588.330031
615.947830	2590.807758
616.296169	2587.662078
616.644454	2592.015114
616.992686	2591.218612
617.340864	2590.810278
617.688990	2587.941862
618.037063	2591.999991
618.385082	2590.596029
618.733048	2589.917994
619.080961	2592.824219
619.428821	2591.316914
619.776628	2589.358426
620.124382	2591.390011
620.472083	2590.298601
620.819731	2593.073757
621.167326	2591.808427
621.514868	2587.916656
621.862357	2588.514033
622.209793	2588.090576
622.557176	2585.809454
622.904506	2588.166193
623.251783	2583.873651
623.599007	2582.893146
623.946179	2583.898857
624.293297	2581.186716
624.640363	2583.729978
624.987376	2586.321131
625.334336	2584.554207
625.681243	2586.883220
626.028097	2583.084710
626.374899	2585.028075
626.721647	2583.906418
627.068343	2584.372725
627.414987	2584.034968
627.761577	2585.373394
628.108115	2583.339288
628.454600	2581.181675
628.801032	2582.391552
629.147412	2583.104875
629.493739	2581.794175
629.840014	2586.174937
630.186236	2580.420460
630.532405	2579.795357
630.878521	2584.390369
631.224585	2581.526994
631.570597	2581.365677
631.916556	2584.690318
632.262462	2580.319637
632.608316	2581.158989
632.954117	2581.106057
633.299866	2579.540779
633.645562	2578.661098
633.991206	2579.215625
634.336797	2575.860737
634.682336	2581.693352
635.027823	2578.136818
635.373257	2578.247723
635.718639	2576.604307
636.063968	2577.541962
636.409245	2576.223700
636.754470	2575.674214
637.099642	2576.279153
637.444762	2576.632033
637.789829	2573.874522
638.134845	2576.289235
638.479808	2576.332085
638.824719	2573.234296
639.169577	2575.109605
639.514383	2575.079358
639.859137	2572.362176
640.203839	2575.838052
640.548489	2573.776220
640.893086	2571.923596
641.237632	2570.542319
641.582125	2570.862433
641.926566	2568.961918
642.270955	2574.015674
642.615292	2572.016857
642.959576	2574.565160
643.303809	2573.667835
643.647990	2575.495253
643.992118	2574.696230
644.336195	2572.468040
644.680219	2571.974007
645.024192	2570.958215
645.368112	2575.485171
645.711981	2574.880232
646.055797	2576.415264
646.399562	2574.149265
646.743274	2572.188256
647.086935	2575.684296
647.430544	2574.855027
647.774101	2577.347877
648.117606	2576.304358
648.461059	2575.853175
648.804460	2578.451890
649.147810	2574.275294
649.491108	2572.901579
649.834354	2573.141034
650.177548	2575.288566
650.520690	2573.592217
650.863781	2570.297823
651.206820	2576.710171
651.549807	2572.369738
651.892742	2573.972825
652.235626	2573.294789
652.578458	2571.273287
652.921238	2572.462999
653.263967	2571.429562
653.606644	2567.734397
653.949269	2572.450396
654.291843	2567.651218
654.634365	2571.805128
654.976836	2567.777247
655.319255	2569.997875
655.661622	2574.184553
656.003938	2567.782288
656.346203	2565.448233
656.688416	2568.843451
657.030577	2569.730694
657.372687	2571.999213
657.714746	2568.750189
658.056753	2569.193811
658.398708	2563.174673
658.740612	2566.491752
659.082465	2564.901268
659.424266	2566.058213
659.766016	2565.460836
660.107715	2567.991496
660.449362	2568.248594
660.790958	2567.686506
661.132503	2570.444017
661.473996	2569.776064
661.815438	2569.564336
662.156829	2570.915365
662.498168	2568.432597
662.839456	2570.391085
663.180693	2566.254818
663.521879	2566.804304
663.863013	2567.648697
664.204097	2566.877401
664.545129	2568.954356
664.886110	2571.046435
665.227040	2568.808162
665.567918	2570.718760
665.908746	2570.905282
666.249522	2572.037022
666.590248	2568.586352
666.930922	2569.597103
667.271545	2567.830179
667.612118	2571.790005
667.952639	2571.026270
668.293109	2570.018039
668.633528	2570.809501
668.973896	2569.551733
669.314213	2569.952504
669.654480	2569.639953
669.994695	2568.031825
670.334859	2566.849674
670.674973	2569.539130
671.015035	2570.524675
671.355047	2567.620971
671.695008	2568.172977
672.034918	2569.952504
672.374777	2568.074675
672.714585	2566.975703
673.054342	2567.646177
673.394049	2568.246074
673.733705	2570.315467
674.073310	2569.788667
674.412864	2569.191290
674.752368	2565.279355
675.091820	2569.816393
675.431223	2565.440672
675.770574	2565.246587
676.109875	2561.327090
676.449125	2565.486042
676.788324	2564.414797
677.127473	2564.823130
677.466571	2562.567214
677.805619	2567.810014
678.144616	2564.949159
678.483562	2565.717935
678.822458	2567.147102
679.161303	2567.888152
679.500098	2565.097873
679.838842	2564.223233
680.177535	2563.832544
680.516179	2569.191290
680.854771	2566.325394
681.193314	2565.410425
681.531805	2570.353276
681.870247	2566.615261
682.208638	2570.857392
682.546978	2568.409911
682.885268	2570.045766
683.223508	2568.692216
683.561697	2569.970148
683.899836	2571.149778
684.237925	2567.258008
684.575963	2566.554767
684.913951	2567.661300
685.251889	2569.060220
685.589776	2565.760785
685.927614	2567.237843
686.265401	2569.408060
686.603137	2569.955025
686.940824	2570.035683
687.278460	2570.786815
687.616046	2567.522668
687.953582	2569.914696
688.291068	2569.864284
688.628504	2569.803790
688.965889	2571.111970
689.303224	2572.972156
689.640510	2573.380489
689.977745	2568.737586
690.314930	2566.549726
690.652065	2570.486867
690.989150	2565.884293
691.326185	2565.549057
691.663170	2561.720300
692.000105	2564.618964
692.336990	2563.431772
692.673825	2566.479149
693.010610	2564.447564
693.347345	2560.517985
693.684030	2558.340207
694.020665	2559.040927
694.357251	2555.910370
694.693786	2561.906823
695.030272	2562.441185
695.366707	2561.682492
695.703093	2558.879610
696.039429	2559.159394
696.375716	2560.969168
696.711952	2557.284085
697.048139	2559.683674
697.384276	2559.489590
697.720363	2559.580330
698.056400	2560.079405
698.392388	2559.151832
698.728326	2560.318859
699.064214	2558.249466
699.400053	2557.765515
699.735842	2557.291647
700.071581	2557.442881
700.407270	2556.227963
700.742910	2557.815927
701.078501	2559.381205
701.414042	2556.169990
701.749533	2557.760474
702.084974	2558.302398
702.420366	2554.879454
702.755709	2556.409445
703.091002	2554.435833
703.426246	2556.994218
703.761440	2557.989846
704.096584	2556.180072
704.431679	2551.837118
704.766725	2556.104455
705.101721	2556.633776
705.436668	2553.977088
705.771565	2560.044117
706.106413	2555.847356
706.441212	2554.423230
706.775961	2556.817778
707.110661	2554.037582
707.445311	2560.129816
707.779913	2557.049671
708.114465	2556.858107
708.448967	2560.903633
708.783421	2556.084290
709.117825	2559.242573
709.452180	2557.488252
709.786485	2560.417162
710.120742	2557.967161
710.454949	2559.605536
710.789107	2556.396842
711.123216	2558.312480
711.457275	2560.129816
711.791286	2555.350802
712.125247	2557.145453
712.459159	2559.156873
712.793023	2563.187276
713.126837	2560.001267
713.460602	2560.906154
713.794318	2557.001780
714.127985	2563.532595
714.461602	2560.618808
714.795171	2561.591751
715.128691	2558.093190
715.462162	2557.092521
715.795584	2558.453632
716.128957	2554.914743
716.462281	2557.493293
716.795556	2556.195196
717.128782	2554.506409
717.461960	2555.290308
717.795088	2558.057902
718.128167	2553.190668
718.461198	2554.536656
718.794180	2555.935576
719.127113	2554.874413
719.459997	2554.450956
719.792833	2553.294012
720.125619	2553.351985
720.458357	2551.345606
720.791046	2551.892571
721.123686	2549.462735
721.456278	2552.192519
721.788821	2552.976419
722.121315	2555.408776
722.453761	2551.821995
722.786158	2551.204453
723.118506	2550.090358
723.450805	2552.641182
723.783056	2550.695297
724.115259	2553.989691
724.447412	2549.956768
724.779518	2552.941131
725.111574	2553.130174
725.443582	2556.505227
725.775542	2552.076573
726.107453	2552.346275
726.439315	2554.650082
726.771129	2556.535473
727.102895	2556.031358
727.434612	2554.529094
727.766281	2554.599670
728.097901	2552.926007
728.429473	2551.421223
728.760996	2553.213353
729.092471	2550.909546
729.423897	2554.173693
729.755276	2552.868034
730.086606	2554.778631
730.417887	2553.878785
730.749120	2555.983467
731.080305	2556.832902
731.411442	2556.583364
731.742530	2557.037068
732.073570	2559.063612
732.404562	2557.349620
732.735506	2555.693601
733.066401	2558.393139
733.397249	2556.800134
733.728048	2555.108827
734.058798	2553.921635
734.389501	2551.277550
734.720156	2555.118909
735.050762	2553.041954
735.381320	2551.948023
735.711831	2550.286963
736.042293	2552.704197
736.372707	2549.356870
736.703073	2550.970040
737.033391	2550.271840
737.363661	2552.147149
737.693883	2549.606407
738.024056	2553.475493
738.354182	2553.508261
738.684260	2553.699824
739.014290	2553.969526
739.344272	2551.264947
739.674207	2552.381563
740.004093	2553.634289
740.333931	2552.910884
740.663722	2554.609753
740.993464	2552.371480
741.323159	2555.058415
741.652806	2552.908363
741.982405	2554.019938
742.311956	2550.191181
742.641460	2551.201933
742.970915	2551.774104
743.300323	2551.096068
743.629683	2551.368291
743.958996	2549.072045
744.288260	2551.143959
744.617477	2548.588094
744.946647	2545.265974
745.275768	2547.534493
745.604842	2547.048022
745.933869	2545.787733
746.262847	2549.457693
746.591778	2549.266130
746.920662	2550.014741
747.249498	2550.196222
747.578286	2548.144473
747.907027	2548.671273
748.235720	2548.981304
748.564365	2550.007179
748.892963	2549.767724
749.221514	2549.462735
749.550017	2550.246634
749.878473	2547.473999
750.206881	2549.762683
750.535242	2549.767724
750.863555	2549.447611
751.191821	2549.316541
751.520039	2551.617828
751.848210	2547.731098
752.176334	2546.543907
752.504411	2548.605738
752.832440	2547.312682
753.160421	2550.024823
753.488356	2547.332847
753.816243	2550.546583
754.144082	2548.144473
754.471875	2547.519370
754.799620	2547.766386
755.127318	2547.998279
755.454969	2547.809236
755.782572	2548.114226
756.110129	2546.299411
756.437638	2550.705379
756.765100	2547.040460
757.092515	2549.467776
757.419882	2548.714123
757.747203	2548.565409
758.074477	2548.280584
758.401703	2545.114739
758.728882	2549.009031
759.056014	2549.092210
759.383099	2548.474668
759.710138	2548.749411
760.037129	2549.492982
760.364073	2548.457024
760.690970	2547.468958
761.017820	2549.581202
761.344623	2550.047508
761.671379	2548.580533
761.998088	2548.935934
762.324751	2547.466438
762.651366	2552.817622
762.977935	2564.429920
763.304456	2563.724159
763.630931	2568.979562
763.957359	2567.212637
764.283740	2561.614436
764.610074	2556.792572
764.936362	2556.638817
765.262602	2553.609084
765.588796	2551.136398
765.914943	2549.346788
766.241044	2549.775286
766.567097	2551.123795
766.893104	2547.166489
767.219064	2545.497867
767.544978	2546.425439
767.870845	2544.396375
768.196665	2544.550130
768.522438	2545.694472
768.848165	2543.678011
769.173846	2545.107178
769.499479	2545.036602
769.825066	2544.237579
770.150607	2541.832948
770.476101	2543.640202
770.801548	2543.115922
771.126949	2543.307486
771.452303	2541.631302
771.777611	2542.498381
772.102872	2543.078113
772.428087	2542.500901
772.753256	2542.909235
773.078378	2544.963505
773.403453	2542.473175
773.728482	2541.913607
774.053465	2542.357228
774.378401	2539.135931
774.703291	2540.519728
775.028135	2542.064841
775.352932	2539.254398
775.677683	2539.677855
776.002388	2544.202291
776.327046	2539.992927
776.651658	2544.035933
776.976224	2539.551826
777.300743	2542.090047
777.625216	2544.199770
777.949643	2542.523586
778.274024	2542.710109
778.598359	2536.801877
778.922647	2535.884387
779.246889	2538.803215
779.571086	2534.538399
779.895236	2540.088709
780.219339	2539.909748
780.543397	2541.439738
780.867409	2542.029553
781.191374	2543.584749
781.515294	2541.618699
781.839167	2538.848585
782.162995	2543.670449
782.486776	2541.616179
782.810511	2541.522917
783.134201	2541.381765
783.457844	2540.623071
783.781441	2542.246323
784.104993	2538.495704
784.428498	2538.841023
784.751958	2540.940664
785.075372	2538.828421
785.398739	2540.277752
785.722061	2540.728936
786.045337	2539.526620
786.368568	2541.089378
786.691752	2541.608617
787.014891	2541.164995
787.337983	2540.073586
787.661030	2542.747918
787.984031	2541.296065
788.306987	2543.897301
788.629897	2544.519883
788.952760	2543.811601
789.275579	2541.306148
789.598351	2545.225645
789.921078	2543.294883
790.243759	2539.566950
790.566395	2542.561395
790.888984	2540.779347
791.211529	2541.127187
791.534027	2543.304965
791.856480	2538.105015
792.178888	2540.020653
792.501249	2540.045859
792.823566	2541.104502
793.145836	2540.340767
793.468062	2539.713143
793.790241	2539.851775
794.112375	2539.980324
794.434464	2541.797660
794.756507	2542.631971
795.078505	2539.647608
795.400457	2537.331198
795.722364	2540.093750
796.044226	2539.370345
796.366042	2537.681558
796.687812	2540.307999
797.009538	2542.195911
797.331218	2540.217258
797.652852	2539.554347
797.974442	2542.818494
798.295986	2540.703730
798.617484	2543.587270
798.938938	2539.307330
799.260346	2541.555685
799.581709	2542.432846
799.903026	2541.482588
800.224299	2540.038298
800.545526	2539.975283
800.866708	2537.391692
801.187845	2539.786240
801.508936	2539.277083
801.829983	2540.078627
802.150984	2540.222300
802.471940	2541.608617
802.792851	2539.196425
803.113717	2541.966539
803.434538	2538.485622
803.755314	2540.335726
804.076045	2535.138296
804.396731	2540.171888
804.717372	2538.969573
805.037967	2540.446631
805.358518	2539.534182
805.679024	2539.854295
805.999485	2540.497042
806.319901	2538.286497
806.640272	2538.558719
806.960598	2536.781712
807.280879	2538.629295
807.601115	2541.354039
807.921306	2539.816487
808.241453	2539.082999
808.561554	2540.134079
808.881611	2540.504604
809.201623	2539.599717
809.521590	2538.631816
809.841513	2539.672814
810.161390	2538.362114
810.481223	2537.704243
810.801011	2536.522093
811.120755	2540.799512
811.440453	2537.613503
811.760107	2536.683410
812.079716	2535.518903
812.399281	2535.047555
812.718801	2537.694161
813.038276	2532.675692
813.357707	2536.509490
813.677093	2538.962011
813.996434	2542.500901
814.315731	2537.374048
814.634983	2534.462781
814.954191	2541.109543
815.273354	2540.338246
815.592473	2539.309851
815.911547	2540.476878
816.230577	2538.788091
816.549562	2540.202135
816.868502	2537.409336
817.187399	2539.241795
817.506250	2540.539892
817.825058	2540.640715
818.143821	2542.291693
818.462539	2539.617361
818.781213	2543.710778
819.099843	2543.173895
819.418429	2544.734132
819.736970	2546.359904
820.055466	2547.360573
820.373919	2550.859134
820.692327	2553.730071
821.010691	2559.948335
821.329011	2575.023905
821.647286	2603.924840
821.965517	2635.515231
822.283704	2655.276554
822.601847	2659.775784
822.919945	2647.011582
823.237999	2625.243880
823.556010	2608.459358
823.873976	2593.565269
824.191897	2581.821901
824.509775	2575.500294
824.827609	2565.634756
825.145398	2562.801628
825.463144	2563.376319
825.780845	2564.445044
826.098502	2565.468398
826.416116	2577.405850
826.733685	2586.794999
827.051210	2590.802717
827.368692	2585.416244
827.686129	2577.294945
828.003522	2566.784139
828.320872	2556.467418
828.638177	2553.455328
828.955439	2546.392672
829.272656	2545.568443
829.589830	2542.077444
829.906960	2543.289842
830.224046	2543.798998
830.541088	2540.764224
830.858086	2546.296890
831.175041	2544.212373
831.491952	2542.117773
831.808819	2539.665252
832.125642	2541.215407
832.442421	2545.152548
832.759157	2550.148332
833.075849	2554.493806
833.392497	2560.770043
833.709101	2559.376164
834.025662	2562.955383
834.342179	2559.802141
834.658653	2555.232335
834.975083	2552.313507
835.291469	2553.956923
835.607811	2546.987528
835.924110	2544.245140
836.240366	2541.190201
836.556578	2538.452855
836.872746	2537.744573
837.188871	2541.346477
837.504952	2535.203831
837.820990	2534.724921
838.136984	2535.770961
838.452935	2537.663914
838.768842	2538.455375
839.084706	2537.936136
839.400526	2537.590817
839.716303	2540.270191
840.032037	2547.622713
840.347727	2547.264792
840.663373	2544.610624
840.978977	2542.997455
841.294537	2542.999975
841.610054	2537.928575
841.925527	2537.384130
842.240957	2536.751465
842.556344	2535.894469
842.871687	2534.482946
843.186987	2535.849099
843.502244	2534.666948
843.817458	2533.026053
844.132629	2536.401105
844.447756	2537.048893
844.762840	2528.975485
845.077881	2532.070754
845.392879	2529.530012
845.707833	2533.930940
846.022745	2528.942718
846.337613	2535.324819
846.652438	2531.758202
846.967221	2536.116280
847.281960	2534.031763
847.596656	2534.419932
847.911309	2533.520086
848.225919	2534.898841
848.540485	2533.439427
848.855009	2535.163502
849.169490	2531.004550
849.483928	2534.553522
849.798323	2533.434386
850.112675	2534.868594
850.426984	2534.094777
850.741251	2535.534027
851.055474	2533.872966
851.369654	2533.363810
851.683792	2533.247863
851.997887	2532.469005
852.311938	2530.727286
852.625947	2532.186700
852.939914	2535.002185
853.253837	2534.190559
853.567718	2534.692154
853.881555	2534.530837
854.195350	2532.925229
854.509103	2534.692154
854.822812	2534.283820
855.136479	2532.529499
855.450103	2534.800539
855.763685	2532.080836
856.077224	2532.350538
856.390720	2534.314067
856.704173	2531.990095
857.017584	2533.908254
857.330953	2533.683923
857.644278	2534.820703
857.957561	2536.912782
858.270802	2535.564273
858.584000	2533.545291
858.897155	2533.046217
859.210268	2533.567977
859.523339	2536.156609
859.836367	2531.180990
860.149352	2533.230219
860.462295	2536.582587
860.775195	2530.641587
861.088054	2531.400280
861.400869	2531.299457
861.713642	2528.229395
862.026373	2533.262987
862.339062	2533.036135
862.651708	2533.411701
862.964312	2534.740045
863.276873	2532.647966
863.589392	2533.315919
863.901869	2533.018491
864.214303	2533.401618
864.526696	2532.799201
864.839045	2533.396577
865.151353	2534.263656
865.463619	2532.297606
865.775842	2536.118800
866.088023	2534.117462
866.400162	2536.940508
866.712258	2533.653676
867.024313	2536.063348
867.336325	2533.898172
867.648296	2531.677544
867.960224	2537.207690
868.272110	2533.562935
868.583954	2534.740045
868.895755	2536.146527
869.207515	2533.817514
869.519233	2534.848430
869.830909	2532.862215
870.142542	2535.770961
870.454134	2533.850281
870.765684	2535.647453
871.077191	2535.193749
871.388657	2535.556712
871.700081	2534.556043
872.011463	2534.566125
872.322803	2534.523275
872.634101	2534.243491
872.945357	2532.252235
873.256571	2533.467153
873.567744	2534.077133
873.878874	2534.974458
874.189963	2536.660724
874.501010	2537.248019
874.812015	2536.905220
875.122979	2536.000333
875.433900	2536.176774
875.744780	2537.013605
876.055618	2537.789943
876.366415	2536.665766
876.677169	2535.702905
876.987882	2534.402287
877.298554	2532.252235
877.609183	2534.190559
877.919771	2533.187369
878.230317	2536.711136
878.540822	2540.567619
878.851285	2538.959491
879.161707	2540.827238
879.472087	2543.110881
879.782425	2545.732281
880.092722	2550.483568
880.402977	2557.790721
880.713191	2574.280335
881.023363	2590.792634
881.333494	2603.140941
881.643583	2602.052052
881.953631	2605.550612
882.263637	2599.932246
882.573602	2594.795311
882.883526	2587.185689
883.193408	2577.163875
883.503248	2570.363358
883.813048	2566.365723
884.122806	2560.354148
884.432522	2557.160577
884.742197	2553.273847
885.051831	2551.718651
885.361424	2547.264792
885.670975	2546.523742
885.980485	2544.494678
886.289954	2545.412167
886.599382	2541.696837
886.908768	2541.293545
887.218113	2539.768596
887.527417	2539.566950
887.836680	2541.049049
888.145901	2536.915303
888.455082	2538.543595
888.764221	2538.662063
889.073319	2534.704757
889.382376	2536.983358
889.691392	2537.142155
890.000366	2535.536547
890.309300	2538.682227
890.618193	2540.166847
890.927044	2536.625436
891.235855	2536.451517
891.544625	2532.942873
891.853353	2532.942873
892.162041	2536.607792
892.470687	2539.037628
892.779293	2537.565612
893.087858	2538.581404
893.396381	2537.462268
893.704864	2540.988555
894.013306	2542.926879
894.321707	2552.782334
894.630068	2556.487583
894.938387	2561.823644
895.246665	2557.528581
895.554903	2554.571944
895.863100	2552.817623
896.171256	2550.392827
896.479371	2546.359904
896.787446	2547.592467
897.095480	2543.478885
897.403473	2540.817156
897.711425	2542.142979
898.019336	2538.162988
898.327207	2538.871270
898.635038	2541.061652
898.942827	2539.077958
899.250576	2538.054603
899.558284	2536.133924
899.865952	2537.018646
900.173579	2537.265663
900.481165	2534.752648
900.788711	2534.334232
901.096216	2535.438245
901.403681	2534.825744
901.711105	2534.785415
902.018489	2533.141999
902.325832	2537.328677
902.633135	2536.227185
902.940397	2537.220293
903.247619	2541.255736
903.554800	2542.624409
903.861941	2551.748898
904.169041	2561.044786
904.476101	2566.648028
904.783121	2568.440158
905.090100	2564.707184
905.397039	2556.653941
905.703938	2553.866182
906.010796	2548.419216
906.317614	2543.546941
906.624391	2542.619368
906.931129	2540.723894
907.237826	2539.713143
907.544483	2538.848585
907.851099	2536.781712
908.157675	2535.501259
908.464211	2536.287679
908.770707	2529.119158
909.077163	2533.252904
909.383578	2529.116638
909.689954	2531.990095
909.996289	2529.887934
910.302584	2531.516227
910.608839	2532.968079
910.915054	2533.530168
911.221229	2531.513706
911.527363	2532.196783
911.833458	2532.532019
912.139513	2535.118131
912.445527	2535.297092
912.751502	2532.544622
913.057436	2533.346166
913.363331	2535.841537
913.669186	2537.290869
913.975000	2534.417411
914.280775	2537.384130
914.586510	2542.127856
914.892205	2545.185316
915.197859	2548.126829
915.503475	2552.810061
915.809050	2557.679815
916.114585	2562.451267
916.420081	2568.016701
916.725536	2563.620815
917.030952	2561.470763
917.336328	2557.861297
917.641665	2554.607232
917.946961	2550.130687
918.252218	2544.103988
918.557435	2548.570450
918.862612	2543.246992
919.167750	2540.968390
919.472848	2539.851775
919.777906	2537.442103
920.082925	2538.846065
920.387904	2535.954963
920.692843	2537.522762
920.997743	2535.065199
921.302603	2536.559901
921.607423	2532.494211
921.912204	2534.082174
922.216946	2536.385982
922.521647	2535.833975
922.826310	2533.782226
923.130932	2535.173584
923.435516	2534.593851
923.740059	2530.964221
924.044564	2531.579241
924.349028	2533.315919
924.653454	2526.810310
924.957840	2530.946577
925.262186	2528.625125
925.566493	2529.618233
925.870761	2527.821061
926.174989	2529.109076
926.479178	2528.816689
926.783328	2531.687626
927.087438	2530.286185
927.391509	2530.250897
927.695541	2530.371885
927.999533	2531.460774
928.303486	2532.138809
928.607400	2529.882893
928.911275	2529.366175
929.215110	2526.739734
929.518906	2530.061854
929.822663	2531.659900
930.126381	2529.358613
930.430060	2530.679395
930.733699	2529.721576
931.037299	2531.730476
931.340861	2528.612522
931.644383	2527.692512
931.947866	2530.344159
932.251309	2529.272913
932.554714	2528.652852
932.858080	2530.946577
933.161407	2528.940197
933.464694	2530.805424
933.767943	2530.626463
934.071153	2528.670496
934.374323	2530.790301
934.677455	2531.884231
934.980548	2529.008253
935.283602	2532.206865
935.586617	2530.429858
935.889593	2530.271062
936.192530	2527.193437
936.495428	2531.959848
936.798287	2529.310722
937.101108	2531.478418
937.403890	2530.061854
937.706632	2530.248377
938.009336	2533.941022
938.312002	2532.400949
938.614628	2532.932791
938.917216	2535.055117
939.219765	2533.499921
939.522275	2530.989426
939.824747	2533.562935
940.127179	2528.647810
940.429573	2525.303005
940.731929	2528.836854
941.034246	2525.073632
941.336524	2531.014632
941.638763	2529.192255
941.940964	2531.319622
942.243126	2532.174098
942.545250	2530.167718
942.847335	2530.031607
943.149381	2531.695188
943.451389	2529.562780
943.753359	2530.195445
944.055290	2532.295085
944.357182	2528.698222
944.659036	2529.688809
944.960851	2529.671165
945.262628	2532.123686
945.564367	2528.415917
945.866067	2528.335259
946.167729	2530.621422
946.469352	2530.518078
946.770937	2532.889941
947.072484	2532.191742
947.373992	2530.192924
947.675462	2528.093283
947.976893	2528.753675
948.278286	2529.764426
948.579641	2529.988757
948.880958	2529.348531
949.182236	2528.302491
949.483476	2532.189221
949.784678	2528.340300
950.085841	2531.657379
950.386967	2531.024714
950.688054	2531.092770
950.989103	2528.993129
951.290114	2529.870290
951.591087	2530.681916
951.892021	2529.290558
952.192917	2530.974303
952.493776	2531.395239
952.794596	2530.835671
953.095378	2529.948428
953.396122	2530.681916
953.696828	2529.603109
953.997496	2531.307019
954.298126	2530.621422
954.598718	2529.439272
954.899272	2529.162008
955.199788	2528.189065
955.500266	2528.950280
955.800706	2529.454395
956.101108	2526.381812
956.401472	2526.485155
956.701798	2523.513395
957.002087	2525.189579
957.302337	2530.387008
957.602550	2528.851977
957.902724	2530.336597
958.202861	2525.267717
958.502960	2527.669827
958.803022	2527.957172
959.103045	2527.460619
959.403031	2526.401976
959.702979	2528.428520
960.002889	2526.840557
960.302762	2526.044054
960.602596	2528.761236
960.902393	2527.569003
961.202153	2526.820392
961.501875	2525.449198
961.801559	2526.422141
962.101205	2525.426513
962.400814	2528.960362
962.700385	2524.340144
962.999918	2528.214271
963.299414	2526.361647
963.598873	2526.175124
963.898293	2528.471370
964.197677	2527.458098
964.497022	2527.876514
964.796331	2526.901051
965.095601	2524.400638
965.394835	2525.239990
965.694030	2526.636390
965.993189	2529.275434
966.292309	2524.239321
966.591393	2524.534229
966.890439	2529.227543
967.189447	2527.437933
967.488419	2524.551873
967.787353	2527.745444
968.086249	2526.918695
968.385108	2525.660927
968.683930	2525.681091
968.982714	2528.216792
969.281462	2527.982378
969.580172	2525.285361
969.878844	2527.475742
970.177480	2527.448016
970.476078	2527.725279
970.774639	2527.127903
971.073162	2528.625125
971.371649	2524.052799
971.670098	2523.034486
971.968510	2527.236287
972.266885	2522.343848
972.565223	2526.490197
972.863524	2529.391381
973.161788	2527.069929
973.460014	2527.163191
973.758204	2527.354754
974.056356	2525.731503
974.354471	2529.388860
974.652550	2526.333921
974.950591	2526.550690
975.248595	2527.264014
975.546563	2527.344672
975.844493	2526.270906
976.142386	2526.205371
976.440243	2528.753675
976.738062	2529.782070
977.035845	2527.407687
977.333590	2526.288550
977.631299	2528.252080
977.928971	2526.734693
978.226606	2525.728982
978.524204	2526.149919
978.821765	2527.337110
979.119290	2528.468849
979.416777	2526.578417
979.714228	2527.667306
980.011642	2526.044054
980.309020	2527.846267
980.606360	2525.560104
980.903664	2527.662265
981.200931	2525.262676
981.498162	2526.754857
981.795356	2524.879548
982.092513	2525.867614
982.389633	2526.447347
982.686717	2529.872811
982.983764	2527.168232
983.280775	2529.835002
983.577749	2526.618746
983.874686	2528.763757
984.171587	2526.215454
984.468451	2529.078829
984.765279	2527.327028
985.062070	2526.827954
985.358824	2523.941893
985.655543	2527.369878
985.952224	2528.350382
986.248869	2523.457943
986.545478	2523.969620
986.842050	2522.248066
987.138586	2524.347706
987.435086	2522.926101
987.731549	2522.464835
988.027975	2529.288037
988.324366	2525.824764
988.620719	2527.251411
988.917037	2525.839888
989.213318	2528.362985
989.509563	2522.956348
989.805772	2524.347706
990.101944	2524.209074
990.398080	2526.270906
990.694180	2526.696884
990.990244	2527.059847
991.286271	2524.277130
991.582262	2528.226874
991.878217	2524.030113
992.174136	2526.427182
992.470019	2524.423323
992.765865	2524.438447
993.061676	2526.008766
993.357450	2528.070598
993.653188	2525.660927
993.948890	2524.075484
994.244556	2526.202851
994.540186	2526.772501
994.835780	2527.589168
995.131337	2525.771832
995.426859	2525.113962
995.722345	2525.106400
996.017795	2524.665299
996.313208	2525.991122
996.608586	2526.505320
996.903928	2525.736544
997.199234	2525.960875
997.494504	2525.267717
997.789738	2524.375433
998.084936	2528.030269
998.380099	2525.144208
998.675225	2527.047244
998.970316	2527.178314
999.265371	2525.028262
999.560390	2526.434744
999.855373	2526.956503
1000.150320	2521.769156
1000.445232	2527.233767
1000.740108	2522.434588
1001.034948	2526.825433
1001.329752	2527.775691
1001.624521	2526.543129
1001.919254	2523.132788
1002.213951	2522.253107
1002.508613	2524.037675
1002.803239	2524.055319
1003.097829	2520.024917
1003.392384	2525.015659
1003.686903	2523.127747
1003.981386	2525.625639
1004.275834	2524.922398
1004.570246	2528.408356
1004.864623	2526.482635
1005.158964	2525.613036
1005.453270	2526.001205
1005.747540	2525.144208
1006.041775	2524.526667
1006.335974	2527.301822
1006.630138	2525.897861
1006.924266	2524.340144
1007.218359	2526.404497
1007.512416	2527.054806
1007.806438	2523.604136
1008.100425	2523.359640
1008.394376	2524.309897
1008.688292	2526.306194
1008.982172	2522.739578
1009.276017	2523.873838
1009.569827	2524.125895
1009.863602	2524.125895
1010.157341	2525.078673
1010.451045	2524.599764
1010.744714	2526.195289
1011.038347	2524.814013
1011.331945	2524.735875
1011.625508	2524.912315
1011.919036	2524.713190
1012.212528	2523.089938
1012.505986	2522.958868
1012.799408	2525.255114
1013.092795	2525.287881
1013.386147	2525.562624
1013.679464	2525.078673
1013.972745	2524.193951
1014.265992	2525.749147
1014.559204	2525.078673
1014.852380	2524.400638
1015.145521	2524.120854
1015.438628	2527.432892
1015.731699	2524.471214
1016.024736	2525.071112
1016.317737	2526.349044
1016.610703	2526.016328
1016.903635	2522.129598
1017.196531	2520.110616
1017.489393	2522.595905
1017.782219	2520.098013
1018.075011	2522.989115
1018.367768	2526.555732
1018.660490	2525.968437
1018.953177	2525.968437
1019.245829	2525.968437
