Dividing Wavelength (nm)	Counts (n)	Blue Motor Position (mm): 0.000000	Red Motor Position (mm): 44.200000	
326.493990	2129.128806
326.888308	2129.128806
327.282561	2129.128806
327.676750	2094.669999
328.070874	2096.807448
328.464933	2095.438775
328.858929	2106.083172
329.252859	2111.620879
329.646726	2127.432458
330.040528	2135.795732
330.434265	2157.142498
330.827938	2173.808553
331.221547	2190.968641
331.615091	2210.845910
332.008571	2228.641183
332.401986	2247.890829
332.795338	2266.414549
333.188625	2286.685029
333.581847	2305.838893
333.975006	2324.332366
334.368100	2342.472958
334.761129	2358.700432
335.154095	2376.994779
335.546996	2400.075702
335.939833	2422.365164
336.332606	2435.817483
336.725315	2449.229473
337.117960	2458.946297
337.510540	2467.917030
337.903056	2478.122846
338.295508	2484.696511
338.687896	2495.350989
339.080220	2500.966835
339.472480	2508.495798
339.864676	2513.925121
340.256807	2515.616428
340.648875	2520.667664
341.040879	2520.549197
341.432818	2526.389373
341.824694	2526.792666
342.216506	2525.981040
342.608253	2529.167049
342.999937	2528.720907
343.391557	2527.014477
343.783113	2523.372243
344.174605	2522.570699
344.566033	2522.996677
344.957397	2523.185720
345.348697	2518.809999
345.739934	2518.336130
346.131106	2516.884278
346.522215	2517.579957
346.913260	2511.442352
347.304241	2512.420336
347.695159	2510.678618
348.086012	2505.614778
348.476802	2503.081599
348.867528	2504.293996
349.258191	2501.463388
349.648789	2505.282062
350.039324	2498.683192
350.429796	2502.353152
350.820203	2497.390136
351.210548	2497.856443
351.600828	2493.579024
351.991045	2496.732265
352.381198	2495.252687
352.771288	2494.730927
353.161314	2494.337717
353.551276	2495.663541
353.941175	2494.342758
354.331010	2495.227481
354.720782	2497.770743
355.110490	2493.631956
355.500135	2495.504744
355.889717	2495.540033
356.279235	2498.219406
356.668689	2498.511793
357.058080	2497.289313
357.447408	2498.060609
357.836672	2494.829230
358.225873	2496.649086
358.615010	2492.260762
359.004084	2498.605054
359.393095	2498.352996
359.782043	2501.244098
360.170927	2501.407936
360.559748	2497.501041
360.948505	2504.407422
361.337199	2504.271311
361.725830	2503.205107
362.114398	2504.876249
362.502903	2505.352638
362.891344	2506.615448
363.279722	2505.473626
363.668037	2504.046980
364.056289	2505.836589
364.444478	2506.418842
364.832603	2508.584018
365.220665	2506.892711
365.608665	2510.519821
365.996601	2511.631396
366.384474	2509.070489
366.772284	2514.698938
367.160031	2512.977384
367.547715	2517.320338
367.935336	2519.866120
368.322893	2523.037006
368.710388	2523.505833
369.097820	2534.263656
369.485189	2529.008253
369.872495	2540.307999
370.259738	2547.973074
370.646918	2553.283929
371.034035	2559.325752
371.421090	2568.540981
371.808081	2580.821232
372.195010	2589.363467
372.581875	2604.660849
372.968678	2617.465379
373.355418	2628.533233
373.742096	2646.003351
374.128710	2659.927018
374.515262	2675.811694
374.901751	2692.097142
375.288177	2704.195911
375.674540	2725.151987
376.060841	2742.390213
376.447079	2763.384098
376.833254	2784.428395
377.219367	2793.288223
377.605417	2833.859429
377.991404	2842.003413
378.377329	2865.538040
378.763191	2882.176368
379.148991	2920.635331
379.534727	2945.548713
379.920402	2973.711119
380.306013	2985.494816
380.691563	3036.445758
381.077049	3056.537277
381.462474	3072.860533
381.847835	3112.781430
382.233134	3137.462919
382.618371	3136.016108
383.003545	3207.950853
383.388657	3209.805997
383.773706	3243.385123
384.158693	3261.235849
384.543618	3284.939354
384.928480	3320.729026
385.313280	3370.502859
385.698017	3365.199565
386.082692	3419.243255
386.467305	3427.616611
386.851856	3457.687094
387.236344	3477.340032
387.620770	3513.049045
388.005133	3535.610729
388.389435	3563.014442
388.773674	3576.360897
389.157851	3616.755662
389.541965	3634.802993
389.926018	3597.011983
390.310008	3671.802542
390.693936	3687.750232
391.077802	3726.557034
391.461606	3716.638564
391.845348	3780.399078
392.229027	3781.634161
392.612645	3790.398207
392.996200	3869.186400
393.379694	3908.283069
393.763125	3975.937874
394.146494	3942.636012
394.529801	4002.126668
394.913047	4054.204308
395.296230	4014.439686
395.679351	4072.977565
396.062410	4094.289043
396.445408	4077.353286
396.828343	4109.674644
397.211217	4136.977533
397.594028	4054.441242
397.976778	4121.428094
398.359466	4150.772651
398.742092	4177.989841
399.124656	4097.475052
399.507158	4178.428421
399.889598	4205.572514
400.271977	4267.293881
400.654294	4236.492431
401.036549	4243.676075
401.418742	4213.499728
401.800874	4313.942198
402.182944	4335.674612
402.564952	4402.893358
402.946898	4390.383734
403.328783	4385.665214
403.710606	4302.385353
404.092367	4494.473479
404.474067	4457.068117
404.855705	4466.905929
405.237282	4391.709558
405.618797	4504.628883
406.000250	4538.686919
406.381642	4619.705823
406.762972	4579.588321
407.144240	4589.567285
407.525447	4588.869085
407.906593	4647.197755
408.287677	4685.860885
408.668700	4618.122901
409.049661	4672.675747
409.430560	4712.684864
409.811399	4640.543432
410.192176	4803.828926
410.572891	4740.023042
410.953545	4840.856201
411.334138	4724.219024
411.714669	4795.289211
412.095139	4690.453376
412.475547	4832.510571
412.855894	4807.713135
413.236180	4814.637160
413.616405	4773.050161
413.996568	4858.439746
414.376670	4802.918998
414.756711	4757.190691
415.136691	4790.898366
415.516609	4865.893092
415.896466	4902.577568
416.276262	4935.982774
416.655997	4919.321761
417.035670	5098.915387
417.415283	5191.586918
417.794834	5135.136077
418.174324	5091.704016
418.553753	4996.390921
418.933121	5181.560063
419.312428	5247.788222
419.691674	5186.313871
420.070859	5314.828006
420.449983	5226.431373
420.829045	5338.302139
421.208047	5251.140589
421.586988	5316.380682
421.965867	5327.249409
422.344686	5460.323268
422.723444	5314.028983
423.102141	5134.490810
423.480777	5433.229587
423.859352	5203.015214
424.237866	5462.337209
424.616319	5452.406136
424.994712	5560.112908
425.373044	5439.016831
425.751314	5580.358182
426.129524	5380.814189
426.507673	5580.771557
426.885762	5663.154093
427.263789	5594.581798
427.641756	5475.862625
428.019662	5602.161172
428.397508	5606.952789
428.775292	5552.011774
429.153016	5652.875180
429.530679	5580.448923
429.908282	5659.925234
430.285824	5533.097365
430.663305	5806.224560
431.040726	5537.155494
431.418086	5539.335793
431.795385	5649.719418
432.172624	5655.733514
432.549802	5652.837372
432.926920	5666.534187
433.303977	5675.837636
433.680974	5718.024532
434.057910	5735.933231
434.434786	5738.940279
434.811601	5703.684970
435.188355	5942.365960
435.565050	5817.796528
435.941683	5800.434794
436.318257	6009.630076
436.694770	5994.355380
437.071222	6025.108939
437.447614	5963.523683
437.823946	5879.470004
438.200218	6028.536924
438.576429	5892.307303
438.952580	5988.777343
439.328670	6036.885074
439.704700	5943.351506
440.080670	5934.337923
440.456580	6204.178285
440.832429	6085.388536
441.208218	5931.101502
441.583947	6087.334422
441.959616	6088.453558
442.335224	6017.915213
442.710773	6155.473178
443.086261	6178.849008
443.461689	5975.514068
443.837057	6122.287262
444.212365	6279.256190
444.587612	6171.879613
444.962800	6325.763354
445.337927	6305.732330
445.712995	5919.095994
446.088002	6492.000444
446.462949	6319.066182
446.837837	6251.797025
447.212664	6431.614982
447.587431	6566.707823
447.962139	7111.659074
448.336786	8035.614354
448.711374	7775.962164
449.085901	6857.731114
449.460369	6774.594925
449.834776	6710.622683
450.209124	7097.526200
450.583412	7247.601350
450.957640	7399.589618
451.331808	7162.867115
451.705917	6711.308280
452.079965	6637.077290
452.453954	6844.861048
452.827883	6727.064406
453.201752	6815.312325
453.575562	6615.843950
453.949311	6825.606361
454.323001	6713.380194
454.696632	6783.381657
455.070202	6926.303409
455.443713	7078.422747
455.817164	7176.843714
456.190556	7261.265397
456.563888	7336.406316
456.937160	7381.063377
457.310373	7039.159720
457.683526	7060.347690
458.056619	6947.786286
458.429653	6935.027126
458.802628	6875.165945
459.175542	6981.153684
459.548398	7340.164496
459.921194	7496.972107
460.293930	7504.496029
460.666607	8031.354579
461.039224	8337.929830
461.411782	8466.053275
461.784280	8487.364753
462.156719	8377.553299
462.529099	8260.711956
462.901419	7840.244437
463.273680	7729.933908
463.645882	7754.199503
464.018024	7612.752287
464.390106	7780.534490
464.762130	8171.027308
465.134094	8637.419739
465.505999	9662.336727
465.877845	10881.219672
466.249631	11534.855679
466.621358	11150.127421
466.993026	10523.317913
467.364634	10263.527091
467.736184	9894.197037
468.107674	9567.701667
468.479105	9601.169887
468.850477	9358.002269
469.221790	9136.907344
469.593043	8808.909710
469.964238	8663.295981
470.335373	8681.209722
470.706449	8734.081343
471.077467	8713.248775
471.448425	10031.127378
471.819324	11109.198292
472.190164	11129.496498
472.560945	9878.138441
472.931667	9085.469931
473.302330	8954.871279
473.672934	8603.757434
474.043479	8959.131054
474.413965	8896.192248
474.784393	8778.685472
475.154761	8934.250439
475.525070	9024.910550
475.895321	8850.201801
476.265513	9024.668574
476.635645	9196.340027
477.005719	9195.112506
477.375734	9305.402870
477.745691	9550.080313
478.115588	9678.959932
478.485427	9921.179813
478.855207	10461.974632
479.224928	11277.903027
479.594591	11911.558421
479.964194	11719.092208
480.333739	11658.966366
480.703226	11575.053840
481.072653	11659.041984
481.442022	11903.724468
481.811333	12090.146337
482.180584	11900.301524
482.549777	11605.003335
482.918912	11432.182499
483.287988	11455.349121
483.657005	11460.964967
484.025964	11145.469394
484.394864	11273.618046
484.763706	11249.309602
485.132489	11007.167859
485.501213	10972.436830
485.869879	11047.746627
486.238487	10883.823428
486.607036	10998.794503
486.975527	10770.949472
487.343959	10957.315889
487.712333	11013.469302
488.080648	10937.408372
488.448905	10990.146403
488.817104	10927.505026
489.185244	11190.040756
489.553326	11345.555311
489.921350	11881.896272
490.289315	12948.032255
490.657222	13291.004636
491.025070	13202.058518
491.392861	13066.085995
491.760593	12692.841485
492.128267	12342.088083
492.495883	12007.400838
492.863440	11680.098883
493.230939	11341.066164
493.598380	11271.150401
493.965763	11143.573921
494.333088	11040.255473
494.700354	10960.227155
495.067563	11025.666373
495.434713	10847.713643
495.801805	10979.260032
496.168839	10904.434185
496.535815	10837.732158
496.902733	10840.832468
497.269593	10770.616756
497.636395	10870.368588
498.003139	10862.360715
498.369825	10729.702752
498.736453	10886.807791
499.103023	10809.821810
499.469535	10843.017808
499.835989	10830.803092
500.202385	10795.988883
500.568723	10642.957097
500.935003	10864.513288
501.301226	10671.885758
501.667390	10928.304048
502.033497	11025.210149
502.399546	10890.883563
502.765537	10794.663060
503.131470	10864.271312
503.497345	11040.580627
503.863163	10658.549386
504.228923	10967.294853
504.594625	11031.355315
504.960269	10780.031111
505.325856	10996.339461
505.691385	10793.785899
506.056856	10948.617378
506.422270	10972.046140
506.787625	10862.108657
507.152924	10970.780811
507.518164	10959.155910
507.883347	10878.752027
508.248472	10790.282297
508.613540	11031.292301
508.978550	10910.342417
509.343503	10881.602799
509.708398	11001.907415
510.073236	11117.261618
510.438016	11124.294028
510.802738	11073.983312
511.167403	11125.841662
511.532010	11020.718481
511.896561	11254.272618
512.261053	11320.639408
512.625488	11193.564523
512.989866	11171.892602
513.354186	11162.074955
513.718449	11062.761704
514.082655	11260.964750
514.446803	11157.116980
514.810894	11276.945207
515.174927	11145.676082
515.538904	11166.967395
515.902822	11320.286527
516.266684	11201.852180
516.630488	11153.550364
516.994235	11200.760770
517.357925	11269.922880
517.721558	11358.944616
518.085133	11377.919519
518.448651	11383.772298
518.812112	11273.988571
519.175516	11283.967535
519.538863	11398.195040
519.902152	11318.093626
520.265385	11475.155815
520.628560	11388.697506
520.991678	11364.366377
521.354739	11430.468507
521.717743	11364.283198
522.080690	11339.148005
522.443580	11473.744292
522.806413	11437.984867
523.169189	11459.906324
523.531908	11515.452278
523.894569	11331.563589
524.257174	11340.269661
524.619722	11464.735750
524.982213	11413.444530
525.344647	11455.457506
525.707025	11407.427913
526.069345	11504.167655
526.431608	11422.483319
526.793815	11533.063549
527.155964	11320.122690
527.518057	11374.617563
527.880093	11323.878350
528.242072	11393.111036
528.603995	11293.177723
528.965860	11220.751465
529.327669	11270.056471
529.689421	11223.766075
530.051117	11188.808194
530.412755	11289.535489
530.774337	11182.050527
531.135862	11163.607466
531.497331	11197.136180
531.858743	11042.367716
532.220098	11202.295801
532.581396	11078.739641
532.942638	11063.691797
533.303824	11022.586228
533.664953	11034.485872
534.026025	10945.849784
534.387040	11045.344517
534.747999	11053.848944
535.108902	11113.503438
535.469748	10870.643331
535.830537	10972.880451
536.191270	10943.994640
536.551947	10972.671243
536.912567	10962.362084
537.273131	10893.600745
537.633638	10875.114834
537.994089	10858.108502
538.354483	10810.547736
538.714821	10955.299427
539.075103	10964.781838
539.435328	10928.293966
539.795497	10755.853737
540.155609	10919.030846
540.515665	11000.120326
540.875665	10737.571993
541.235609	10804.964658
541.595496	10806.003136
541.955328	10957.270518
542.315102	10840.454381
542.674821	10785.715012
543.034483	10791.285487
543.394090	10799.623555
543.753640	10729.256609
544.113134	10945.252408
544.472571	10801.226642
544.831953	10941.262334
545.191278	10751.089847
545.550548	10779.660586
545.909761	10920.356669
546.268918	10884.093129
546.628019	10971.234515
546.987064	10828.743781
547.346053	10752.493808
547.704986	10860.039264
548.063863	10844.522592
548.422684	10830.359470
548.781449	10750.217727
549.140158	10846.985196
549.498811	10730.229552
549.857408	10585.253529
550.215949	10810.305760
550.574434	10663.247741
550.932864	10762.848338
551.291237	10827.664974
551.649555	10773.054154
552.007817	10777.371902
552.366022	10744.337221
552.724173	10740.677343
553.082267	10721.503315
553.440305	10864.614111
553.798288	10660.684314
554.156215	10812.728035
554.514086	10789.884046
554.871902	10646.755606
555.229661	10674.769298
555.587365	10657.460496
555.945014	10548.241378
556.302606	10671.749647
556.660143	10566.550848
557.017625	10725.067411
557.375050	10622.696699
557.732421	10755.374828
558.089735	10670.917857
558.446994	10662.897381
558.804197	10704.381036
559.161345	10708.482014
559.518437	10555.833355
559.875474	10651.055710
560.232455	10675.023876
560.589381	10628.216763
560.946251	10622.984045
561.303065	10727.575385
561.659825	10668.845942
562.016528	10590.370300
562.373177	10473.435696
562.729770	10590.834087
563.086307	10505.878041
563.442789	10601.382701
563.799216	10472.256066
564.155587	10517.505463
564.511904	10477.708074
564.868164	10459.806936
565.224370	10485.753755
565.580520	10404.213092
565.936615	10411.754658
566.292654	10277.997723
566.648638	10413.206510
567.004567	10368.128512
567.360441	10344.891314
567.716260	10260.653633
568.072023	10361.229693
568.427732	10312.822014
568.783385	10214.852230
569.138982	10292.591863
569.494525	10305.517382
569.850013	10180.648001
570.205445	10267.449108
570.560823	10158.499692
570.916145	10077.868956
571.271412	10147.623402
571.626625	10093.393190
571.981782	10073.135313
572.336884	10044.670438
572.691931	10054.205780
573.046923	9999.847018
573.401860	9952.976890
573.756743	9890.698476
574.111570	9930.311863
574.466342	9915.460623
574.821059	9939.179252
575.175722	9842.063944
575.530330	9849.020736
575.884882	9835.258386
576.239380	9756.984391
576.593823	9745.964428
576.948211	9760.377087
577.302544	9640.228747
577.656823	9655.216097
578.011047	9655.808433
578.365216	9632.276327
578.719330	9553.233555
579.073389	9563.590606
579.427394	9509.264611
579.781344	9490.118309
580.135239	9429.632024
580.489080	9445.436042
580.842866	9348.633285
581.196597	9348.240075
581.550273	9394.716993
581.903895	9354.317186
582.257463	9430.436088
582.610975	9304.160226
582.964434	9334.515534
583.317837	9254.426723
583.671186	9235.204803
584.024481	9229.909071
584.377721	9146.886308
584.730906	9129.373340
585.084037	9157.747474
585.437113	9104.200338
585.790135	9115.938665
586.143103	9013.005865
586.496016	8991.235642
586.848874	9042.126090
587.201679	9033.765336
587.554428	8914.085823
587.907124	8963.131209
588.259765	8936.919730
588.612352	8939.231099
588.964884	8811.853744
589.317362	8830.039707
589.669786	8829.437289
590.022155	8880.733550
590.374470	8899.519409
590.726731	8832.928288
591.078937	8684.317593
591.431090	8800.022156
591.783188	8671.397116
592.135232	8666.053492
592.487222	8661.279520
592.839157	8713.420174
593.191038	8647.169330
593.542866	8594.890044
593.894639	8490.361719
594.246358	8545.675780
594.598022	8562.228408
594.949633	8459.782080
595.301190	8431.632277
595.652692	8461.980023
596.004141	8571.715860
596.355535	8347.293773
596.706876	8325.604209
597.058162	8263.895444
597.409395	8334.436310
597.760573	8392.727172
598.111698	8307.950088
598.462768	8292.357799
598.813785	8263.663551
599.164748	8226.573262
599.515657	8220.244093
599.866511	8128.643807
600.217312	8258.211543
600.568060	8109.285777
600.918753	8214.782003
601.269392	8187.668157
601.619978	8099.543747
601.970510	8161.255032
602.320988	8153.728589
602.671412	8218.487251
603.021783	8153.721027
603.372100	8124.535267
603.722363	8132.273438
604.072572	8104.300075
604.422728	8114.974719
604.772830	8046.818319
605.122878	8057.893734
605.472872	8047.582053
605.822813	8073.150786
606.172701	8019.059205
606.522534	8097.549970
606.872314	8096.226667
607.222041	8063.864980
607.571714	8121.024103
607.921333	8073.523831
608.270899	8084.072446
608.620411	8171.307092
608.969870	8076.898884
609.319276	8065.803304
609.668627	8090.633507
610.017926	8120.610729
610.367171	8165.376175
610.716362	8144.157958
611.065500	8136.830641
611.414585	8162.333838
611.763616	8152.390162
612.112594	8128.379147
612.461518	8143.653843
612.810389	8205.584418
613.159207	8145.831621
613.507971	8096.246832
613.856682	8213.877116
614.205340	8168.166453
614.553945	8245.505315
614.902496	8145.042681
615.250994	8201.702729
615.599439	8177.530397
615.947830	8200.361783
616.296169	8168.279879
616.644454	8175.695417
616.992686	8174.664501
617.340864	8233.272955
617.688990	8137.980024
618.037063	8231.322029
618.385082	8175.927310
618.733048	8263.426617
619.080961	8206.612813
619.428821	8220.609577
619.776628	8220.838949
620.124382	8174.329264
620.472083	8155.850915
620.819731	8185.013990
621.167326	8076.054490
621.514868	8088.667457
621.862357	7971.992472
622.209793	7994.654979
622.557176	7934.440917
622.904506	7895.629074
623.251783	7829.325298
623.599007	7783.639841
623.946179	7789.691746
624.293297	7752.215808
624.640363	7666.720360
624.987376	7644.383007
625.334336	7594.485666
625.681243	7536.842593
626.028097	7530.105091
626.374899	7506.028540
626.721647	7494.514544
627.068343	7432.896521
627.414987	7401.220431
627.761577	7359.625870
628.108115	7394.495532
628.454600	7285.750281
628.801032	7334.457910
629.147412	7299.908362
629.493739	7288.870756
629.840014	7222.032617
630.186236	7282.034951
630.532405	7160.908627
630.878521	7214.425516
631.224585	7163.711508
631.570597	7086.907009
631.916556	7122.903368
632.262462	7118.870445
632.608316	7077.843014
632.954117	7049.758746
633.299866	7040.311624
633.645562	7032.283587
633.991206	6953.253418
634.336797	6895.428863
634.682336	6854.472008
635.027823	6822.266597
635.373257	6813.540359
635.718639	6744.920173
636.063968	6753.464929
636.409245	6650.701008
636.754470	6647.855277
637.099642	6603.528411
637.444762	6553.709208
637.789829	6557.106946
638.134845	6501.442525
638.479808	6487.082798
638.824719	6486.077088
639.169577	6419.564104
639.514383	6433.676814
639.859137	6364.214755
640.203839	6377.099945
640.548489	6358.505649
640.893086	6332.049673
641.237632	6300.255116
641.582125	6321.080122
641.926566	6293.426873
642.270955	6306.261651
642.615292	6301.384334
642.959576	6319.408980
643.303809	6307.524460
643.647990	6305.812988
643.992118	6299.940044
644.336195	6244.631024
644.680219	6268.465600
645.024192	6260.588797
645.368112	6350.374267
645.711981	6374.218925
646.055797	6442.823988
646.399562	6407.034316
646.743274	6523.207707
647.086935	6573.876344
647.430544	6572.053967
647.774101	6586.078457
648.117606	6594.340908
648.461059	6582.186686
648.804460	6547.170831
649.147810	6456.190607
649.491108	6424.615340
649.834354	6399.091978
650.177548	6311.953113
650.520690	6229.898252
650.863781	6203.999324
651.206820	6222.238219
651.549807	6144.748123
651.892742	6081.108597
652.235626	6092.342808
652.578458	6072.251289
652.921238	5979.932639
653.263967	6019.777919
653.606644	5961.187108
653.949269	5955.364576
654.291843	5899.740484
654.634365	5943.543070
654.976836	5894.139762
655.319255	5889.809411
655.661622	5873.934818
656.003938	5863.366038
656.346203	5824.317261
656.688416	5857.949319
657.030577	5805.599457
657.372687	5776.511999
657.714746	5765.754177
658.056753	5804.240866
658.398708	5742.942955
658.740612	5734.551955
659.082465	5778.417555
659.424266	5773.268016
659.766016	5762.482468
660.107715	5736.182768
660.449362	5752.692547
660.790958	5740.193006
661.132503	5724.671293
661.473996	5762.091778
661.815438	5745.929839
662.156829	5738.910032
662.498168	5728.540379
662.839456	5705.582964
663.180693	5731.469289
663.521879	5738.726030
663.863013	5724.711623
664.204097	5736.288632
664.545129	5776.380929
664.886110	5767.826091
665.227040	5795.277694
665.567918	5762.847951
665.908746	5783.252022
666.249522	5788.784688
666.590248	5768.015134
666.930922	5793.452796
667.271545	5801.962264
667.612118	5800.028982
667.952639	5773.928407
668.293109	5786.606909
668.633528	5748.208441
668.973896	5748.405046
669.314213	5737.997583
669.654480	5707.894333
669.994695	5703.311924
670.334859	5698.195153
670.674973	5679.530281
671.015035	5682.219737
671.355047	5673.508623
671.695008	5658.710316
672.034918	5629.756449
672.374777	5642.974354
672.714585	5617.783708
673.054342	5620.062310
673.394049	5606.756184
673.733705	5635.541173
674.073310	5619.066682
674.412864	5587.098205
674.752368	5565.479217
675.091820	5571.576492
675.431223	5507.465618
675.770574	5504.536708
676.109875	5457.722032
676.449125	5460.114060
676.788324	5425.105767
677.127473	5371.626687
677.466571	5362.920614
677.805619	5347.330846
678.144616	5329.354091
678.483562	5303.747550
678.822458	5274.463487
679.161303	5270.007107
679.500098	5256.048152
679.838842	5234.340944
680.177535	5236.581737
680.516179	5250.961628
680.854771	5255.803656
681.193314	5324.670859
681.531805	5416.313995
681.870247	5540.154980
682.208638	5625.000120
682.546978	5639.682481
682.885268	5617.380416
683.223508	5532.268095
683.561697	5478.020238
683.899836	5451.045024
684.237925	5404.900823
684.575963	5368.498651
684.913951	5329.901056
685.251889	5372.912181
685.589776	5348.248336
685.927614	5321.144572
686.265401	5370.343713
686.603137	5352.321588
686.940824	5416.145116
687.278460	5428.243885
687.616046	5427.218011
687.953582	5485.118183
688.291068	5463.282425
688.628504	5504.007387
688.965889	5474.695597
689.303224	5421.715591
689.640510	5375.662130
689.977745	5298.771931
690.314930	5219.640939
690.652065	5167.228063
690.989150	5091.577988
691.326185	5021.531155
691.663170	4961.949758
692.000105	4895.371239
692.336990	4832.238348
692.673825	4800.920180
693.010610	4740.786777
693.347345	4686.342315
693.684030	4658.618489
694.020665	4623.857213
694.357251	4544.690933
694.693786	4550.021953
695.030272	4516.974669
695.366707	4483.274556
695.703093	4455.747335
696.039429	4469.696208
696.375716	4443.411632
696.711952	4424.648457
697.048139	4415.972631
697.384276	4389.763672
697.720363	4394.172162
698.056400	4393.267274
698.392388	4348.854709
698.728326	4332.788552
699.064214	4315.220131
699.400053	4302.755878
699.735842	4266.966206
700.071581	4248.064400
700.407270	4222.694793
700.742910	4205.355744
701.078501	4162.027027
701.414042	4147.392557
701.749533	4123.189978
702.084974	4075.445210
702.420366	4112.351497
702.755709	4062.020617
703.091002	4018.339019
703.426246	4043.834654
703.761440	4019.178371
704.096584	3989.281808
704.431679	3994.443950
704.766725	3977.863595
705.101721	3966.533601
705.436668	3984.180160
705.771565	3950.812763
706.106413	3968.383705
706.441212	3981.417608
706.775961	3981.858709
707.110661	3976.981393
707.445311	3998.439064
707.779913	3995.822705
708.114465	4009.796784
708.448967	4031.829147
708.783421	4070.789704
709.117825	4098.558900
709.452180	4098.019497
709.786485	4134.572903
710.120742	4195.787634
710.454949	4190.176830
710.789107	4235.544694
711.123216	4282.956746
711.457275	4279.001961
711.791286	4326.986184
712.125247	4329.385773
712.459159	4271.987195
712.793023	4335.442719
713.126837	4269.146505
713.460602	4262.880351
713.794318	4221.331161
714.127985	4216.549626
714.461602	4140.181187
714.795171	4126.796923
715.128691	4069.577307
715.462162	4020.957898
715.795584	3974.906958
716.128957	3958.046819
716.462281	3928.800565
716.795556	3900.159249
717.128782	3862.811861
717.461960	3811.571053
717.795088	3814.681445
718.128167	3781.578708
718.461198	3743.427256
718.794180	3736.896441
719.127113	3709.961556
719.459997	3692.004966
719.792833	3662.133609
720.125619	3659.008093
720.458357	3624.335037
720.791046	3623.467959
721.123686	3600.397118
721.456278	3571.720514
721.788821	3578.248809
722.121315	3557.030592
722.453761	3543.878222
722.786158	3542.993499
723.118506	3555.616548
723.450805	3531.565203
723.783056	3543.573232
724.115259	3542.018036
724.447412	3539.200031
724.779518	3539.855381
725.111574	3543.956360
725.443582	3560.143505
725.775542	3548.465672
726.107453	3576.986000
726.439315	3573.313519
726.771129	3593.790686
727.102895	3613.738532
727.434612	3638.782984
727.766281	3650.639778
728.097901	3654.050118
728.429473	3652.373935
728.760996	3646.921927
729.092471	3650.788492
729.423897	3635.430617
729.755276	3627.846201
730.086606	3629.643372
730.417887	3663.887930
730.749120	3700.370761
731.080305	3727.852611
731.411442	3749.995879
731.742530	3734.267479
732.073570	3734.741348
732.404562	3758.913680
732.735506	3750.409254
733.066401	3730.000142
733.397249	3686.772248
733.728048	3627.737816
734.058798	3557.728792
734.389501	3509.764734
734.720156	3476.909013
735.050762	3442.689661
735.381320	3423.223246
735.711831	3398.095614
736.042293	3376.521996
736.372707	3378.798077
736.703073	3364.874410
737.033391	3363.286447
737.363661	3368.057899
737.693883	3378.233468
738.024056	3385.066752
738.354182	3388.630848
738.684260	3423.871034
739.014290	3437.280503
739.344272	3437.434258
739.674207	3459.733802
740.004093	3468.187817
740.333931	3460.941159
740.663722	3457.366981
740.993464	3452.782051
741.323159	3436.171449
741.652806	3412.036925
741.982405	3394.397928
742.311956	3369.855070
742.641460	3360.453318
742.970915	3340.888600
743.300323	3312.025474
743.629683	3295.253555
743.958996	3280.354425
744.288260	3262.239039
744.617477	3238.253229
744.946647	3230.305850
745.275768	3208.989331
745.604842	3200.794935
745.933869	3180.317768
746.262847	3167.989626
746.591778	3182.646781
746.920662	3167.467867
747.249498	3156.306752
747.578286	3168.904596
747.907027	3186.505784
748.235720	3192.310673
748.564365	3198.523895
748.892963	3191.438553
749.221514	3183.319775
749.550017	3175.579083
749.878473	3167.556087
750.206881	3147.320896
750.535242	3142.279742
750.863555	3138.902169
751.191821	3133.682054
751.520039	3130.455715
751.848210	3116.804271
752.176334	3125.480097
752.504411	3124.880199
752.832440	3109.668517
753.160421	3102.144595
753.488356	3099.079574
753.816243	3100.743155
754.144082	3078.672983
754.471875	3074.536716
754.799620	3079.156934
755.127318	3077.510997
755.454969	3073.813311
755.782572	3073.462951
756.110129	3063.612536
756.437638	3057.971485
756.765100	3060.038358
757.092515	3065.845767
757.419882	3069.165367
757.747203	3056.005435
758.074477	3056.915363
758.401703	3063.365519
758.728882	3069.641756
759.056014	3070.534040
759.383099	3077.664752
759.710138	3079.731625
760.037129	3089.483738
760.364073	3097.587392
760.690970	3085.256730
761.017820	3076.507807
761.344623	3088.367122
761.671379	3104.032507
761.998088	3126.866414
762.324751	3198.937270
762.651366	3346.214579
762.977935	3632.174031
763.304456	3873.920043
763.630931	3898.210843
763.957359	3701.270607
764.283740	3505.699043
764.610074	3379.551730
764.936362	3264.646190
765.262602	3185.472348
765.588796	3125.119654
765.914943	3074.317426
766.241044	3032.019625
766.567097	3010.519104
766.893104	2985.449446
767.219064	2964.440437
767.544978	2950.037860
767.870845	2925.391659
768.196665	2916.388158
768.522438	2910.691655
768.848165	2904.428021
769.173846	2885.422871
769.499479	2881.611759
769.825066	2869.812938
770.150607	2860.842205
770.476101	2860.716176
770.801548	2859.770960
771.126949	2841.458968
771.452303	2835.956549
771.777611	2828.117555
772.102872	2827.986485
772.428087	2817.831080
772.753256	2812.121973
773.078378	2806.717857
773.403453	2791.680095
773.728482	2786.951492
774.053465	2790.311421
774.378401	2783.959567
774.703291	2771.991868
775.028135	2770.837444
775.352932	2766.670930
775.677683	2761.932246
776.002388	2758.889909
776.327046	2758.607605
776.651658	2751.308014
776.976224	2747.759042
777.300743	2747.257447
777.625216	2741.041704
777.949643	2738.001888
778.274024	2741.137486
778.598359	2735.347721
778.922647	2732.975858
779.246889	2732.746486
779.571086	2727.791031
779.895236	2727.743140
780.219339	2729.472256
780.543397	2733.855539
780.867409	2733.046434
781.191374	2733.079202
781.515294	2728.653069
781.839167	2730.780436
782.162995	2728.408573
782.486776	2727.932184
782.810511	2727.584344
783.134201	2720.292315
783.457844	2720.380535
783.781441	2714.986501
784.104993	2711.944164
784.428498	2710.388968
784.751958	2712.188660
785.075372	2707.611292
785.398739	2703.737166
785.722061	2707.323947
786.045337	2710.194884
786.368568	2709.622713
786.691752	2706.983669
787.014891	2723.039744
787.337983	2737.585993
787.661030	2757.047368
787.984031	2787.017027
788.306987	2805.092084
788.629897	2801.878349
788.952760	2792.932821
789.275579	2777.900101
789.598351	2752.187695
789.921078	2734.135323
790.243759	2723.599312
790.566395	2711.067003
790.888984	2706.161961
791.211529	2697.546629
791.534027	2692.197965
791.856480	2687.565144
792.178888	2682.955009
792.501249	2677.223217
792.823566	2678.405368
793.145836	2675.967970
793.468062	2673.633916
793.790241	2672.166940
794.112375	2673.616272
794.434464	2679.590039
794.756507	2679.237158
795.078505	2685.246213
795.400457	2691.593026
795.722364	2703.858153
796.044226	2717.562530
796.366042	2719.480689
796.687812	2715.170503
797.009538	2717.280226
797.331218	2713.544731
797.652852	2702.880170
797.974442	2699.104345
798.295986	2694.148891
798.617484	2689.480783
798.938938	2681.908970
799.260346	2680.116839
799.581709	2676.865295
799.903026	2673.026457
800.224299	2668.867505
800.545526	2668.055879
800.866708	2661.494817
801.187845	2660.501710
801.508936	2657.648417
801.829983	2658.097079
802.150984	2649.968219
802.471940	2646.787251
802.792851	2648.723054
803.113717	2650.767242
803.434538	2648.032416
803.755314	2647.225831
804.076045	2645.930255
804.396731	2646.890594
804.717372	2644.276756
805.037967	2646.023516
805.358518	2646.462096
805.679024	2648.934782
805.999485	2649.025523
806.319901	2654.190185
806.640272	2646.941006
806.960598	2648.939823
807.280879	2652.380411
807.601115	2655.047181
807.921306	2652.108189
808.241453	2648.811274
808.561554	2652.067859
808.881611	2649.948054
809.201623	2649.411171
809.521590	2647.480409
809.841513	2642.676190
810.161390	2646.804895
810.481223	2643.465130
810.801011	2639.144862
811.120755	2639.848102
811.440453	2636.525982
811.760107	2635.439613
812.079716	2633.869294
812.399281	2629.964920
812.718801	2627.036010
813.038276	2621.573920
813.357707	2625.901750
813.677093	2628.349231
813.996434	2627.328397
814.315731	2622.831688
814.634983	2623.900412
814.954191	2624.684312
815.273354	2627.222533
815.592473	2629.178500
815.911547	2628.878552
816.230577	2635.122021
816.549562	2635.646301
816.868502	2635.406846
817.187399	2637.214100
817.506250	2642.267856
817.825058	2641.133597
818.143821	2641.695685
818.462539	2644.465799
818.781213	2654.722027
819.099843	2664.259890
819.418429	2691.076308
819.736970	2711.520707
820.055466	2734.296640
820.373919	2761.145826
820.692327	2799.415745
821.010691	2858.992101
821.329011	3046.238199
821.647286	3464.953917
821.965517	4101.268520
822.283704	4442.663020
822.601847	4404.435951
822.919945	4058.451480
823.237999	3751.767845
823.556010	3486.411588
823.873976	3271.769340
824.191897	3120.443984
824.509775	3007.096160
824.827609	2922.210691
825.145398	2880.394320
825.463144	2872.918289
825.780845	2899.049110
826.098502	2945.072324
826.416116	3057.953841
826.733685	3183.710465
827.051210	3202.851726
827.368692	3141.871408
827.686129	3026.555014
828.003522	2911.067221
828.320872	2828.914057
828.638177	2766.045827
828.955439	2726.810527
829.272656	2696.855991
829.589830	2677.258505
829.906960	2664.020435
830.224046	2651.087355
830.541088	2638.862557
830.858086	2637.274593
831.175041	2630.302678
831.491952	2631.016001
831.808819	2630.695888
832.125642	2636.992289
832.442421	2651.392345
832.759157	2678.302024
833.075849	2736.035838
833.392497	2825.717965
833.709101	2887.091493
834.025662	2868.335880
834.342179	2814.599701
834.658653	2756.949065
834.975083	2712.501212
835.291469	2686.201512
835.607811	2656.120947
835.924110	2638.441621
836.240366	2626.103397
836.556578	2614.843979
836.872746	2606.642022
837.188871	2599.818820
837.504952	2595.218768
837.820990	2594.003849
838.136984	2589.055957
838.452935	2586.900864
838.768842	2589.610484
839.084706	2592.131061
839.400526	2617.719958
839.716303	2658.807882
840.032037	2688.578416
840.347727	2680.429391
840.663373	2657.807213
840.978977	2629.228912
841.294537	2611.466406
841.610054	2597.681371
841.925527	2589.189547
842.240957	2584.040009
842.556344	2580.314596
842.871687	2576.574060
843.186987	2571.464851
843.502244	2570.282700
843.817458	2570.212124
844.132629	2565.654921
844.447756	2563.648542
844.762840	2558.647717
845.077881	2560.316339
845.392879	2557.342058
845.707833	2559.023283
846.022745	2558.299877
846.337613	2560.112172
846.652438	2559.603016
846.967221	2558.763663
847.281960	2558.337686
847.596656	2556.548076
847.911309	2558.723334
848.225919	2557.044630
848.540485	2557.770556
848.855009	2559.446740
849.169490	2555.383570
849.483928	2556.076728
849.798323	2557.263920
850.112675	2558.675443
850.426984	2555.708724
850.741251	2554.045143
851.055474	2554.909701
851.369654	2557.493293
851.683792	2555.502037
851.997887	2557.417675
852.311938	2555.224773
852.625947	2556.719476
852.939914	2557.674774
853.253837	2559.199723
853.567718	2554.100596
853.881555	2558.410783
854.195350	2553.561193
854.509103	2555.814588
854.822812	2556.777449
855.136479	2556.553118
855.450103	2553.382232
855.763685	2553.538508
856.077224	2551.496840
856.390720	2554.145967
856.704173	2555.723848
857.017584	2557.967161
857.330953	2557.916750
857.644278	2557.526060
857.957561	2558.672923
858.270802	2555.582695
858.584000	2557.079918
858.897155	2556.482541
859.210268	2557.589075
859.523339	2556.134702
859.836367	2556.313663
860.149352	2556.971533
860.462295	2554.637479
860.775195	2553.359547
861.088054	2549.626572
861.400869	2553.788045
861.713642	2550.642365
862.026373	2553.977088
862.339062	2554.733261
862.651708	2553.508261
862.964312	2555.592778
863.276873	2557.092521
863.589392	2558.040258
863.901869	2558.251986
864.214303	2560.638973
864.526696	2557.788200
864.839045	2559.171997
865.151353	2560.689384
865.463619	2557.258879
865.775842	2558.801472
866.088023	2557.553787
866.400162	2558.579661
866.712258	2560.051678
867.024313	2562.047975
867.336325	2559.403890
867.648296	2559.802141
867.960224	2556.167469
868.272110	2557.092521
868.583954	2556.384239
868.895755	2555.693601
869.207515	2557.848694
869.519233	2559.103941
869.830909	2561.402707
870.142542	2561.238870
870.454134	2560.754919
870.765684	2559.597974
871.077191	2558.786349
871.388657	2561.753068
871.700081	2559.804662
872.011463	2562.463870
872.322803	2562.715928
872.634101	2562.819272
872.945357	2563.638459
873.256571	2564.061916
873.567744	2567.429407
873.878874	2569.161043
874.189963	2566.746331
874.501010	2567.537792
874.812015	2565.859088
875.122979	2567.689026
875.433900	2563.789694
875.744780	2565.785991
876.055618	2564.692060
876.366415	2569.241702
876.677169	2566.408573
876.987882	2562.809189
877.298554	2563.242729
877.609183	2562.932698
877.919771	2563.903120
878.230317	2566.285065
878.540822	2570.086095
878.851285	2574.726477
879.161707	2581.206880
879.472087	2589.408838
879.782425	2603.544233
880.092722	2626.047944
880.402977	2679.153979
880.713191	2766.310488
881.023363	2888.034189
881.333494	2965.224336
881.643583	3001.008967
881.953631	2975.183136
882.263637	2913.209711
882.573602	2849.509691
882.883526	2802.858853
883.193408	2760.135074
883.503248	2725.814899
883.813048	2697.266845
884.122806	2670.248781
884.432522	2648.927221
884.742197	2629.097842
885.051831	2621.488220
885.361424	2608.429111
885.670975	2596.824375
885.980485	2594.888572
886.289954	2588.874475
886.599382	2587.541090
886.908768	2581.373238
887.218113	2575.507856
887.527417	2574.297979
887.836680	2572.372258
888.145901	2569.581980
888.455082	2567.416804
888.764221	2568.062072
889.073319	2563.784653
889.382376	2566.963100
889.691392	2565.662482
890.000366	2559.444219
890.309300	2563.048644
890.618193	2564.263562
890.927044	2565.712894
891.235855	2563.018397
891.544625	2568.314129
891.853353	2566.363203
892.162041	2565.415466
892.470687	2571.870663
892.779293	2576.516087
893.087858	2575.540623
893.396381	2580.206211
893.704864	2593.648448
894.013306	2606.536158
894.321707	2635.691671
894.630068	2647.097282
894.938387	2652.365287
895.246665	2647.805564
895.554903	2635.621095
895.863100	2622.327572
896.171256	2611.065635
896.479371	2600.146495
896.787446	2591.848756
897.095480	2584.455904
897.403473	2580.463310
897.711425	2576.944585
898.019336	2575.041549
898.327207	2571.011147
898.635038	2570.025601
898.942827	2569.478636
899.250576	2568.611557
899.558284	2564.928995
899.865952	2565.833882
900.173579	2558.514126
900.481165	2561.629559
900.788711	2561.614436
901.096216	2559.890361
901.403681	2559.537481
901.711105	2559.464384
902.018489	2557.941955
902.325832	2560.833057
902.633135	2560.540670
902.940397	2561.889179
903.247619	2571.109449
903.554800	2590.598550
903.861941	2622.239352
904.169041	2660.471463
904.476101	2677.066941
904.783121	2676.199863
905.090100	2659.405259
905.397039	2637.428349
905.703938	2614.813732
906.010796	2600.680858
906.317614	2585.280133
906.624391	2580.037333
906.931129	2572.611713
907.237826	2566.096022
907.544483	2560.442368
907.851099	2560.885989
908.157675	2553.742674
908.464211	2553.180586
908.770707	2549.808054
909.077163	2550.052550
909.383578	2549.001469
909.689954	2545.071890
909.996289	2547.610111
910.302584	2549.606407
910.608839	2549.268650
910.915054	2552.116902
911.221229	2549.878630
911.527363	2548.514998
911.833458	2547.690769
912.139513	2551.060780
912.445527	2551.695966
912.751502	2552.643703
913.057436	2553.004145
913.363331	2553.019269
913.669186	2558.738458
913.975000	2558.594785
914.280775	2565.760785
914.586510	2574.093812
914.892205	2579.802919
915.197859	2596.534509
915.503475	2617.374639
915.809050	2634.335601
916.114585	2645.960502
916.420081	2649.466624
916.725536	2647.772796
917.030952	2637.662762
917.336328	2624.437295
917.641665	2616.550410
917.946961	2604.229830
918.252218	2594.674323
918.557435	2582.230235
918.862612	2579.586149
919.167750	2572.979717
919.472848	2573.158678
919.777906	2566.277503
920.082925	2563.283058
920.387904	2559.066133
920.692843	2562.196689
920.997743	2557.364743
921.302603	2557.730227
921.607423	2555.925494
921.912204	2554.697973
922.216946	2553.180586
922.521647	2551.058260
922.826310	2549.137580
923.130932	2556.122099
923.435516	2548.693959
923.740059	2547.244627
924.044564	2546.775800
924.349028	2549.228321
924.653454	2541.306148
924.957840	2543.675490
925.262186	2541.447300
925.566493	2541.510314
925.870761	2538.324305
926.174989	2544.908052
926.479178	2543.746066
926.783328	2542.846220
927.087438	2543.173895
927.391509	2540.597866
927.695541	2541.064172
927.999533	2540.449152
928.303486	2540.635674
928.607400	2539.929913
928.911275	2540.633154
929.215110	2542.367311
929.518906	2542.541230
929.822663	2538.596528
930.126381	2539.950077
930.430060	2538.757844
930.733699	2540.313040
931.037299	2540.751621
931.340861	2540.988555
931.644383	2540.519728
931.947866	2542.891591
932.251309	2541.666590
932.554714	2539.050231
932.858080	2538.994779
933.161407	2542.054759
933.464694	2541.250695
933.767943	2540.449152
934.071153	2539.524100
934.374323	2540.073586
934.677455	2538.858667
934.980548	2539.735828
935.283602	2540.434028
935.586617	2539.786240
935.889593	2538.772968
936.192530	2540.781868
936.495428	2542.788247
936.798287	2541.021322
937.101108	2543.239430
937.403890	2539.781199
937.706632	2543.267157
938.009336	2545.402085
938.312002	2546.589277
938.614628	2547.272353
938.917216	2545.684390
939.219765	2545.397044
939.522275	2547.113557
939.824747	2546.972405
940.127179	2541.147351
940.429573	2541.364121
940.731929	2540.807073
941.034246	2539.529141
941.336524	2542.205994
941.638763	2544.008206
941.940964	2544.303114
942.243126	2542.037115
942.545250	2541.134748
942.847335	2542.828576
943.149381	2543.189019
943.451389	2543.055428
943.753359	2544.610624
944.055290	2542.735315
944.357182	2541.228010
944.659036	2538.962011
944.960851	2540.300437
945.262628	2541.127187
945.564367	2541.709440
945.866067	2543.128525
946.167729	2541.490150
946.469352	2542.730274
946.770937	2539.733308
947.072484	2540.139121
947.373992	2539.859337
947.675462	2541.013761
947.976893	2538.634336
948.278286	2541.049049
948.579641	2539.627443
948.880958	2540.229861
949.182236	2538.372196
949.483476	2539.665252
949.784678	2538.974614
950.085841	2538.422608
950.386967	2541.011240
950.688054	2536.849768
950.989103	2541.631302
951.290114	2539.100643
951.591087	2541.119625
951.892021	2540.454193
952.192917	2539.642567
952.493776	2539.758513
952.794596	2542.435366
953.095378	2541.394368
953.396122	2541.994265
953.696828	2538.926723
953.997496	2540.910417
954.298126	2537.515200
954.598718	2539.125849
954.899272	2538.397402
955.199788	2537.696682
955.500266	2536.595189
955.800706	2535.997813
956.101108	2533.131917
956.401472	2533.910775
956.701798	2535.554191
957.002087	2534.863553
957.302337	2537.114428
957.602550	2535.420601
957.902724	2533.910775
958.202861	2536.617875
958.502960	2536.257432
958.803022	2534.009078
959.103045	2536.764068
959.403031	2535.181146
959.702979	2535.864222
960.002889	2536.186856
960.302762	2534.077133
960.602596	2535.483615
960.902393	2535.037473
961.202153	2534.765251
961.501875	2534.971938
961.801559	2537.353883
962.101205	2534.268697
962.400814	2536.234747
962.700385	2533.948584
962.999918	2534.694674
963.299414	2536.335570
963.598873	2534.049407
963.898293	2533.741896
964.197677	2533.237781
964.497022	2533.174767
964.796331	2533.933460
965.095601	2536.174253
965.394835	2533.141999
965.694030	2533.946063
965.993189	2533.288192
966.292309	2534.848430
966.591393	2533.565456
966.890439	2532.151412
967.189447	2534.135106
967.488419	2534.944212
967.787353	2533.273069
968.086249	2530.918850
968.385108	2534.583769
968.683930	2532.854653
968.982714	2536.212062
969.281462	2532.143851
969.580172	2532.647966
969.878844	2531.168387
970.177480	2534.898841
970.476078	2535.589479
970.774639	2535.551671
971.073162	2533.136958
971.371649	2532.433717
971.670098	2528.196627
971.968510	2529.961031
972.266885	2526.507841
972.565223	2531.705270
972.863524	2532.143851
973.161788	2533.358769
973.460014	2535.743234
973.758204	2533.288193
974.056356	2531.826258
974.354471	2533.646114
974.652550	2531.934643
974.950591	2535.360107
975.248595	2532.675692
975.546563	2533.724252
975.844493	2531.511186
976.142386	2535.352545
976.440243	2531.246525
976.738062	2530.480270
977.035845	2535.380271
977.333590	2531.604447
977.631299	2531.211237
977.928971	2533.678882
978.226606	2531.596885
978.524204	2531.425486
978.821765	2531.503624
979.119290	2532.917668
979.416777	2534.162833
979.714228	2534.011598
980.011642	2533.547812
980.309020	2535.806249
980.606360	2535.115611
980.903664	2533.633512
981.200931	2531.836340
981.498162	2531.833820
981.795356	2534.296423
982.092513	2533.300795
982.389633	2532.592513
982.686717	2533.023532
982.983764	2536.166691
983.280775	2537.805066
983.577749	2537.497556
983.874686	2535.534027
984.171587	2535.856660
984.468451	2534.457740
984.765279	2532.713501
985.062070	2532.884900
985.358824	2530.777698
985.655543	2532.020342
985.952224	2532.509334
986.248869	2532.562266
986.545478	2526.812830
986.842050	2530.019004
987.138586	2528.365506
987.435086	2526.883407
987.731549	2526.719569
988.027975	2533.845240
988.324366	2533.222658
988.620719	2532.456402
988.917037	2530.782739
989.213318	2532.632842
989.509563	2531.276772
989.805772	2530.659231
990.101944	2530.777698
990.398080	2533.036135
990.694180	2531.982534
990.990244	2531.798532
991.286271	2532.098480
991.582262	2531.145702
991.878217	2531.087729
992.174136	2531.428007
992.470019	2530.056813
992.765865	2528.577234
993.061676	2531.440610
993.357450	2531.697708
993.653188	2529.204858
993.948890	2533.734335
994.244556	2528.494055
994.540186	2531.571680
994.835780	2532.874818
995.131337	2529.726617
995.426859	2531.760723
995.722345	2530.548325
996.017795	2532.600075
996.313208	2532.506814
996.608586	2531.914478
996.903928	2532.438758
997.199234	2531.916999
997.494504	2529.461957
997.789738	2530.936494
998.084936	2528.814168
998.380099	2529.363654
998.675225	2529.035979
998.970316	2533.371372
999.265371	2529.393901
999.560390	2528.816689
999.855373	2532.043028
1000.150320	2531.594365
1000.445232	2530.916330
1000.740108	2529.582944
1001.034948	2526.664116
1001.329752	2530.021525
1001.624521	2531.080167
1001.919254	2525.489528
1002.213951	2527.647141
1002.508613	2527.135464
1002.803239	2529.162008
1003.097829	2525.078673
1003.392384	2530.366844
1003.686903	2530.145033
1003.981386	2530.510517
1004.275834	2529.096473
1004.570246	2529.567821
1004.864623	2528.347862
1005.158964	2529.746782
1005.453270	2528.068078
1005.747540	2529.726617
1006.041775	2531.624612
1006.335974	2528.801566
1006.630138	2530.712163
1006.924266	2530.540764
1007.218359	2530.114786
1007.512416	2532.791639
1007.806438	2532.027904
1008.100425	2532.902544
1008.394376	2530.432379
1008.688292	2528.627646
1008.982172	2528.604961
1009.276017	2526.623787
1009.569827	2527.450536
1009.863602	2531.576721
1010.157341	2531.470857
1010.451045	2529.300640
1010.744714	2530.548325
1011.038347	2529.456916
1011.331945	2529.146885
1011.625508	2528.748633
1011.919036	2531.317101
1012.212528	2528.428520
1012.505986	2528.887265
1012.799408	2526.936339
1013.092795	2529.850126
1013.386147	2530.447502
1013.679464	2527.390043
1013.972745	2529.598068
1014.265992	2528.975485
1014.559204	2530.059333
1014.852380	2528.673016
1015.145521	2530.838192
1015.438628	2530.329035
1015.731699	2528.040351
1016.024736	2525.030783
1016.317737	2530.525640
1016.610703	2529.582944
1016.903635	2526.979188
1017.196531	2523.636903
1017.489393	2528.715866
1017.782219	2524.919877
1018.075011	2526.812830
1018.367768	2530.195445
1018.660490	2528.836854
1018.953177	2528.836854
1019.245829	2528.836854
