Dividing Wavelength (nm)	Counts (n)	Blue Motor Position (mm): 0.000000	Red Motor Position (mm): 9.600000	
326.493990	2155.093269
326.888308	2155.093269
327.282561	2155.093269
327.676750	2071.914231
328.070874	2034.105577
328.464933	2104.681731
328.858929	2049.229038
329.252859	2049.229038
329.646726	2114.764038
330.040528	2084.517115
330.434265	2029.064423
330.827938	2107.202308
331.221547	2197.943077
331.615091	2109.722885
332.008571	2210.545962
332.401986	2197.943077
332.795338	2243.313462
333.188625	2223.148846
333.581847	2399.589231
333.975006	2293.725000
334.368100	2339.095385
334.761129	2331.533654
335.154095	2311.369038
335.546996	2399.589231
335.939833	2326.492500
336.332606	2344.136538
336.725315	2384.465769
337.117960	2434.877308
337.510540	2399.589231
337.903056	2482.768269
338.295508	2427.315577
338.687896	2492.850577
339.080220	2397.068654
339.472480	2369.342308
339.864676	2419.753846
340.256807	2467.644808
340.648875	2404.630385
341.040879	2497.891731
341.432818	2399.589231
341.824694	2450.000769
342.216506	2457.562500
342.608253	2467.644808
342.999937	2432.356731
343.391557	2444.959615
343.783113	2520.576923
344.174605	2447.480192
344.566033	2452.521346
344.957397	2540.741538
345.348697	2513.015192
345.739934	2535.700385
346.131106	2472.685962
346.522215	2480.247692
346.913260	2505.453462
347.304241	2465.124231
347.695159	2492.850577
348.086012	2429.836154
348.476802	2465.124231
348.867528	2487.809423
349.258191	2482.768269
349.648789	2460.083077
350.039324	2450.000769
350.429796	2593.673654
350.820203	2397.068654
351.210548	2399.589231
351.600828	2354.218846
351.991045	2414.712692
352.381198	2429.836154
352.771288	2381.945192
353.161314	2409.671538
353.551276	2437.397885
353.941175	2351.698269
354.331010	2530.659231
354.720782	2475.206538
355.110490	2455.041923
355.500135	2427.315577
355.889717	2480.247692
356.279235	2475.206538
356.668689	2392.027500
357.058080	2346.657115
357.447408	2371.862885
357.836672	2475.206538
358.225873	2422.274423
358.615010	2429.836154
359.004084	2528.138654
359.393095	2409.671538
359.782043	2437.397885
360.170927	2439.918462
360.559748	2455.041923
360.948505	2467.644808
361.337199	2419.753846
361.725830	2442.439038
362.114398	2379.424615
362.502903	2427.315577
362.891344	2467.644808
363.279722	2434.877308
363.668037	2409.671538
364.056289	2419.753846
364.444478	2412.192115
364.832603	2467.644808
365.220665	2412.192115
365.608665	2530.659231
365.996601	2419.753846
366.384474	2510.494615
366.772284	2472.685962
367.160031	2424.795000
367.547715	2384.465769
367.935336	2455.041923
368.322893	2399.589231
368.710388	2450.000769
369.097820	2392.027500
369.485189	2538.220962
369.872495	2447.480192
370.259738	2460.083077
370.646918	2419.753846
371.034035	2450.000769
371.421090	2502.932885
371.808081	2432.356731
372.195010	2369.342308
372.581875	2510.494615
372.968678	2439.918462
373.355418	2460.083077
373.742096	2414.712692
374.128710	2475.206538
374.515262	2409.671538
374.901751	2465.124231
375.288177	2414.712692
375.674540	2472.685962
376.060841	2452.521346
376.447079	2419.753846
376.833254	2432.356731
377.219367	2462.603654
377.605417	2439.918462
377.991404	2419.753846
378.377329	2460.083077
378.763191	2444.959615
379.148991	2439.918462
379.534727	2460.083077
379.920402	2455.041923
380.306013	2475.206538
380.691563	2427.315577
381.077049	2455.041923
381.462474	2374.383462
381.847835	2497.891731
382.233134	2502.932885
382.618371	2553.344423
383.003545	2386.986346
383.388657	2467.644808
383.773706	2457.562500
384.158693	2374.383462
384.543618	2480.247692
384.928480	2492.850577
385.313280	2437.397885
385.698017	2457.562500
386.082692	2507.974038
386.467305	2444.959615
386.851856	2495.371154
387.236344	2472.685962
387.620770	2397.068654
388.005133	2437.397885
388.389435	2477.727115
388.773674	2482.768269
389.157851	2540.741538
389.541965	2417.233269
389.926018	2528.138654
390.310008	2518.056346
390.693936	2470.165385
391.077802	2570.988462
391.461606	2457.562500
391.845348	2523.097500
392.229027	2432.356731
392.612645	2525.618077
392.996200	2450.000769
393.379694	2472.685962
393.763125	2465.124231
394.146494	2450.000769
394.529801	2583.591346
394.913047	2525.618077
395.296230	2444.959615
395.679351	2513.015192
396.062410	2444.959615
396.445408	2505.453462
396.828343	2442.439038
397.211217	2472.685962
397.594028	2520.576923
397.976778	2447.480192
398.359466	2492.850577
398.742092	2409.671538
399.124656	2439.918462
399.507158	2500.412308
399.889598	2467.644808
400.271977	2374.383462
400.654294	2525.618077
401.036549	2475.206538
401.418742	2394.548077
401.800874	2528.138654
402.182944	2507.974038
402.564952	2427.315577
402.946898	2497.891731
403.328783	2437.397885
403.710606	2371.862885
404.092367	2518.056346
404.474067	2386.986346
404.855705	2528.138654
405.237282	2477.727115
405.618797	2399.589231
406.000250	2533.179808
406.381642	2402.109808
406.762972	2467.644808
407.144240	2538.220962
407.525447	2510.494615
407.906593	2404.630385
408.287677	2550.823846
408.668700	2472.685962
409.049661	2432.356731
409.430560	2475.206538
409.811399	2477.727115
410.192176	2475.206538
410.572891	2444.959615
410.953545	2525.618077
411.334138	2477.727115
411.714669	2437.397885
412.095139	2462.603654
412.475547	2507.974038
412.855894	2397.068654
413.236180	2502.932885
413.616405	2417.233269
413.996568	2470.165385
414.376670	2492.850577
414.756711	2422.274423
415.136691	2429.836154
415.516609	2422.274423
415.896466	2404.630385
416.276262	2515.535769
416.655997	2460.083077
417.035670	2565.947308
417.415283	2439.918462
417.794834	2422.274423
418.174324	2502.932885
418.553753	2480.247692
418.933121	2417.233269
419.312428	2354.218846
419.691674	2586.111923
420.070859	2465.124231
420.449983	2379.424615
420.829045	2467.644808
421.208047	2487.809423
421.586988	2497.891731
421.965867	2457.562500
422.344686	2500.412308
422.723444	2437.397885
423.102141	2442.439038
423.480777	2467.644808
423.859352	2397.068654
424.237866	2439.918462
424.616319	2462.603654
424.994712	2485.288846
425.373044	2507.974038
425.751314	2472.685962
426.129524	2515.535769
426.507673	2470.165385
426.885762	2518.056346
427.263789	2513.015192
427.641756	2419.753846
428.019662	2563.426731
428.397508	2444.959615
428.775292	2442.439038
429.153016	2565.947308
429.530679	2475.206538
429.908282	2550.823846
430.285824	2467.644808
430.663305	2550.823846
431.040726	2477.727115
431.418086	2452.521346
431.795385	2450.000769
432.172624	2457.562500
432.549802	2424.795000
432.926920	2462.603654
433.303977	2505.453462
433.680974	2490.330000
434.057910	2437.397885
434.434786	2497.891731
434.811601	2439.918462
435.188355	2452.521346
435.565050	2399.589231
435.941683	2548.303269
436.318257	2482.768269
436.694770	2460.083077
437.071222	2434.877308
437.447614	2510.494615
437.823946	2507.974038
438.200218	2505.453462
438.576429	2525.618077
438.952580	2492.850577
439.328670	2570.988462
439.704700	2533.179808
440.080670	2558.385577
440.456580	2507.974038
440.832429	2510.494615
441.208218	2525.618077
441.583947	2515.535769
441.959616	2462.603654
442.335224	2533.179808
442.710773	2434.877308
443.086261	2568.467885
443.461689	2422.274423
443.837057	2540.741538
444.212365	2470.165385
444.587612	2558.385577
444.962800	2477.727115
445.337927	2545.782692
445.712995	2525.618077
446.088002	2510.494615
446.462949	2457.562500
446.837837	2513.015192
447.212664	2462.603654
447.587431	2513.015192
447.962139	2510.494615
448.336786	2513.015192
448.711374	2429.836154
449.085901	2515.535769
449.460369	2505.453462
449.834776	2525.618077
450.209124	2394.548077
450.583412	2429.836154
450.957640	2487.809423
451.331808	2462.603654
451.705917	2487.809423
452.079965	2563.426731
452.453954	2510.494615
452.827883	2502.932885
453.201752	2500.412308
453.575562	2523.097500
453.949311	2495.371154
454.323001	2530.659231
454.696632	2384.465769
455.070202	2550.823846
455.443713	2424.795000
455.817164	2462.603654
456.190556	2505.453462
456.563888	2437.397885
456.937160	2455.041923
457.310373	2462.603654
457.683526	2470.165385
458.056619	2482.768269
458.429653	2477.727115
458.802628	2502.932885
459.175542	2576.029615
459.548398	2470.165385
459.921194	2429.836154
460.293930	2553.344423
460.666607	2535.700385
461.039224	2452.521346
461.411782	2495.371154
461.784280	2495.371154
462.156719	2470.165385
462.529099	2538.220962
462.901419	2460.083077
463.273680	2462.603654
463.645882	2553.344423
464.018024	2550.823846
464.390106	2472.685962
464.762130	2495.371154
465.134094	2450.000769
465.505999	2520.576923
465.877845	2550.823846
466.249631	2490.330000
466.621358	2442.439038
466.993026	2525.618077
467.364634	2460.083077
467.736184	2470.165385
468.107674	2475.206538
468.479105	2490.330000
468.850477	2502.932885
469.221790	2475.206538
469.593043	2450.000769
469.964238	2578.550192
470.335373	2434.877308
470.706449	2515.535769
471.077467	2442.439038
471.448425	2555.865000
471.819324	2492.850577
472.190164	2497.891731
472.560945	2447.480192
472.931667	2550.823846
473.302330	2487.809423
473.672934	2475.206538
474.043479	2513.015192
474.413965	2417.233269
474.784393	2525.618077
475.154761	2452.521346
475.525070	2386.986346
475.895321	2485.288846
476.265513	2548.303269
476.635645	2447.480192
477.005719	2545.782692
477.375734	2437.397885
477.745691	2467.644808
478.115588	2533.179808
478.485427	2507.974038
478.855207	2482.768269
479.224928	2502.932885
479.594591	2487.809423
479.964194	2480.247692
480.333739	2543.262115
480.703226	2535.700385
481.072653	2475.206538
481.442022	2538.220962
481.811333	2495.371154
482.180584	2545.782692
482.549777	2507.974038
482.918912	2528.138654
483.287988	2467.644808
483.657005	2447.480192
484.025964	2497.891731
484.394864	2553.344423
484.763706	2518.056346
485.132489	2487.809423
485.501213	2497.891731
485.869879	2467.644808
486.238487	2490.330000
486.607036	2457.562500
486.975527	2452.521346
487.343959	2457.562500
487.712333	2538.220962
488.080648	2475.206538
488.448905	2477.727115
488.817104	2616.358846
489.185244	2563.426731
489.553326	2492.850577
489.921350	2457.562500
490.289315	2457.562500
490.657222	2487.809423
491.025070	2515.535769
491.392861	2485.288846
491.760593	2528.138654
492.128267	2568.467885
492.495883	2523.097500
492.863440	2548.303269
493.230939	2487.809423
493.598380	2482.768269
493.965763	2447.480192
494.333088	2530.659231
494.700354	2457.562500
495.067563	2482.768269
495.434713	2510.494615
495.801805	2487.809423
496.168839	2530.659231
496.535815	2477.727115
496.902733	2485.288846
497.269593	2540.741538
497.636395	2533.179808
498.003139	2485.288846
498.369825	2432.356731
498.736453	2513.015192
499.103023	2444.959615
499.469535	2545.782692
499.835989	2528.138654
500.202385	2465.124231
500.568723	2520.576923
500.935003	2447.480192
501.301226	2487.809423
501.667390	2457.562500
502.033497	2518.056346
502.399546	2470.165385
502.765537	2482.768269
503.131470	2472.685962
503.497345	2467.644808
503.863163	2518.056346
504.228923	2515.535769
504.594625	2480.247692
504.960269	2525.618077
505.325856	2487.809423
505.691385	2492.850577
506.056856	2548.303269
506.422270	2535.700385
506.787625	2467.644808
507.152924	2487.809423
507.518164	2510.494615
507.883347	2553.344423
508.248472	2457.562500
508.613540	2603.755962
508.978550	2528.138654
509.343503	2455.041923
509.708398	2480.247692
510.073236	2457.562500
510.438016	2530.659231
510.802738	2502.932885
511.167403	2452.521346
511.532010	2409.671538
511.896561	2513.015192
512.261053	2480.247692
512.625488	2490.330000
512.989866	2455.041923
513.354186	2465.124231
513.718449	2455.041923
514.082655	2505.453462
514.446803	2515.535769
514.810894	2462.603654
515.174927	2528.138654
515.538904	2482.768269
515.902822	2502.932885
516.266684	2427.315577
516.630488	2495.371154
516.994235	2422.274423
517.357925	2455.041923
517.721558	2455.041923
518.085133	2477.727115
518.448651	2603.755962
518.812112	2555.865000
519.175516	2502.932885
519.538863	2477.727115
519.902152	2558.385577
520.265385	2525.618077
520.628560	2497.891731
520.991678	2460.083077
521.354739	2533.179808
521.717743	2533.179808
522.080690	2397.068654
522.443580	2487.809423
522.806413	2460.083077
523.169189	2555.865000
523.531908	2530.659231
523.894569	2518.056346
524.257174	2457.562500
524.619722	2520.576923
524.982213	2497.891731
525.344647	2505.453462
525.707025	2548.303269
526.069345	2573.509038
526.431608	2490.330000
526.793815	2467.644808
527.155964	2573.509038
527.518057	2432.356731
527.880093	2475.206538
528.242072	2460.083077
528.603995	2437.397885
528.965860	2520.576923
529.327669	2540.741538
529.689421	2513.015192
530.051117	2480.247692
530.412755	2452.521346
530.774337	2515.535769
531.135862	2535.700385
531.497331	2480.247692
531.858743	2500.412308
532.220098	2485.288846
532.581396	2477.727115
532.942638	2528.138654
533.303824	2424.795000
533.664953	2530.659231
534.026025	2452.521346
534.387040	2392.027500
534.747999	2528.138654
535.108902	2538.220962
535.469748	2505.453462
535.830537	2455.041923
536.191270	2586.111923
536.551947	2462.603654
536.912567	2432.356731
537.273131	2507.974038
537.633638	2422.274423
537.994089	2548.303269
538.354483	2535.700385
538.714821	2439.918462
539.075103	2502.932885
539.435328	2434.877308
539.795497	2513.015192
540.155609	2548.303269
540.515665	2450.000769
540.875665	2460.083077
541.235609	2497.891731
541.595496	2490.330000
541.955328	2553.344423
542.315102	2369.342308
542.674821	2470.165385
543.034483	2422.274423
543.394090	2550.823846
543.753640	2404.630385
544.113134	2495.371154
544.472571	2450.000769
544.831953	2450.000769
545.191278	2525.618077
545.550548	2487.809423
545.909761	2462.603654
546.268918	2535.700385
546.628019	2394.548077
546.987064	2492.850577
547.346053	2568.467885
547.704986	2404.630385
548.063863	2543.262115
548.422684	2482.768269
548.781449	2495.371154
549.140158	2487.809423
549.498811	2507.974038
549.857408	2455.041923
550.215949	2470.165385
550.574434	2507.974038
550.932864	2467.644808
551.291237	2447.480192
551.649555	2462.603654
552.007817	2510.494615
552.366022	2427.315577
552.724173	2492.850577
553.082267	2518.056346
553.440305	2450.000769
553.798288	2555.865000
554.156215	2477.727115
554.514086	2576.029615
554.871902	2528.138654
555.229661	2485.288846
555.587365	2487.809423
555.945014	2467.644808
556.302606	2422.274423
556.660143	2427.315577
557.017625	2513.015192
557.375050	2533.179808
557.732421	2427.315577
558.089735	2460.083077
558.446994	2457.562500
558.804197	2535.700385
559.161345	2520.576923
559.518437	2502.932885
559.875474	2570.988462
560.232455	2518.056346
560.589381	2518.056346
560.946251	2591.153077
561.303065	2480.247692
561.659825	2520.576923
562.016528	2497.891731
562.373177	2553.344423
562.729770	2444.959615
563.086307	2515.535769
563.442789	2565.947308
563.799216	2477.727115
564.155587	2419.753846
564.511904	2487.809423
564.868164	2492.850577
565.224370	2457.562500
565.580520	2528.138654
565.936615	2545.782692
566.292654	2553.344423
566.648638	2424.795000
567.004567	2437.397885
567.360441	2553.344423
567.716260	2513.015192
568.072023	2450.000769
568.427732	2482.768269
568.783385	2528.138654
569.138982	2500.412308
569.494525	2520.576923
569.850013	2510.494615
570.205445	2555.865000
570.560823	2573.509038
570.916145	2606.276538
571.271412	2550.823846
571.626625	2495.371154
571.981782	2432.356731
572.336884	2455.041923
572.691931	2573.509038
573.046923	2439.918462
573.401860	2497.891731
573.756743	2520.576923
574.111570	2472.685962
574.466342	2485.288846
574.821059	2596.194231
575.175722	2477.727115
575.530330	2480.247692
575.884882	2460.083077
576.239380	2477.727115
576.593823	2482.768269
576.948211	2538.220962
577.302544	2465.124231
577.656823	2500.412308
578.011047	2492.850577
578.365216	2485.288846
578.719330	2442.439038
579.073389	2492.850577
579.427394	2460.083077
579.781344	2490.330000
580.135239	2492.850577
580.489080	2480.247692
580.842866	2596.194231
581.196597	2434.877308
581.550273	2465.124231
581.903895	2515.535769
582.257463	2606.276538
582.610975	2452.521346
582.964434	2492.850577
583.317837	2482.768269
583.671186	2543.262115
584.024481	2457.562500
584.377721	2555.865000
584.730906	2490.330000
585.084037	2485.288846
585.437113	2485.288846
585.790135	2523.097500
586.143103	2447.480192
586.496016	2545.782692
586.848874	2507.974038
587.201679	2543.262115
587.554428	2434.877308
587.907124	2538.220962
588.259765	2467.644808
588.612352	2462.603654
588.964884	2439.918462
589.317362	2492.850577
589.669786	2487.809423
590.022155	2457.562500
590.374470	2520.576923
590.726731	2490.330000
591.078937	2439.918462
591.431090	2528.138654
591.783188	2513.015192
592.135232	2470.165385
592.487222	2485.288846
592.839157	2525.618077
593.191038	2477.727115
593.542866	2424.795000
593.894639	2495.371154
594.246358	2457.562500
594.598022	2502.932885
594.949633	2563.426731
595.301190	2568.467885
595.652692	2507.974038
596.004141	2513.015192
596.355535	2460.083077
596.706876	2510.494615
597.058162	2492.850577
597.409395	2502.932885
597.760573	2520.576923
598.111698	2525.618077
598.462768	2470.165385
598.813785	2490.330000
599.164748	2510.494615
599.515657	2444.959615
599.866511	2528.138654
600.217312	2465.124231
600.568060	2560.906154
600.918753	2429.836154
601.269392	2487.809423
601.619978	2507.974038
601.970510	2497.891731
602.320988	2540.741538
602.671412	2500.412308
603.021783	2538.220962
603.372100	2523.097500
603.722363	2477.727115
604.072572	2581.070769
604.422728	2409.671538
604.772830	2376.904038
605.122878	2515.535769
605.472872	2497.891731
605.822813	2490.330000
606.172701	2545.782692
606.522534	2487.809423
606.872314	2502.932885
607.222041	2523.097500
607.571714	2450.000769
607.921333	2452.521346
608.270899	2533.179808
608.620411	2480.247692
608.969870	2495.371154
609.319276	2450.000769
609.668627	2570.988462
610.017926	2510.494615
610.367171	2510.494615
610.716362	2457.562500
611.065500	2465.124231
611.414585	2520.576923
611.763616	2500.412308
612.112594	2576.029615
612.461518	2467.644808
612.810389	2513.015192
613.159207	2510.494615
613.507971	2510.494615
613.856682	2528.138654
614.205340	2507.974038
614.553945	2404.630385
614.902496	2490.330000
615.250994	2581.070769
615.599439	2487.809423
615.947830	2497.891731
616.296169	2538.220962
616.644454	2540.741538
616.992686	2475.206538
617.340864	2578.550192
617.688990	2563.426731
618.037063	2497.891731
618.385082	2500.412308
618.733048	2502.932885
619.080961	2548.303269
619.428821	2550.823846
619.776628	2427.315577
620.124382	2550.823846
620.472083	2485.288846
620.819731	2513.015192
621.167326	2450.000769
621.514868	2523.097500
621.862357	2530.659231
622.209793	2543.262115
622.557176	2510.494615
622.904506	2500.412308
623.251783	2565.947308
623.599007	2500.412308
623.946179	2490.330000
624.293297	2450.000769
624.640363	2505.453462
624.987376	2548.303269
625.334336	2525.618077
625.681243	2515.535769
626.028097	2389.506923
626.374899	2528.138654
626.721647	2477.727115
627.068343	2507.974038
627.414987	2533.179808
627.761577	2550.823846
628.108115	2523.097500
628.454600	2593.673654
628.801032	2528.138654
629.147412	2480.247692
629.493739	2475.206538
629.840014	2434.877308
630.186236	2515.535769
630.532405	2588.632500
630.878521	2439.918462
631.224585	2568.467885
631.570597	2487.809423
631.916556	2563.426731
632.262462	2452.521346
632.608316	2500.412308
632.954117	2492.850577
633.299866	2457.562500
633.645562	2510.494615
633.991206	2515.535769
634.336797	2465.124231
634.682336	2530.659231
635.027823	2472.685962
635.373257	2510.494615
635.718639	2563.426731
636.063968	2578.550192
636.409245	2500.412308
636.754470	2495.371154
637.099642	2550.823846
637.444762	2404.630385
637.789829	2543.262115
638.134845	2505.453462
638.479808	2462.603654
638.824719	2475.206538
639.169577	2578.550192
639.514383	2505.453462
639.859137	2563.426731
640.203839	2500.412308
640.548489	2467.644808
640.893086	2452.521346
641.237632	2568.467885
641.582125	2480.247692
641.926566	2444.959615
642.270955	2507.974038
642.615292	2439.918462
642.959576	2502.932885
643.303809	2414.712692
643.647990	2563.426731
643.992118	2578.550192
644.336195	2510.494615
644.680219	2490.330000
645.024192	2502.932885
645.368112	2560.906154
645.711981	2482.768269
646.055797	2470.165385
646.399562	2530.659231
646.743274	2475.206538
647.086935	2510.494615
647.430544	2550.823846
647.774101	2389.506923
648.117606	2455.041923
648.461059	2437.397885
648.804460	2480.247692
649.147810	2460.083077
649.491108	2500.412308
649.834354	2477.727115
650.177548	2407.150962
650.520690	2510.494615
650.863781	2434.877308
651.206820	2525.618077
651.549807	2492.850577
651.892742	2543.262115
652.235626	2515.535769
652.578458	2523.097500
652.921238	2497.891731
653.263967	2465.124231
653.606644	2535.700385
653.949269	2467.644808
654.291843	2500.412308
654.634365	2497.891731
654.976836	2497.891731
655.319255	2553.344423
655.661622	2533.179808
656.003938	2520.576923
656.346203	2497.891731
656.688416	2523.097500
657.030577	2570.988462
657.372687	2500.412308
657.714746	2560.906154
658.056753	2447.480192
658.398708	2485.288846
658.740612	2404.630385
659.082465	2485.288846
659.424266	2520.576923
659.766016	2467.644808
660.107715	2538.220962
660.449362	2533.179808
660.790958	2437.397885
661.132503	2450.000769
661.473996	2477.727115
661.815438	2553.344423
662.156829	2404.630385
662.498168	2568.467885
662.839456	2475.206538
663.180693	2462.603654
663.521879	2490.330000
663.863013	2452.521346
664.204097	2538.220962
664.545129	2518.056346
664.886110	2560.906154
665.227040	2455.041923
665.567918	2480.247692
665.908746	2442.439038
666.249522	2482.768269
666.590248	2545.782692
666.930922	2502.932885
667.271545	2515.535769
667.612118	2565.947308
667.952639	2354.218846
668.293109	2487.809423
668.633528	2480.247692
668.973896	2452.521346
669.314213	2502.932885
669.654480	2502.932885
669.994695	2507.974038
670.334859	2500.412308
670.674973	2460.083077
671.015035	2480.247692
671.355047	2540.741538
671.695008	2462.603654
672.034918	2480.247692
672.374777	2535.700385
672.714585	2576.029615
673.054342	2500.412308
673.394049	2525.618077
673.733705	2369.342308
674.073310	2492.850577
674.412864	2437.397885
674.752368	2510.494615
675.091820	2497.891731
675.431223	2560.906154
675.770574	2455.041923
676.109875	2523.097500
676.449125	2450.000769
676.788324	2492.850577
677.127473	2455.041923
677.466571	2513.015192
677.805619	2475.206538
678.144616	2525.618077
678.483562	2520.576923
678.822458	2447.480192
679.161303	2515.535769
679.500098	2457.562500
679.838842	2593.673654
680.177535	2530.659231
680.516179	2487.809423
680.854771	2507.974038
681.193314	2563.426731
681.531805	2455.041923
681.870247	2555.865000
682.208638	2528.138654
682.546978	2492.850577
682.885268	2460.083077
683.223508	2563.426731
683.561697	2482.768269
683.899836	2558.385577
684.237925	2570.988462
684.575963	2530.659231
684.913951	2525.618077
685.251889	2560.906154
685.589776	2518.056346
685.927614	2505.453462
686.265401	2475.206538
686.603137	2487.809423
686.940824	2560.906154
687.278460	2583.591346
687.616046	2452.521346
687.953582	2568.467885
688.291068	2543.262115
688.628504	2485.288846
688.965889	2434.877308
689.303224	2515.535769
689.640510	2492.850577
689.977745	2460.083077
690.314930	2442.439038
690.652065	2482.768269
690.989150	2548.303269
691.326185	2470.165385
691.663170	2414.712692
692.000105	2465.124231
692.336990	2495.371154
692.673825	2538.220962
693.010610	2450.000769
693.347345	2518.056346
693.684030	2452.521346
694.020665	2507.974038
694.357251	2543.262115
694.693786	2581.070769
695.030272	2533.179808
695.366707	2530.659231
695.703093	2538.220962
696.039429	2550.823846
696.375716	2455.041923
696.711952	2419.753846
697.048139	2530.659231
697.384276	2482.768269
697.720363	2450.000769
698.056400	2467.644808
698.392388	2500.412308
698.728326	2465.124231
699.064214	2490.330000
699.400053	2465.124231
699.735842	2492.850577
700.071581	2555.865000
700.407270	2563.426731
700.742910	2505.453462
701.078501	2422.274423
701.414042	2480.247692
701.749533	2482.768269
702.084974	2525.618077
702.420366	2543.262115
702.755709	2485.288846
703.091002	2520.576923
703.426246	2525.618077
703.761440	2422.274423
704.096584	2490.330000
704.431679	2518.056346
704.766725	2540.741538
705.101721	2467.644808
705.436668	2520.576923
705.771565	2475.206538
706.106413	2462.603654
706.441212	2500.412308
706.775961	2563.426731
707.110661	2490.330000
707.445311	2462.603654
707.779913	2520.576923
708.114465	2460.083077
708.448967	2570.988462
708.783421	2465.124231
709.117825	2409.671538
709.452180	2490.330000
709.786485	2455.041923
710.120742	2470.165385
710.454949	2573.509038
710.789107	2540.741538
711.123216	2550.823846
711.457275	2518.056346
711.791286	2465.124231
712.125247	2505.453462
712.459159	2369.342308
712.793023	2520.576923
713.126837	2472.685962
713.460602	2533.179808
713.794318	2467.644808
714.127985	2470.165385
714.461602	2505.453462
714.795171	2495.371154
715.128691	2414.712692
715.462162	2578.550192
715.795584	2485.288846
716.128957	2563.426731
716.462281	2487.809423
716.795556	2578.550192
717.128782	2507.974038
717.461960	2437.397885
717.795088	2545.782692
718.128167	2593.673654
718.461198	2427.315577
718.794180	2492.850577
719.127113	2513.015192
719.459997	2583.591346
719.792833	2439.918462
720.125619	2502.932885
720.458357	2520.576923
720.791046	2475.206538
721.123686	2550.823846
721.456278	2495.371154
721.788821	2530.659231
722.121315	2515.535769
722.453761	2432.356731
722.786158	2596.194231
723.118506	2467.644808
723.450805	2540.741538
723.783056	2507.974038
724.115259	2555.865000
724.447412	2452.521346
724.779518	2417.233269
725.111574	2525.618077
725.443582	2452.521346
725.775542	2548.303269
726.107453	2450.000769
726.439315	2528.138654
726.771129	2462.603654
727.102895	2475.206538
727.434612	2437.397885
727.766281	2465.124231
728.097901	2422.274423
728.429473	2545.782692
728.760996	2492.850577
729.092471	2523.097500
729.423897	2533.179808
729.755276	2470.165385
730.086606	2492.850577
730.417887	2596.194231
730.749120	2515.535769
731.080305	2565.947308
731.411442	2515.535769
731.742530	2545.782692
732.073570	2598.714808
732.404562	2528.138654
732.735506	2558.385577
733.066401	2507.974038
733.397249	2523.097500
733.728048	2462.603654
734.058798	2432.356731
734.389501	2492.850577
734.720156	2538.220962
735.050762	2611.317692
735.381320	2500.412308
735.711831	2485.288846
736.042293	2530.659231
736.372707	2528.138654
736.703073	2591.153077
737.033391	2455.041923
737.363661	2477.727115
737.693883	2490.330000
738.024056	2563.426731
738.354182	2500.412308
738.684260	2497.891731
739.014290	2518.056346
739.344272	2535.700385
739.674207	2475.206538
740.004093	2596.194231
740.333931	2427.315577
740.663722	2462.603654
740.993464	2492.850577
741.323159	2502.932885
741.652806	2507.974038
741.982405	2523.097500
742.311956	2495.371154
742.641460	2485.288846
742.970915	2465.124231
743.300323	2487.809423
743.629683	2470.165385
743.958996	2533.179808
744.288260	2482.768269
744.617477	2497.891731
744.946647	2518.056346
745.275768	2460.083077
745.604842	2520.576923
745.933869	2550.823846
746.262847	2603.755962
746.591778	2513.015192
746.920662	2455.041923
747.249498	2465.124231
747.578286	2495.371154
747.907027	2530.659231
748.235720	2409.671538
748.564365	2523.097500
748.892963	2412.192115
749.221514	2497.891731
749.550017	2540.741538
749.878473	2576.029615
750.206881	2419.753846
750.535242	2505.453462
750.863555	2432.356731
751.191821	2450.000769
751.520039	2573.509038
751.848210	2480.247692
752.176334	2502.932885
752.504411	2565.947308
752.832440	2490.330000
753.160421	2500.412308
753.488356	2505.453462
753.816243	2444.959615
754.144082	2502.932885
754.471875	2480.247692
754.799620	2419.753846
755.127318	2613.838269
755.454969	2553.344423
755.782572	2439.918462
756.110129	2525.618077
756.437638	2560.906154
756.765100	2505.453462
757.092515	2490.330000
757.419882	2520.576923
757.747203	2472.685962
758.074477	2510.494615
758.401703	2568.467885
758.728882	2450.000769
759.056014	2465.124231
759.383099	2455.041923
759.710138	2439.918462
760.037129	2548.303269
760.364073	2535.700385
760.690970	2427.315577
761.017820	2492.850577
761.344623	2495.371154
761.671379	2462.603654
761.998088	2452.521346
762.324751	2386.986346
762.651366	2475.206538
762.977935	2427.315577
763.304456	2500.412308
763.630931	2545.782692
763.957359	2472.685962
764.283740	2492.850577
764.610074	2497.891731
764.936362	2460.083077
765.262602	2507.974038
765.588796	2490.330000
765.914943	2576.029615
766.241044	2442.439038
766.567097	2565.947308
766.893104	2507.974038
767.219064	2465.124231
767.544978	2507.974038
767.870845	2500.412308
768.196665	2533.179808
768.522438	2487.809423
768.848165	2482.768269
769.173846	2588.632500
769.499479	2525.618077
769.825066	2540.741538
770.150607	2452.521346
770.476101	2470.165385
770.801548	2477.727115
771.126949	2553.344423
771.452303	2495.371154
771.777611	2535.700385
772.102872	2495.371154
772.428087	2502.932885
772.753256	2500.412308
773.078378	2482.768269
773.403453	2442.439038
773.728482	2502.932885
774.053465	2505.453462
774.378401	2570.988462
774.703291	2444.959615
775.028135	2439.918462
775.352932	2490.330000
775.677683	2518.056346
776.002388	2555.865000
776.327046	2432.356731
776.651658	2505.453462
776.976224	2455.041923
777.300743	2523.097500
777.625216	2422.274423
777.949643	2550.823846
778.274024	2507.974038
778.598359	2452.521346
778.922647	2485.288846
779.246889	2530.659231
779.571086	2530.659231
779.895236	2482.768269
780.219339	2480.247692
780.543397	2507.974038
780.867409	2485.288846
781.191374	2560.906154
781.515294	2475.206538
781.839167	2409.671538
782.162995	2533.179808
782.486776	2477.727115
782.810511	2515.535769
783.134201	2462.603654
783.457844	2485.288846
783.781441	2434.877308
784.104993	2497.891731
784.428498	2477.727115
784.751958	2460.083077
785.075372	2533.179808
785.398739	2462.603654
785.722061	2588.632500
786.045337	2513.015192
786.368568	2470.165385
786.691752	2475.206538
787.014891	2450.000769
787.337983	2467.644808
787.661030	2490.330000
787.984031	2510.494615
788.306987	2477.727115
788.629897	2525.618077
788.952760	2513.015192
789.275579	2485.288846
789.598351	2505.453462
789.921078	2412.192115
790.243759	2538.220962
790.566395	2434.877308
790.888984	2477.727115
791.211529	2422.274423
791.534027	2535.700385
791.856480	2492.850577
792.178888	2482.768269
792.501249	2523.097500
792.823566	2490.330000
793.145836	2497.891731
793.468062	2485.288846
793.790241	2505.453462
794.112375	2495.371154
794.434464	2530.659231
794.756507	2432.356731
795.078505	2507.974038
795.400457	2457.562500
795.722364	2482.768269
796.044226	2455.041923
796.366042	2485.288846
796.687812	2467.644808
797.009538	2477.727115
797.331218	2465.124231
797.652852	2457.562500
797.974442	2432.356731
798.295986	2553.344423
798.617484	2487.809423
798.938938	2462.603654
799.260346	2518.056346
799.581709	2450.000769
799.903026	2495.371154
800.224299	2472.685962
800.545526	2490.330000
800.866708	2472.685962
801.187845	2616.358846
801.508936	2513.015192
801.829983	2581.070769
802.150984	2455.041923
802.471940	2409.671538
802.792851	2558.385577
803.113717	2485.288846
803.434538	2485.288846
803.755314	2472.685962
804.076045	2525.618077
804.396731	2487.809423
804.717372	2477.727115
805.037967	2402.109808
805.358518	2439.918462
805.679024	2487.809423
805.999485	2437.397885
806.319901	2583.591346
806.640272	2601.235385
806.960598	2480.247692
807.280879	2432.356731
807.601115	2588.632500
807.921306	2490.330000
808.241453	2510.494615
808.561554	2475.206538
808.881611	2555.865000
809.201623	2487.809423
809.521590	2515.535769
809.841513	2550.823846
810.161390	2447.480192
810.481223	2462.603654
810.801011	2573.509038
811.120755	2407.150962
811.440453	2475.206538
811.760107	2523.097500
812.079716	2530.659231
812.399281	2601.235385
812.718801	2407.150962
813.038276	2452.521346
813.357707	2485.288846
813.677093	2490.330000
813.996434	2540.741538
814.315731	2467.644808
814.634983	2439.918462
814.954191	2528.138654
815.273354	2495.371154
815.592473	2434.877308
815.911547	2462.603654
816.230577	2500.412308
816.549562	2518.056346
816.868502	2442.439038
817.187399	2538.220962
817.506250	2409.671538
817.825058	2576.029615
818.143821	2548.303269
818.462539	2429.836154
818.781213	2507.974038
819.099843	2530.659231
819.418429	2482.768269
819.736970	2462.603654
820.055466	2495.371154
820.373919	2523.097500
820.692327	2500.412308
821.010691	2505.453462
821.329011	2485.288846
821.647286	2507.974038
821.965517	2500.412308
822.283704	2455.041923
822.601847	2472.685962
822.919945	2452.521346
823.237999	2492.850577
823.556010	2485.288846
823.873976	2477.727115
824.191897	2419.753846
824.509775	2460.083077
824.827609	2530.659231
825.145398	2467.644808
825.463144	2598.714808
825.780845	2515.535769
826.098502	2450.000769
826.416116	2545.782692
826.733685	2563.426731
827.051210	2513.015192
827.368692	2487.809423
827.686129	2535.700385
828.003522	2467.644808
828.320872	2530.659231
828.638177	2450.000769
828.955439	2462.603654
829.272656	2558.385577
829.589830	2432.356731
829.906960	2475.206538
830.224046	2429.836154
830.541088	2560.906154
830.858086	2482.768269
831.175041	2475.206538
831.491952	2392.027500
831.808819	2480.247692
832.125642	2450.000769
832.442421	2470.165385
832.759157	2422.274423
833.075849	2480.247692
833.392497	2505.453462
833.709101	2480.247692
834.025662	2354.218846
834.342179	2545.782692
834.658653	2540.741538
834.975083	2523.097500
835.291469	2439.918462
835.607811	2533.179808
835.924110	2422.274423
836.240366	2550.823846
836.556578	2505.453462
836.872746	2480.247692
837.188871	2540.741538
837.504952	2495.371154
837.820990	2399.589231
838.136984	2462.603654
838.452935	2495.371154
838.768842	2495.371154
839.084706	2462.603654
839.400526	2586.111923
839.716303	2586.111923
840.032037	2467.644808
840.347727	2502.932885
840.663373	2515.535769
840.978977	2533.179808
841.294537	2467.644808
841.610054	2568.467885
841.925527	2500.412308
842.240957	2533.179808
842.556344	2545.782692
842.871687	2427.315577
843.186987	2467.644808
843.502244	2409.671538
843.817458	2505.453462
844.132629	2588.632500
844.447756	2447.480192
844.762840	2427.315577
845.077881	2444.959615
845.392879	2528.138654
845.707833	2482.768269
846.022745	2467.644808
846.337613	2528.138654
846.652438	2548.303269
846.967221	2482.768269
847.281960	2550.823846
847.596656	2568.467885
847.911309	2523.097500
848.225919	2523.097500
848.540485	2434.877308
848.855009	2505.453462
849.169490	2513.015192
849.483928	2465.124231
849.798323	2429.836154
850.112675	2442.439038
850.426984	2492.850577
850.741251	2475.206538
851.055474	2427.315577
851.369654	2439.918462
851.683792	2505.453462
851.997887	2505.453462
852.311938	2518.056346
852.625947	2603.755962
852.939914	2495.371154
853.253837	2538.220962
853.567718	2563.426731
853.881555	2452.521346
854.195350	2540.741538
854.509103	2467.644808
854.822812	2507.974038
855.136479	2444.959615
855.450103	2505.453462
855.763685	2439.918462
856.077224	2457.562500
856.390720	2437.397885
856.704173	2472.685962
857.017584	2548.303269
857.330953	2439.918462
857.644278	2452.521346
857.957561	2502.932885
858.270802	2505.453462
858.584000	2477.727115
858.897155	2434.877308
859.210268	2540.741538
859.523339	2510.494615
859.836367	2578.550192
860.149352	2548.303269
860.462295	2477.727115
860.775195	2470.165385
861.088054	2409.671538
861.400869	2502.932885
861.713642	2523.097500
862.026373	2523.097500
862.339062	2495.371154
862.651708	2520.576923
862.964312	2404.630385
863.276873	2465.124231
863.589392	2485.288846
863.901869	2487.809423
864.214303	2480.247692
864.526696	2467.644808
864.839045	2553.344423
865.151353	2513.015192
865.463619	2442.439038
865.775842	2460.083077
866.088023	2563.426731
866.400162	2490.330000
866.712258	2525.618077
867.024313	2470.165385
867.336325	2450.000769
867.648296	2439.918462
867.960224	2500.412308
868.272110	2543.262115
868.583954	2485.288846
868.895755	2525.618077
869.207515	2470.165385
869.519233	2505.453462
869.830909	2570.988462
870.142542	2487.809423
870.454134	2513.015192
870.765684	2434.877308
871.077191	2502.932885
871.388657	2535.700385
871.700081	2492.850577
872.011463	2475.206538
872.322803	2482.768269
872.634101	2444.959615
872.945357	2528.138654
873.256571	2434.877308
873.567744	2462.603654
873.878874	2515.535769
874.189963	2548.303269
874.501010	2422.274423
874.812015	2487.809423
875.122979	2455.041923
875.433900	2452.521346
875.744780	2513.015192
876.055618	2475.206538
876.366415	2447.480192
876.677169	2543.262115
876.987882	2611.317692
877.298554	2439.918462
877.609183	2533.179808
877.919771	2462.603654
878.230317	2540.741538
878.540822	2450.000769
878.851285	2500.412308
879.161707	2429.836154
879.472087	2550.823846
879.782425	2455.041923
880.092722	2470.165385
880.402977	2490.330000
880.713191	2555.865000
881.023363	2475.206538
881.333494	2447.480192
881.643583	2475.206538
881.953631	2495.371154
882.263637	2518.056346
882.573602	2533.179808
882.883526	2578.550192
883.193408	2553.344423
883.503248	2548.303269
883.813048	2533.179808
884.122806	2530.659231
884.432522	2598.714808
884.742197	2444.959615
885.051831	2497.891731
885.361424	2525.618077
885.670975	2515.535769
885.980485	2477.727115
886.289954	2558.385577
886.599382	2573.509038
886.908768	2507.974038
887.218113	2467.644808
887.527417	2528.138654
887.836680	2533.179808
888.145901	2450.000769
888.455082	2507.974038
888.764221	2568.467885
889.073319	2528.138654
889.382376	2520.576923
889.691392	2455.041923
890.000366	2462.603654
890.309300	2573.509038
890.618193	2432.356731
890.927044	2535.700385
891.235855	2548.303269
891.544625	2510.494615
891.853353	2490.330000
892.162041	2495.371154
892.470687	2467.644808
892.779293	2507.974038
893.087858	2505.453462
893.396381	2439.918462
893.704864	2548.303269
894.013306	2487.809423
894.321707	2502.932885
894.630068	2472.685962
894.938387	2460.083077
895.246665	2397.068654
895.554903	2543.262115
895.863100	2540.741538
896.171256	2460.083077
896.479371	2485.288846
896.787446	2563.426731
897.095480	2555.865000
897.403473	2490.330000
897.711425	2490.330000
898.019336	2563.426731
898.327207	2525.618077
898.635038	2502.932885
898.942827	2535.700385
899.250576	2490.330000
899.558284	2550.823846
899.865952	2507.974038
900.173579	2520.576923
900.481165	2487.809423
900.788711	2505.453462
901.096216	2485.288846
901.403681	2462.603654
901.711105	2500.412308
902.018489	2482.768269
902.325832	2467.644808
902.633135	2497.891731
902.940397	2520.576923
903.247619	2429.836154
903.554800	2485.288846
903.861941	2492.850577
904.169041	2523.097500
904.476101	2485.288846
904.783121	2500.412308
905.090100	2452.521346
905.397039	2515.535769
905.703938	2490.330000
906.010796	2513.015192
906.317614	2535.700385
906.624391	2434.877308
906.931129	2447.480192
907.237826	2540.741538
907.544483	2535.700385
907.851099	2492.850577
908.157675	2432.356731
908.464211	2583.591346
908.770707	2520.576923
909.077163	2502.932885
909.383578	2540.741538
909.689954	2455.041923
909.996289	2490.330000
910.302584	2434.877308
910.608839	2434.877308
910.915054	2505.453462
911.221229	2507.974038
911.527363	2586.111923
911.833458	2467.644808
912.139513	2558.385577
912.445527	2467.644808
912.751502	2497.891731
913.057436	2467.644808
913.363331	2523.097500
913.669186	2492.850577
913.975000	2492.850577
914.280775	2447.480192
914.586510	2543.262115
914.892205	2455.041923
915.197859	2470.165385
915.503475	2485.288846
915.809050	2457.562500
916.114585	2465.124231
916.420081	2523.097500
916.725536	2465.124231
917.030952	2442.439038
917.336328	2497.891731
917.641665	2563.426731
917.946961	2434.877308
918.252218	2518.056346
918.557435	2434.877308
918.862612	2477.727115
919.167750	2394.548077
919.472848	2407.150962
919.777906	2548.303269
920.082925	2432.356731
920.387904	2573.509038
920.692843	2482.768269
920.997743	2462.603654
921.302603	2528.138654
921.607423	2480.247692
921.912204	2540.741538
922.216946	2419.753846
922.521647	2535.700385
922.826310	2482.768269
923.130932	2510.494615
923.435516	2515.535769
923.740059	2480.247692
924.044564	2452.521346
924.349028	2439.918462
924.653454	2500.412308
924.957840	2447.480192
925.262186	2520.576923
925.566493	2525.618077
925.870761	2444.959615
926.174989	2596.194231
926.479178	2497.891731
926.783328	2470.165385
927.087438	2482.768269
927.391509	2523.097500
927.695541	2437.397885
927.999533	2492.850577
928.303486	2535.700385
928.607400	2495.371154
928.911275	2520.576923
929.215110	2502.932885
929.518906	2525.618077
929.822663	2487.809423
930.126381	2467.644808
930.430060	2465.124231
930.733699	2434.877308
931.037299	2543.262115
931.340861	2477.727115
931.644383	2472.685962
931.947866	2487.809423
932.251309	2533.179808
932.554714	2525.618077
932.858080	2533.179808
933.161407	2525.618077
933.464694	2482.768269
933.767943	2460.083077
934.071153	2553.344423
934.374323	2560.906154
934.677455	2487.809423
934.980548	2510.494615
935.283602	2565.947308
935.586617	2525.618077
935.889593	2530.659231
936.192530	2477.727115
936.495428	2480.247692
936.798287	2513.015192
937.101108	2467.644808
937.403890	2545.782692
937.706632	2492.850577
938.009336	2515.535769
938.312002	2490.330000
938.614628	2533.179808
938.917216	2472.685962
939.219765	2520.576923
939.522275	2452.521346
939.824747	2530.659231
940.127179	2530.659231
940.429573	2525.618077
940.731929	2429.836154
941.034246	2535.700385
941.336524	2470.165385
941.638763	2555.865000
941.940964	2442.439038
942.243126	2465.124231
942.545250	2518.056346
942.847335	2515.535769
943.149381	2442.439038
943.451389	2555.865000
943.753359	2477.727115
944.055290	2573.509038
944.357182	2407.150962
944.659036	2465.124231
944.960851	2422.274423
945.262628	2548.303269
945.564367	2399.589231
945.866067	2467.644808
946.167729	2467.644808
946.469352	2515.535769
946.770937	2417.233269
947.072484	2470.165385
947.373992	2447.480192
947.675462	2533.179808
947.976893	2513.015192
948.278286	2533.179808
948.579641	2439.918462
948.880958	2472.685962
949.182236	2535.700385
949.483476	2550.823846
949.784678	2520.576923
950.085841	2384.465769
950.386967	2465.124231
950.688054	2467.644808
950.989103	2515.535769
951.290114	2505.453462
951.591087	2548.303269
951.892021	2487.809423
952.192917	2472.685962
952.493776	2442.439038
952.794596	2497.891731
953.095378	2543.262115
953.396122	2538.220962
953.696828	2460.083077
953.997496	2545.782692
954.298126	2442.439038
954.598718	2535.700385
954.899272	2412.192115
955.199788	2505.453462
955.500266	2437.397885
955.800706	2550.823846
956.101108	2568.467885
956.401472	2455.041923
956.701798	2538.220962
957.002087	2513.015192
957.302337	2520.576923
957.602550	2558.385577
957.902724	2497.891731
958.202861	2507.974038
958.502960	2455.041923
958.803022	2429.836154
959.103045	2533.179808
959.403031	2518.056346
959.702979	2507.974038
960.002889	2472.685962
960.302762	2500.412308
960.602596	2520.576923
960.902393	2492.850577
961.202153	2482.768269
961.501875	2540.741538
961.801559	2510.494615
962.101205	2455.041923
962.400814	2545.782692
962.700385	2565.947308
962.999918	2475.206538
963.299414	2560.906154
963.598873	2533.179808
963.898293	2452.521346
964.197677	2437.397885
964.497022	2412.192115
964.796331	2500.412308
965.095601	2515.535769
965.394835	2439.918462
965.694030	2472.685962
965.993189	2515.535769
966.292309	2510.494615
966.591393	2487.809423
966.890439	2419.753846
967.189447	2379.424615
967.488419	2467.644808
967.787353	2485.288846
968.086249	2518.056346
968.385108	2535.700385
968.683930	2490.330000
968.982714	2523.097500
969.281462	2402.109808
969.580172	2477.727115
969.878844	2492.850577
970.177480	2429.836154
970.476078	2520.576923
970.774639	2460.083077
971.073162	2528.138654
971.371649	2434.877308
971.670098	2485.288846
971.968510	2576.029615
972.266885	2465.124231
972.565223	2487.809423
972.863524	2518.056346
973.161788	2502.932885
973.460014	2533.179808
973.758204	2487.809423
974.056356	2568.467885
974.354471	2472.685962
974.652550	2500.412308
974.950591	2485.288846
975.248595	2482.768269
975.546563	2513.015192
975.844493	2500.412308
976.142386	2490.330000
976.440243	2487.809423
976.738062	2475.206538
977.035845	2490.330000
977.333590	2455.041923
977.631299	2460.083077
977.928971	2583.591346
978.226606	2502.932885
978.524204	2505.453462
978.821765	2427.315577
979.119290	2455.041923
979.416777	2404.630385
979.714228	2429.836154
980.011642	2442.439038
980.309020	2538.220962
980.606360	2472.685962
980.903664	2588.632500
981.200931	2520.576923
981.498162	2455.041923
981.795356	2497.891731
982.092513	2545.782692
982.389633	2492.850577
982.686717	2485.288846
982.983764	2452.521346
983.280775	2492.850577
983.577749	2467.644808
983.874686	2485.288846
984.171587	2452.521346
984.468451	2485.288846
984.765279	2470.165385
985.062070	2523.097500
985.358824	2533.179808
985.655543	2500.412308
985.952224	2497.891731
986.248869	2480.247692
986.545478	2439.918462
986.842050	2475.206538
987.138586	2434.877308
987.435086	2392.027500
987.731549	2510.494615
988.027975	2429.836154
988.324366	2497.891731
988.620719	2523.097500
988.917037	2490.330000
989.213318	2535.700385
989.509563	2419.753846
989.805772	2538.220962
990.101944	2465.124231
990.398080	2460.083077
990.694180	2528.138654
990.990244	2475.206538
991.286271	2432.356731
991.582262	2487.809423
991.878217	2439.918462
992.174136	2487.809423
992.470019	2593.673654
992.765865	2475.206538
993.061676	2538.220962
993.357450	2495.371154
993.653188	2482.768269
993.948890	2525.618077
994.244556	2472.685962
994.540186	2482.768269
994.835780	2523.097500
995.131337	2485.288846
995.426859	2477.727115
995.722345	2485.288846
996.017795	2434.877308
996.313208	2520.576923
996.608586	2457.562500
996.903928	2518.056346
997.199234	2477.727115
997.494504	2457.562500
997.789738	2505.453462
998.084936	2487.809423
998.380099	2482.768269
998.675225	2523.097500
998.970316	2492.850577
999.265371	2472.685962
999.560390	2548.303269
999.855373	2470.165385
1000.150320	2510.494615
1000.445232	2555.865000
1000.740108	2550.823846
1001.034948	2477.727115
1001.329752	2480.247692
1001.624521	2500.412308
1001.919254	2502.932885
1002.213951	2480.247692
1002.508613	2487.809423
1002.803239	2429.836154
1003.097829	2485.288846
1003.392384	2505.453462
1003.686903	2450.000769
1003.981386	2507.974038
1004.275834	2555.865000
1004.570246	2548.303269
1004.864623	2563.426731
1005.158964	2550.823846
1005.453270	2513.015192
1005.747540	2477.727115
1006.041775	2422.274423
1006.335974	2505.453462
1006.630138	2485.288846
1006.924266	2505.453462
1007.218359	2548.303269
1007.512416	2520.576923
1007.806438	2462.603654
1008.100425	2427.315577
1008.394376	2502.932885
1008.688292	2518.056346
1008.982172	2490.330000
1009.276017	2505.453462
1009.569827	2492.850577
1009.863602	2495.371154
1010.157341	2518.056346
1010.451045	2444.959615
1010.744714	2437.397885
1011.038347	2530.659231
1011.331945	2452.521346
1011.625508	2442.439038
1011.919036	2513.015192
1012.212528	2492.850577
1012.505986	2515.535769
1012.799408	2500.412308
1013.092795	2465.124231
1013.386147	2530.659231
1013.679464	2545.782692
1013.972745	2533.179808
1014.265992	2460.083077
1014.559204	2457.562500
1014.852380	2465.124231
1015.145521	2513.015192
1015.438628	2460.083077
1015.731699	2470.165385
1016.024736	2502.932885
1016.317737	2523.097500
1016.610703	2485.288846
1016.903635	2460.083077
1017.196531	2505.453462
1017.489393	2540.741538
1017.782219	2490.330000
1018.075011	2492.850577
1018.367768	2515.535769
1018.660490	2528.138654
1018.953177	2528.138654
1019.245829	2528.138654
