Dividing Wavelength (nm)	Counts (n)	Blue Motor Position (mm): 0.000000	Red Motor Position (mm): 9.600000	
326.493990	2130.245422
326.888308	2130.245422
327.282561	2130.245422
327.676750	2096.646132
328.070874	2095.829465
328.464933	2098.554208
328.858929	2105.596700
329.252859	2112.677001
329.646726	2127.225771
330.040528	2141.230096
330.434265	2155.178969
330.827938	2172.981804
331.221547	2191.205575
331.615091	2211.186188
332.008571	2230.279558
332.401986	2249.458628
332.795338	2268.811618
333.188625	2287.957920
333.581847	2305.924592
333.975006	2323.102324
334.368100	2343.503874
334.761129	2361.667151
335.154095	2376.452855
335.546996	2395.503376
335.939833	2408.736404
336.332606	2425.969589
336.725315	2434.111052
337.117960	2445.637651
337.510540	2454.767180
337.903056	2465.124231
338.295508	2472.577577
338.687896	2479.892291
339.080220	2489.790597
339.472480	2497.148161
339.864676	2502.033039
340.256807	2505.937412
340.648875	2506.562515
341.040879	2509.751045
341.432818	2511.749863
341.824694	2514.711541
342.216506	2515.394617
342.608253	2515.014010
342.999937	2514.590553
343.391557	2514.993845
343.783113	2514.426715
344.174605	2513.020233
344.566033	2510.847496
344.957397	2507.361538
345.348697	2508.863802
345.739934	2507.732063
346.131106	2504.367093
346.522215	2504.233502
346.913260	2501.445744
347.304241	2497.856443
347.695159	2498.980620
348.086012	2498.123624
348.476802	2488.424444
348.867528	2492.477532
349.258191	2491.708756
349.648789	2491.701194
350.039324	2486.967550
350.429796	2487.166676
350.820203	2484.605770
351.210548	2483.839514
351.600828	2484.557879
351.991045	2483.784062
352.381198	2482.937148
352.771288	2483.164000
353.161314	2482.876654
353.551276	2484.126860
353.941175	2482.362456
354.331010	2482.894298
354.720782	2479.037815
355.110490	2482.357415
355.500135	2480.817343
355.889717	2483.290029
356.279235	2482.491006
356.668689	2485.041830
357.058080	2484.315903
357.447408	2481.870944
357.836672	2482.059987
358.225873	2481.018989
358.615010	2481.029071
359.004084	2485.530822
359.393095	2484.273054
359.782043	2485.291367
360.170927	2485.785400
360.559748	2487.930411
360.948505	2487.350678
361.337199	2486.859166
361.725830	2488.973930
362.114398	2488.308497
362.502903	2488.626090
362.891344	2488.744557
363.279722	2489.662047
363.668037	2491.681029
364.056289	2490.067860
364.444478	2494.325114
364.832603	2494.703201
365.220665	2492.578355
365.608665	2496.013901
365.996601	2492.522902
366.384474	2497.254025
366.772284	2496.041627
367.160031	2498.925167
367.547715	2499.451968
367.935336	2500.908861
368.322893	2504.815756
368.710388	2507.603514
369.097820	2516.148269
369.485189	2516.183558
369.872495	2523.334434
370.259738	2528.007584
370.646918	2536.703574
371.034035	2542.866385
371.421090	2550.533980
371.808081	2562.380691
372.195010	2569.733214
372.581875	2586.583271
372.968678	2598.745055
373.355418	2609.928854
373.742096	2626.799076
374.128710	2641.771303
374.515262	2655.072387
374.901751	2669.732062
375.288177	2685.349557
375.674540	2706.424101
376.060841	2723.987481
376.447079	2743.146386
376.833254	2764.914088
377.219367	2772.695109
377.605417	2808.835141
377.991404	2819.713951
378.377329	2840.082733
378.763191	2851.516070
379.148991	2884.606204
379.534727	2904.700243
379.920402	2928.015580
380.306013	2937.442538
380.691563	2975.684731
381.077049	2989.802482
381.462474	2997.114676
381.847835	3021.912111
382.233134	3030.608102
382.618371	3023.895805
383.003545	3071.832137
383.388657	3065.855849
383.773706	3078.277252
384.158693	3076.245668
384.543618	3082.375711
384.928480	3096.856425
385.313280	3115.682614
385.698017	3095.369285
386.082692	3119.534056
386.467305	3100.039914
386.851856	3103.135182
387.236344	3098.593103
387.620770	3092.488265
388.005133	3089.748398
388.389435	3078.647777
388.773674	3061.593554
389.157851	3058.079870
389.541965	3042.127138
389.926018	3003.584997
390.310008	3008.439628
390.693936	2992.698625
391.077802	2984.940289
391.461606	2953.120526
391.845348	2948.515432
392.229027	2924.607760
392.612645	2907.513207
392.996200	2902.766961
393.379694	2890.942934
393.763125	2883.686193
394.146494	2849.504650
394.529801	2840.944771
394.913047	2821.488437
395.296230	2792.685805
395.679351	2780.171140
396.062410	2760.485435
396.445408	2737.404512
396.828343	2722.507902
397.211217	2705.166333
397.594028	2677.492919
397.976778	2664.852226
398.359466	2653.365957
398.742092	2638.696199
399.124656	2624.560803
399.507158	2616.018568
399.889598	2606.228647
400.271977	2599.337390
400.654294	2591.682398
401.036549	2578.913155
401.418742	2570.111301
401.800874	2567.152143
402.182944	2560.268448
402.564952	2554.355174
402.946898	2547.083310
403.328783	2544.391334
403.710606	2536.728780
404.092367	2538.561239
404.474067	2535.377751
404.855705	2533.956145
405.237282	2529.154446
405.618797	2528.927594
406.000250	2527.410207
406.381642	2526.107069
406.762972	2528.766277
407.144240	2524.327542
407.525447	2526.578417
407.906593	2523.861235
408.287677	2523.049609
408.668700	2523.135309
409.049661	2524.526667
409.430560	2522.616070
409.811399	2523.432737
410.192176	2522.825278
410.572891	2522.873169
410.953545	2520.529032
411.334138	2522.023734
411.714669	2520.372756
412.095139	2521.547345
412.475547	2523.800741
412.855894	2521.010462
413.236180	2519.992149
413.616405	2523.152953
413.996568	2520.962571
414.376670	2518.759587
414.756711	2522.691687
415.136691	2520.481141
415.516609	2521.229752
415.896466	2523.150432
416.276262	2521.524660
416.655997	2518.144566
417.035670	2519.477952
417.415283	2520.627335
417.794834	2518.182375
418.174324	2521.932993
418.553753	2523.462984
418.933121	2523.808303
419.312428	2525.108920
419.691674	2521.716224
420.070859	2521.484331
420.449983	2521.897705
420.829045	2523.195803
421.208047	2523.145391
421.586988	2524.647655
421.965867	2521.401152
422.344686	2523.710000
422.723444	2523.785618
423.102141	2521.043230
423.480777	2525.454239
423.859352	2523.505833
424.237866	2525.320649
424.616319	2522.336286
424.994712	2526.470032
425.373044	2525.640762
425.751314	2524.105731
426.129524	2524.975330
426.507673	2527.195958
426.885762	2525.534898
427.263789	2524.009949
427.641756	2525.950793
428.019662	2527.621936
428.397508	2527.679909
428.775292	2527.760567
429.153016	2527.732841
429.530679	2525.731503
429.908282	2526.568334
430.285824	2528.022707
430.663305	2528.204189
431.040726	2527.987419
431.418086	2525.577748
431.795385	2528.264683
432.172624	2527.606812
432.549802	2527.974816
432.926920	2525.817203
433.303977	2531.223840
433.680974	2528.080681
434.057910	2528.985568
434.434786	2526.608664
434.811601	2527.783253
435.188355	2530.984385
435.565050	2527.299302
435.941683	2528.733510
436.318257	2527.321987
436.694770	2528.083201
437.071222	2526.354085
437.447614	2524.614887
437.823946	2527.072450
438.200218	2527.228726
438.576429	2527.132944
438.952580	2529.532533
439.328670	2533.676361
439.704700	2529.671165
440.080670	2529.293078
440.456580	2530.384488
440.832429	2530.399611
441.208218	2527.919364
441.583947	2531.654859
441.959616	2529.847605
442.335224	2528.247039
442.710773	2530.651669
443.086261	2531.632173
443.461689	2529.991278
443.837057	2532.811803
444.212365	2530.676875
444.587612	2528.902389
444.962800	2530.263500
445.337927	2531.531350
445.712995	2530.069416
446.088002	2530.460105
446.462949	2532.083357
446.837837	2531.312060
447.212664	2532.353058
447.587431	2530.422297
447.962139	2531.675023
448.336786	2532.773995
448.711374	2534.732483
449.085901	2534.135106
449.460369	2533.988913
449.834776	2531.299457
450.209124	2533.389016
450.583412	2537.207690
450.957640	2535.725590
451.331808	2534.460261
451.705917	2535.498738
452.079965	2534.079654
452.453954	2533.807431
452.827883	2533.421783
453.201752	2534.195600
453.575562	2532.189221
453.949311	2533.383974
454.323001	2534.974458
454.696632	2532.335414
455.070202	2535.929757
455.443713	2533.857843
455.817164	2532.945394
456.190556	2532.060672
456.563888	2532.350538
456.937160	2528.753675
457.310373	2534.273738
457.683526	2535.594520
458.056619	2533.915816
458.429653	2534.792977
458.802628	2534.830786
459.175542	2533.391536
459.548398	2536.428831
459.921194	2533.865405
460.293930	2536.398584
460.666607	2536.121321
461.039224	2537.726928
461.411782	2536.179294
461.784280	2539.899666
462.156719	2537.522762
462.529099	2537.648791
462.901419	2536.950591
463.273680	2537.666435
463.645882	2539.251877
464.018024	2537.994110
464.390106	2537.452186
464.762130	2539.682896
465.134094	2539.040149
465.505999	2540.907897
465.877845	2540.310520
466.249631	2542.631971
466.621358	2541.175078
466.993026	2545.144986
467.364634	2544.577857
467.736184	2541.616179
468.107674	2540.975952
468.479105	2541.117104
468.850477	2543.015099
469.221790	2540.398740
469.593043	2538.263811
469.964238	2536.232226
470.335373	2539.065355
470.706449	2540.557536
471.077467	2539.929913
471.448425	2539.997968
471.819324	2542.521066
472.190164	2542.909235
472.560945	2542.190870
472.931667	2538.536034
473.302330	2540.678524
473.672934	2540.764224
474.043479	2541.535520
474.413965	2539.277083
474.784393	2534.354397
475.154761	2538.462937
475.525070	2538.220962
475.895321	2537.512679
476.265513	2535.095446
476.635645	2539.534182
477.005719	2542.498381
477.375734	2540.154244
477.745691	2538.422608
478.115588	2542.190870
478.485427	2541.293545
478.855207	2541.961498
479.224928	2542.422763
479.594591	2544.305634
479.964194	2542.846220
480.333739	2543.428473
480.703226	2541.477547
481.072653	2542.155582
481.442022	2543.143648
481.811333	2546.760676
482.180584	2542.510983
482.549777	2543.302445
482.918912	2539.801363
483.287988	2543.753628
483.657005	2543.466282
484.025964	2542.412681
484.394864	2541.734646
484.763706	2546.480892
485.132489	2542.274049
485.501213	2541.923689
485.869879	2544.469472
486.238487	2542.541230
486.607036	2544.497198
486.975527	2542.445448
487.343959	2545.520552
487.712333	2542.967208
488.080648	2541.505273
488.448905	2541.122146
488.817104	2542.904193
489.185244	2544.361087
489.553326	2542.100129
489.921350	2543.473844
490.289315	2545.008875
490.657222	2545.553320
491.025070	2547.554658
491.392861	2547.418547
491.760593	2547.645399
492.128267	2543.307486
492.495883	2543.254554
492.863440	2543.816642
493.230939	2543.199101
493.598380	2543.506611
493.965763	2541.744728
494.333088	2540.202135
494.700354	2540.139121
495.067563	2539.957639
495.434713	2541.205325
495.801805	2543.254554
496.168839	2543.859492
496.535815	2543.536858
496.902733	2544.056097
497.269593	2544.388813
497.636395	2541.326312
498.003139	2544.224976
498.369825	2541.908566
498.736453	2546.664894
499.103023	2542.634492
499.469535	2546.140614
499.835989	2542.475695
500.202385	2544.010727
500.568723	2542.823535
500.935003	2544.908052
501.301226	2543.047866
501.667390	2545.928886
502.033497	2545.137425
502.399546	2545.114739
502.765537	2544.955943
503.131470	2543.466282
503.497345	2545.848227
503.863163	2545.308824
504.228923	2543.599873
504.594625	2545.442414
504.960269	2542.964687
505.325856	2544.613145
505.691385	2543.340253
506.056856	2545.331509
506.422270	2543.453679
506.787625	2544.124153
507.152924	2540.910417
507.518164	2543.057949
507.883347	2543.947712
508.248472	2547.143804
508.613540	2542.647095
508.978550	2545.412168
509.343503	2545.888557
509.708398	2544.361087
510.073236	2543.118442
510.438016	2544.446787
510.802738	2547.723537
511.167403	2547.136242
511.532010	2544.000644
511.896561	2546.674977
512.261053	2548.149514
512.625488	2545.392003
512.989866	2542.425284
513.354186	2541.946374
513.718449	2540.716333
514.082655	2542.609286
514.446803	2547.763866
514.810894	2546.707744
515.174927	2550.365101
515.538904	2546.259081
515.902822	2547.380738
516.266684	2546.606921
516.630488	2546.843855
516.994235	2546.400234
517.357925	2544.517363
517.721558	2544.214893
518.085133	2545.323947
518.448651	2547.158927
518.812112	2547.264792
519.175516	2545.253371
519.538863	2547.836963
519.902152	2547.148845
520.265385	2546.674977
520.628560	2544.824873
520.991678	2544.507280
521.354739	2548.482230
521.717743	2545.896118
522.080690	2547.690769
522.443580	2546.009544
522.806413	2549.354350
523.169189	2545.316386
523.531908	2544.378731
523.894569	2546.334699
524.257174	2546.727909
524.619722	2546.957281
524.982213	2548.194884
525.344647	2546.879143
525.707025	2546.102806
526.069345	2546.546427
526.431608	2547.133722
526.793815	2544.759338
527.155964	2549.492982
527.518057	2546.521221
527.880093	2546.301931
528.242072	2547.587425
528.603995	2548.527601
528.965860	2548.414175
529.327669	2548.361242
529.689421	2545.654143
530.051117	2548.542724
530.412755	2544.540048
530.774337	2550.118085
531.135862	2546.105326
531.497331	2544.081303
531.858743	2543.070552
532.220098	2545.248330
532.581396	2542.795809
532.942638	2543.181457
533.303824	2548.071376
533.664953	2548.109185
534.026025	2544.436704
534.387040	2546.420398
534.747999	2545.951571
535.108902	2546.642209
535.469748	2548.633465
535.830537	2549.619010
536.191270	2548.212528
536.551947	2545.994421
536.912567	2547.789072
537.273131	2546.793444
537.633638	2548.126829
537.994089	2549.339226
538.354483	2549.366953
538.714821	2547.801674
539.075103	2545.875954
539.435328	2550.203784
539.795497	2546.296890
540.155609	2548.852755
540.515665	2546.680018
540.875665	2549.336706
541.235609	2547.138763
541.595496	2548.020965
541.955328	2546.674977
542.315102	2549.787889
542.674821	2546.795964
543.034483	2550.115564
543.394090	2548.026006
543.753640	2551.370811
544.113134	2545.407126
544.472571	2550.019782
544.831953	2547.214380
545.191278	2549.586243
545.550548	2546.972405
545.909761	2547.302600
546.268918	2547.670604
546.628019	2548.981304
546.987064	2546.785882
547.346053	2547.526932
547.704986	2548.441901
548.063863	2549.440049
548.422684	2551.201933
548.781449	2549.765204
549.140158	2547.955430
549.498811	2548.167158
549.857408	2546.548948
550.215949	2544.177085
550.574434	2542.818494
550.932864	2546.228834
551.291237	2546.213711
551.649555	2547.116078
552.007817	2548.691438
552.366022	2547.247147
552.724173	2548.628424
553.082267	2548.827549
553.440305	2547.040460
553.798288	2548.315872
554.156215	2547.703372
554.514086	2544.918134
554.871902	2550.251675
555.229661	2546.133053
555.587365	2548.661191
555.945014	2545.094575
556.302606	2547.652960
556.660143	2548.794782
557.017625	2548.179761
557.375050	2551.423743
557.732421	2546.448125
558.089735	2547.020296
558.446994	2547.496685
558.804197	2548.089020
559.161345	2550.077755
559.518437	2546.591797
559.875474	2548.492312
560.232455	2548.812426
560.589381	2547.118598
560.946251	2550.193702
561.303065	2547.884853
561.659825	2549.150183
562.016528	2548.731767
562.373177	2545.384441
562.729770	2548.686397
563.086307	2550.922149
563.442789	2550.745708
563.799216	2548.121788
564.155587	2546.475851
564.511904	2549.913918
564.868164	2547.768907
565.224370	2548.741850
565.580520	2551.007848
565.936615	2549.548434
566.292654	2549.200595
566.648638	2549.878630
567.004567	2551.017931
567.360441	2547.806716
567.716260	2550.052550
568.072023	2549.311500
568.427732	2544.136756
568.783385	2548.164638
569.138982	2545.092054
569.494525	2547.234545
569.850013	2544.613145
570.205445	2547.002652
570.560823	2546.397713
570.916145	2548.386448
571.271412	2546.516180
571.626625	2548.948537
571.981782	2547.395862
572.336884	2546.634647
572.691931	2549.225800
573.046923	2549.369473
573.401860	2549.145142
573.756743	2547.869730
574.111570	2550.602035
574.466342	2548.434339
574.821059	2548.799823
575.175722	2551.159083
575.530330	2546.354863
575.884882	2547.766386
576.239380	2548.378887
576.593823	2549.314021
576.948211	2546.498536
577.302544	2547.075748
577.656823	2544.444266
578.011047	2548.555327
578.365216	2548.862837
578.719330	2550.528939
579.073389	2545.553320
579.427394	2547.174051
579.781344	2547.111036
580.135239	2548.900646
580.489080	2544.144317
580.842866	2547.605069
581.196597	2552.709238
581.550273	2548.152035
581.903895	2547.635316
582.257463	2546.064997
582.610975	2546.763197
582.964434	2548.436860
583.317837	2548.986346
583.671186	2549.613969
584.024481	2546.012065
584.377721	2546.972405
584.730906	2546.163299
585.084037	2549.571119
585.437113	2547.461397
585.790135	2548.242775
586.143103	2547.897456
586.496016	2549.981973
586.848874	2539.387989
587.201679	2546.261602
587.554428	2542.838658
587.907124	2548.504915
588.259765	2542.102650
588.612352	2546.075079
588.964884	2544.358566
589.317362	2548.333516
589.669786	2548.656150
590.022155	2549.170348
590.374470	2546.768238
590.726731	2548.031047
591.078937	2547.862168
591.431090	2547.857127
591.783188	2548.051212
592.135232	2548.396531
592.487222	2544.913093
592.839157	2548.434339
593.191038	2548.197405
593.542866	2547.383259
593.894639	2548.867878
594.246358	2546.075079
594.598022	2547.035419
594.949633	2547.206818
595.301190	2543.988042
595.652692	2547.615152
596.004141	2543.741025
596.355535	2547.209339
596.706876	2545.195398
597.058162	2545.344112
597.409395	2547.330327
597.760573	2546.112888
598.111698	2545.785213
598.462768	2546.579195
598.813785	2549.152704
599.164748	2546.039791
599.515657	2545.394523
599.866511	2545.868392
600.217312	2545.374359
600.568060	2546.327137
600.918753	2548.164638
601.269392	2547.935265
601.619978	2544.456869
601.970510	2545.172713
602.320988	2546.286808
602.671412	2544.973587
603.021783	2545.041643
603.372100	2548.883002
603.722363	2547.347971
604.072572	2545.702034
604.422728	2548.459545
604.772830	2541.855633
605.122878	2541.805222
605.472872	2544.613145
605.822813	2539.761034
606.172701	2545.081972
606.522534	2545.323947
606.872314	2548.063814
607.222041	2546.236396
607.571714	2546.934596
607.921333	2547.612631
608.270899	2545.293700
608.620411	2545.306303
608.969870	2545.717157
609.319276	2546.619524
609.668627	2550.196223
610.017926	2551.771583
610.367171	2555.373487
610.716362	2552.003476
611.065500	2550.617159
611.414585	2550.980122
611.763616	2549.644216
612.112594	2548.202446
612.461518	2550.629762
612.810389	2544.235058
613.159207	2549.538352
613.507971	2549.092210
613.856682	2547.279915
614.205340	2548.187323
614.553945	2548.837632
614.902496	2546.175902
615.250994	2546.496016
615.599439	2546.677497
615.947830	2548.262940
616.296169	2547.970553
616.644454	2550.087838
616.992686	2547.930224
617.340864	2546.473330
617.688990	2544.003165
618.037063	2545.417209
618.385082	2545.487785
618.733048	2547.078269
619.080961	2546.949719
619.428821	2546.130532
619.776628	2546.342260
620.124382	2546.506098
620.472083	2545.591128
620.819731	2547.542055
621.167326	2543.705737
621.514868	2545.913762
621.862357	2545.384441
622.209793	2545.790254
622.557176	2545.646581
622.904506	2544.101467
623.251783	2541.853113
623.599007	2543.453679
623.946179	2539.352701
624.293297	2544.872764
624.640363	2546.412837
624.987376	2545.092054
625.334336	2545.807898
625.681243	2545.850748
626.028097	2543.834286
626.374899	2547.380738
626.721647	2545.636499
627.068343	2546.344781
627.414987	2544.023330
627.761577	2549.296377
628.108115	2543.846889
628.454600	2546.317055
628.801032	2544.998793
629.147412	2544.587939
629.493739	2544.744215
629.840014	2545.139945
630.186236	2543.463762
630.532405	2547.035419
630.878521	2544.719009
631.224585	2547.733619
631.570597	2545.974256
631.916556	2545.409647
632.262462	2544.023330
632.608316	2543.819163
632.954117	2545.639019
633.299866	2542.654656
633.645562	2542.326981
633.991206	2542.309337
634.336797	2543.249512
634.682336	2545.354194
635.027823	2546.175902
635.373257	2546.559030
635.718639	2546.042312
636.063968	2545.560882
636.409245	2541.878319
636.754470	2544.739173
637.099642	2541.230530
637.444762	2545.591128
637.789829	2543.448638
638.134845	2541.510314
638.479808	2542.936961
638.824719	2540.923020
639.169577	2542.332022
639.514383	2544.315717
639.859137	2541.895963
640.203839	2545.649102
640.548489	2542.311858
640.893086	2540.744059
641.237632	2539.819007
641.582125	2544.010727
641.926566	2537.878163
642.270955	2543.209183
642.615292	2544.441745
642.959576	2541.984183
643.303809	2542.221117
643.647990	2543.514173
643.992118	2540.139121
644.336195	2541.550644
644.680219	2540.262629
645.024192	2544.484595
645.368112	2542.571477
645.711981	2541.868236
646.055797	2543.965356
646.399562	2540.247505
646.743274	2545.449976
647.086935	2541.701878
647.430544	2541.744728
647.774101	2544.159441
648.117606	2542.846220
648.461059	2543.970397
648.804460	2548.683876
649.147810	2539.844213
649.491108	2539.871939
649.834354	2544.444266
650.177548	2543.168854
650.520690	2543.496529
650.863781	2542.258926
651.206820	2545.117260
651.549807	2541.059131
651.892742	2540.766744
652.235626	2542.919317
652.578458	2543.554502
652.921238	2546.354863
653.263967	2541.596014
653.606644	2541.285983
653.949269	2540.343287
654.291843	2542.175747
654.634365	2543.786395
654.976836	2541.195242
655.319255	2545.056766
655.661622	2542.314378
656.003938	2541.107022
656.346203	2542.185829
656.688416	2541.575849
657.030577	2541.517876
657.372687	2541.376724
657.714746	2540.058462
658.056753	2540.968390
658.398708	2537.578214
658.740612	2540.255067
659.082465	2536.716177
659.424266	2539.193904
659.766016	2535.367668
660.107715	2544.829914
660.449362	2540.098791
660.790958	2542.463093
661.132503	2543.690613
661.473996	2541.273380
661.815438	2543.796478
662.156829	2540.837320
662.498168	2541.507794
662.839456	2540.144162
663.180693	2540.444110
663.521879	2540.285314
663.863013	2540.068544
664.204097	2543.264636
664.545129	2543.078113
664.886110	2542.931920
665.227040	2541.175078
665.567918	2540.348328
665.908746	2538.233564
666.249522	2541.774975
666.590248	2539.574511
666.930922	2540.799512
667.271545	2541.202804
667.612118	2539.030067
667.952639	2541.122146
668.293109	2542.216076
668.633528	2542.747918
668.973896	2540.393699
669.314213	2542.896632
669.654480	2541.583411
669.994695	2541.893442
670.334859	2541.601055
670.674973	2540.232382
671.015035	2543.899821
671.355047	2541.795140
671.695008	2541.848072
672.034918	2538.946888
672.374777	2542.576518
672.714585	2540.134079
673.054342	2541.681714
673.394049	2539.657690
673.733705	2542.536189
674.073310	2541.913607
674.412864	2540.610468
674.752368	2540.673483
675.091820	2542.541230
675.431223	2541.306148
675.770574	2541.028884
676.109875	2536.953111
676.449125	2538.687268
676.788324	2535.811290
677.127473	2539.652649
677.466571	2536.075951
677.805619	2540.222300
678.144616	2538.241126
678.483562	2540.973432
678.822458	2539.352701
679.161303	2541.611138
679.500098	2539.912269
679.838842	2539.834131
680.177535	2541.931251
680.516179	2540.456713
680.854771	2541.401930
681.193314	2540.965870
681.531805	2538.563760
681.870247	2543.761190
682.208638	2543.360418
682.546978	2539.811446
682.885268	2542.828576
683.223508	2542.831097
683.561697	2538.833462
683.899836	2542.553833
684.237925	2537.711805
684.575963	2542.684903
684.913951	2538.871270
685.251889	2540.252547
685.589776	2540.827238
685.927614	2543.496529
686.265401	2543.062990
686.603137	2543.602393
686.940824	2540.980993
687.278460	2543.698175
687.616046	2540.431508
687.953582	2538.155427
688.291068	2542.521066
688.628504	2541.107022
688.965889	2539.589635
689.303224	2541.659028
689.640510	2538.009233
689.977745	2541.717002
690.314930	2543.161292
690.652065	2541.482588
690.989150	2538.780530
691.326185	2542.266488
691.663170	2538.072247
692.000105	2542.500901
692.336990	2540.068544
692.673825	2540.887732
693.010610	2540.451672
693.347345	2538.374717
693.684030	2535.763399
694.020665	2538.974614
694.357251	2534.732483
694.693786	2537.595858
695.030272	2537.333718
695.366707	2539.277083
695.703093	2540.139121
696.039429	2540.212217
696.375716	2538.959491
696.711952	2539.662732
697.048139	2536.489325
697.384276	2540.781868
697.720363	2537.021167
698.056400	2540.393699
698.392388	2540.915458
698.728326	2537.517721
699.064214	2535.521424
699.400053	2539.511497
699.735842	2540.333205
700.071581	2539.473688
700.407270	2541.948895
700.742910	2537.187525
701.078501	2537.830272
701.414042	2538.699871
701.749533	2538.162988
702.084974	2540.769265
702.420366	2538.747762
702.755709	2540.819676
703.091002	2540.179450
703.426246	2541.336395
703.761440	2540.832279
704.096584	2539.453524
704.431679	2538.702392
704.766725	2538.485622
705.101721	2540.076106
705.436668	2541.611138
705.771565	2537.346321
706.106413	2540.219779
706.441212	2539.322454
706.775961	2539.226672
707.110661	2537.724408
707.445311	2538.155427
707.779913	2538.853626
708.114465	2540.257588
708.448967	2535.271887
708.783421	2541.616179
709.117825	2539.589635
709.452180	2539.622402
709.786485	2539.725746
710.120742	2541.679193
710.454949	2541.906045
710.789107	2532.471526
711.123216	2535.218954
711.457275	2538.185673
711.791286	2535.576876
712.125247	2538.072248
712.459159	2539.221631
712.793023	2541.210366
713.126837	2539.672814
713.460602	2538.485622
713.794318	2538.704912
714.127985	2540.307999
714.461602	2536.935467
714.795171	2538.268853
715.128691	2537.948739
715.462162	2540.144162
715.795584	2538.215920
716.128957	2536.411187
716.462281	2539.030067
716.795556	2539.042670
717.128782	2538.886394
717.461960	2538.359593
717.795088	2540.020653
718.128167	2538.740200
718.461198	2539.977804
718.794180	2537.676517
719.127113	2536.436393
719.459997	2537.767258
719.792833	2538.631816
720.125619	2539.387989
720.458357	2538.515869
720.791046	2539.224151
721.123686	2537.555529
721.456278	2540.534851
721.788821	2539.282124
722.121315	2538.712474
722.453761	2538.725077
722.786158	2536.731301
723.118506	2538.334388
723.450805	2539.350180
723.783056	2536.451517
724.115259	2540.489481
724.447412	2536.501928
724.779518	2540.030736
725.111574	2540.928061
725.443582	2537.807587
725.775542	2538.488143
726.107453	2536.900179
726.439315	2539.335057
726.771129	2544.398896
727.102895	2538.430169
727.434612	2537.835313
727.766281	2537.104346
728.097901	2534.598893
728.429473	2536.343132
728.760996	2536.217103
729.092471	2536.181815
729.423897	2537.593338
729.755276	2538.851106
730.086606	2537.096784
730.417887	2537.984027
730.749120	2536.033101
731.080305	2538.556198
731.411442	2537.305992
731.742530	2537.434542
732.073570	2540.706250
732.404562	2538.331867
732.735506	2539.335057
733.066401	2535.503780
733.397249	2540.126518
733.728048	2538.513348
734.058798	2538.495704
734.389501	2539.171219
734.720156	2538.677186
735.050762	2536.829603
735.381320	2538.578883
735.711831	2538.780530
736.042293	2536.920344
736.372707	2537.510159
736.703073	2537.943698
737.033391	2538.062165
737.363661	2536.993441
737.693883	2535.546629
738.024056	2540.565098
738.354182	2540.587783
738.684260	2540.068544
739.014290	2537.419418
739.344272	2540.355890
739.674207	2536.822041
740.004093	2539.682896
740.333931	2539.602238
740.663722	2539.355221
740.993464	2536.441434
741.323159	2538.152906
741.652806	2535.022349
741.982405	2539.070396
742.311956	2536.811959
742.641460	2537.452186
742.970915	2537.991589
743.300323	2538.911600
743.629683	2537.978986
743.958996	2536.864891
744.288260	2536.791794
744.617477	2538.415046
744.946647	2532.169056
745.275768	2536.544778
745.604842	2532.620240
745.933869	2538.049562
746.262847	2529.671165
746.591778	2538.972093
746.920662	2535.564273
747.249498	2536.310364
747.578286	2540.058462
747.907027	2536.227185
748.235720	2537.626105
748.564365	2537.265663
748.892963	2537.558050
749.221514	2538.072247
749.550017	2534.878677
749.878473	2536.965714
750.206881	2538.402443
750.535242	2534.402287
750.863555	2539.236754
751.191821	2536.015457
751.520039	2535.380271
751.848210	2537.563091
752.176334	2534.311547
752.504411	2537.837834
752.832440	2539.221631
753.160421	2537.366486
753.488356	2536.408667
753.816243	2537.661393
754.144082	2534.087215
754.471875	2539.057793
754.799620	2536.217103
755.127318	2536.433873
755.454969	2537.121990
755.782572	2536.517052
756.110129	2538.533513
756.437638	2536.020498
756.765100	2538.445293
757.092515	2537.472350
757.419882	2537.270704
757.747203	2532.980682
758.074477	2536.701054
758.401703	2537.598379
758.728882	2536.874973
759.056014	2537.172402
759.383099	2535.206352
759.710138	2539.655170
760.037129	2534.525796
760.364073	2539.662732
760.690970	2535.123173
761.017820	2538.258770
761.344623	2535.778523
761.671379	2535.465971
761.998088	2533.308357
762.324751	2535.208872
762.651366	2532.484128
762.977935	2537.411856
763.304456	2532.017822
763.630931	2540.769265
763.957359	2539.251877
764.283740	2537.300951
764.610074	2538.977135
764.936362	2535.841537
765.262602	2537.530323
765.588796	2535.438245
765.914943	2534.946732
766.241044	2538.218441
766.567097	2535.022349
766.893104	2533.721732
767.219064	2537.812628
767.544978	2536.295241
767.870845	2536.597710
768.196665	2539.347659
768.522438	2539.115766
768.848165	2534.556043
769.173846	2536.239788
769.499479	2534.545960
769.825066	2535.944881
770.150607	2535.392874
770.476101	2535.266845
770.801548	2538.389840
771.126949	2535.725590
771.452303	2536.743903
771.777611	2536.645601
772.102872	2538.097453
772.428087	2533.459592
772.753256	2536.557381
773.078378	2535.234078
773.403453	2536.358255
773.728482	2534.982020
774.053465	2536.925385
774.378401	2534.230888
774.703291	2534.503111
775.028135	2536.212062
775.352932	2537.724408
775.677683	2536.801877
776.002388	2537.747093
776.327046	2535.445806
776.651658	2536.428831
776.976224	2535.995292
777.300743	2535.886907
777.625216	2535.327339
777.949643	2535.891948
778.274024	2537.495035
778.598359	2528.904909
778.922647	2530.119827
779.246889	2534.810621
779.571086	2529.910619
779.895236	2535.844058
780.219339	2535.922195
780.543397	2535.776002
780.867409	2536.086033
781.191374	2534.230888
781.515294	2534.651825
781.839167	2534.369520
782.162995	2534.125024
782.486776	2535.765920
782.810511	2535.584438
783.134201	2535.586959
783.457844	2534.520755
783.781441	2532.312729
784.104993	2535.788605
784.428498	2535.778522
784.751958	2536.600231
785.075372	2533.641073
785.398739	2535.055117
785.722061	2536.416228
786.045337	2535.660055
786.368568	2533.872966
786.691752	2535.400436
787.014891	2534.281300
787.337983	2536.141486
787.661030	2534.649304
787.984031	2536.476722
788.306987	2536.867412
788.629897	2535.856660
788.952760	2536.716177
789.275579	2533.633512
789.598351	2534.964376
789.921078	2534.641742
790.243759	2536.572504
790.566395	2533.830117
790.888984	2533.351207
791.211529	2534.253573
791.534027	2537.255581
791.856480	2536.983358
792.178888	2534.329191
792.501249	2533.116793
792.823566	2534.639222
793.145836	2534.180477
793.468062	2533.469674
793.790241	2533.429345
794.112375	2537.114428
794.434464	2532.837009
794.756507	2535.438245
795.078505	2533.217616
795.400457	2535.468492
795.722364	2529.189734
796.044226	2530.838192
796.366042	2531.559077
796.687812	2532.519417
797.009538	2532.108562
797.331218	2535.947401
797.652852	2534.233409
797.974442	2534.480425
798.295986	2534.117462
798.617484	2535.254242
798.938938	2534.180477
799.260346	2535.528985
799.581709	2533.951104
799.903026	2536.476722
800.224299	2532.894982
800.545526	2532.811803
800.866708	2535.745755
801.187845	2535.150899
801.508936	2535.899510
801.829983	2534.598893
802.150984	2534.248532
802.471940	2535.281969
802.792851	2532.138809
803.113717	2536.743903
803.434538	2534.104859
803.755314	2534.039324
804.076045	2532.196783
804.396731	2532.779036
804.717372	2535.841537
805.037967	2535.365148
805.358518	2535.735673
805.679024	2533.797349
805.999485	2532.819365
806.319901	2535.287010
806.640272	2531.327184
806.960598	2533.888090
807.280879	2534.351876
807.601115	2535.251722
807.921306	2532.756351
808.241453	2535.602082
808.561554	2533.096629
808.881611	2535.062679
809.201623	2533.421783
809.521590	2536.262473
809.841513	2532.746268
810.161390	2535.171063
810.481223	2534.467823
810.801011	2531.571680
811.120755	2533.794828
811.440453	2531.677544
811.760107	2532.547143
812.079716	2531.175949
812.399281	2530.752492
812.718801	2530.127389
813.038276	2528.985568
813.357707	2533.583100
813.677093	2533.280631
813.996434	2532.000178
814.315731	2532.753830
814.634983	2532.516896
814.954191	2533.383974
815.273354	2532.116124
815.592473	2536.438914
815.911547	2535.269366
816.230577	2531.811134
816.549562	2536.673327
816.868502	2532.844571
817.187399	2533.956145
817.506250	2532.781557
817.825058	2534.616537
818.143821	2535.508821
818.462539	2534.119983
818.781213	2535.148378
819.099843	2533.540250
819.418429	2530.671834
819.736970	2537.832793
820.055466	2534.649304
820.373919	2534.422452
820.692327	2538.213400
821.010691	2537.374048
821.329011	2538.394881
821.647286	2542.195911
821.965517	2543.698175
822.283704	2547.499205
822.601847	2548.293187
822.919945	2545.061807
823.237999	2542.669780
823.556010	2541.717002
823.873976	2540.222300
824.191897	2536.781712
824.509775	2536.995961
824.827609	2537.709284
825.145398	2538.009233
825.463144	2535.990251
825.780845	2535.218954
826.098502	2536.564943
826.416116	2537.837834
826.733685	2538.011754
827.051210	2539.103163
827.368692	2540.655839
827.686129	2534.493028
828.003522	2536.590148
828.320872	2528.945238
828.638177	2533.406660
828.955439	2531.705270
829.272656	2532.983203
829.589830	2530.384488
829.906960	2534.487987
830.224046	2534.727442
830.541088	2534.598892
830.858086	2534.379602
831.175041	2535.029911
831.491952	2536.237267
831.808819	2532.748789
832.125642	2532.174097
832.442421	2534.205683
832.759157	2533.961187
833.075849	2534.044366
833.392497	2535.788605
833.709101	2537.716846
834.025662	2536.786753
834.342179	2535.841537
834.658653	2532.620240
834.975083	2535.773481
835.291469	2538.951929
835.607811	2536.075951
835.924110	2534.253573
836.240366	2534.908923
836.556578	2534.392205
836.872746	2535.019829
837.188871	2535.569315
837.504952	2533.794828
837.820990	2531.932122
838.136984	2531.990095
838.452935	2532.589993
838.768842	2532.290044
839.084706	2536.005374
839.400526	2533.709129
839.716303	2535.763399
840.032037	2533.472195
840.347727	2532.348017
840.663373	2533.900693
840.978977	2536.043183
841.294537	2533.550333
841.610054	2536.007895
841.925527	2532.877338
842.240957	2534.329191
842.556344	2533.585621
842.871687	2534.508152
843.186987	2530.326515
843.502244	2533.774664
843.817458	2533.527647
844.132629	2531.531350
844.447756	2533.646114
844.762840	2525.877696
845.077881	2529.928263
845.392879	2530.805424
845.707833	2532.161495
846.022745	2527.173273
846.337613	2535.352545
846.652438	2532.010260
846.967221	2532.829447
847.281960	2534.072092
847.596656	2535.017308
847.911309	2532.514375
848.225919	2529.028418
848.540485	2532.544622
848.855009	2532.852133
849.169490	2532.370702
849.483928	2534.165353
849.798323	2531.619571
850.112675	2536.259953
850.426984	2531.186031
850.741251	2531.246525
851.055474	2530.029087
851.369654	2532.285003
851.683792	2529.860208
851.997887	2531.853984
852.311938	2532.158974
852.625947	2532.935312
852.939914	2532.063192
853.253837	2533.436907
853.567718	2530.976823
853.881555	2534.561084
854.195350	2531.586803
854.509103	2530.071936
854.822812	2531.816176
855.136479	2531.266690
855.450103	2530.772657
855.763685	2531.828778
856.077224	2530.916330
856.390720	2532.854653
856.704173	2531.443130
857.017584	2530.621422
857.330953	2531.813655
857.644278	2533.018491
857.957561	2537.369007
858.270802	2531.153264
858.584000	2530.860877
858.897155	2533.058820
859.210268	2531.112935
859.523339	2531.803573
859.836367	2533.177287
860.149352	2531.301978
860.462295	2535.254243
860.775195	2527.828623
861.088054	2526.908612
861.400869	2530.414735
861.713642	2529.547656
862.026373	2530.465146
862.339062	2532.529499
862.651708	2530.510517
862.964312	2529.799714
863.276873	2533.199972
863.589392	2531.382636
863.901869	2530.157636
864.214303	2533.978831
864.526696	2533.217616
864.839045	2530.560928
865.151353	2533.094108
865.463619	2530.684437
865.775842	2533.270548
866.088023	2530.321473
866.400162	2532.710980
866.712258	2531.518747
867.024313	2534.916485
867.336325	2531.690147
867.648296	2533.613347
867.960224	2532.340456
868.272110	2531.022194
868.583954	2532.872297
868.895755	2531.755682
869.207515	2533.706608
869.519233	2531.087729
869.830909	2531.082688
870.142542	2533.643594
870.454134	2531.344828
870.765684	2534.046886
871.077191	2530.409694
871.388657	2532.302647
871.700081	2533.446989
872.011463	2532.940353
872.322803	2532.113604
872.634101	2530.313912
872.945357	2530.654190
873.256571	2534.505631
873.567744	2533.499921
873.878874	2532.340456
874.189963	2534.745086
874.501010	2533.076464
874.812015	2532.680733
875.122979	2533.162164
875.433900	2531.163346
875.744780	2534.233409
876.055618	2534.155271
876.366415	2532.443799
876.677169	2530.591175
876.987882	2529.663603
877.298554	2528.335259
877.609183	2529.237625
877.919771	2529.991278
878.230317	2530.694519
878.540822	2529.691329
878.851285	2531.768285
879.161707	2532.118645
879.472087	2533.358769
879.782425	2531.730476
880.092722	2535.284489
880.402977	2533.673841
880.713191	2535.113090
881.023363	2538.077289
881.333494	2541.054090
881.643583	2538.833462
881.953631	2539.642567
882.263637	2537.210210
882.573602	2537.918492
882.883526	2538.846065
883.193408	2536.784233
883.503248	2533.358769
883.813048	2534.510672
884.122806	2533.018491
884.432522	2538.213400
884.742197	2533.648635
885.051831	2533.376413
885.361424	2530.356762
885.670975	2531.927081
885.980485	2530.979344
886.289954	2532.466484
886.599382	2532.421114
886.908768	2533.018491
887.218113	2530.379447
887.527417	2533.946063
887.836680	2531.637215
888.145901	2533.562935
888.455082	2530.306350
888.764221	2532.179139
889.073319	2530.213089
889.382376	2532.804242
889.691392	2530.351720
890.000366	2533.101670
890.309300	2531.301978
890.618193	2532.403470
890.927044	2534.919006
891.235855	2530.679395
891.544625	2530.628984
891.853353	2532.469005
892.162041	2532.486649
892.470687	2531.448171
892.779293	2534.366999
893.087858	2530.555887
893.396381	2528.476411
893.704864	2531.130579
894.013306	2529.807276
894.321707	2533.666279
894.630068	2534.309026
894.938387	2534.377082
895.246665	2536.138965
895.554903	2533.620909
895.863100	2531.271731
896.171256	2532.158974
896.479371	2532.804242
896.787446	2532.776515
897.095480	2533.018491
897.403473	2531.123017
897.711425	2529.451874
898.019336	2531.110414
898.327207	2531.571680
898.635038	2532.297606
898.942827	2531.528830
899.250576	2535.183666
899.558284	2533.015970
899.865952	2530.513037
900.173579	2531.458254
900.481165	2530.134951
900.788711	2529.860208
901.096216	2531.337266
901.403681	2528.241997
901.711105	2531.377595
902.018489	2529.517409
902.325832	2533.812473
902.633135	2531.828778
902.940397	2530.248377
903.247619	2533.749458
903.554800	2533.147040
903.861941	2531.060003
904.169041	2536.862371
904.476101	2532.441279
904.783121	2532.491690
905.090100	2536.063348
905.397039	2533.852802
905.703938	2531.869108
906.010796	2534.568646
906.317614	2532.799201
906.624391	2533.187369
906.931129	2530.351720
907.237826	2533.469674
907.544483	2530.818027
907.851099	2532.277441
908.157675	2529.411545
908.464211	2533.376413
908.770707	2526.414579
909.077163	2529.514889
909.383578	2526.492717
909.689954	2529.983716
909.996289	2525.131606
910.302584	2532.098480
910.608839	2531.264169
910.915054	2530.843233
911.221229	2531.198634
911.527363	2529.358613
911.833458	2532.022863
912.139513	2530.094622
912.445527	2533.126876
912.751502	2531.589324
913.057436	2531.576721
913.363331	2532.405991
913.669186	2531.659900
913.975000	2532.509334
914.280775	2530.699560
914.586510	2533.038655
914.892205	2530.634025
915.197859	2532.642925
915.503475	2531.828778
915.809050	2533.328522
916.114585	2534.190559
916.420081	2533.830117
916.725536	2535.375230
917.030952	2536.068389
917.336328	2533.976310
917.641665	2533.487318
917.946961	2531.911958
918.252218	2531.223840
918.557435	2528.889786
918.862612	2533.028573
919.167750	2527.984899
919.472848	2529.121679
919.777906	2530.255938
920.082925	2530.961700
920.387904	2530.371885
920.692843	2531.536392
920.997743	2530.611340
921.302603	2528.549508
921.607423	2529.514889
921.912204	2530.530681
922.216946	2530.694519
922.521647	2532.063192
922.826310	2531.566638
923.130932	2531.203675
923.435516	2531.561597
923.740059	2529.502286
924.044564	2528.723428
924.349028	2530.001360
924.653454	2524.314939
924.957840	2530.316432
925.262186	2528.057995
925.566493	2527.294261
925.870761	2526.195289
926.174989	2529.590506
926.479178	2530.956659
926.783328	2531.145702
927.087438	2530.462626
927.391509	2529.651000
927.695541	2530.142513
927.999533	2529.729138
928.303486	2530.785260
928.607400	2532.322812
928.911275	2528.005063
929.215110	2529.955990
929.518906	2532.184180
929.822663	2529.797193
930.126381	2532.043027
930.430060	2530.757533
930.733699	2529.635877
931.037299	2526.805269
931.340861	2529.378778
931.644383	2532.010260
931.947866	2528.736031
932.251309	2530.971782
932.554714	2529.053623
932.858080	2530.200486
933.161407	2531.337266
933.464694	2529.257790
933.767943	2530.523120
934.071153	2530.578572
934.374323	2529.923222
934.677455	2531.145702
934.980548	2529.736700
935.283602	2530.268541
935.586617	2527.004394
935.889593	2528.403314
936.192530	2531.211237
936.495428	2530.681916
936.798287	2529.439272
937.101108	2530.260980
937.403890	2528.415917
937.706632	2530.371885
938.009336	2530.097142
938.312002	2530.896165
938.614628	2529.282996
938.917216	2532.927750
939.219765	2527.984899
939.522275	2532.572349
939.824747	2529.582944
940.127179	2527.747964
940.429573	2523.102541
940.731929	2526.522964
941.034246	2523.011800
941.336524	2526.659075
941.638763	2529.177132
941.940964	2527.258973
942.243126	2528.342821
942.545250	2528.967924
942.847335	2528.960362
943.149381	2528.972965
943.451389	2527.153108
943.753359	2529.587986
944.055290	2528.998171
944.357182	2530.286185
944.659036	2529.275434
944.960851	2530.084539
945.262628	2528.032790
945.564367	2530.016484
945.866067	2530.429858
946.167729	2529.885414
946.469352	2530.298788
946.770937	2529.519930
947.072484	2528.206709
947.373992	2528.158818
947.675462	2529.058664
947.976893	2530.530681
948.278286	2531.044879
948.579641	2529.260311
948.880958	2529.126720
949.182236	2531.896834
949.483476	2528.388191
949.784678	2529.288037
950.085841	2529.540095
950.386967	2531.564118
950.688054	2529.766947
950.989103	2529.512368
951.290114	2527.155629
951.591087	2531.261649
951.892021	2527.085053
952.192917	2530.260980
952.493776	2530.565969
952.794596	2528.352903
953.095378	2528.279806
953.396122	2529.673685
953.696828	2528.909950
953.997496	2527.626977
954.298126	2527.868952
954.598718	2530.381967
954.899272	2530.812986
955.199788	2530.013963
955.500266	2530.384488
955.800706	2528.345341
956.101108	2524.135978
956.401472	2526.389373
956.701798	2525.474404
957.002087	2526.490197
957.302337	2530.165198
957.602550	2528.620084
957.902724	2529.028418
958.202861	2528.373068
958.502960	2532.340456
958.803022	2529.030938
959.103045	2530.805424
959.403031	2531.241484
959.702979	2528.703263
960.002889	2531.163346
960.302762	2530.142513
960.602596	2530.540764
960.902393	2529.242667
961.202153	2529.343490
961.501875	2530.185362
961.801559	2529.225023
962.101205	2528.897348
962.400814	2527.974816
962.700385	2531.158305
962.999918	2528.393232
963.299414	2530.132430
963.598873	2528.133613
963.898293	2529.489683
964.197677	2529.383819
964.497022	2528.907430
964.796331	2529.512368
965.095601	2528.158818
965.394835	2528.781401
965.694030	2528.090763
965.993189	2529.590506
966.292309	2526.273427
966.591393	2528.567152
966.890439	2529.887934
967.189447	2528.872142
967.488419	2529.600588
967.787353	2528.302491
968.086249	2526.144877
968.385108	2530.853315
968.683930	2527.137985
968.982714	2528.105886
969.281462	2528.610002
969.580172	2531.349869
969.878844	2528.768798
970.177480	2530.588655
970.476078	2529.502286
970.774639	2528.766278
971.073162	2528.362985
971.371649	2527.274096
971.670098	2523.677233
971.968510	2526.107069
972.266885	2524.534229
972.565223	2528.673016
972.863524	2525.726462
973.161788	2527.758047
973.460014	2528.204189
973.758204	2525.766791
974.056356	2528.637728
974.354471	2528.332738
974.652550	2527.947090
974.950591	2528.983047
975.248595	2527.609333
975.546563	2529.590506
975.844493	2527.200999
976.142386	2528.781401
976.440243	2528.206709
976.738062	2527.994981
977.035845	2528.680578
977.333590	2527.626977
977.631299	2527.516071
977.928971	2527.160670
978.226606	2528.816689
978.524204	2530.066895
978.821765	2527.949611
979.119290	2530.094622
979.416777	2528.489014
979.714228	2528.126051
980.011642	2528.597399
980.309020	2529.908099
980.606360	2529.335928
980.903664	2527.072450
981.200931	2527.657224
981.498162	2528.312574
981.795356	2528.231915
982.092513	2530.770136
982.389633	2527.228726
982.686717	2530.253418
982.983764	2527.944569
983.280775	2529.225023
983.577749	2527.448016
983.874686	2529.035979
984.171587	2527.952131
984.468451	2529.663603
984.765279	2528.738551
985.062070	2527.604292
985.358824	2528.368026
985.655543	2529.552698
985.952224	2528.415917
986.248869	2526.212933
986.545478	2526.510361
986.842050	2526.996833
987.138586	2524.080525
987.435086	2524.486338
987.731549	2522.429547
988.027975	2530.790301
988.324366	2525.406348
988.620719	2526.951462
988.917037	2528.148736
989.213318	2529.182173
989.509563	2524.667819
989.805772	2529.121679
990.101944	2528.171421
990.398080	2526.543129
990.694180	2528.499096
990.990244	2528.675537
991.286271	2528.279806
991.582262	2527.332069
991.878217	2529.303160
992.174136	2529.789632
992.470019	2527.140505
992.765865	2529.855167
993.061676	2526.704446
993.357450	2527.425331
993.653188	2527.468180
993.948890	2527.052285
994.244556	2529.257790
994.540186	2527.800897
994.835780	2528.030269
995.131337	2530.029087
995.426859	2527.160670
995.722345	2524.272089
996.017795	2526.046575
996.313208	2527.427851
996.608586	2528.247039
996.903928	2528.758716
997.199234	2529.371216
997.494504	2528.859539
997.789738	2528.877183
998.084936	2524.803931
998.380099	2527.581606
998.675225	2528.640249
998.970316	2527.750485
999.265371	2527.183355
999.560390	2529.020856
999.855373	2530.278624
1000.150320	2528.458767
1000.445232	2528.355423
1000.740108	2527.385001
1001.034948	2527.170752
1001.329752	2528.027748
1001.624521	2529.061185
1001.919254	2524.020031
1002.213951	2524.556914
1002.508613	2524.014990
1002.803239	2524.690505
1003.097829	2522.459794
1003.392384	2525.905423
1003.686903	2524.803931
1003.981386	2525.827285
1004.275834	2527.682429
1004.570246	2530.099663
1004.864623	2529.552697
1005.158964	2527.064888
1005.453270	2529.245187
1005.747540	2526.832995
1006.041775	2527.304343
1006.335974	2528.337779
1006.630138	2523.883920
1006.924266	2526.832995
1007.218359	2528.284847
1007.512416	2527.435413
1007.806438	2527.720238
1008.100425	2526.185207
1008.394376	2527.745444
1008.688292	2523.836029
1008.982172	2525.063550
1009.276017	2527.594209
1009.569827	2526.066740
1009.863602	2529.005732
1010.157341	2527.319466
1010.451045	2525.678571
1010.744714	2525.449198
1011.038347	2526.724610
1011.331945	2530.492873
1011.625508	2526.275947
1011.919036	2528.070598
1012.212528	2526.840557
1012.505986	2526.815351
1012.799408	2528.546987
1013.092795	2528.138654
1013.386147	2527.082532
1013.679464	2523.523478
1013.972745	2529.078829
1014.265992	2526.661596
1014.559204	2529.527492
1014.852380	2528.978006
1015.145521	2529.280475
1015.438628	2525.918026
1015.731699	2529.771988
1016.024736	2526.200330
1016.317737	2526.747295
1016.610703	2527.909281
1016.903635	2525.144208
1017.196531	2521.814526
1017.489393	2524.619928
1017.782219	2521.953158
1018.075011	2523.510875
1018.367768	2526.464991
1018.660490	2527.873993
1018.953177	2527.873993
1019.245829	2527.873993
