Dividing Wavelength (nm)	Counts (n)	Blue Motor Position (mm): 0.000000	Red Motor Position (mm): 42.300000	
326.493990	2127.132509
326.888308	2127.132509
327.282561	2127.132509
327.676750	2095.348034
328.070874	2093.518096
328.464933	2095.559763
328.858929	2104.321288
329.252859	2113.705396
329.646726	2123.838115
330.040528	2136.632564
330.434265	2154.120327
330.827938	2169.183294
331.221547	2189.357992
331.615091	2209.136959
332.008571	2228.331152
332.401986	2248.616755
332.795338	2264.912285
333.188625	2286.064967
333.581847	2304.876032
333.975006	2321.965544
334.368100	2342.838441
334.761129	2358.796214
335.154095	2376.054604
335.546996	2396.851884
335.939833	2419.582447
336.332606	2432.855805
336.725315	2448.279215
337.117960	2453.958075
337.510540	2462.669189
337.903056	2474.266363
338.295508	2482.186016
338.687896	2490.493837
339.080220	2496.046668
339.472480	2507.974038
339.864676	2512.132990
340.256807	2514.388907
340.648875	2519.508198
341.040879	2521.000380
341.432818	2522.931142
341.824694	2522.348889
342.216506	2524.337624
342.608253	2523.634383
342.999937	2524.438447
343.391557	2521.610360
343.783113	2522.747140
344.174605	2522.515247
344.566033	2518.217663
344.957397	2519.843435
345.348697	2513.698269
345.739934	2513.685666
346.131106	2511.926303
346.522215	2512.984945
346.913260	2508.561333
347.304241	2510.779441
347.695159	2506.025633
348.086012	2506.257526
348.476802	2502.138903
348.867528	2501.861639
349.258191	2500.845847
349.648789	2500.639160
350.039324	2497.178407
350.429796	2497.289313
350.820203	2494.317553
351.210548	2495.126658
351.600828	2494.113386
351.991045	2492.598519
352.381198	2493.052223
352.771288	2493.493324
353.161314	2492.623725
353.551276	2493.067347
353.941175	2490.198930
354.331010	2491.807058
354.720782	2490.070381
355.110490	2494.425938
355.500135	2491.854949
355.889717	2492.863180
356.279235	2491.497027
356.668689	2492.769918
357.058080	2492.149857
357.447408	2491.595330
357.836672	2490.453508
358.225873	2493.987357
358.615010	2493.616832
359.004084	2497.314519
359.393095	2495.547594
359.782043	2499.111690
360.170927	2497.357368
360.559748	2499.409118
360.948505	2500.495487
361.337199	2500.467760
361.725830	2500.049345
362.114398	2504.273832
362.502903	2501.962463
362.891344	2502.655621
363.279722	2502.980776
363.668037	2503.021105
364.056289	2504.861126
364.444478	2502.988337
364.832603	2505.801301
365.220665	2504.861126
365.608665	2504.709891
365.996601	2506.721312
366.384474	2508.894049
366.772284	2509.892198
367.160031	2510.388751
367.547715	2509.677948
367.935336	2514.157014
368.322893	2517.678260
368.710388	2519.868641
369.097820	2529.398942
369.485189	2529.925743
369.872495	2536.380940
370.259738	2543.882177
370.646918	2550.695297
371.034035	2558.746019
371.421090	2567.389078
371.808081	2579.137487
372.195010	2588.889599
372.581875	2599.619695
372.968678	2611.123608
373.355418	2624.255814
373.742096	2642.668628
374.128710	2659.039775
374.515262	2670.432783
374.901751	2688.901050
375.288177	2701.211548
375.674540	2723.511092
376.060841	2743.126221
376.447079	2760.959303
376.833254	2781.870009
377.219367	2794.112451
377.605417	2832.546208
377.991404	2842.885615
378.377329	2862.969572
378.763191	2880.782489
379.148991	2919.881678
379.534727	2941.092333
379.920402	2971.830768
380.306013	2982.270998
380.691563	3034.283103
381.077049	3054.447718
381.462474	3073.349525
381.847835	3109.159361
382.233134	3137.188176
382.618371	3131.786580
383.003545	3203.628063
383.388657	3209.400185
383.773706	3239.886562
384.158693	3257.916249
384.543618	3284.026906
384.928480	3318.793223
385.313280	3368.194010
385.698017	3365.519678
386.082692	3421.075714
386.467305	3424.014707
386.851856	3455.887402
387.236344	3476.175526
387.620770	3511.403109
388.005133	3537.055020
388.389435	3562.422106
388.773674	3574.304106
389.157851	3617.900004
389.541965	3632.249649
389.926018	3600.074484
390.310008	3668.674506
390.693936	3685.244778
391.077802	3726.783886
391.461606	3716.391548
391.845348	3778.175929
392.229027	3779.320271
392.612645	3793.261582
392.996200	3867.449723
393.379694	3913.793050
393.763125	3978.259325
394.146494	3937.562090
394.529801	4004.775794
394.913047	4052.155079
395.296230	4017.683669
395.679351	4074.744489
396.062410	4096.633179
396.445408	4078.671548
396.828343	4109.399901
397.211217	4138.653717
397.594028	4057.307138
397.976778	4127.280874
398.359466	4148.894821
398.742092	4181.616951
399.124656	4098.969754
399.507158	4178.627547
399.889598	4203.498079
400.271977	4269.320425
400.654294	4240.721959
401.036549	4247.043566
401.418742	4215.664904
401.800874	4316.477898
402.182944	4340.153678
402.564952	4401.754057
402.946898	4392.448087
403.328783	4386.759145
403.710606	4302.198830
404.092367	4487.068024
404.474067	4461.350578
404.855705	4463.472903
405.237282	4395.384559
405.618797	4503.547556
406.000250	4537.033420
406.381642	4618.811018
406.762972	4579.265687
407.144240	4590.943520
407.525447	4588.654836
407.906593	4651.825535
408.287677	4689.919014
408.668700	4620.358652
409.049661	4670.923946
409.430560	4711.931212
409.811399	4640.309019
410.192176	4801.454542
410.572891	4741.825254
410.953545	4846.106563
411.334138	4724.524014
411.714669	4794.641423
412.095139	4685.558416
412.475547	4828.797761
412.855894	4809.268331
413.236180	4818.675124
413.616405	4770.322897
413.996568	4858.550651
414.376670	4799.450684
414.756711	4755.257409
415.136691	4787.361997
415.516609	4863.569120
415.896466	4904.457918
416.276262	4936.880099
416.655997	4915.334208
417.035670	5099.842959
417.415283	5192.431311
417.794834	5135.068022
418.174324	5091.320889
418.553753	4997.275643
418.933121	5180.350186
419.312428	5245.262604
419.691674	5184.536864
420.070859	5311.657120
420.449983	5224.135128
420.829045	5338.357592
421.208047	5245.670937
421.586988	5320.700950
421.965867	5330.301828
422.344686	5467.590091
422.723444	5318.147606
423.102141	5138.485924
423.480777	5435.057005
423.859352	5201.427250
424.237866	5466.670081
424.616319	5454.828410
424.994712	5560.037291
425.373044	5441.582778
425.751314	5586.707515
426.129524	5386.931630
426.507673	5579.838943
426.885762	5662.392879
427.263789	5594.453248
427.641756	5476.800279
428.019662	5599.040698
428.397508	5608.520588
428.775292	5552.326846
429.153016	5652.600437
429.530679	5579.768367
429.908282	5661.631664
430.285824	5536.507705
430.663305	5806.998377
431.040726	5545.644797
431.418086	5541.654723
431.795385	5646.997195
432.172624	5664.520246
432.549802	5654.339635
432.926920	5671.202295
433.303977	5674.300084
433.680974	5717.109562
434.057910	5730.720678
434.434786	5741.912039
434.811601	5706.583633
435.188355	5945.458708
435.565050	5816.884079
435.941683	5802.173993
436.318257	6016.153329
436.694770	5996.258416
437.071222	6030.324013
437.447614	5963.143076
437.823946	5873.687801
438.200218	6028.587335
438.576429	5898.301235
438.952580	5990.841696
439.328670	6039.130908
439.704700	5946.035920
440.080670	5930.690648
440.456580	6202.539910
440.832429	6085.196972
441.208218	5931.610659
441.583947	6087.732673
441.959616	6090.482622
442.335224	6018.767168
442.710773	6152.264483
443.086261	6181.911509
443.461689	5970.046936
443.837057	6124.598631
444.212365	6278.736951
444.587612	6171.972874
444.962800	6322.564742
445.337927	6306.657381
445.712995	5914.989974
446.088002	6494.205948
446.462949	6328.147820
446.837837	6253.609319
447.212664	6428.043325
447.587431	6566.710344
447.962139	7111.802747
448.336786	8042.087196
448.711374	7785.951210
449.085901	6857.405960
449.460369	6774.980574
449.834776	6711.061263
450.209124	7105.085410
450.583412	7245.539518
450.957640	7398.382261
451.331808	7163.698906
451.705917	6718.423869
452.079965	6640.681715
452.453954	6847.162335
452.827883	6723.757409
453.201752	6820.434137
453.575562	6618.533405
453.949311	6818.190824
454.323001	6714.297684
454.696632	6786.577748
455.070202	6923.445075
455.443713	7078.271512
455.817164	7178.774476
456.190556	7257.242556
456.563888	7335.738363
456.937160	7380.362657
457.310373	7034.284925
457.683526	7064.831796
458.056619	6954.100332
458.429653	6941.918383
458.802628	6877.653754
459.175542	6982.149312
459.548398	7343.519384
459.921194	7505.559713
460.293930	7504.402768
460.666607	8035.818521
461.039224	8342.464348
461.411782	8461.758212
461.784280	8488.287284
462.156719	8381.505564
462.529099	8259.834795
462.901419	7850.893874
463.273680	7740.817760
463.645882	7753.801251
464.018024	7617.198585
464.390106	7786.210829
464.762130	8170.591248
465.134094	8637.223134
465.505999	9662.523250
465.877845	10874.968641
466.249631	11530.205215
466.621358	11152.229582
466.993026	10528.147338
467.364634	10266.450960
467.736184	9904.317153
468.107674	9571.830372
468.479105	9604.250032
468.850477	9364.732210
469.221790	9143.183581
469.593043	8809.073548
469.964238	8674.192435
470.335373	8686.258437
470.706449	8742.232889
471.077467	8721.342347
471.448425	10029.458756
471.819324	11105.810637
472.190164	11137.816923
472.560945	9886.229493
472.931667	9089.621321
473.302330	8955.975291
473.672934	8606.096529
474.043479	8962.536353
474.413965	8905.964525
474.784393	8781.962222
475.154761	8939.276469
475.525070	9022.074901
475.895321	8858.426444
476.265513	9027.128657
476.635645	9200.675420
477.005719	9191.455149
477.375734	9315.722112
477.745691	9550.768431
478.115588	9679.411115
478.485427	9933.664230
478.855207	10466.045364
479.224928	11280.741196
479.594591	11907.835529
479.964194	11713.738503
480.333739	11658.870584
480.703226	11575.673902
481.072653	11665.209835
481.442022	11899.124415
481.811333	12096.236051
482.180584	11904.480641
482.549777	11607.289498
482.918912	11432.207705
483.287988	11457.922630
483.657005	11467.659619
484.025964	11154.545992
484.394864	11275.780701
484.763706	11251.066444
485.132489	11010.978972
485.501213	10972.265431
485.869879	11041.407376
486.238487	10886.419622
486.607036	10996.301652
486.975527	10782.080340
487.343959	10967.345264
487.712333	11013.005515
488.080648	10944.670154
488.448905	10982.161216
488.817104	10934.237487
489.185244	11194.963443
489.553326	11347.518841
489.921350	11890.098229
490.289315	12944.505967
490.657222	13287.455664
491.025070	13204.039691
491.392861	13072.062283
491.760593	12699.881457
492.128267	12341.319307
492.495883	12014.057682
492.863440	11679.173832
493.230939	11349.598317
493.598380	11281.000816
493.965763	11143.170628
494.333088	11047.212265
494.700354	10960.885026
495.067563	11030.316838
495.434713	10860.041784
495.801805	10994.265026
496.168839	10903.337734
496.535815	10840.855153
496.902733	10842.433034
497.269593	10775.063054
497.636395	10872.291788
498.003139	10866.910356
498.369825	10731.356250
498.736453	10886.860723
499.103023	10809.786522
499.469535	10846.229023
499.835989	10832.025572
500.202385	10792.497884
500.568723	10650.221399
500.935003	10874.222550
501.301226	10670.297795
501.667390	10930.837228
502.033497	11025.454645
502.399546	10891.541434
502.765537	10796.646754
503.131470	10868.185768
503.497345	11045.407532
503.863163	10657.193315
504.228923	10970.233846
504.594625	11029.081755
504.960269	10780.948601
505.325856	11000.667291
505.691385	10794.174068
506.056856	10956.708430
506.422270	10979.628036
506.787625	10859.668739
507.152924	10980.527882
507.518164	10954.321443
507.883347	10883.243695
508.248472	10792.739860
508.613540	11033.268433
508.978550	10917.861298
509.343503	10887.145548
509.708398	11008.095432
510.073236	11121.942329
510.438016	11129.131015
510.802738	11079.402553
511.167403	11128.458021
511.532010	11022.508090
511.896561	11257.506518
512.261053	11333.335554
512.625488	11194.096364
512.989866	11184.797956
513.354186	11170.879330
513.718449	11065.539380
514.082655	11264.564133
514.446803	11166.123002
514.810894	11284.632967
515.174927	11150.634057
515.538904	11173.157932
515.902822	11326.905563
516.266684	11205.496934
516.630488	11154.896352
516.994235	11212.504138
517.357925	11273.386153
517.721558	11357.979235
518.085133	11378.610157
518.448651	11388.682382
518.812112	11264.226376
519.175516	11285.603389
519.538863	11407.271637
519.902152	11318.746455
520.265385	11475.551545
520.628560	11389.592311
520.991678	11365.276305
521.354739	11433.770462
521.717743	11360.893022
522.080690	11342.671771
522.443580	11475.896864
522.806413	11431.789289
523.169189	11469.416461
523.531908	11519.749862
523.894569	11336.211532
524.257174	11349.507576
524.619722	11464.332457
524.982213	11404.176369
525.344647	11456.380037
525.707025	11409.497307
526.069345	11505.974909
526.431608	11424.540110
526.793815	11533.759228
527.155964	11321.652680
527.518057	11378.295085
527.880093	11324.281642
528.242072	11389.239430
528.603995	11297.911366
528.965860	11220.892618
529.327669	11272.241811
529.689421	11219.516383
530.051117	11193.720798
530.412755	11298.700307
530.774337	11177.168170
531.135862	11169.498054
531.497331	11189.975221
531.858743	11031.912363
532.220098	11209.953314
532.581396	11076.887017
532.942638	11059.379090
533.303824	11019.422904
533.664953	11040.058867
534.026025	10945.547315
534.387040	11053.082688
534.747999	11051.920703
535.108902	11108.053951
535.469748	10865.927331
535.830537	10961.915942
536.191270	10945.181832
536.551947	10968.136726
536.912567	10970.054885
537.273131	10899.052753
537.633638	10871.066788
537.994089	10858.841990
538.354483	10807.565893
538.714821	10955.624582
539.075103	10961.837804
539.435328	10925.962433
539.795497	10753.698644
540.155609	10910.816286
540.515665	11001.552014
540.875665	10736.939328
541.235609	10801.362753
541.595496	10801.294698
541.955328	10952.670466
542.315102	10832.083545
542.674821	10785.261308
543.034483	10789.400095
543.394090	10787.728953
543.753640	10722.014992
544.113134	10944.256780
544.472571	10798.504419
544.831953	10943.339290
545.191278	10745.912582
545.550548	10774.667323
545.909761	10909.732438
546.268918	10887.465661
546.628019	10963.614811
546.987064	10830.329223
547.346053	10752.962635
547.704986	10851.610454
548.063863	10838.163177
548.422684	10830.246044
548.781449	10746.749413
549.140158	10844.222643
549.498811	10730.642927
549.857408	10578.311860
550.215949	10808.148147
550.574434	10665.642289
550.932864	10760.869685
551.291237	10820.602317
551.649555	10761.809860
552.007817	10780.378951
552.366022	10744.112890
552.724173	10736.651982
553.082267	10715.960566
553.440305	10855.502225
553.798288	10658.060394
554.156215	10814.290793
554.514086	10787.529827
554.871902	10640.449123
555.229661	10681.090905
555.587365	10650.213838
555.945014	10548.730370
556.302606	10670.406179
556.660143	10568.138812
557.017625	10722.998017
557.375050	10615.132448
557.732421	10754.830383
558.089735	10666.900057
558.446994	10668.825778
558.804197	10703.778618
559.161345	10706.092507
559.518437	10558.719416
559.875474	10644.204782
560.232455	10675.217961
560.589381	10620.176122
560.946251	10612.241346
561.303065	10724.943902
561.659825	10657.861268
562.016528	10590.972718
562.373177	10475.182456
562.729770	10587.438869
563.086307	10496.824129
563.442789	10596.722154
563.799216	10466.161311
564.155587	10513.706953
564.511904	10474.887548
564.868164	10460.994128
565.224370	10481.912396
565.580520	10403.925746
565.936615	10408.435058
566.292654	10273.231312
566.648638	10407.653679
567.004567	10364.075425
567.360441	10347.379123
567.716260	10259.839487
568.072023	10351.578404
568.427732	10306.916302
568.783385	10215.557991
569.138982	10282.007961
569.494525	10301.045878
569.850013	10178.346714
570.205445	10262.022306
570.560823	10158.154373
570.916145	10075.587834
571.271412	10144.951591
571.626625	10090.950751
571.981782	10068.983923
572.336884	10038.767247
572.691931	10050.185460
573.046923	9991.173713
573.401860	9952.288773
573.756743	9885.183453
574.111570	9926.765411
574.466342	9911.899048
574.821059	9941.576321
575.175722	9834.693777
575.530330	9839.442544
575.884882	9834.837450
576.239380	9760.240976
576.593823	9736.761802
576.948211	9748.737063
577.302544	9632.462849
577.656823	9644.143203
578.011047	9650.873143
578.365216	9617.951888
578.719330	9549.230879
579.073389	9555.577692
579.427394	9499.303291
579.781344	9483.584973
580.135239	9430.690667
580.489080	9435.872973
580.842866	9336.605092
581.196597	9347.078089
581.550273	9380.861382
581.903895	9354.458338
582.257463	9413.664170
582.610975	9298.315008
582.964434	9320.962392
583.317837	9243.298375
583.671186	9225.616528
584.024481	9218.919355
584.377721	9144.196853
584.730906	9117.917318
585.084037	9151.282194
585.437113	9084.801978
585.790135	9103.663455
586.143103	9003.266356
586.496016	8976.175195
586.848874	9039.441676
587.201679	9020.307976
587.554428	8910.733456
587.907124	8958.006876
588.259765	8926.928163
588.612352	8926.436650
588.964884	8811.195873
589.317362	8824.315476
589.669786	8818.961771
590.022155	8868.178556
590.374470	8882.641626
590.726731	8818.003952
591.078937	8671.979369
591.431090	8783.590515
591.783188	8652.833067
592.135232	8649.180751
592.487222	8649.072366
592.839157	8699.015077
593.191038	8637.659193
593.542866	8579.164165
593.894639	8474.232548
594.246358	8533.614819
594.598022	8540.024646
594.949633	8435.405581
595.301190	8414.439422
595.652692	8441.396992
596.004141	8552.672901
596.355535	8328.767533
596.706876	8312.567785
597.058162	8238.384685
597.409395	8313.223135
597.760573	8380.391469
598.111698	8288.518960
598.462768	8270.869881
598.813785	8228.577121
599.164748	8209.133390
599.515657	8197.261473
599.866511	8104.216896
600.217312	8225.549908
600.568060	8088.995132
600.918753	8186.286881
601.269392	8159.397366
601.619978	8072.921413
601.970510	8128.926112
602.320988	8128.043910
602.671412	8186.722941
603.021783	8120.731716
603.372100	8089.315246
603.722363	8093.128878
604.072572	8068.278511
604.422728	8079.172444
604.772830	8004.936412
605.122878	8013.798761
605.472872	8009.123091
605.822813	8033.008078
606.172701	7982.770459
606.522534	8054.332158
606.872314	8049.510295
607.222041	8021.385697
607.571714	8071.240188
607.921333	8032.813993
608.270899	8031.851133
608.620411	8122.307077
608.969870	8023.986933
609.319276	8021.536932
609.668627	8032.778705
610.017926	8066.241884
610.367171	8103.758151
610.716362	8082.035819
611.065500	8070.889828
611.414585	8095.044517
611.763616	8078.333092
612.112594	8058.929691
612.461518	8070.345384
612.810389	8132.298644
613.159207	8068.318840
613.507971	8010.587546
613.856682	8127.519630
614.205340	8078.887619
614.553945	8157.330493
614.902496	8051.993063
615.250994	8094.822706
615.599439	8084.115295
615.947830	8090.709125
616.296169	8060.900782
616.644454	8069.596772
616.992686	8062.811379
617.340864	8115.262064
617.688990	8011.875561
618.037063	8100.100794
618.385082	8046.049543
618.733048	8119.242055
619.080961	8055.479021
619.428821	8068.097029
619.776628	8070.199190
620.124382	8017.982919
620.472083	7997.977100
620.819731	8023.094649
621.167326	7913.925942
621.514868	7922.032117
621.862357	7805.815877
622.209793	7821.214081
622.557176	7751.605829
622.904506	7719.176086
623.251783	7650.790314
623.599007	7601.717202
623.946179	7601.102181
624.293297	7555.847743
624.640363	7470.133004
624.987376	7451.689943
625.334336	7397.384113
625.681243	7344.507450
626.028097	7326.502969
626.374899	7302.045811
626.721647	7289.969727
627.068343	7213.641617
627.414987	7181.781524
627.761577	7128.226827
628.108115	7163.527506
628.454600	7056.566825
628.801032	7096.530572
629.147412	7055.235960
629.493739	7033.639657
629.840014	6967.373690
630.186236	7009.356419
630.532405	6902.662918
630.878521	6939.165913
631.224585	6891.973152
631.570597	6813.482386
631.916556	6832.419481
632.262462	6826.095353
632.608316	6778.020389
632.954117	6753.265803
633.299866	6736.519090
633.645562	6718.900258
633.991206	6640.243134
634.336797	6577.574030
634.682336	6534.726743
635.027823	6496.295507
635.373257	6486.218240
635.718639	6417.550163
636.063968	6420.143837
636.409245	6319.411501
636.754470	6308.628472
637.099642	6260.734990
637.444762	6207.094593
637.789829	6206.623245
638.134845	6150.910933
638.479808	6127.298169
638.824719	6126.095853
639.169577	6055.491973
639.514383	6065.783489
639.859137	5997.122973
640.203839	6001.712944
640.548489	5977.752340
640.893086	5950.915757
641.237632	5911.204068
641.582125	5928.865750
641.926566	5892.466099
642.270955	5901.406585
642.615292	5894.900976
642.959576	5887.855964
643.303809	5877.057812
643.647990	5872.485486
643.992118	5861.349577
644.336195	5806.090969
644.680219	5818.472043
645.024192	5807.041227
645.368112	5872.256113
645.711981	5887.606427
646.055797	5938.504437
646.399562	5889.585080
646.743274	5984.167208
647.086935	6021.842271
647.430544	6007.860631
647.774101	6012.937073
648.117606	6013.413462
648.461059	5997.813612
648.804460	5953.607733
649.147810	5878.854984
649.491108	5845.109500
649.834354	5816.526158
650.177548	5737.269137
650.520690	5658.869112
650.863781	5631.684690
651.206820	5636.163755
651.549807	5571.856276
651.892742	5510.341596
652.235626	5509.540053
652.578458	5481.896886
652.921238	5404.409310
653.263967	5427.976704
653.606644	5373.663313
653.949269	5362.923134
654.291843	5311.382377
654.634365	5339.668292
654.976836	5286.763903
655.319255	5289.460920
655.661622	5256.038070
656.003938	5243.561214
656.346203	5210.980237
656.688416	5221.213779
657.030577	5182.011246
657.372687	5145.972038
657.714746	5132.771776
658.056753	5156.273635
658.398708	5101.221715
658.740612	5091.761990
659.082465	5111.430051
659.424266	5100.747846
659.766016	5093.521352
660.107715	5060.617741
660.449362	5062.757711
660.790958	5048.773550
661.132503	5033.269482
661.473996	5047.735073
661.815438	5033.035068
662.156829	5023.537534
662.498168	5005.086911
662.839456	4983.586390
663.180693	4997.434439
663.521879	4993.192308
663.863013	4975.437365
664.204097	4971.323783
664.545129	5001.598433
664.886110	4982.537830
665.227040	4992.239530
665.567918	4972.889061
665.908746	4973.254545
666.249522	4973.027693
666.590248	4955.895332
666.930922	4969.367815
667.271545	4956.618737
667.612118	4955.875167
667.952639	4929.754428
668.293109	4933.497485
668.633528	4896.261002
668.973896	4892.984252
669.314213	4879.473960
669.654480	4850.817521
669.994695	4840.258824
670.334859	4830.504192
670.674973	4804.834636
671.015035	4808.139112
671.355047	4792.642606
671.695008	4777.171304
672.034918	4755.575001
672.374777	4750.821193
672.714585	4733.376280
673.054342	4729.106423
673.394049	4715.800297
673.733705	4721.731215
674.073310	4701.768246
674.412864	4678.669679
674.752368	4654.356194
675.091820	4651.260925
675.431223	4608.980768
675.770574	4594.792441
676.109875	4557.724836
676.449125	4545.910892
676.788324	4521.544475
677.127473	4478.084688
677.466571	4465.801917
677.805619	4445.607054
678.144616	4429.366977
678.483562	4408.310077
678.822458	4382.378382
679.161303	4366.302143
679.500098	4351.498794
679.838842	4341.819779
680.177535	4333.080939
680.516179	4330.938448
680.854771	4329.836956
681.193314	4369.450343
681.531805	4430.463428
681.870247	4506.441178
682.208638	4558.165937
682.546978	4560.394127
682.885268	4536.468811
683.223508	4476.194255
683.561697	4435.718831
683.899836	4409.855191
684.237925	4374.451168
684.575963	4352.229762
684.913951	4323.570802
685.251889	4337.733924
685.589776	4328.490968
685.927614	4308.384326
686.265401	4331.175383
686.603137	4319.850430
686.940824	4347.009647
687.278460	4354.394937
687.616046	4353.409392
687.953582	4382.232189
688.291068	4366.526474
688.628504	4384.228486
688.965889	4364.961196
689.303224	4334.598326
689.640510	4292.814722
689.977745	4245.690016
690.314930	4181.387578
690.652065	4144.284686
690.989150	4095.440946
691.326185	4040.449520
691.663170	3998.746574
692.000105	3954.112198
692.336990	3912.444541
692.673825	3884.796333
693.010610	3846.244109
693.347345	3810.106597
693.684030	3784.172382
694.020665	3758.311262
694.357251	3715.209397
694.693786	3710.616906
695.030272	3692.206612
695.366707	3667.787263
695.703093	3642.705002
696.039429	3651.043070
696.375716	3633.477170
696.711952	3617.237092
697.048139	3607.910958
697.384276	3592.711879
697.720363	3594.312445
698.056400	3586.828852
698.392388	3561.814647
698.728326	3554.419274
699.064214	3537.730535
699.400053	3528.273330
699.735842	3501.802231
700.071581	3490.530211
700.407270	3470.519351
700.742910	3453.213070
701.078501	3430.694236
701.414042	3418.734098
701.749533	3399.277765
702.084974	3374.624002
702.420366	3386.299314
702.755709	3358.169676
703.091002	3330.067764
703.426246	3337.508507
703.761440	3325.140036
704.096584	3312.809373
704.431679	3309.209990
704.766725	3299.972075
705.101721	3287.283491
705.436668	3294.026034
705.771565	3275.283024
706.106413	3283.190074
706.441212	3288.790796
706.775961	3283.119498
707.110661	3281.576905
707.445311	3293.123668
707.779913	3284.420116
708.114465	3291.649130
708.448967	3302.603558
708.783421	3321.845642
709.117825	3334.289730
709.452180	3338.854495
709.786485	3353.889736
710.120742	3386.679921
710.454949	3382.894015
710.789107	3405.342273
711.123216	3427.011673
711.457275	3429.227260
711.791286	3453.288687
712.125247	3453.999490
712.459159	3427.815737
712.793023	3454.652319
713.126837	3413.881988
713.460602	3407.774630
713.794318	3380.958212
714.127985	3370.427241
714.461602	3324.262875
714.795171	3314.102429
715.128691	3277.365021
715.462162	3250.072214
715.795584	3224.067422
716.128957	3214.728684
716.462281	3193.633976
716.795556	3177.645957
717.128782	3158.114006
717.461960	3131.163997
717.795088	3127.042854
718.128167	3111.014506
718.461198	3087.890733
718.794180	3082.731112
719.127113	3071.796849
719.459997	3059.100703
719.792833	3038.157230
720.125619	3034.837630
720.458357	3019.585619
720.791046	3014.436080
721.123686	3005.523320
721.456278	2994.914212
721.788821	2992.040754
722.121315	2983.158241
722.453761	2975.916624
722.786158	2971.916468
723.118506	2976.932416
723.450805	2965.090746
723.783056	2969.650469
724.115259	2966.696353
724.447412	2963.424644
724.779518	2965.126034
725.111574	2964.339614
725.443582	2970.983855
725.775542	2965.141157
726.107453	2978.197746
726.439315	2975.891418
726.771129	2988.990856
727.102895	2995.408245
727.434612	3005.034328
727.766281	3003.290089
728.097901	3007.116325
728.429473	3003.272445
728.760996	3001.366889
729.092471	2997.916219
729.423897	2990.475476
729.755276	2986.452635
730.086606	2987.100423
730.417887	2994.823471
730.749120	3010.171264
731.080305	3020.339271
731.411442	3027.215405
731.742530	3018.862213
732.073570	3014.667973
732.404562	3022.149046
732.735506	3022.885054
733.066401	3011.852489
733.397249	2988.774087
733.728048	2956.523305
734.058798	2927.095569
734.389501	2903.024060
734.720156	2889.478479
735.050762	2873.435007
735.381320	2864.940663
735.711831	2854.495392
736.042293	2844.231603
736.372707	2846.366532
736.703073	2842.003413
737.033391	2839.775223
737.363661	2839.986951
737.693883	2843.183043
738.024056	2848.685462
738.354182	2852.090762
738.684260	2862.798173
739.014290	2868.618185
739.344272	2870.548947
739.674207	2880.318703
740.004093	2880.101933
740.333931	2877.387272
740.663722	2875.038094
740.993464	2868.724049
741.323159	2863.486290
741.652806	2854.719723
741.982405	2840.869153
742.311956	2830.504541
742.641460	2826.879951
742.970915	2813.949392
743.300323	2805.205510
743.629683	2795.609674
743.958996	2788.287398
744.288260	2779.636778
744.617477	2772.062444
744.946647	2762.648090
745.275768	2757.382604
745.604842	2752.036461
745.933869	2743.814339
746.262847	2740.870305
746.591778	2743.630337
746.920662	2739.037846
747.249498	2736.262690
747.578286	2739.647825
747.907027	2747.461614
748.235720	2749.561254
748.564365	2750.042684
748.892963	2747.043198
749.221514	2745.056983
749.550017	2735.473750
749.878473	2735.478791
750.206881	2726.891185
750.535242	2724.736092
750.863555	2725.252810
751.191821	2721.252655
751.520039	2720.851883
751.848210	2717.439022
752.176334	2718.558158
752.504411	2721.066132
752.832440	2713.075903
753.160421	2711.984493
753.488356	2711.074565
753.816243	2709.698330
754.144082	2703.926209
754.471875	2700.873790
754.799620	2703.863195
755.127318	2698.711135
755.454969	2698.378419
755.782572	2698.272555
756.110129	2695.651155
756.437638	2694.721062
756.765100	2690.988088
757.092515	2692.016483
757.419882	2692.608819
757.747203	2693.175948
758.074477	2689.296781
758.401703	2691.711493
758.728882	2693.803572
759.056014	2694.537060
759.383099	2694.448840
759.710138	2696.868594
760.037129	2697.715507
760.364073	2699.885724
760.690970	2696.982020
761.017820	2694.285002
761.344623	2695.376412
761.671379	2699.116948
761.998088	2699.978986
762.324751	2720.027654
762.651366	2765.032555
762.977935	2849.870133
763.304456	2919.750608
763.630931	2924.053233
763.957359	2859.050075
764.283740	2803.612506
764.610074	2766.983482
764.936362	2734.800756
765.262602	2713.922817
765.588796	2696.079653
765.914943	2685.198322
766.241044	2670.457989
766.567097	2663.286947
766.893104	2656.662871
767.219064	2650.711789
767.544978	2646.502426
767.870845	2640.644605
768.196665	2638.572691
768.522438	2637.509007
768.848165	2635.850467
769.173846	2629.256638
769.499479	2626.370578
769.825066	2623.368571
770.150607	2621.760442
770.476101	2620.132150
770.801548	2620.883282
771.126949	2618.289608
771.452303	2613.293825
771.777611	2613.926489
772.102872	2611.983125
772.428087	2602.185642
772.753256	2607.874584
773.078378	2602.775457
773.403453	2600.983327
773.728482	2599.203800
774.053465	2600.174222
774.378401	2598.261104
774.703291	2594.780187
775.028135	2594.911257
775.352932	2589.388673
775.677683	2591.909250
776.002388	2591.500917
776.327046	2592.252048
776.651658	2592.128540
776.976224	2589.555031
777.300743	2588.622418
777.625216	2585.524629
777.949643	2583.379618
778.274024	2585.680904
778.598359	2581.285018
778.922647	2580.213773
779.246889	2581.771490
779.571086	2581.350553
779.895236	2581.073290
780.219339	2583.004052
780.543397	2583.735019
780.867409	2582.441963
781.191374	2582.996490
781.515294	2585.809454
781.839167	2581.627817
782.162995	2580.637230
782.486776	2584.675194
782.810511	2579.702096
783.134201	2577.252095
783.457844	2577.441138
783.781441	2577.110943
784.104993	2574.658422
784.428498	2577.834348
784.751958	2576.271591
785.075372	2574.789492
785.398739	2574.383679
785.722061	2576.069945
786.045337	2573.917372
786.368568	2574.983576
786.691752	2577.098340
787.014891	2581.365677
787.337983	2581.990780
787.661030	2588.042685
787.984031	2596.020311
788.306987	2597.673809
788.629897	2598.581217
788.952760	2594.245825
789.275579	2591.354723
789.598351	2587.185689
789.921078	2581.277457
790.243759	2576.737897
790.566395	2576.740418
790.888984	2573.630026
791.211529	2573.466189
791.534027	2572.536096
791.856480	2571.253122
792.178888	2569.561815
792.501249	2566.862277
792.823566	2569.309757
793.145836	2567.943605
793.468062	2566.769016
793.790241	2564.399673
794.112375	2568.460323
794.434464	2569.400498
794.756507	2570.958215
795.078505	2569.597103
795.400457	2570.479305
795.722364	2569.644994
796.044226	2575.661611
796.366042	2578.552713
796.687812	2575.129769
797.009538	2575.165058
797.331218	2575.553226
797.652852	2573.992989
797.974442	2572.662125
798.295986	2571.991651
798.617484	2569.566856
798.938938	2570.693554
799.260346	2570.219686
799.581709	2567.255487
799.903026	2569.120714
800.224299	2564.611402
800.545526	2565.314643
800.866708	2564.742472
801.187845	2563.363716
801.508936	2564.893707
801.829983	2564.313974
802.150984	2563.247770
802.471940	2563.562842
802.792851	2562.562173
803.113717	2562.504200
803.434538	2561.190979
803.755314	2560.941442
804.076045	2562.007646
804.396731	2558.476318
804.717372	2559.169476
805.037967	2560.833057
805.358518	2562.259704
805.679024	2563.199879
805.999485	2560.767522
806.319901	2562.758778
806.640272	2562.209292
806.960598	2560.432285
807.280879	2560.666699
807.601115	2561.783315
807.921306	2562.179045
808.241453	2560.086966
808.561554	2562.390774
808.881611	2563.588048
809.201623	2561.289282
809.521590	2560.391956
809.841513	2559.482028
810.161390	2561.352296
810.481223	2559.824826
810.801011	2559.572769
811.120755	2559.678633
811.440453	2561.921946
811.760107	2560.192831
812.079716	2557.568910
812.399281	2553.074721
812.718801	2554.163611
813.038276	2555.365926
813.357707	2552.749567
813.677093	2557.193344
813.996434	2556.653941
814.315731	2556.353992
814.634983	2556.059084
814.954191	2557.873900
815.273354	2558.209137
815.592473	2560.323901
815.911547	2559.194682
816.230577	2559.577810
816.549562	2560.122254
816.868502	2557.178221
817.187399	2559.986143
817.506250	2561.584189
817.825058	2563.194838
818.143821	2561.319528
818.462539	2562.685681
818.781213	2565.851526
819.099843	2570.769171
819.418429	2571.805128
819.736970	2578.217476
820.055466	2584.095462
820.373919	2590.530494
820.692327	2601.245467
821.010691	2617.087293
821.329011	2660.473983
821.647286	2758.045516
821.965517	2906.542785
822.283704	2984.347953
822.601847	2981.363590
822.919945	2904.410377
823.237999	2829.345076
823.556010	2769.851898
823.873976	2720.831718
824.191897	2681.984587
824.509775	2654.535504
824.827609	2635.769809
825.145398	2627.280506
825.463144	2624.815382
825.780845	2627.792183
826.098502	2637.791312
826.416116	2661.865342
826.733685	2690.720907
827.051210	2696.167873
827.368692	2684.048939
827.686129	2657.056081
828.003522	2632.840899
828.320872	2609.384410
828.638177	2596.501741
828.955439	2585.585123
829.272656	2579.997003
829.589830	2569.299675
829.906960	2566.648028
830.224046	2566.640466
830.541088	2564.520661
830.858086	2561.546380
831.175041	2561.311967
831.491952	2562.327759
831.808819	2562.471432
832.125642	2563.661144
832.442421	2568.535940
832.759157	2574.948288
833.075849	2588.602253
833.392497	2610.443052
833.709101	2622.398148
834.025662	2620.336317
834.342179	2609.782661
834.658653	2595.559045
834.975083	2585.678384
835.291469	2581.383321
835.607811	2570.060889
835.924110	2561.400187
836.240366	2562.935218
836.556578	2560.477656
836.872746	2558.327604
837.188871	2552.731923
837.504952	2554.186296
837.820990	2551.534649
838.136984	2550.193702
838.452935	2550.904505
838.768842	2550.891902
839.084706	2553.651933
839.400526	2559.214847
839.716303	2569.254305
840.032037	2576.319482
840.347727	2577.920048
840.663373	2573.627506
840.978977	2562.690722
841.294537	2557.896585
841.610054	2553.611604
841.925527	2551.040616
842.240957	2552.555483
842.556344	2548.872920
842.871687	2548.116747
843.186987	2546.979966
843.502244	2546.049873
843.817458	2543.511653
844.132629	2542.778165
844.447756	2544.068700
844.762840	2538.127700
845.077881	2541.747249
845.392879	2537.893287
845.707833	2542.634492
846.022745	2537.923533
846.337613	2541.076775
846.652438	2545.376879
846.967221	2542.674821
847.281960	2540.471837
847.596656	2543.844369
847.911309	2540.733977
848.225919	2540.207176
848.540485	2541.091899
848.855009	2542.909235
849.169490	2539.574511
849.483928	2541.855633
849.798323	2542.425284
850.112675	2542.954605
850.426984	2542.626930
850.741251	2544.373690
851.055474	2541.974101
851.369654	2539.834131
851.683792	2542.021992
851.997887	2544.761859
852.311938	2542.047197
852.625947	2542.450490
852.939914	2540.854964
853.253837	2542.503422
853.567718	2542.127856
853.881555	2542.377393
854.195350	2541.835469
854.509103	2542.178267
854.822812	2542.415202
855.136479	2540.814635
855.450103	2542.369831
855.763685	2541.671631
856.077224	2542.967208
856.390720	2541.686755
856.704173	2542.853782
857.017584	2541.933771
857.330953	2540.328164
857.644278	2543.546941
857.957561	2544.887887
858.270802	2543.267157
858.584000	2542.664739
858.897155	2544.169523
859.210268	2540.353370
859.523339	2547.789072
859.836367	2542.626930
860.149352	2543.451159
860.462295	2547.214380
860.775195	2539.123328
861.088054	2537.179963
861.400869	2539.592155
861.713642	2538.848585
862.026373	2540.774306
862.339062	2542.258926
862.651708	2544.363608
862.964312	2544.739173
863.276873	2546.541386
863.589392	2540.290355
863.901869	2538.624254
864.214303	2543.052908
864.526696	2543.879657
864.839045	2544.532486
865.151353	2544.305634
865.463619	2543.700696
865.775842	2545.255892
866.088023	2545.177754
866.400162	2543.587270
866.712258	2545.001313
867.024313	2543.778834
867.336325	2540.701209
867.648296	2545.530635
867.960224	2542.712630
868.272110	2545.752445
868.583954	2545.467620
868.895755	2544.204811
869.207515	2546.296890
869.519233	2543.216745
869.830909	2542.614327
870.142542	2545.880995
870.454134	2543.105840
870.765684	2545.107178
871.077191	2542.561395
871.388657	2543.236910
871.700081	2544.638350
872.011463	2545.578526
872.322803	2543.652805
872.634101	2547.015254
872.945357	2547.199257
873.256571	2547.463917
873.567744	2545.886036
873.878874	2547.761345
874.189963	2550.347457
874.501010	2547.068187
874.812015	2544.988711
875.122979	2545.656663
875.433900	2546.077600
875.744780	2549.371994
876.055618	2546.669935
876.366415	2547.559699
876.677169	2549.737477
876.987882	2546.400234
877.298554	2543.599873
877.609183	2546.107847
877.919771	2544.096426
878.230317	2545.974256
878.540822	2551.927859
878.851285	2553.568754
879.161707	2554.632438
879.472087	2559.497151
879.782425	2563.630897
880.092722	2576.569019
880.402977	2593.966041
880.713191	2620.510236
881.023363	2653.769249
881.333494	2680.137004
881.643583	2687.676050
881.953631	2685.979701
882.263637	2673.281035
882.573602	2657.124137
882.883526	2642.950933
883.193408	2626.148767
883.503248	2611.410954
883.813048	2602.518358
884.122806	2593.741709
884.432522	2584.140832
884.742197	2578.842579
885.051831	2571.074161
885.361424	2563.832544
885.670975	2561.546380
885.980485	2560.026472
886.289954	2560.439847
886.599382	2558.083108
886.908768	2555.504558
887.218113	2555.171841
887.527417	2555.527243
887.836680	2551.317879
888.145901	2549.848383
888.455082	2549.823177
888.764221	2548.290666
889.073319	2548.767055
889.382376	2547.262271
889.691392	2548.341078
890.000366	2545.553320
890.309300	2548.641027
890.618193	2548.507436
890.927044	2547.993238
891.235855	2549.187992
891.544625	2546.526262
891.853353	2548.905687
892.162041	2551.113712
892.470687	2553.228477
892.779293	2553.830894
893.087858	2551.811912
893.396381	2553.929197
893.704864	2559.807182
894.013306	2565.150805
894.321707	2576.357290
894.630068	2585.065884
894.938387	2589.151739
895.246665	2587.435226
895.554903	2581.476582
895.863100	2573.708164
896.171256	2571.114490
896.479371	2566.511917
896.787446	2563.545198
897.095480	2558.357851
897.403473	2555.870041
897.711425	2555.113868
898.019336	2553.180586
898.327207	2551.564896
898.635038	2552.825184
898.942827	2552.109340
899.250576	2549.671942
899.558284	2550.173537
899.865952	2550.740667
900.173579	2547.562220
900.481165	2548.870399
900.788711	2546.685059
901.096216	2549.775286
901.403681	2546.128011
901.711105	2547.577343
902.018489	2545.573484
902.325832	2548.076417
902.633135	2547.781510
902.940397	2549.601366
903.247619	2551.577499
903.554800	2562.413459
903.861941	2578.638413
904.169041	2591.742892
904.476101	2603.057762
904.783121	2602.495673
905.090100	2592.383118
905.397039	2584.307190
905.703938	2575.452403
906.010796	2568.097360
906.317614	2559.449260
906.624391	2560.253324
906.931129	2554.123281
907.237826	2551.517005
907.544483	2549.964329
907.851099	2547.703372
908.157675	2546.075079
908.464211	2543.670449
908.770707	2541.661549
909.077163	2541.701878
909.383578	2539.856816
909.689954	2539.304810
909.996289	2536.000333
910.302584	2541.606096
910.608839	2541.638864
910.915054	2541.182639
911.221229	2543.148689
911.527363	2544.217414
911.833458	2539.768596
912.139513	2541.374203
912.445527	2541.873278
912.751502	2545.034081
913.057436	2541.144831
913.363331	2542.838658
913.669186	2547.259750
913.975000	2548.366284
914.280775	2547.521890
914.586510	2556.699311
914.892205	2559.804662
915.197859	2566.262380
915.503475	2574.897876
915.809050	2587.188209
916.114585	2590.762387
916.420081	2596.100969
916.725536	2593.698860
917.030952	2587.881368
917.336328	2580.828794
917.641665	2575.051632
917.946961	2571.351425
918.252218	2566.640466
918.557435	2561.962276
918.862612	2558.723334
919.167750	2556.081770
919.472848	2554.002294
919.777906	2551.300235
920.082925	2549.520708
920.387904	2547.499205
920.692843	2549.878630
920.997743	2548.363763
921.302603	2549.520708
921.607423	2546.453166
921.912204	2544.711447
922.216946	2542.384955
922.521647	2540.978473
922.826310	2541.774975
923.130932	2542.284132
923.435516	2542.624409
923.740059	2540.980993
924.044564	2543.486447
924.349028	2540.383617
924.653454	2536.426311
924.957840	2536.161650
925.262186	2533.535209
925.566493	2538.236085
925.870761	2534.921526
926.174989	2538.820859
926.479178	2537.341280
926.783328	2536.796836
927.087438	2538.286497
927.391509	2539.289686
927.695541	2537.774819
927.999533	2539.758513
928.303486	2537.497556
928.607400	2540.073586
928.911275	2535.002185
929.215110	2537.399253
929.518906	2538.525951
929.822663	2536.885056
930.126381	2534.956814
930.430060	2535.934798
930.733699	2538.707433
931.037299	2538.374717
931.340861	2537.058976
931.644383	2537.197607
931.947866	2536.388502
932.251309	2535.347504
932.554714	2538.069727
932.858080	2537.452186
933.161407	2537.981507
933.464694	2534.913965
933.767943	2534.107380
934.071153	2536.746424
934.374323	2536.880015
934.677455	2535.347504
934.980548	2535.234078
935.283602	2537.883204
935.586617	2534.588810
935.889593	2537.941178
936.192530	2536.673327
936.495428	2535.828934
936.798287	2538.485622
937.101108	2535.851619
937.403890	2537.210210
937.706632	2537.157278
938.009336	2539.229192
938.312002	2538.324305
938.614628	2539.985365
938.917216	2539.861857
939.219765	2540.005530
939.522275	2541.210366
939.824747	2540.618030
940.127179	2535.367668
940.429573	2536.020498
940.731929	2538.548637
941.034246	2533.678882
941.336524	2536.572504
941.638763	2539.314892
941.940964	2542.037115
942.243126	2539.468647
942.545250	2540.166847
942.847335	2537.691640
943.149381	2536.204500
943.451389	2536.587628
943.753359	2540.050900
944.055290	2539.803884
944.357182	2536.484284
944.659036	2537.116949
944.960851	2536.305323
945.262628	2536.703574
945.564367	2537.729449
945.866067	2538.445293
946.167729	2536.930426
946.469352	2539.314892
946.770937	2537.006043
947.072484	2538.752803
947.373992	2537.134593
947.675462	2538.226003
947.976893	2533.510003
948.278286	2536.123842
948.579641	2537.530323
948.880958	2534.079654
949.182236	2539.561908
949.483476	2534.238450
949.784678	2538.772968
950.085841	2533.038655
950.386967	2534.888759
950.688054	2537.212731
950.989103	2536.247350
951.290114	2535.997813
951.591087	2538.241126
951.892021	2537.311033
952.192917	2537.618544
952.493776	2536.086033
952.794596	2536.290200
953.095378	2536.121321
953.396122	2536.685930
953.696828	2538.853626
953.997496	2534.674510
954.298126	2534.722401
954.598718	2536.391023
954.899272	2532.446320
955.199788	2535.856660
955.500266	2534.430014
955.800706	2531.571680
956.101108	2530.276103
956.401472	2532.257277
956.701798	2530.371885
957.002087	2529.988757
957.302337	2533.378933
957.602550	2537.058976
957.902724	2531.344828
958.202861	2535.211393
958.502960	2529.600588
958.803022	2534.825744
959.103045	2531.947246
959.403031	2531.977492
959.702979	2532.756351
960.002889	2532.499252
960.302762	2531.901875
960.602596	2532.257277
960.902393	2532.491690
961.202153	2533.182328
961.501875	2532.781557
961.801559	2530.366844
962.101205	2533.502442
962.400814	2529.754344
962.700385	2531.788449
962.999918	2531.032276
963.299414	2534.001516
963.598873	2532.816845
963.898293	2535.516382
964.197677	2532.340456
964.497022	2532.161495
964.796331	2531.231402
965.095601	2531.649817
965.394835	2532.683254
965.694030	2532.496731
965.993189	2535.027391
966.292309	2532.390867
966.591393	2531.175949
966.890439	2532.821886
967.189447	2533.235260
967.488419	2529.940866
967.787353	2531.294416
968.086249	2534.314067
968.385108	2534.246012
968.683930	2531.382636
968.982714	2530.697039
969.281462	2529.620753
969.580172	2531.627132
969.878844	2530.959179
970.177480	2529.197296
970.476078	2534.205683
970.774639	2532.194262
971.073162	2535.256763
971.371649	2529.575383
971.670098	2529.035979
971.968510	2529.663603
972.266885	2525.693694
972.565223	2529.691329
972.863524	2528.788963
973.161788	2532.705939
973.460014	2532.622760
973.758204	2531.513706
974.056356	2531.939684
974.354471	2533.492359
974.652550	2534.303985
974.950591	2532.625281
975.248595	2530.878521
975.546563	2534.765251
975.844493	2529.416586
976.142386	2529.436751
976.440243	2532.070754
976.738062	2531.642256
977.035845	2530.283665
977.333590	2532.610157
977.631299	2528.113448
977.928971	2530.248377
978.226606	2530.298788
978.524204	2532.411032
978.821765	2530.916330
979.119290	2529.998840
979.416777	2528.428520
979.714228	2533.215096
980.011642	2529.784591
980.309020	2534.442617
980.606360	2532.433717
980.903664	2529.593027
981.200931	2531.458254
981.498162	2531.899355
981.795356	2533.469674
982.092513	2532.521937
982.389633	2533.439427
982.686717	2534.273738
982.983764	2534.926568
983.280775	2535.692823
983.577749	2533.608306
983.874686	2534.077133
984.171587	2534.102339
984.468451	2533.799870
984.765279	2530.334076
985.062070	2530.939015
985.358824	2528.615043
985.655543	2530.611340
985.952224	2532.161495
986.248869	2529.832482
986.545478	2524.511544
986.842050	2529.272913
987.138586	2527.720238
987.435086	2528.032790
987.731549	2524.398118
988.027975	2528.294930
988.324366	2529.751823
988.620719	2533.189890
988.917037	2527.899199
989.213318	2531.680064
989.509563	2527.790814
989.805772	2528.889786
990.101944	2527.039682
990.398080	2526.996832
990.694180	2530.313912
990.990244	2529.671165
991.286271	2530.182842
991.582262	2528.216792
991.878217	2527.858870
992.174136	2529.787111
992.470019	2530.087060
992.765865	2528.604961
993.061676	2530.301309
993.357450	2528.925074
993.653188	2529.348531
993.948890	2528.846936
994.244556	2531.324663
994.540186	2529.111597
994.835780	2527.316946
995.131337	2532.030425
995.426859	2531.140661
995.722345	2527.243849
996.017795	2529.817358
996.313208	2529.708973
996.608586	2532.305168
996.903928	2530.565969
997.199234	2529.991278
997.494504	2531.123017
997.789738	2530.825589
998.084936	2531.612009
998.380099	2530.510517
998.675225	2530.495393
998.970316	2528.123530
999.265371	2531.748120
999.560390	2530.654190
999.855373	2529.663603
1000.150320	2529.769467
1000.445232	2527.949611
1000.740108	2526.349044
1001.034948	2528.562111
1001.329752	2527.309384
1001.624521	2529.711494
1001.919254	2523.720082
1002.213951	2526.013808
1002.508613	2523.571368
1002.803239	2526.374250
1003.097829	2522.689167
1003.392384	2529.613191
1003.686903	2530.729807
1003.981386	2529.441792
1004.275834	2528.816689
1004.570246	2528.635207
1004.864623	2525.676050
1005.158964	2529.492204
1005.453270	2527.629497
1005.747540	2526.165042
1006.041775	2528.166380
1006.335974	2528.730989
1006.630138	2527.440454
1006.924266	2524.924918
1007.218359	2526.855680
1007.512416	2528.146216
1007.806438	2529.247708
1008.100425	2532.358100
1008.394376	2527.798376
1008.688292	2525.885258
1008.982172	2527.226205
1009.276017	2529.517409
1009.569827	2528.342821
1009.863602	2527.642100
1010.157341	2525.794517
1010.451045	2525.484486
1010.744714	2529.151926
1011.038347	2529.517409
1011.331945	2526.923736
1011.625508	2530.049251
1011.919036	2530.455064
1012.212528	2528.940197
1012.505986	2528.244518
1012.799408	2529.401463
1013.092795	2525.915505
1013.386147	2527.669827
1013.679464	2531.314581
1013.972745	2527.624456
1014.265992	2523.336955
1014.559204	2529.366175
1014.852380	2529.434230
1015.145521	2526.696884
1015.438628	2527.942049
1015.731699	2526.701925
1016.024736	2528.438603
1016.317737	2529.502286
1016.610703	2528.146216
1016.903635	2525.497089
1017.196531	2522.510206
1017.489393	2525.393746
1017.782219	2523.462984
1018.075011	2524.887110
1018.367768	2525.124044
1018.660490	2526.046575
1018.953177	2526.046575
1019.245829	2526.046575
