Dividing Wavelength (nm)	Counts (n)	Blue Motor Position (mm): 0.000000	Red Motor Position (mm): 45.500000	
326.493990	2136.302368
326.888308	2136.302368
327.282561	2136.302368
327.676750	2114.753956
328.070874	2113.902001
328.464933	2118.073556
328.858929	2129.194341
329.252859	2139.402678
329.646726	2153.419606
330.040528	2168.744714
330.434265	2188.798424
330.827938	2204.882225
331.221547	2227.580020
331.615091	2248.384862
332.008571	2266.487646
332.401986	2285.575975
332.795338	2307.830148
333.188625	2323.871100
333.581847	2346.208453
333.975006	2359.156656
334.368100	2384.430481
334.761129	2399.543860
335.154095	2416.454411
335.546996	2439.081630
335.939833	2466.969293
336.332606	2482.014617
336.725315	2494.262100
337.117960	2499.472133
337.510540	2509.786333
337.903056	2518.356295
338.295508	2528.715866
338.687896	2531.543953
339.080220	2543.728422
339.472480	2546.949719
339.864676	2548.681356
340.256807	2552.300904
340.648875	2555.166800
341.040879	2558.201575
341.432818	2559.015721
341.824694	2560.028993
342.216506	2556.774928
342.608253	2557.067315
342.999937	2557.664692
343.391557	2557.014383
343.783113	2554.771070
344.174605	2554.377860
344.566033	2554.372818
344.957397	2553.117571
345.348697	2548.464586
345.739934	2546.949719
346.131106	2546.392672
346.522215	2544.600542
346.913260	2543.942671
347.304241	2544.401416
347.695159	2538.664583
348.086012	2536.673327
348.476802	2537.316074
348.867528	2536.474202
349.258191	2534.535878
349.648789	2535.879346
350.039324	2531.571680
350.429796	2530.853315
350.820203	2530.694519
351.210548	2527.379960
351.600828	2528.037831
351.991045	2528.665454
352.381198	2529.552698
352.771288	2527.059847
353.161314	2526.505320
353.551276	2526.379291
353.941175	2527.261493
354.331010	2528.161339
354.720782	2527.372398
355.110490	2530.006401
355.500135	2527.934487
355.889717	2528.819210
356.279235	2526.926256
356.668689	2529.761905
357.058080	2530.117307
357.447408	2526.558252
357.836672	2528.320135
358.225873	2529.308202
358.615010	2527.561442
359.004084	2530.737369
359.393095	2532.592513
359.782043	2532.259797
360.170927	2531.629653
360.559748	2534.104859
360.948505	2535.428162
361.337199	2534.722401
361.725830	2539.302289
362.114398	2539.040149
362.502903	2536.673327
362.891344	2534.503111
363.279722	2535.614685
363.668037	2538.747762
364.056289	2536.517052
364.444478	2539.198945
364.832603	2535.604603
365.220665	2541.424615
365.608665	2539.090561
365.996601	2539.803884
366.384474	2540.988555
366.772284	2540.189532
367.160031	2540.555016
367.547715	2542.710109
367.935336	2542.942002
368.322893	2542.868905
368.710388	2542.304296
369.097820	2544.088865
369.485189	2541.167516
369.872495	2542.014430
370.259738	2542.042156
370.646918	2541.928730
371.034035	2542.768082
371.421090	2543.811601
371.808081	2544.303114
372.195010	2546.158258
372.581875	2548.099103
372.968678	2549.417364
373.355418	2549.359391
373.742096	2549.510626
374.128710	2548.210008
374.515262	2552.028682
374.901751	2551.360729
375.288177	2552.053888
375.674540	2554.569423
376.060841	2556.311142
376.447079	2556.212840
376.833254	2562.393294
377.219367	2559.497151
377.605417	2564.225754
377.991404	2566.080898
378.377329	2562.773901
378.763191	2569.082905
379.148991	2575.187743
379.534727	2577.221848
379.920402	2583.742581
380.306013	2584.740729
380.691563	2593.298088
381.077049	2592.047882
381.462474	2598.399736
381.847835	2605.207814
382.233134	2610.672425
382.618371	2616.114350
383.003545	2622.224229
383.388657	2627.202368
383.773706	2631.943573
384.158693	2639.911117
384.543618	2645.839514
384.928480	2653.466780
385.313280	2662.218223
385.698017	2668.227278
386.082692	2674.682476
386.467305	2679.915193
386.851856	2690.625125
387.236344	2701.849254
387.620770	2707.480222
388.005133	2717.192005
388.389435	2725.998901
388.773674	2733.671537
389.157851	2743.118660
389.541965	2752.588467
389.926018	2755.371184
390.310008	2771.008843
390.693936	2777.456479
391.077802	2787.364867
391.461606	2795.619756
391.845348	2807.947898
392.229027	2815.791933
392.612645	2827.636124
392.996200	2837.589883
393.379694	2849.716378
393.763125	2865.769933
394.146494	2874.828886
394.529801	2886.683159
394.913047	2906.303330
395.296230	2905.418608
395.679351	2909.380955
396.062410	2930.624377
396.445408	2923.712955
396.828343	2936.847681
397.211217	2943.466716
397.594028	2938.957404
397.976778	2953.191102
398.359466	2963.490179
398.742092	2961.438430
399.124656	2977.597848
399.507158	2991.433295
399.889598	2995.604850
400.271977	3013.044722
400.654294	3020.261133
401.036549	3027.964017
401.418742	3034.366282
401.800874	3060.018193
402.182944	3063.289902
402.564952	3096.750561
402.946898	3084.233376
403.328783	3095.880962
403.710606	3109.000565
404.092367	3134.778505
404.474067	3158.083759
404.855705	3150.600166
405.237282	3151.666370
405.618797	3182.477902
406.000250	3203.376006
406.381642	3235.664596
406.762972	3236.198958
407.144240	3228.095304
407.525447	3251.345105
407.906593	3250.783017
408.287677	3270.335132
408.668700	3287.273409
409.049661	3286.991104
409.430560	3303.962148
409.811399	3310.886173
410.192176	3328.061384
410.572891	3338.582273
410.953545	3376.060731
411.334138	3343.205011
411.714669	3394.743247
412.095139	3339.729135
412.475547	3391.211919
412.855894	3383.017523
413.236180	3410.380906
413.616405	3392.288205
413.996568	3416.773089
414.376670	3420.921959
414.756711	3413.725712
415.136691	3442.838375
415.516609	3463.497024
415.896466	3470.055565
416.276262	3495.707476
416.655997	3523.212012
417.035670	3532.684340
417.415283	3599.945935
417.794834	3624.103144
418.174324	3609.077985
418.553753	3604.112448
418.933121	3652.121877
419.312428	3639.145947
419.691674	3633.134371
420.070859	3670.809434
420.449983	3654.771003
420.829045	3700.907643
421.208047	3687.795602
421.586988	3728.144998
421.965867	3762.739916
422.344686	3768.181842
422.723444	3808.027122
423.102141	3711.688151
423.480777	3816.468534
423.859352	3782.728091
424.237866	3879.974469
424.616319	3868.135319
424.994712	3923.310748
425.373044	3911.635436
425.751314	3975.779077
426.129524	3915.350766
426.507673	4012.405581
426.885762	3989.738032
427.263789	4015.495808
427.641756	4016.970346
428.019662	4045.162998
428.397508	4048.112073
428.775292	4085.963577
429.153016	4090.624124
429.530679	4106.591979
429.908282	4113.087505
430.285824	4090.672015
430.663305	4165.848222
431.040726	4121.556644
431.418086	4115.875263
431.795385	4191.847973
432.172624	4222.125143
432.549802	4190.204556
432.926920	4209.494532
433.303977	4201.141340
433.680974	4241.684819
434.057910	4263.087038
434.434786	4273.113893
434.811601	4264.153242
435.188355	4370.902195
435.565050	4340.073019
435.941683	4335.868697
436.318257	4434.070374
436.694770	4436.588430
437.071222	4492.111698
437.447614	4427.287501
437.823946	4430.329837
438.200218	4441.974903
438.576429	4425.399589
438.952580	4451.356490
439.328670	4455.134835
439.704700	4501.561341
440.080670	4466.011124
440.456580	4526.822563
440.832429	4559.025454
441.208218	4462.568016
441.583947	4511.285727
441.959616	4531.382287
442.335224	4555.620155
442.710773	4575.094132
443.086261	4631.544973
443.461689	4585.342798
443.837057	4593.769086
444.212365	4666.520498
444.587612	4672.824461
444.962800	4641.372702
445.337927	4683.728477
445.712995	4566.007452
446.088002	4762.027678
446.462949	4785.665649
446.837837	4798.041681
447.212664	4788.158499
447.587431	5008.615719
447.962139	5305.627900
448.336786	5642.669364
448.711374	5634.555627
449.085901	5283.083860
449.460369	5220.785281
449.834776	5153.546371
450.209124	5388.375920
450.583412	5393.820366
450.957640	5521.608575
451.331808	5383.372575
451.705917	5231.729626
452.079965	5226.620417
452.453954	5265.223052
452.827883	5227.926076
453.201752	5236.664916
453.575562	5268.431747
453.949311	5397.059308
454.323001	5403.759001
454.696632	5395.728443
455.070202	5553.410694
455.443713	5580.771557
455.817164	5670.461245
456.190556	5745.975209
456.563888	5713.517740
456.937160	5794.090502
457.310373	5635.944465
457.683526	5691.901273
458.056619	5685.914903
458.429653	5667.862531
458.802628	5713.404314
459.175542	5740.102265
459.548398	5879.349017
459.921194	6065.160906
460.293930	6134.277646
460.666607	6374.271857
461.039224	6591.578356
461.411782	6721.635084
461.784280	6633.505632
462.156719	6642.821684
462.529099	6603.911538
462.901419	6463.260826
463.273680	6333.468758
463.645882	6321.054917
464.018024	6324.102294
464.390106	6386.181583
464.762130	6644.495348
465.134094	7020.935949
465.505999	7655.322311
465.877845	8359.861370
466.249631	8718.279846
466.621358	8641.598855
466.993026	8453.215977
467.364634	8237.522648
467.736184	7962.810010
468.107674	7804.220352
468.479105	7716.375725
468.850477	7650.019017
469.221790	7480.285888
469.593043	7266.997189
469.964238	7157.457957
470.335373	7136.121273
470.706449	7285.014273
471.077467	7470.001934
471.448425	8122.178528
471.819324	8701.361734
472.190164	8748.138601
472.560945	8274.844831
472.931667	7802.178684
473.302330	7611.557534
473.672934	7484.323852
474.043479	7561.844195
474.413965	7463.919782
474.784393	7418.703152
475.154761	7567.717139
475.525070	7576.060249
475.895321	7533.628857
476.265513	7626.255018
476.635645	7790.682333
477.005719	7782.848380
477.375734	7866.987758
477.745691	7978.956826
478.115588	8177.094337
478.485427	8410.005727
478.855207	8882.911328
479.224928	9311.331267
479.594591	9691.484679
479.964194	9706.056134
480.333739	9795.206419
480.703226	9791.559144
481.072653	9891.638651
481.442022	10002.473459
481.811333	10165.574951
482.180584	10007.045786
482.549777	9935.622718
482.918912	9876.053924
483.287988	9869.686947
483.657005	9769.715825
484.025964	9688.228093
484.394864	9757.269216
484.763706	9715.190705
485.132489	9621.279050
485.501213	9622.884657
485.869879	9673.699488
486.238487	9611.884859
486.607036	9686.294811
486.975527	9631.321028
487.343959	9684.900932
487.712333	9743.796732
488.080648	9768.228684
488.448905	9881.705057
488.817104	9883.018278
489.185244	10045.514831
489.553326	10257.034085
489.921350	10718.443334
490.289315	11345.953562
490.657222	11645.448512
491.025070	11819.053248
491.392861	11735.158366
491.760593	11582.113976
492.128267	11332.692807
492.495883	11092.302865
492.863440	10859.572957
493.230939	10633.807403
493.598380	10455.804260
493.965763	10430.124622
494.333088	10292.738057
494.700354	10230.615918
495.067563	10199.970744
495.434713	10211.653618
495.801805	10250.296582
496.168839	10207.237567
496.535815	10180.642960
496.902733	10223.031502
497.269593	10178.994503
497.636395	10193.666781
498.003139	10297.927925
498.369825	10224.072500
498.736453	10312.385954
499.103023	10257.311348
499.469535	10265.248645
499.835989	10317.238064
500.202385	10290.456935
500.568723	10307.135592
500.935003	10371.753102
501.301226	10339.295633
501.667390	10498.966619
502.033497	10606.312949
502.399546	10536.510613
502.765537	10438.525705
503.131470	10540.291478
503.497345	10636.035593
503.863163	10411.076623
504.228923	10536.079594
504.594625	10654.435804
504.960269	10564.879706
505.325856	10716.527696
505.691385	10596.765004
506.056856	10659.509725
506.422270	10761.265416
506.787625	10698.361898
507.152924	10755.150496
507.518164	10816.153499
507.883347	10685.816987
508.248472	10749.443910
508.613540	10867.447239
508.978550	10930.592732
509.343503	10918.085630
509.708398	10967.841818
510.073236	11097.333937
510.438016	11111.025711
510.802738	11014.832934
511.167403	11147.828654
511.532010	11208.135978
511.896561	11301.188116
512.261053	11500.931234
512.625488	11419.922413
512.989866	11411.803634
513.354186	11384.029397
513.718449	11389.801518
514.082655	11525.637929
514.446803	11487.642753
514.810894	11606.548449
515.174927	11593.469175
515.538904	11585.247053
515.902822	11743.682957
516.266684	11608.910229
516.630488	11718.116745
516.994235	11707.285826
517.357925	11811.267186
517.721558	11877.749923
518.085133	11944.963627
518.448651	11971.374232
518.812112	11930.598859
519.175516	11947.093514
519.538863	12027.595700
519.902152	12034.411340
520.265385	12138.296918
520.628560	12159.729384
520.991678	12104.306938
521.354739	12163.318685
521.717743	12231.931310
522.080690	12203.206815
522.443580	12338.539111
522.806413	12348.802900
523.169189	12336.089110
523.531908	12394.400136
523.894569	12364.760672
524.257174	12379.995039
524.619722	12483.182417
524.982213	12465.210704
525.344647	12454.417593
525.707025	12465.205663
526.069345	12561.055641
526.431608	12542.799103
526.793815	12621.413376
527.155964	12520.514682
527.518057	12555.701936
527.880093	12516.403621
528.242072	12620.258952
528.603995	12556.107749
528.965860	12577.028537
529.327669	12599.842279
529.689421	12541.178372
530.051117	12560.289386
530.412755	12595.781630
530.774337	12599.252464
531.135862	12563.016650
531.497331	12614.963220
531.858743	12578.619021
532.220098	12662.337463
532.581396	12590.753079
532.942638	12503.770490
533.303824	12576.957961
533.664953	12561.385837
534.026025	12521.215402
534.387040	12617.065381
534.747999	12590.622009
535.108902	12644.060760
535.469748	12518.805731
535.830537	12548.190617
536.191270	12581.842839
536.551947	12508.173938
536.912567	12570.863206
537.273131	12610.174124
537.633638	12483.250473
537.994089	12537.866334
538.354483	12446.162704
538.714821	12577.472159
539.075103	12665.072289
539.435328	12605.132970
539.795497	12587.146133
540.155609	12577.618352
540.515665	12682.179445
540.875665	12544.460163
541.235609	12634.469965
541.595496	12605.463166
541.955328	12774.941717
542.315102	12615.396759
542.674821	12551.245556
543.034483	12568.561919
543.394090	12573.194740
543.753640	12532.162268
544.113134	12792.457206
544.472571	12552.770505
544.831953	12826.497597
545.191278	12641.499854
545.550548	12586.415166
545.909761	12691.530785
546.268918	12732.762383
546.628019	12802.904997
546.987064	12690.719159
547.346053	12540.548228
547.704986	12736.323958
548.063863	12620.664765
548.422684	12683.061647
548.781449	12625.496711
549.140158	12737.480902
549.498811	12680.962006
549.857408	12544.296325
550.215949	12750.537491
550.574434	12712.539794
550.932864	12650.639466
551.291237	12853.750075
551.649555	12738.786561
552.007817	12806.247282
552.366022	12724.757030
552.724173	12770.475254
553.082267	12854.160929
553.440305	12944.468159
553.798288	12773.109257
554.156215	12846.248838
554.514086	12894.291034
554.871902	12835.009585
555.229661	12849.528108
555.587365	12806.393476
555.945014	12813.062922
556.302606	12804.545893
556.660143	12860.353986
557.017625	12884.743089
557.375050	12858.201414
557.732421	12957.638173
558.089735	12957.958287
558.446994	12915.456318
558.804197	13047.060681
559.161345	13035.466027
559.518437	12851.244621
559.875474	12946.386318
560.232455	12979.816730
560.589381	13026.346580
560.946251	12968.552271
561.303065	13141.993169
561.659825	13091.511055
562.016528	13004.344464
562.373177	12935.648660
562.729770	13065.959967
563.086307	12938.658229
563.442789	13056.210375
563.799216	13095.422990
564.155587	13032.582487
564.511904	13056.659038
564.868164	13071.323754
565.224370	13135.530410
565.580520	13081.748860
565.936615	13140.011996
566.292654	13087.967124
566.648638	13149.680929
567.004567	13147.823264
567.360441	13154.485149
567.716260	13119.681023
568.072023	13200.664638
568.427732	13178.128160
568.783385	13077.983118
569.138982	13198.146582
569.494525	13192.319008
569.850013	13149.169252
570.205445	13141.763797
570.560823	13146.177327
570.916145	13102.649484
571.271412	13116.762194
571.626625	13068.089854
571.981782	13067.061459
572.336884	13010.527439
572.691931	13101.724432
573.046923	12998.496725
573.401860	12972.859937
573.756743	12958.016260
574.111570	12994.960356
574.466342	12972.474289
574.821059	13021.907844
575.175722	12900.710943
575.530330	12916.409097
575.884882	12841.038805
576.239380	12848.116585
576.593823	12831.810973
576.948211	12828.398112
577.302544	12703.344729
577.656823	12717.273437
578.011047	12780.134105
578.365216	12724.391547
578.719330	12653.049137
579.073389	12629.418729
579.427394	12645.598312
579.781344	12624.780867
580.135239	12559.966752
580.489080	12585.684198
580.842866	12455.541771
581.196597	12549.498796
581.550273	12541.054863
581.903895	12509.691325
582.257463	12614.330555
582.610975	12468.573153
582.964434	12533.901466
583.317837	12457.953963
583.671186	12412.598702
584.024481	12464.479737
584.377721	12352.548477
584.730906	12415.240266
585.084037	12439.793206
585.437113	12355.396729
585.790135	12378.996891
586.143103	12292.248715
586.496016	12307.911580
586.848874	12313.824854
587.201679	12310.805203
587.554428	12188.675689
587.907124	12245.613001
588.259765	12182.835512
588.612352	12245.308011
588.964884	12101.962802
589.317362	12162.575115
589.669786	12154.577324
590.022155	12108.753236
590.374470	12206.922145
590.726731	12094.824528
591.078937	11977.151394
591.431090	12003.171310
591.783188	11939.675457
592.135232	11860.100843
592.487222	11922.827920
592.839157	11927.541399
593.191038	11866.855989
593.542866	11815.705922
593.894639	11666.742346
594.246358	11744.408883
594.598022	11736.733726
594.949633	11651.235757
595.301190	11632.913683
595.652692	11592.531520
596.004141	11684.325891
596.355535	11463.568723
596.706876	11442.151381
597.058162	11416.736403
597.409395	11504.150011
597.760573	11526.154648
598.111698	11426.193608
598.462768	11420.870150
598.813785	11429.871130
599.164748	11307.169445
599.515657	11377.251566
599.866511	11252.430076
600.217312	11384.541074
600.568060	11154.167905
600.918753	11315.005919
601.269392	11304.074177
601.619978	11214.349200
601.970510	11256.561302
602.320988	11300.258023
602.671412	11365.805626
603.021783	11287.687906
603.372100	11223.942516
603.722363	11239.227294
604.072572	11242.955227
604.422728	11252.412432
604.772830	11193.962774
605.122878	11195.399503
605.472872	11174.642552
605.822813	11228.035933
606.172701	11193.907321
606.522534	11236.053888
606.872314	11283.062647
607.222041	11210.933818
607.571714	11295.695779
607.921333	11150.054324
608.270899	11209.355937
608.620411	11265.148907
608.969870	11216.335415
609.319276	11199.901253
609.668627	11221.303472
610.017926	11305.513426
610.367171	11334.681542
610.716362	11317.433234
611.065500	11296.008331
611.414585	11312.898717
611.763616	11371.413910
612.112594	11338.384270
612.461518	11360.169616
612.810389	11411.959910
613.159207	11357.074348
613.507971	11348.413645
613.856682	11454.136724
614.205340	11405.902964
614.553945	11550.631970
614.902496	11418.785633
615.250994	11480.164201
615.599439	11468.854373
615.947830	11509.145795
616.296169	11471.319497
616.644454	11484.459264
616.992686	11504.530618
617.340864	11594.046387
617.688990	11486.929430
618.037063	11616.184614
618.385082	11596.201480
618.733048	11635.701441
619.080961	11622.813732
619.428821	11599.800864
619.776628	11602.901174
620.124382	11556.915768
620.472083	11576.929149
620.819731	11592.100502
621.167326	11519.439831
621.514868	11500.396872
621.862357	11407.385063
622.209793	11387.706919
622.557176	11304.578292
622.904506	11250.559808
623.251783	11170.007211
623.599007	11103.703435
623.946179	11067.860831
624.293297	11041.258662
624.640363	10905.868393
624.987376	10890.288707
625.334336	10820.851854
625.681243	10742.993754
626.028097	10710.770698
626.374899	10678.855153
626.721647	10646.070009
627.068343	10610.933167
627.414987	10544.180728
627.761577	10481.128497
628.108115	10524.391679
628.454600	10399.706300
628.801032	10418.477037
629.147412	10408.240974
629.493739	10376.612774
629.840014	10296.196288
630.186236	10344.543474
630.532405	10242.011446
630.878521	10270.738461
631.224585	10227.674405
631.570597	10152.457869
631.916556	10158.542541
632.262462	10141.989913
632.608316	10122.306728
632.954117	10102.061454
633.299866	10075.945756
633.645562	10059.589732
633.991206	9966.741761
634.336797	9864.592861
634.682336	9856.229586
635.027823	9799.544332
635.373257	9763.253065
635.718639	9692.530718
636.063968	9657.827415
636.409245	9551.176764
636.754470	9532.234629
637.099642	9481.145055
637.444762	9384.680056
637.789829	9393.940655
638.134845	9312.425198
638.479808	9290.478534
638.824719	9269.063713
639.169577	9182.570116
639.514383	9175.373868
639.859137	9104.621274
640.203839	9141.865319
640.548489	9067.871263
640.893086	9069.197086
641.237632	9002.467333
641.582125	9010.361780
641.926566	8996.954831
642.270955	8983.321030
642.615292	8975.822314
642.959576	8948.771482
643.303809	8941.890307
643.647990	8962.299419
643.992118	8931.896220
644.336195	8907.791943
644.680219	8912.134897
645.024192	8947.390206
645.368112	9012.111060
645.711981	8996.334769
646.055797	9136.867015
646.399562	9090.281712
646.743274	9254.797247
647.086935	9312.064755
647.430544	9290.962485
647.774101	9322.598246
648.117606	9344.756638
648.461059	9404.781657
648.804460	9336.952932
649.147810	9220.673677
649.491108	9181.687914
649.834354	9122.164490
650.177548	8979.628385
650.520690	8894.299295
650.863781	8880.262202
651.206820	8848.462603
651.549807	8766.090149
651.892742	8676.944905
652.235626	8633.681723
652.578458	8591.363757
652.921238	8497.290785
653.263967	8522.763736
653.606644	8455.955844
653.949269	8435.531609
654.291843	8369.240436
654.634365	8431.110518
654.976836	8356.128395
655.319255	8347.518104
655.661622	8334.670724
656.003938	8299.402812
656.346203	8261.949559
656.688416	8292.299826
657.030577	8245.510356
657.372687	8213.985501
657.714746	8240.479285
658.056753	8255.678364
658.398708	8159.115062
658.740612	8150.038464
659.082465	8198.340280
659.424266	8154.028537
659.766016	8160.450967
660.107715	8136.351732
660.449362	8154.875451
660.790958	8149.214236
661.132503	8142.055797
661.473996	8136.260991
661.815438	8161.295361
662.156829	8187.794186
662.498168	8135.403995
662.839456	8132.217985
663.180693	8146.829770
663.521879	8169.565374
663.863013	8155.563569
664.204097	8146.116447
664.545129	8221.151501
664.886110	8210.897794
665.227040	8216.125471
665.567918	8220.609577
665.908746	8237.812514
666.249522	8248.650995
666.590248	8246.581602
666.930922	8264.044158
667.271545	8250.440605
667.612118	8269.647401
667.952639	8229.834888
668.293109	8237.441990
668.633528	8211.406951
668.973896	8192.633694
669.314213	8197.926905
669.654480	8159.006677
669.994695	8156.526429
670.334859	8133.780743
670.674973	8115.083103
671.015035	8134.201679
671.355047	8125.704815
671.695008	8108.189326
672.034918	8081.912311
672.374777	8084.793331
672.714585	8062.239208
673.054342	8092.400432
673.394049	8057.230822
673.733705	8092.337417
674.073310	8047.133391
674.412864	8057.535812
674.752368	7988.167014
675.091820	8054.168321
675.431223	7975.649829
675.770574	7922.831140
676.109875	7901.408757
676.449125	7854.936880
676.788324	7843.135539
677.127473	7756.316787
677.466571	7744.142401
677.805619	7681.506064
678.144616	7685.551590
678.483562	7661.830441
678.822458	7606.864220
679.161303	7597.878363
679.500098	7569.582366
679.838842	7549.327010
680.177535	7560.798156
680.516179	7592.055830
680.854771	7608.807584
681.193314	7722.510809
681.531805	7874.617544
681.870247	7987.599884
682.208638	8137.082699
682.546978	8212.974749
682.885268	8246.352229
683.223508	8175.811363
683.561697	8124.734392
683.899836	8087.691994
684.237925	8005.327102
684.575963	7973.787123
684.913951	7889.007518
685.251889	7911.173472
685.589776	7908.589880
685.927614	7883.114409
686.265401	7902.580825
686.603137	7899.278869
686.940824	7962.991492
687.278460	8019.948969
687.616046	8029.527161
687.953582	8130.927450
688.291068	8109.542875
688.628504	8165.880290
688.965889	8169.381372
689.303224	8130.665310
689.640510	8082.560099
689.977745	7984.849935
690.314930	7862.324691
690.652065	7785.071529
690.989150	7671.582553
691.326185	7528.958228
691.663170	7423.570386
692.000105	7303.185112
692.336990	7195.029677
692.673825	7121.199458
693.010610	7027.847371
693.347345	6940.418640
693.684030	6821.359189
694.020665	6778.960565
694.357251	6669.335633
694.693786	6656.515979
695.030272	6614.134998
695.366707	6520.808117
695.703093	6468.412885
696.039429	6460.793181
696.375716	6412.685450
696.711952	6406.247896
697.048139	6372.890581
697.384276	6345.184400
697.720363	6356.789136
698.056400	6333.428429
698.392388	6299.693027
698.728326	6297.903418
699.064214	6269.597339
699.400053	6262.751452
699.735842	6202.003027
700.071581	6165.394168
700.407270	6122.214165
700.742910	6089.328198
701.078501	6045.031579
701.414042	6001.937275
701.749533	5946.116579
702.084974	5890.157251
702.420366	5928.240647
702.755709	5861.500812
703.091002	5808.581299
703.426246	5808.639272
703.761440	5796.974042
704.096584	5752.629532
704.431679	5743.729375
704.766725	5725.601386
705.101721	5717.711980
705.436668	5720.721549
705.771565	5671.056102
706.106413	5724.774637
706.441212	5721.881015
706.775961	5737.281740
707.110661	5745.345065
707.445311	5796.709382
707.779913	5768.627634
708.114465	5799.585360
708.448967	5840.443912
708.783421	5948.329645
709.117825	5993.823538
709.452180	6019.419997
709.786485	6074.792031
710.120742	6194.045566
710.454949	6191.630853
710.789107	6261.995279
711.123216	6372.487289
711.457275	6399.916207
711.791286	6497.291135
712.125247	6512.399473
712.459159	6479.095090
712.793023	6607.944462
713.126837	6437.266116
713.460602	6495.209138
713.794318	6448.538136
714.127985	6401.665487
714.461602	6264.593994
714.795171	6269.867041
715.128691	6110.488441
715.462162	6030.371904
715.795584	5961.434125
716.128957	5917.729842
716.462281	5857.026788
716.795556	5817.012629
717.128782	5731.348302
717.461960	5645.409231
717.795088	5638.797758
718.128167	5569.497016
718.461198	5486.449048
718.794180	5464.585563
719.127113	5406.113220
719.459997	5373.441502
719.792833	5312.829189
720.125619	5307.044465
720.458357	5246.888376
720.791046	5221.065065
721.123686	5192.045663
721.456278	5144.895751
721.788821	5138.984998
722.121315	5097.455973
722.453761	5103.754895
722.786158	5085.541206
723.118506	5086.645218
723.450805	5062.498092
723.783056	5083.625567
724.115259	5065.913473
724.447412	5057.220003
724.779518	5089.937092
725.111574	5093.400365
725.443582	5126.757680
725.775542	5115.669662
726.107453	5190.170354
726.439315	5167.197816
726.771129	5227.313575
727.102895	5286.161485
727.434612	5325.651363
727.766281	5348.669272
728.097901	5401.409823
728.429473	5410.262090
728.760996	5422.910345
729.092471	5441.502120
729.423897	5428.437970
729.755276	5399.957971
730.086606	5410.425927
730.417887	5490.963401
730.749120	5572.783848
731.080305	5605.274085
731.411442	5670.110885
731.742530	5692.279359
732.073570	5712.847267
732.404562	5767.324496
732.735506	5755.898721
733.066401	5740.097224
733.397249	5680.231002
733.728048	5593.467703
734.058798	5455.090550
734.389501	5348.863356
734.720156	5266.654740
735.050762	5167.555738
735.381320	5097.254327
735.711831	5045.973189
736.042293	4970.028207
736.372707	4965.617197
736.703073	4922.467441
737.033391	4949.737562
737.363661	4930.503040
737.693883	4940.512251
738.024056	4956.618737
738.354182	4976.407787
738.684260	5019.769272
739.014290	5051.120207
739.344272	5082.874435
739.674207	5131.188854
740.004093	5153.687523
740.333931	5157.480992
740.663722	5172.438095
740.993464	5182.220454
741.323159	5167.570861
741.652806	5125.222648
741.982405	5098.960757
742.311956	5048.249270
742.641460	5033.531622
742.970915	4982.530268
743.300323	4928.201753
743.629683	4897.780910
743.958996	4851.709805
744.288260	4807.415707
744.617477	4753.165330
744.946647	4739.881889
745.275768	4689.961863
745.604842	4660.415661
745.933869	4625.646823
746.262847	4619.431080
746.591778	4609.568063
746.920662	4583.618723
747.249498	4574.932815
747.578286	4588.536369
747.907027	4607.087815
748.235720	4648.674813
748.564365	4650.608096
748.892963	4635.154439
749.221514	4653.075741
749.550017	4626.188747
749.878473	4625.946771
750.206881	4587.964198
750.535242	4575.731838
750.863555	4567.786979
751.191821	4545.983989
751.520039	4546.677148
751.848210	4524.334754
752.176334	4530.278274
752.504411	4514.237323
752.832440	4488.787057
753.160421	4496.343747
753.488356	4476.045541
753.816243	4461.534580
754.144082	4428.678860
754.471875	4415.949946
754.799620	4406.805293
755.127318	4399.200713
755.454969	4388.415164
755.782572	4383.157240
756.110129	4382.998444
756.437638	4365.210733
756.765100	4363.678222
757.092515	4363.947924
757.419882	4365.936659
757.747203	4363.945403
758.074477	4373.493348
758.401703	4363.302656
758.728882	4385.019947
759.056014	4392.652254
759.383099	4409.877876
759.710138	4434.662709
760.037129	4450.812046
760.364073	4465.174293
760.690970	4456.566523
761.017820	4456.879074
761.344623	4482.596521
761.671379	4535.047206
761.998088	4606.382053
762.324751	4796.660405
762.651366	5187.231361
762.977935	5776.587616
763.304456	6256.399598
763.630931	6528.077461
763.957359	6478.094421
764.283740	6232.675928
764.610074	5951.747548
764.936362	5610.325321
765.262602	5334.223846
765.588796	5034.744019
765.914943	4815.136234
766.241044	4617.477633
766.567097	4465.529694
766.893104	4340.325077
767.219064	4252.818208
767.544978	4166.367460
767.870845	4095.135957
768.196665	4053.826221
768.522438	4011.089840
768.848165	3976.825117
769.173846	3939.039148
769.499479	3912.862957
769.825066	3882.222824
770.150607	3846.513811
770.476101	3831.198785
770.801548	3810.320847
771.126949	3782.387813
771.452303	3770.122686
771.777611	3736.886358
772.102872	3731.915781
772.428087	3707.640104
772.753256	3687.288966
773.078378	3671.026204
773.403453	3638.251142
773.728482	3623.553658
774.053465	3606.204527
774.378401	3591.718772
774.703291	3571.042479
775.028135	3547.754869
775.352932	3540.520813
775.677683	3522.964995
776.002388	3505.794825
776.327046	3506.182994
776.651658	3488.448215
776.976224	3472.281234
777.300743	3471.383909
777.625216	3458.113071
777.949643	3450.468162
778.274024	3451.756176
778.598359	3432.977878
778.922647	3433.650872
779.246889	3425.746343
779.571086	3418.166968
779.895236	3423.550921
780.219339	3425.547218
780.543397	3421.685694
780.867409	3433.096345
781.191374	3432.483845
781.515294	3425.980757
781.839167	3438.069444
782.162995	3437.701439
782.486776	3430.666509
782.810511	3422.343564
783.134201	3408.205648
783.457844	3408.382089
783.781441	3402.743558
784.104993	3393.225860
784.428498	3390.175962
784.751958	3384.471896
785.075372	3382.568860
785.398739	3372.408415
785.722061	3377.300855
786.045337	3374.644167
786.368568	3391.690828
786.691752	3387.010117
787.014891	3425.975716
787.337983	3465.185810
787.661030	3535.411604
787.984031	3613.002523
788.306987	3673.468643
788.629897	3713.545816
788.952760	3715.433728
789.275579	3706.321843
789.598351	3665.349865
789.921078	3620.196250
790.243759	3566.419741
790.566395	3525.029347
790.888984	3491.795541
791.211529	3456.041157
791.534027	3421.383224
791.856480	3385.701938
792.178888	3372.783981
792.501249	3354.073738
792.823566	3327.017866
793.145836	3325.966785
793.468062	3317.457317
793.790241	3304.804021
794.112375	3309.051193
794.434464	3323.844459
794.756507	3318.783141
795.078505	3336.069257
795.400457	3366.969010
795.722364	3405.667427
796.044226	3446.243675
796.366042	3480.044611
796.687812	3477.773571
797.009538	3497.129082
797.331218	3489.305211
797.652852	3481.728357
797.974442	3466.032724
798.295986	3453.873461
798.617484	3431.483176
798.938938	3410.590114
799.260346	3396.731982
799.581709	3369.229967
799.903026	3359.913915
800.224299	3342.416070
800.545526	3317.933706
800.866708	3303.571459
801.187845	3291.034109
801.508936	3273.553908
801.829983	3266.279523
802.150984	3244.650453
802.471940	3236.816500
802.792851	3231.702249
803.113717	3225.799058
803.434538	3216.858572
803.755314	3212.074517
804.076045	3203.320553
804.396731	3196.620860
804.717372	3195.408462
805.037967	3194.233873
805.358518	3195.574820
805.679024	3206.435986
805.999485	3203.239895
806.319901	3207.948332
806.640272	3208.528065
806.960598	3217.771021
807.280879	3215.643654
807.601115	3226.754357
807.921306	3218.875033
808.241453	3220.079869
808.561554	3221.032647
808.881611	3217.927296
809.201623	3219.487533
809.521590	3214.453941
809.841513	3211.865309
810.161390	3216.556102
810.481223	3197.669420
810.801011	3198.281920
811.120755	3193.863348
811.440453	3184.811957
811.760107	3176.541944
812.079716	3173.333249
812.399281	3161.330262
812.718801	3159.520488
813.038276	3155.835404
813.357707	3150.930362
813.677093	3156.281547
813.996434	3140.172539
814.315731	3142.874598
814.634983	3145.072541
814.954191	3145.967346
815.273354	3155.928666
815.592473	3162.673730
815.911547	3179.596883
816.230577	3187.503933
816.549562	3206.249463
816.868502	3219.691700
817.187399	3230.605798
817.506250	3250.225969
817.825058	3260.459511
818.143821	3288.321969
818.462539	3319.783810
818.781213	3360.087835
819.099843	3422.280550
819.418429	3539.076523
819.736970	3648.467041
820.055466	3787.585243
820.373919	3963.713076
820.692327	4208.004871
821.010691	4585.519238
821.329011	5414.113531
821.647286	6786.716380
821.965517	8546.729381
822.283704	9873.036793
822.601847	10691.931906
822.919945	10358.169713
823.237999	9767.182645
823.556010	9031.544708
823.873976	8265.846371
824.191897	7495.525296
824.509775	6891.804273
824.827609	6280.950017
825.145398	5852.714080
825.463144	5547.663779
825.780845	5436.965082
826.098502	5485.355117
826.416116	5774.956803
826.733685	6167.801319
827.051210	6389.770885
827.368692	6319.913095
827.686129	5979.176466
828.003522	5550.895158
828.320872	5125.467144
828.638177	4777.466212
828.955439	4502.529243
829.272656	4247.028443
829.589830	4041.417421
829.906960	3843.312678
830.224046	3688.188812
830.541088	3560.962692
830.858086	3470.302581
831.175041	3400.492683
831.491952	3366.429606
831.808819	3350.171885
832.125642	3373.721635
832.442421	3449.124694
832.759157	3604.006584
833.075849	3881.506980
833.392497	4235.736258
833.709101	4532.380435
834.025662	4611.897076
834.342179	4518.625647
834.658653	4312.873473
834.975083	4108.311012
835.291469	3921.760593
835.607811	3758.124740
835.924110	3640.723828
836.240366	3525.165459
836.556578	3402.758682
836.872746	3307.001964
837.188871	3225.766291
837.504952	3153.037564
837.820990	3100.223916
838.136984	3060.880231
838.452935	3042.522869
838.768842	3029.693132
839.084706	3051.236503
839.400526	3148.462717
839.716303	3319.385559
840.032037	3472.392140
840.347727	3518.397710
840.663373	3450.871454
840.978977	3341.375072
841.294537	3245.141965
841.610054	3168.440810
841.925527	3114.011472
842.240957	3065.563462
842.556344	3022.050743
842.871687	2980.526759
843.186987	2936.051179
843.502244	2895.643810
843.817458	2869.276055
844.132629	2845.791840
844.447756	2830.338183
844.762840	2817.032057
845.077881	2803.108390
845.392879	2792.514406
845.707833	2789.003242
846.022745	2778.547889
846.337613	2776.884308
846.652438	2769.425921
846.967221	2767.142278
847.281960	2760.445105
847.596656	2761.092894
847.911309	2757.054929
848.225919	2749.465472
848.540485	2750.161152
848.855009	2745.757704
849.169490	2746.518918
849.483928	2740.467013
849.798323	2741.293762
850.112675	2738.949625
850.426984	2736.403843
850.741251	2738.866446
851.055474	2733.653893
851.369654	2735.851836
851.683792	2732.595251
851.997887	2734.735221
852.311938	2735.173801
852.625947	2735.360324
852.939914	2729.341186
853.253837	2734.515931
853.567718	2732.912844
853.881555	2729.706670
854.195350	2732.784294
854.509103	2733.903430
854.822812	2729.220198
855.136479	2728.645507
855.450103	2729.767164
855.763685	2731.040055
856.077224	2729.938563
856.390720	2731.529047
856.704173	2731.733214
857.017584	2730.684654
857.330953	2735.536764
857.644278	2736.018194
857.957561	2736.557598
858.270802	2738.629512
858.584000	2735.763616
858.897155	2738.589183
859.210268	2733.205231
859.523339	2733.936198
859.836367	2732.628018
860.149352	2731.314798
860.462295	2727.775908
860.775195	2725.184755
861.088054	2724.196689
861.400869	2724.383211
861.713642	2720.970350
862.026373	2723.145608
862.339062	2728.118706
862.651708	2729.174828
862.964312	2730.760271
863.276873	2734.480642
863.589392	2738.286714
863.901869	2741.369379
864.214303	2747.438928
864.526696	2752.510329
864.839045	2756.008890
865.151353	2760.906371
865.463619	2760.805548
865.775842	2761.528953
866.088023	2765.012391
866.400162	2764.858636
866.712258	2763.240425
867.024313	2768.374840
867.336325	2769.125972
867.648296	2767.278389
867.960224	2767.895931
868.272110	2769.136055
868.583954	2767.290992
868.895755	2767.016249
869.207515	2767.643873
869.519233	2772.042280
869.830909	2773.156375
870.142542	2774.116715
870.454134	2775.581170
870.765684	2779.200718
871.077191	2782.442180
871.388657	2786.656585
871.700081	2792.224539
872.011463	2796.229736
872.322803	2796.607822
872.634101	2803.163843
872.945357	2807.103505
873.256571	2812.681542
873.567744	2817.019454
873.878874	2819.280412
874.189963	2825.055054
874.501010	2826.685867
874.812015	2827.598316
875.122979	2830.244922
875.433900	2831.255673
875.744780	2832.158039
876.055618	2836.662310
876.366415	2834.537464
876.677169	2836.647187
876.987882	2836.420335
877.298554	2842.147086
877.609183	2850.908611
877.919771	2858.351875
878.230317	2872.837630
878.540822	2895.817730
878.851285	2924.741350
879.161707	2963.820375
879.472087	3032.097763
879.782425	3130.843884
880.092722	3317.031340
880.402977	3621.990901
880.713191	4046.985376
881.023363	4526.222666
881.333494	4890.899735
881.643583	5108.690184
881.953631	5144.797449
882.263637	5073.954114
882.573602	4943.902427
882.883526	4800.287515
883.193408	4641.486128
883.503248	4470.588492
883.813048	4312.424811
884.122806	4151.342301
884.432522	3982.405674
884.742197	3815.964418
885.051831	3665.009587
885.361424	3523.562372
885.670975	3403.351017
885.980485	3301.618012
886.289954	3216.520814
886.599382	3153.014879
886.908768	3093.909871
887.218113	3041.249978
887.527417	2998.692557
887.836680	2963.553194
888.145901	2932.509768
888.455082	2909.938002
888.764221	2889.644837
889.073319	2866.904192
889.382376	2859.279447
889.691392	2846.545492
890.000366	2841.963084
890.309300	2837.897393
890.618193	2833.531754
890.927044	2831.094356
891.235855	2833.095694
891.544625	2834.688699
891.853353	2837.259687
892.162041	2848.395596
892.470687	2863.405632
892.779293	2886.206770
893.087858	2916.670463
893.396381	2967.024028
893.704864	3035.745037
894.013306	3143.265287
894.321707	3270.567025
894.630068	3373.986296
894.938387	3422.305756
895.246665	3420.412802
895.554903	3377.063920
895.863100	3316.796926
896.171256	3266.178700
896.479371	3215.114332
896.787446	3164.057526
897.095480	3119.150928
897.403473	3084.639189
897.711425	3046.480175
898.019336	3012.933816
898.327207	2982.979280
898.635038	2949.604321
898.942827	2919.155752
899.250576	2893.962586
899.558284	2866.029552
899.865952	2846.767303
900.173579	2830.368430
900.481165	2818.027685
900.788711	2806.067548
901.096216	2797.613533
901.403681	2787.929476
901.711105	2783.279012
902.018489	2779.407406
902.325832	2781.963271
902.633135	2785.991152
902.940397	2808.290697
903.247619	2864.426465
903.554800	2983.135556
903.861941	3173.696212
904.169041	3352.689942
904.476101	3468.916264
904.783121	3474.897593
905.090100	3418.446752
905.397039	3342.582428
905.703938	3275.562808
906.010796	3204.041438
906.317614	3150.774086
906.624391	3095.276023
906.931129	3051.102913
907.237826	3008.807632
907.544483	2968.914461
907.851099	2924.753953
908.157675	2876.913403
908.464211	2827.701659
908.770707	2789.131791
909.077163	2758.955444
909.383578	2736.040880
909.689954	2717.960781
909.996289	2708.748073
910.302584	2703.596013
910.608839	2697.186186
910.915054	2691.489682
911.221229	2688.149918
911.527363	2687.396266
911.833458	2688.160000
912.139513	2691.933304
912.445527	2691.424147
912.751502	2695.323480
913.057436	2704.934440
913.363331	2718.689228
913.669186	2736.509707
913.975000	2755.305649
914.280775	2790.601288
914.586510	2843.193125
914.892205	2909.000348
915.197859	3012.039012
915.503475	3132.668782
915.809050	3251.846700
916.114585	3336.853157
916.420081	3384.101371
916.725536	3403.976120
917.030952	3372.904968
917.336328	3343.066379
917.641665	3310.624033
917.946961	3268.225409
918.252218	3227.306363
918.557435	3180.637881
918.862612	3139.799494
919.167750	3104.660131
919.472848	3057.358985
919.777906	3015.809795
920.082925	2967.266004
920.387904	2922.225815
920.692843	2887.139384
920.997743	2854.951617
921.302603	2825.115547
921.607423	2803.768782
921.912204	2781.552417
922.216946	2767.439706
922.521647	2751.585277
922.826310	2738.448031
923.130932	2728.771536
923.435516	2718.984136
923.740059	2710.010882
924.044564	2701.040148
924.349028	2691.275433
924.653454	2680.663805
924.957840	2675.562157
925.262186	2672.073678
925.566493	2664.484221
925.870761	2655.891575
926.174989	2658.248314
926.479178	2650.525266
926.783328	2647.243475
927.087438	2643.868423
927.391509	2640.944553
927.695541	2633.677730
927.999533	2632.669499
928.303486	2628.341669
928.607400	2628.654220
928.911275	2624.933849
929.215110	2622.168776
929.518906	2621.281533
929.822663	2621.427726
930.126381	2621.389918
930.430060	2623.340844
930.733699	2620.326234
931.037299	2622.345216
931.340861	2620.585854
931.644383	2622.130967
931.947866	2622.115844
932.251309	2619.930504
932.554714	2617.987139
932.858080	2625.011987
933.161407	2618.652571
933.464694	2620.782459
933.767943	2619.224742
934.071153	2618.932355
934.374323	2617.190637
934.677455	2616.507560
934.980548	2616.797427
935.283602	2614.838938
935.586617	2615.206943
935.889593	2614.405399
936.192530	2616.285749
936.495428	2614.102930
936.798287	2614.939761
937.101108	2617.707355
937.403890	2622.682974
937.706632	2629.866618
938.009336	2634.086064
938.312002	2641.574698
938.614628	2648.070224
938.917216	2655.911739
939.219765	2660.100938
939.522275	2663.723007
939.824747	2664.146464
940.127179	2660.763850
940.429573	2659.299395
940.731929	2661.469611
941.034246	2660.355516
941.336524	2660.463901
941.638763	2662.860970
941.940964	2661.454488
942.243126	2657.373674
942.545250	2658.455001
942.847335	2650.830256
943.149381	2648.067704
943.451389	2645.526962
943.753359	2640.788278
944.055290	2640.833648
944.357182	2634.658235
944.659036	2634.315436
944.960851	2632.649335
945.262628	2628.291257
945.564367	2631.721762
945.866067	2629.536422
946.167729	2627.666154
946.469352	2628.757564
946.770937	2628.228243
947.072484	2627.492234
947.373992	2627.217492
947.675462	2625.861421
947.976893	2625.695063
948.278286	2624.727162
948.579641	2624.999384
948.880958	2621.833539
949.182236	2620.880761
949.483476	2623.459311
949.784678	2619.570061
950.085841	2623.227418
950.386967	2621.909157
950.688054	2623.602984
950.989103	2623.330762
951.290114	2624.777573
951.591087	2629.513737
951.892021	2630.040538
952.192917	2634.978348
952.493776	2639.661580
952.794596	2638.197125
953.095378	2640.591673
953.396122	2642.993782
953.696828	2640.009419
953.997496	2644.390182
954.298126	2636.258801
954.598718	2635.739562
954.899272	2637.012453
955.199788	2629.697739
955.500266	2630.025414
955.800706	2622.801441
956.101108	2618.932355
956.401472	2615.769031
956.701798	2615.353136
957.002087	2608.235027
957.302337	2610.465737
957.602550	2606.107660
957.902724	2601.260590
958.202861	2600.935436
958.502960	2595.095259
958.803022	2595.249014
959.103045	2591.420258
959.403031	2592.423448
959.702979	2587.430185
960.002889	2589.192068
960.302762	2584.602097
960.602596	2586.048909
960.902393	2582.820050
961.202153	2582.189905
961.501875	2579.828125
961.801559	2580.307034
962.101205	2578.557754
962.400814	2577.194122
962.700385	2578.189750
962.999918	2578.676221
963.299414	2575.331416
963.598873	2580.319637
963.898293	2574.315623
964.197677	2575.167578
964.497022	2575.734708
964.796331	2578.638413
965.095601	2575.149934
965.394835	2575.608679
965.694030	2573.400654
965.993189	2575.071796
966.292309	2572.949470
966.591393	2572.631878
966.890439	2571.681620
967.189447	2572.299162
967.488419	2576.942064
967.787353	2572.442834
968.086249	2574.527352
968.385108	2570.733883
968.683930	2576.984914
968.982714	2573.158678
969.281462	2572.021898
969.580172	2575.538103
969.878844	2577.846951
970.177480	2577.862075
970.476078	2576.931982
970.774639	2576.944585
971.073162	2580.140676
971.371649	2576.364852
971.670098	2576.692527
971.968510	2579.341653
972.266885	2576.463155
972.565223	2581.138825
972.863524	2582.510019
973.161788	2579.601273
973.460014	2582.535224
973.758204	2582.285687
974.056356	2584.629824
974.354471	2583.757704
974.652550	2582.870461
974.950591	2583.382138
975.248595	2583.097313
975.546563	2583.598908
975.844493	2583.669484
976.142386	2581.746284
976.440243	2582.779720
976.738062	2582.111767
977.035845	2581.824422
977.333590	2581.166551
977.631299	2579.397106
977.928971	2578.527507
978.226606	2580.188567
978.524204	2577.806622
978.821765	2576.747980
979.119290	2577.904925
979.416777	2575.855696
979.714228	2577.549523
980.011642	2573.846796
980.309020	2581.138825
980.606360	2579.339133
980.903664	2580.503639
981.200931	2583.349371
981.498162	2584.455904
981.795356	2592.342789
982.092513	2601.701691
982.389633	2613.848352
982.686717	2626.143726
982.983764	2636.949439
983.280775	2647.004020
983.577749	2647.918990
983.874686	2648.022333
984.171587	2646.189874
984.468451	2641.100829
984.765279	2637.380458
985.062070	2634.454068
985.358824	2629.228912
985.655543	2621.641975
985.952224	2619.474279
986.248869	2612.073865
986.545478	2600.005343
986.842050	2595.256576
987.138586	2584.629824
987.435086	2579.742425
987.731549	2574.282856
988.027975	2576.523648
988.324366	2574.575242
988.620719	2573.345201
988.917037	2571.182546
989.213318	2571.754717
989.509563	2570.449058
989.805772	2568.548543
990.101944	2564.361865
990.398080	2566.595096
990.694180	2565.813717
990.990244	2566.695919
991.286271	2565.629715
991.582262	2565.296999
991.878217	2568.402350
992.174136	2567.772205
992.470019	2569.251784
992.765865	2568.951835
993.061676	2568.130127
993.357450	2570.645663
993.653188	2574.431570
993.948890	2573.007444
994.244556	2575.200346
994.540186	2575.631364
994.835780	2576.614389
995.131337	2582.961202
995.426859	2586.401789
995.722345	2592.052923
996.017795	2595.934611
996.313208	2603.254367
996.608586	2605.951384
996.903928	2606.808380
997.199234	2608.083792
997.494504	2608.343412
997.789738	2609.344081
998.084936	2606.757969
998.380099	2604.358379
998.675225	2599.153388
998.970316	2597.220106
999.265371	2592.312542
999.560390	2587.226018
999.855373	2583.654361
1000.150320	2583.475400
1000.445232	2579.263516
1000.740108	2578.245202
1001.034948	2574.043401
1001.329752	2571.389233
1001.624521	2572.185736
1001.919254	2565.702812
1002.213951	2566.912689
1002.508613	2563.953531
1002.803239	2563.895558
1003.097829	2560.064281
1003.392384	2567.545353
1003.686903	2563.320867
1003.981386	2564.296330
1004.275834	2563.683830
1004.570246	2565.307081
1004.864623	2563.378840
1005.158964	2561.952193
1005.453270	2562.761298
1005.747540	2563.449416
1006.041775	2562.257183
1006.335974	2560.623849
1006.630138	2561.233829
1006.924266	2564.190466
1007.218359	2558.965310
1007.512416	2562.650393
1007.806438	2563.401525
1008.100425	2560.941442
1008.394376	2559.345917
1008.688292	2561.894220
1008.982172	2559.837429
1009.276017	2559.940773
1009.569827	2561.125444
1009.863602	2563.666186
1010.157341	2560.497820
1010.451045	2558.579661
1010.744714	2561.037224
1011.038347	2563.366237
1011.331945	2559.524878
1011.625508	2560.888510
1011.919036	2559.761812
1012.212528	2560.548232
1012.505986	2561.115362
1012.799408	2558.390618
1013.092795	2559.668551
1013.386147	2559.713921
1013.679464	2559.852553
1013.972745	2559.570248
1014.265992	2559.411452
1014.559204	2562.791545
1014.852380	2559.754250
1015.145521	2560.422203
1015.438628	2558.441030
1015.731699	2560.679302
1016.024736	2559.013201
1016.317737	2560.606205
1016.610703	2558.927501
1016.903635	2555.103786
1017.196531	2554.995401
1017.489393	2556.540515
1017.782219	2557.556307
1018.075011	2558.095711
1018.367768	2559.408931
1018.660490	2560.079405
1018.953177	2560.079405
1019.245829	2560.079405
