Dividing Wavelength (nm)	Counts (n)	Blue Motor Position (mm): 0.000000	Red Motor Position (mm): 1.600000	
326.493990	2084.517115
326.888308	2084.517115
327.282561	2084.517115
327.676750	2099.640577
328.070874	2087.037692
328.464933	2119.805192
328.858929	2087.037692
329.252859	2087.037692
329.646726	2051.749615
330.040528	2172.737308
330.434265	2107.202308
330.827938	2122.325769
331.221547	2167.696154
331.615091	2225.669423
332.008571	2235.751731
332.401986	2213.066538
332.795338	2235.751731
333.188625	2233.231154
333.581847	2245.834038
333.975006	2215.587115
334.368100	2286.163269
334.761129	2245.834038
335.154095	2276.080962
335.546996	2331.533654
335.939833	2336.574808
336.332606	2412.192115
336.725315	2457.562500
337.117960	2447.480192
337.510540	2424.795000
337.903056	2457.562500
338.295508	2470.165385
338.687896	2472.685962
339.080220	2417.233269
339.472480	2487.809423
339.864676	2452.521346
340.256807	2530.659231
340.648875	2475.206538
341.040879	2472.685962
341.432818	2366.821731
341.824694	2465.124231
342.216506	2374.383462
342.608253	2447.480192
342.999937	2444.959615
343.391557	2548.303269
343.783113	2518.056346
344.174605	2482.768269
344.566033	2487.809423
344.957397	2502.932885
345.348697	2462.603654
345.739934	2518.056346
346.131106	2530.659231
346.522215	2558.385577
346.913260	2409.671538
347.304241	2429.836154
347.695159	2497.891731
348.086012	2450.000769
348.476802	2477.727115
348.867528	2460.083077
349.258191	2455.041923
349.648789	2437.397885
350.039324	2530.659231
350.429796	2457.562500
350.820203	2399.589231
351.210548	2407.150962
351.600828	2447.480192
351.991045	2394.548077
352.381198	2447.480192
352.771288	2470.165385
353.161314	2366.821731
353.551276	2513.015192
353.941175	2417.233269
354.331010	2366.821731
354.720782	2455.041923
355.110490	2472.685962
355.500135	2429.836154
355.889717	2528.138654
356.279235	2397.068654
356.668689	2417.233269
357.058080	2429.836154
357.447408	2399.589231
357.836672	2462.603654
358.225873	2437.397885
358.615010	2397.068654
359.004084	2424.795000
359.393095	2470.165385
359.782043	2530.659231
360.170927	2487.809423
360.559748	2392.027500
360.948505	2497.891731
361.337199	2450.000769
361.725830	2485.288846
362.114398	2452.521346
362.502903	2480.247692
362.891344	2467.644808
363.279722	2500.412308
363.668037	2402.109808
364.056289	2419.753846
364.444478	2424.795000
364.832603	2472.685962
365.220665	2439.918462
365.608665	2439.918462
365.996601	2409.671538
366.384474	2361.780577
366.772284	2490.330000
367.160031	2510.494615
367.547715	2540.741538
367.935336	2399.589231
368.322893	2409.671538
368.710388	2394.548077
369.097820	2414.712692
369.485189	2399.589231
369.872495	2419.753846
370.259738	2419.753846
370.646918	2472.685962
371.034035	2447.480192
371.421090	2505.453462
371.808081	2515.535769
372.195010	2495.371154
372.581875	2439.918462
372.968678	2422.274423
373.355418	2447.480192
373.742096	2437.397885
374.128710	2482.768269
374.515262	2515.535769
374.901751	2455.041923
375.288177	2427.315577
375.674540	2507.974038
376.060841	2434.877308
376.447079	2528.138654
376.833254	2467.644808
377.219367	2462.603654
377.605417	2482.768269
377.991404	2507.974038
378.377329	2452.521346
378.763191	2543.262115
379.148991	2424.795000
379.534727	2480.247692
379.920402	2371.862885
380.306013	2389.506923
380.691563	2495.371154
381.077049	2533.179808
381.462474	2480.247692
381.847835	2505.453462
382.233134	2450.000769
382.618371	2376.904038
383.003545	2434.877308
383.388657	2434.877308
383.773706	2523.097500
384.158693	2485.288846
384.543618	2497.891731
384.928480	2467.644808
385.313280	2477.727115
385.698017	2379.424615
386.082692	2502.932885
386.467305	2487.809423
386.851856	2447.480192
387.236344	2457.562500
387.620770	2515.535769
388.005133	2384.465769
388.389435	2518.056346
388.773674	2452.521346
389.157851	2523.097500
389.541965	2497.891731
389.926018	2528.138654
390.310008	2497.891731
390.693936	2404.630385
391.077802	2439.918462
391.461606	2548.303269
391.845348	2553.344423
392.229027	2422.274423
392.612645	2467.644808
392.996200	2414.712692
393.379694	2502.932885
393.763125	2404.630385
394.146494	2470.165385
394.529801	2472.685962
394.913047	2457.562500
395.296230	2460.083077
395.679351	2513.015192
396.062410	2555.865000
396.445408	2535.700385
396.828343	2518.056346
397.211217	2470.165385
397.594028	2419.753846
397.976778	2467.644808
398.359466	2432.356731
398.742092	2472.685962
399.124656	2424.795000
399.507158	2550.823846
399.889598	2427.315577
400.271977	2419.753846
400.654294	2394.548077
401.036549	2518.056346
401.418742	2429.836154
401.800874	2376.904038
402.182944	2515.535769
402.564952	2452.521346
402.946898	2457.562500
403.328783	2485.288846
403.710606	2477.727115
404.092367	2487.809423
404.474067	2485.288846
404.855705	2502.932885
405.237282	2462.603654
405.618797	2523.097500
406.000250	2492.850577
406.381642	2447.480192
406.762972	2475.206538
407.144240	2515.535769
407.525447	2515.535769
407.906593	2444.959615
408.287677	2442.439038
408.668700	2472.685962
409.049661	2452.521346
409.430560	2467.644808
409.811399	2437.397885
410.192176	2434.877308
410.572891	2455.041923
410.953545	2505.453462
411.334138	2477.727115
411.714669	2518.056346
412.095139	2553.344423
412.475547	2427.315577
412.855894	2497.891731
413.236180	2381.945192
413.616405	2502.932885
413.996568	2480.247692
414.376670	2518.056346
414.756711	2513.015192
415.136691	2490.330000
415.516609	2500.412308
415.896466	2404.630385
416.276262	2477.727115
416.655997	2520.576923
417.035670	2500.412308
417.415283	2520.576923
417.794834	2513.015192
418.174324	2543.262115
418.553753	2490.330000
418.933121	2455.041923
419.312428	2515.535769
419.691674	2485.288846
420.070859	2475.206538
420.449983	2530.659231
420.829045	2538.220962
421.208047	2507.974038
421.586988	2457.562500
421.965867	2502.932885
422.344686	2429.836154
422.723444	2502.932885
423.102141	2477.727115
423.480777	2528.138654
423.859352	2429.836154
424.237866	2389.506923
424.616319	2540.741538
424.994712	2427.315577
425.373044	2482.768269
425.751314	2450.000769
426.129524	2485.288846
426.507673	2434.877308
426.885762	2548.303269
427.263789	2450.000769
427.641756	2520.576923
428.019662	2482.768269
428.397508	2397.068654
428.775292	2442.439038
429.153016	2515.535769
429.530679	2485.288846
429.908282	2470.165385
430.285824	2523.097500
430.663305	2439.918462
431.040726	2513.015192
431.418086	2452.521346
431.795385	2470.165385
432.172624	2495.371154
432.549802	2510.494615
432.926920	2480.247692
433.303977	2520.576923
433.680974	2505.453462
434.057910	2518.056346
434.434786	2485.288846
434.811601	2480.247692
435.188355	2520.576923
435.565050	2412.192115
435.941683	2422.274423
436.318257	2432.356731
436.694770	2490.330000
437.071222	2485.288846
437.447614	2500.412308
437.823946	2505.453462
438.200218	2414.712692
438.576429	2550.823846
438.952580	2482.768269
439.328670	2505.453462
439.704700	2397.068654
440.080670	2518.056346
440.456580	2450.000769
440.832429	2465.124231
441.208218	2376.904038
441.583947	2502.932885
441.959616	2502.932885
442.335224	2530.659231
442.710773	2523.097500
443.086261	2492.850577
443.461689	2460.083077
443.837057	2530.659231
444.212365	2444.959615
444.587612	2465.124231
444.962800	2414.712692
445.337927	2399.589231
445.712995	2505.453462
446.088002	2442.439038
446.462949	2427.315577
446.837837	2538.220962
447.212664	2429.836154
447.587431	2487.809423
447.962139	2460.083077
448.336786	2472.685962
448.711374	2462.603654
449.085901	2515.535769
449.460369	2457.562500
449.834776	2505.453462
450.209124	2540.741538
450.583412	2550.823846
450.957640	2407.150962
451.331808	2447.480192
451.705917	2538.220962
452.079965	2434.877308
452.453954	2530.659231
452.827883	2513.015192
453.201752	2523.097500
453.575562	2502.932885
453.949311	2477.727115
454.323001	2450.000769
454.696632	2560.906154
455.070202	2424.795000
455.443713	2434.877308
455.817164	2548.303269
456.190556	2570.988462
456.563888	2465.124231
456.937160	2553.344423
457.310373	2523.097500
457.683526	2523.097500
458.056619	2520.576923
458.429653	2502.932885
458.802628	2490.330000
459.175542	2424.795000
459.548398	2419.753846
459.921194	2460.083077
460.293930	2424.795000
460.666607	2510.494615
461.039224	2472.685962
461.411782	2490.330000
461.784280	2565.947308
462.156719	2553.344423
462.529099	2465.124231
462.901419	2455.041923
463.273680	2444.959615
463.645882	2513.015192
464.018024	2399.589231
464.390106	2452.521346
464.762130	2568.467885
465.134094	2573.509038
465.505999	2505.453462
465.877845	2450.000769
466.249631	2424.795000
466.621358	2487.809423
466.993026	2606.276538
467.364634	2452.521346
467.736184	2515.535769
468.107674	2568.467885
468.479105	2457.562500
468.850477	2507.974038
469.221790	2465.124231
469.593043	2563.426731
469.964238	2543.262115
470.335373	2397.068654
470.706449	2533.179808
471.077467	2427.315577
471.448425	2439.918462
471.819324	2520.576923
472.190164	2513.015192
472.560945	2560.906154
472.931667	2573.509038
473.302330	2434.877308
473.672934	2460.083077
474.043479	2581.070769
474.413965	2550.823846
474.784393	2565.947308
475.154761	2573.509038
475.525070	2409.671538
475.895321	2555.865000
476.265513	2444.959615
476.635645	2513.015192
477.005719	2505.453462
477.375734	2465.124231
477.745691	2513.015192
478.115588	2523.097500
478.485427	2485.288846
478.855207	2457.562500
479.224928	2482.768269
479.594591	2530.659231
479.964194	2485.288846
480.333739	2462.603654
480.703226	2477.727115
481.072653	2465.124231
481.442022	2500.412308
481.811333	2568.467885
482.180584	2495.371154
482.549777	2563.426731
482.918912	2442.439038
483.287988	2596.194231
483.657005	2437.397885
484.025964	2447.480192
484.394864	2570.988462
484.763706	2505.453462
485.132489	2548.303269
485.501213	2598.714808
485.869879	2407.150962
486.238487	2490.330000
486.607036	2477.727115
486.975527	2513.015192
487.343959	2487.809423
487.712333	2553.344423
488.080648	2495.371154
488.448905	2518.056346
488.817104	2560.906154
489.185244	2568.467885
489.553326	2475.206538
489.921350	2548.303269
490.289315	2487.809423
490.657222	2495.371154
491.025070	2543.262115
491.392861	2507.974038
491.760593	2452.521346
492.128267	2553.344423
492.495883	2472.685962
492.863440	2515.535769
493.230939	2558.385577
493.598380	2510.494615
493.965763	2515.535769
494.333088	2510.494615
494.700354	2538.220962
495.067563	2482.768269
495.434713	2530.659231
495.801805	2543.262115
496.168839	2530.659231
496.535815	2598.714808
496.902733	2475.206538
497.269593	2495.371154
497.636395	2505.453462
498.003139	2581.070769
498.369825	2497.891731
498.736453	2467.644808
499.103023	2513.015192
499.469535	2548.303269
499.835989	2480.247692
500.202385	2397.068654
500.568723	2523.097500
500.935003	2520.576923
501.301226	2513.015192
501.667390	2505.453462
502.033497	2518.056346
502.399546	2510.494615
502.765537	2500.412308
503.131470	2581.070769
503.497345	2447.480192
503.863163	2492.850577
504.228923	2586.111923
504.594625	2490.330000
504.960269	2510.494615
505.325856	2492.850577
505.691385	2465.124231
506.056856	2553.344423
506.422270	2424.795000
506.787625	2455.041923
507.152924	2555.865000
507.518164	2487.809423
507.883347	2510.494615
508.248472	2513.015192
508.613540	2502.932885
508.978550	2497.891731
509.343503	2462.603654
509.708398	2490.330000
510.073236	2480.247692
510.438016	2505.453462
510.802738	2563.426731
511.167403	2560.906154
511.532010	2570.988462
511.896561	2535.700385
512.261053	2502.932885
512.625488	2480.247692
512.989866	2515.535769
513.354186	2490.330000
513.718449	2482.768269
514.082655	2565.947308
514.446803	2560.906154
514.810894	2497.891731
515.174927	2500.412308
515.538904	2525.618077
515.902822	2412.192115
516.266684	2450.000769
516.630488	2502.932885
516.994235	2500.412308
517.357925	2467.644808
517.721558	2495.371154
518.085133	2510.494615
518.448651	2581.070769
518.812112	2465.124231
519.175516	2518.056346
519.538863	2402.109808
519.902152	2470.165385
520.265385	2455.041923
520.628560	2477.727115
520.991678	2497.891731
521.354739	2455.041923
521.717743	2475.206538
522.080690	2507.974038
522.443580	2528.138654
522.806413	2482.768269
523.169189	2553.344423
523.531908	2442.439038
523.894569	2553.344423
524.257174	2467.644808
524.619722	2550.823846
524.982213	2495.371154
525.344647	2480.247692
525.707025	2530.659231
526.069345	2528.138654
526.431608	2470.165385
526.793815	2487.809423
527.155964	2520.576923
527.518057	2525.618077
527.880093	2543.262115
528.242072	2495.371154
528.603995	2351.698269
528.965860	2510.494615
529.327669	2437.397885
529.689421	2535.700385
530.051117	2558.385577
530.412755	2525.618077
530.774337	2560.906154
531.135862	2492.850577
531.497331	2533.179808
531.858743	2437.397885
532.220098	2513.015192
532.581396	2455.041923
532.942638	2520.576923
533.303824	2470.165385
533.664953	2467.644808
534.026025	2515.535769
534.387040	2548.303269
534.747999	2419.753846
535.108902	2510.494615
535.469748	2472.685962
535.830537	2563.426731
536.191270	2492.850577
536.551947	2500.412308
536.912567	2414.712692
537.273131	2414.712692
537.633638	2450.000769
537.994089	2480.247692
538.354483	2465.124231
538.714821	2553.344423
539.075103	2472.685962
539.435328	2591.153077
539.795497	2450.000769
540.155609	2497.891731
540.515665	2480.247692
540.875665	2490.330000
541.235609	2495.371154
541.595496	2424.795000
541.955328	2472.685962
542.315102	2419.753846
542.674821	2460.083077
543.034483	2533.179808
543.394090	2452.521346
543.753640	2505.453462
544.113134	2485.288846
544.472571	2525.618077
544.831953	2460.083077
545.191278	2520.576923
545.550548	2528.138654
545.909761	2593.673654
546.268918	2447.480192
546.628019	2475.206538
546.987064	2495.371154
547.346053	2513.015192
547.704986	2465.124231
548.063863	2502.932885
548.422684	2548.303269
548.781449	2477.727115
549.140158	2535.700385
549.498811	2502.932885
549.857408	2485.288846
550.215949	2482.768269
550.574434	2523.097500
550.932864	2558.385577
551.291237	2455.041923
551.649555	2502.932885
552.007817	2460.083077
552.366022	2480.247692
552.724173	2523.097500
553.082267	2462.603654
553.440305	2485.288846
553.798288	2525.618077
554.156215	2550.823846
554.514086	2485.288846
554.871902	2581.070769
555.229661	2553.344423
555.587365	2528.138654
555.945014	2520.576923
556.302606	2482.768269
556.660143	2525.618077
557.017625	2510.494615
557.375050	2553.344423
557.732421	2576.029615
558.089735	2450.000769
558.446994	2397.068654
558.804197	2515.535769
559.161345	2500.412308
559.518437	2487.809423
559.875474	2510.494615
560.232455	2442.439038
560.589381	2467.644808
560.946251	2515.535769
561.303065	2462.603654
561.659825	2470.165385
562.016528	2535.700385
562.373177	2477.727115
562.729770	2523.097500
563.086307	2434.877308
563.442789	2374.383462
563.799216	2497.891731
564.155587	2477.727115
564.511904	2505.453462
564.868164	2568.467885
565.224370	2548.303269
565.580520	2497.891731
565.936615	2568.467885
566.292654	2412.192115
566.648638	2507.974038
567.004567	2497.891731
567.360441	2497.891731
567.716260	2482.768269
568.072023	2535.700385
568.427732	2487.809423
568.783385	2492.850577
569.138982	2397.068654
569.494525	2520.576923
569.850013	2477.727115
570.205445	2452.521346
570.560823	2495.371154
570.916145	2578.550192
571.271412	2465.124231
571.626625	2513.015192
571.981782	2444.959615
572.336884	2487.809423
572.691931	2487.809423
573.046923	2487.809423
573.401860	2455.041923
573.756743	2467.644808
574.111570	2563.426731
574.466342	2417.233269
574.821059	2518.056346
575.175722	2472.685962
575.530330	2523.097500
575.884882	2525.618077
576.239380	2467.644808
576.593823	2538.220962
576.948211	2515.535769
577.302544	2460.083077
577.656823	2472.685962
578.011047	2583.591346
578.365216	2482.768269
578.719330	2568.467885
579.073389	2480.247692
579.427394	2450.000769
579.781344	2525.618077
580.135239	2535.700385
580.489080	2523.097500
580.842866	2515.535769
581.196597	2515.535769
581.550273	2386.986346
581.903895	2593.673654
582.257463	2414.712692
582.610975	2477.727115
582.964434	2457.562500
583.317837	2452.521346
583.671186	2424.795000
584.024481	2502.932885
584.377721	2513.015192
584.730906	2558.385577
585.084037	2460.083077
585.437113	2583.591346
585.790135	2409.671538
586.143103	2475.206538
586.496016	2452.521346
586.848874	2404.630385
587.201679	2515.535769
587.554428	2555.865000
587.907124	2361.780577
588.259765	2495.371154
588.612352	2548.303269
588.964884	2548.303269
589.317362	2482.768269
589.669786	2460.083077
590.022155	2457.562500
590.374470	2528.138654
590.726731	2472.685962
591.078937	2530.659231
591.431090	2555.865000
591.783188	2472.685962
592.135232	2477.727115
592.487222	2555.865000
592.839157	2465.124231
593.191038	2578.550192
593.542866	2550.823846
593.894639	2553.344423
594.246358	2548.303269
594.598022	2603.755962
594.949633	2467.644808
595.301190	2520.576923
595.652692	2480.247692
596.004141	2538.220962
596.355535	2465.124231
596.706876	2523.097500
597.058162	2480.247692
597.409395	2550.823846
597.760573	2477.727115
598.111698	2482.768269
598.462768	2465.124231
598.813785	2530.659231
599.164748	2424.795000
599.515657	2578.550192
599.866511	2510.494615
600.217312	2497.891731
600.568060	2581.070769
600.918753	2518.056346
601.269392	2523.097500
601.619978	2500.412308
601.970510	2467.644808
602.320988	2505.453462
602.671412	2412.192115
603.021783	2500.412308
603.372100	2475.206538
603.722363	2487.809423
604.072572	2462.603654
604.422728	2455.041923
604.772830	2460.083077
605.122878	2513.015192
605.472872	2432.356731
605.822813	2515.535769
606.172701	2412.192115
606.522534	2510.494615
606.872314	2429.836154
607.222041	2555.865000
607.571714	2558.385577
607.921333	2475.206538
608.270899	2530.659231
608.620411	2500.412308
608.969870	2422.274423
609.319276	2487.809423
609.668627	2457.562500
610.017926	2470.165385
610.367171	2444.959615
610.716362	2611.317692
611.065500	2598.714808
611.414585	2492.850577
611.763616	2495.371154
612.112594	2548.303269
612.461518	2480.247692
612.810389	2598.714808
613.159207	2510.494615
613.507971	2432.356731
613.856682	2477.727115
614.205340	2505.453462
614.553945	2442.439038
614.902496	2530.659231
615.250994	2490.330000
615.599439	2533.179808
615.947830	2452.521346
616.296169	2450.000769
616.644454	2480.247692
616.992686	2550.823846
617.340864	2500.412308
617.688990	2565.947308
618.037063	2505.453462
618.385082	2470.165385
618.733048	2480.247692
619.080961	2570.988462
619.428821	2492.850577
619.776628	2386.986346
620.124382	2495.371154
620.472083	2565.947308
620.819731	2500.412308
621.167326	2465.124231
621.514868	2417.233269
621.862357	2533.179808
622.209793	2558.385577
622.557176	2490.330000
622.904506	2462.603654
623.251783	2447.480192
623.599007	2485.288846
623.946179	2518.056346
624.293297	2485.288846
624.640363	2555.865000
624.987376	2568.467885
625.334336	2442.439038
625.681243	2462.603654
626.028097	2386.986346
626.374899	2502.932885
626.721647	2442.439038
627.068343	2525.618077
627.414987	2439.918462
627.761577	2482.768269
628.108115	2450.000769
628.454600	2419.753846
628.801032	2507.974038
629.147412	2485.288846
629.493739	2515.535769
629.840014	2505.453462
630.186236	2429.836154
630.532405	2507.974038
630.878521	2437.397885
631.224585	2543.262115
631.570597	2553.344423
631.916556	2505.453462
632.262462	2518.056346
632.608316	2477.727115
632.954117	2409.671538
633.299866	2510.494615
633.645562	2588.632500
633.991206	2528.138654
634.336797	2548.303269
634.682336	2515.535769
635.027823	2535.700385
635.373257	2487.809423
635.718639	2492.850577
636.063968	2467.644808
636.409245	2543.262115
636.754470	2492.850577
637.099642	2492.850577
637.444762	2525.618077
637.789829	2523.097500
638.134845	2535.700385
638.479808	2485.288846
638.824719	2495.371154
639.169577	2482.768269
639.514383	2485.288846
639.859137	2492.850577
640.203839	2523.097500
640.548489	2513.015192
640.893086	2490.330000
641.237632	2497.891731
641.582125	2510.494615
641.926566	2480.247692
642.270955	2545.782692
642.615292	2515.535769
642.959576	2487.809423
643.303809	2409.671538
643.647990	2495.371154
643.992118	2492.850577
644.336195	2518.056346
644.680219	2452.521346
645.024192	2550.823846
645.368112	2477.727115
645.711981	2520.576923
646.055797	2518.056346
646.399562	2480.247692
646.743274	2530.659231
647.086935	2548.303269
647.430544	2429.836154
647.774101	2538.220962
648.117606	2550.823846
648.461059	2545.782692
648.804460	2543.262115
649.147810	2495.371154
649.491108	2528.138654
649.834354	2475.206538
650.177548	2513.015192
650.520690	2510.494615
650.863781	2543.262115
651.206820	2568.467885
651.549807	2533.179808
651.892742	2520.576923
652.235626	2540.741538
652.578458	2485.288846
652.921238	2447.480192
653.263967	2505.453462
653.606644	2530.659231
653.949269	2510.494615
654.291843	2487.809423
654.634365	2447.480192
654.976836	2528.138654
655.319255	2591.153077
655.661622	2419.753846
656.003938	2482.768269
656.346203	2472.685962
656.688416	2553.344423
657.030577	2444.959615
657.372687	2570.988462
657.714746	2560.906154
658.056753	2520.576923
658.398708	2520.576923
658.740612	2553.344423
659.082465	2565.947308
659.424266	2485.288846
659.766016	2470.165385
660.107715	2520.576923
660.449362	2540.741538
660.790958	2583.591346
661.132503	2533.179808
661.473996	2510.494615
661.815438	2525.618077
662.156829	2510.494615
662.498168	2490.330000
662.839456	2520.576923
663.180693	2570.988462
663.521879	2523.097500
663.863013	2485.288846
664.204097	2485.288846
664.545129	2520.576923
664.886110	2505.453462
665.227040	2555.865000
665.567918	2523.097500
665.908746	2528.138654
666.249522	2545.782692
666.590248	2452.521346
666.930922	2482.768269
667.271545	2455.041923
667.612118	2492.850577
667.952639	2543.262115
668.293109	2384.465769
668.633528	2525.618077
668.973896	2538.220962
669.314213	2520.576923
669.654480	2444.959615
669.994695	2477.727115
670.334859	2482.768269
670.674973	2518.056346
671.015035	2515.535769
671.355047	2563.426731
671.695008	2563.426731
672.034918	2455.041923
672.374777	2487.809423
672.714585	2477.727115
673.054342	2545.782692
673.394049	2455.041923
673.733705	2548.303269
674.073310	2437.397885
674.412864	2462.603654
674.752368	2528.138654
675.091820	2487.809423
675.431223	2518.056346
675.770574	2477.727115
676.109875	2480.247692
676.449125	2513.015192
676.788324	2442.439038
677.127473	2497.891731
677.466571	2447.480192
677.805619	2515.535769
678.144616	2424.795000
678.483562	2545.782692
678.822458	2467.644808
679.161303	2533.179808
679.500098	2507.974038
679.838842	2523.097500
680.177535	2563.426731
680.516179	2477.727115
680.854771	2434.877308
681.193314	2477.727115
681.531805	2495.371154
681.870247	2540.741538
682.208638	2518.056346
682.546978	2437.397885
682.885268	2563.426731
683.223508	2507.974038
683.561697	2500.412308
683.899836	2412.192115
684.237925	2513.015192
684.575963	2490.330000
684.913951	2492.850577
685.251889	2530.659231
685.589776	2505.453462
685.927614	2545.782692
686.265401	2455.041923
686.603137	2460.083077
686.940824	2555.865000
687.278460	2472.685962
687.616046	2608.797115
687.953582	2528.138654
688.291068	2450.000769
688.628504	2381.945192
688.965889	2515.535769
689.303224	2543.262115
689.640510	2558.385577
689.977745	2545.782692
690.314930	2485.288846
690.652065	2437.397885
690.989150	2510.494615
691.326185	2467.644808
691.663170	2442.439038
692.000105	2518.056346
692.336990	2548.303269
692.673825	2455.041923
693.010610	2563.426731
693.347345	2429.836154
693.684030	2513.015192
694.020665	2603.755962
694.357251	2467.644808
694.693786	2560.906154
695.030272	2490.330000
695.366707	2455.041923
695.703093	2475.206538
696.039429	2563.426731
696.375716	2455.041923
696.711952	2495.371154
697.048139	2563.426731
697.384276	2477.727115
697.720363	2500.412308
698.056400	2437.397885
698.392388	2482.768269
698.728326	2475.206538
699.064214	2553.344423
699.400053	2490.330000
699.735842	2457.562500
700.071581	2510.494615
700.407270	2543.262115
700.742910	2520.576923
701.078501	2500.412308
701.414042	2487.809423
701.749533	2520.576923
702.084974	2535.700385
702.420366	2505.453462
702.755709	2505.453462
703.091002	2543.262115
703.426246	2525.618077
703.761440	2528.138654
704.096584	2578.550192
704.431679	2447.480192
704.766725	2434.877308
705.101721	2402.109808
705.436668	2482.768269
705.771565	2492.850577
706.106413	2402.109808
706.441212	2513.015192
706.775961	2565.947308
707.110661	2424.795000
707.445311	2545.782692
707.779913	2505.453462
708.114465	2429.836154
708.448967	2487.809423
708.783421	2533.179808
709.117825	2538.220962
709.452180	2472.685962
709.786485	2545.782692
710.120742	2442.439038
710.454949	2540.741538
710.789107	2528.138654
711.123216	2475.206538
711.457275	2502.932885
711.791286	2535.700385
712.125247	2444.959615
712.459159	2482.768269
712.793023	2482.768269
713.126837	2530.659231
713.460602	2447.480192
713.794318	2628.961731
714.127985	2510.494615
714.461602	2419.753846
714.795171	2490.330000
715.128691	2518.056346
715.462162	2412.192115
715.795584	2515.535769
716.128957	2470.165385
716.462281	2439.918462
716.795556	2452.521346
717.128782	2450.000769
717.461960	2513.015192
717.795088	2485.288846
718.128167	2465.124231
718.461198	2530.659231
718.794180	2475.206538
719.127113	2525.618077
719.459997	2457.562500
719.792833	2568.467885
720.125619	2409.671538
720.458357	2472.685962
720.791046	2412.192115
721.123686	2513.015192
721.456278	2487.809423
721.788821	2480.247692
722.121315	2490.330000
722.453761	2581.070769
722.786158	2465.124231
723.118506	2573.509038
723.450805	2470.165385
723.783056	2485.288846
724.115259	2510.494615
724.447412	2578.550192
724.779518	2586.111923
725.111574	2460.083077
725.443582	2543.262115
725.775542	2444.959615
726.107453	2497.891731
726.439315	2548.303269
726.771129	2480.247692
727.102895	2525.618077
727.434612	2392.027500
727.766281	2432.356731
728.097901	2492.850577
728.429473	2555.865000
728.760996	2482.768269
729.092471	2455.041923
729.423897	2535.700385
729.755276	2500.412308
730.086606	2573.509038
730.417887	2505.453462
730.749120	2558.385577
731.080305	2457.562500
731.411442	2505.453462
731.742530	2500.412308
732.073570	2558.385577
732.404562	2608.797115
732.735506	2472.685962
733.066401	2497.891731
733.397249	2480.247692
733.728048	2492.850577
734.058798	2492.850577
734.389501	2444.959615
734.720156	2563.426731
735.050762	2505.453462
735.381320	2510.494615
735.711831	2409.671538
736.042293	2497.891731
736.372707	2429.836154
736.703073	2447.480192
737.033391	2515.535769
737.363661	2490.330000
737.693883	2538.220962
738.024056	2520.576923
738.354182	2482.768269
738.684260	2528.138654
739.014290	2601.235385
739.344272	2437.397885
739.674207	2555.865000
740.004093	2455.041923
740.333931	2437.397885
740.663722	2369.342308
740.993464	2518.056346
741.323159	2492.850577
741.652806	2533.179808
741.982405	2397.068654
742.311956	2520.576923
742.641460	2502.932885
742.970915	2475.206538
743.300323	2495.371154
743.629683	2528.138654
743.958996	2520.576923
744.288260	2576.029615
744.617477	2518.056346
744.946647	2538.220962
745.275768	2533.179808
745.604842	2515.535769
745.933869	2487.809423
746.262847	2467.644808
746.591778	2452.521346
746.920662	2545.782692
747.249498	2452.521346
747.578286	2457.562500
747.907027	2472.685962
748.235720	2535.700385
748.564365	2472.685962
748.892963	2545.782692
749.221514	2437.397885
749.550017	2455.041923
749.878473	2397.068654
750.206881	2465.124231
750.535242	2523.097500
750.863555	2442.439038
751.191821	2462.603654
751.520039	2467.644808
751.848210	2497.891731
752.176334	2581.070769
752.504411	2530.659231
752.832440	2475.206538
753.160421	2447.480192
753.488356	2492.850577
753.816243	2429.836154
754.144082	2515.535769
754.471875	2553.344423
754.799620	2553.344423
755.127318	2460.083077
755.454969	2490.330000
755.782572	2432.356731
756.110129	2540.741538
756.437638	2424.795000
756.765100	2490.330000
757.092515	2505.453462
757.419882	2404.630385
757.747203	2530.659231
758.074477	2482.768269
758.401703	2500.412308
758.728882	2442.439038
759.056014	2583.591346
759.383099	2495.371154
759.710138	2601.235385
760.037129	2485.288846
760.364073	2500.412308
760.690970	2465.124231
761.017820	2563.426731
761.344623	2414.712692
761.671379	2578.550192
761.998088	2455.041923
762.324751	2472.685962
762.651366	2576.029615
762.977935	2507.974038
763.304456	2467.644808
763.630931	2513.015192
763.957359	2545.782692
764.283740	2482.768269
764.610074	2548.303269
764.936362	2467.644808
765.262602	2520.576923
765.588796	2492.850577
765.914943	2475.206538
766.241044	2558.385577
766.567097	2513.015192
766.893104	2485.288846
767.219064	2470.165385
767.544978	2513.015192
767.870845	2392.027500
768.196665	2570.988462
768.522438	2513.015192
768.848165	2455.041923
769.173846	2510.494615
769.499479	2540.741538
769.825066	2414.712692
770.150607	2545.782692
770.476101	2422.274423
770.801548	2490.330000
771.126949	2555.865000
771.452303	2422.274423
771.777611	2492.850577
772.102872	2455.041923
772.428087	2485.288846
772.753256	2553.344423
773.078378	2455.041923
773.403453	2540.741538
773.728482	2487.809423
774.053465	2376.904038
774.378401	2399.589231
774.703291	2528.138654
775.028135	2550.823846
775.352932	2467.644808
775.677683	2507.974038
776.002388	2520.576923
776.327046	2477.727115
776.651658	2455.041923
776.976224	2507.974038
777.300743	2513.015192
777.625216	2535.700385
777.949643	2422.274423
778.274024	2518.056346
778.598359	2497.891731
778.922647	2515.535769
779.246889	2457.562500
779.571086	2560.906154
779.895236	2447.480192
780.219339	2487.809423
780.543397	2533.179808
780.867409	2452.521346
781.191374	2495.371154
781.515294	2457.562500
781.839167	2548.303269
782.162995	2470.165385
782.486776	2581.070769
782.810511	2558.385577
783.134201	2447.480192
783.457844	2487.809423
783.781441	2434.877308
784.104993	2540.741538
784.428498	2482.768269
784.751958	2528.138654
785.075372	2442.439038
785.398739	2513.015192
785.722061	2495.371154
786.045337	2510.494615
786.368568	2528.138654
786.691752	2530.659231
787.014891	2465.124231
787.337983	2558.385577
787.661030	2485.288846
787.984031	2452.521346
788.306987	2475.206538
788.629897	2543.262115
788.952760	2482.768269
789.275579	2603.755962
789.598351	2480.247692
789.921078	2518.056346
790.243759	2450.000769
790.566395	2510.494615
790.888984	2495.371154
791.211529	2510.494615
791.534027	2492.850577
791.856480	2424.795000
792.178888	2485.288846
792.501249	2477.727115
792.823566	2535.700385
793.145836	2424.795000
793.468062	2513.015192
793.790241	2482.768269
794.112375	2513.015192
794.434464	2487.809423
794.756507	2563.426731
795.078505	2480.247692
795.400457	2434.877308
795.722364	2470.165385
796.044226	2497.891731
796.366042	2500.412308
796.687812	2434.877308
797.009538	2472.685962
797.331218	2485.288846
797.652852	2538.220962
797.974442	2515.535769
798.295986	2528.138654
798.617484	2535.700385
798.938938	2447.480192
799.260346	2452.521346
799.581709	2502.932885
799.903026	2457.562500
800.224299	2487.809423
800.545526	2492.850577
800.866708	2480.247692
801.187845	2560.906154
801.508936	2482.768269
801.829983	2518.056346
802.150984	2545.782692
802.471940	2535.700385
802.792851	2505.453462
803.113717	2460.083077
803.434538	2563.426731
803.755314	2472.685962
804.076045	2513.015192
804.396731	2452.521346
804.717372	2384.465769
805.037967	2550.823846
805.358518	2555.865000
805.679024	2535.700385
805.999485	2455.041923
806.319901	2533.179808
806.640272	2520.576923
806.960598	2518.056346
807.280879	2533.179808
807.601115	2487.809423
807.921306	2500.412308
808.241453	2450.000769
808.561554	2538.220962
808.881611	2460.083077
809.201623	2442.439038
809.521590	2530.659231
809.841513	2465.124231
810.161390	2523.097500
810.481223	2530.659231
810.801011	2490.330000
811.120755	2545.782692
811.440453	2427.315577
811.760107	2510.494615
812.079716	2525.618077
812.399281	2490.330000
812.718801	2417.233269
813.038276	2472.685962
813.357707	2500.412308
813.677093	2583.591346
813.996434	2465.124231
814.315731	2376.904038
814.634983	2480.247692
814.954191	2490.330000
815.273354	2455.041923
815.592473	2507.974038
815.911547	2497.891731
816.230577	2434.877308
816.549562	2500.412308
816.868502	2452.521346
817.187399	2497.891731
817.506250	2477.727115
817.825058	2513.015192
818.143821	2480.247692
818.462539	2591.153077
818.781213	2518.056346
819.099843	2528.138654
819.418429	2530.659231
819.736970	2570.988462
820.055466	2520.576923
820.373919	2447.480192
820.692327	2392.027500
821.010691	2510.494615
821.329011	2500.412308
821.647286	2455.041923
821.965517	2482.768269
822.283704	2444.959615
822.601847	2480.247692
822.919945	2470.165385
823.237999	2639.044038
823.556010	2510.494615
823.873976	2513.015192
824.191897	2525.618077
824.509775	2560.906154
824.827609	2407.150962
825.145398	2530.659231
825.463144	2490.330000
825.780845	2492.850577
826.098502	2460.083077
826.416116	2477.727115
826.733685	2409.671538
827.051210	2540.741538
827.368692	2470.165385
827.686129	2485.288846
828.003522	2528.138654
828.320872	2550.823846
828.638177	2520.576923
828.955439	2495.371154
829.272656	2553.344423
829.589830	2502.932885
829.906960	2565.947308
830.224046	2485.288846
830.541088	2457.562500
830.858086	2475.206538
831.175041	2475.206538
831.491952	2457.562500
831.808819	2462.603654
832.125642	2623.920577
832.442421	2397.068654
832.759157	2523.097500
833.075849	2507.974038
833.392497	2540.741538
833.709101	2465.124231
834.025662	2427.315577
834.342179	2450.000769
834.658653	2402.109808
834.975083	2550.823846
835.291469	2467.644808
835.607811	2502.932885
835.924110	2475.206538
836.240366	2535.700385
836.556578	2485.288846
836.872746	2417.233269
837.188871	2500.412308
837.504952	2492.850577
837.820990	2497.891731
838.136984	2467.644808
838.452935	2507.974038
838.768842	2460.083077
839.084706	2520.576923
839.400526	2497.891731
839.716303	2457.562500
840.032037	2502.932885
840.347727	2520.576923
840.663373	2530.659231
840.978977	2528.138654
841.294537	2477.727115
841.610054	2510.494615
841.925527	2560.906154
842.240957	2470.165385
842.556344	2507.974038
842.871687	2432.356731
843.186987	2515.535769
843.502244	2439.918462
843.817458	2485.288846
844.132629	2492.850577
844.447756	2550.823846
844.762840	2477.727115
845.077881	2540.741538
845.392879	2492.850577
845.707833	2520.576923
846.022745	2530.659231
846.337613	2497.891731
846.652438	2470.165385
846.967221	2485.288846
847.281960	2389.506923
847.596656	2470.165385
847.911309	2462.603654
848.225919	2530.659231
848.540485	2477.727115
848.855009	2460.083077
849.169490	2520.576923
849.483928	2510.494615
849.798323	2485.288846
850.112675	2462.603654
850.426984	2520.576923
850.741251	2520.576923
851.055474	2530.659231
851.369654	2457.562500
851.683792	2515.535769
851.997887	2444.959615
852.311938	2475.206538
852.625947	2510.494615
852.939914	2548.303269
853.253837	2513.015192
853.567718	2487.809423
853.881555	2573.509038
854.195350	2520.576923
854.509103	2437.397885
854.822812	2530.659231
855.136479	2427.315577
855.450103	2450.000769
855.763685	2475.206538
856.077224	2518.056346
856.390720	2480.247692
856.704173	2462.603654
857.017584	2455.041923
857.330953	2457.562500
857.644278	2462.603654
857.957561	2576.029615
858.270802	2490.330000
858.584000	2523.097500
858.897155	2502.932885
859.210268	2455.041923
859.523339	2573.509038
859.836367	2535.700385
860.149352	2540.741538
860.462295	2490.330000
860.775195	2513.015192
861.088054	2384.465769
861.400869	2528.138654
861.713642	2465.124231
862.026373	2490.330000
862.339062	2510.494615
862.651708	2543.262115
862.964312	2417.233269
863.276873	2507.974038
863.589392	2500.412308
863.901869	2555.865000
864.214303	2490.330000
864.526696	2518.056346
864.839045	2598.714808
865.151353	2611.317692
865.463619	2447.480192
865.775842	2510.494615
866.088023	2422.274423
866.400162	2518.056346
866.712258	2480.247692
867.024313	2432.356731
867.336325	2495.371154
867.648296	2439.918462
867.960224	2492.850577
868.272110	2460.083077
868.583954	2570.988462
868.895755	2412.192115
869.207515	2601.235385
869.519233	2510.494615
869.830909	2540.741538
870.142542	2460.083077
870.454134	2535.700385
870.765684	2555.865000
871.077191	2450.000769
871.388657	2480.247692
871.700081	2535.700385
872.011463	2477.727115
872.322803	2447.480192
872.634101	2490.330000
872.945357	2394.548077
873.256571	2487.809423
873.567744	2528.138654
873.878874	2477.727115
874.189963	2505.453462
874.501010	2507.974038
874.812015	2497.891731
875.122979	2432.356731
875.433900	2528.138654
875.744780	2487.809423
876.055618	2477.727115
876.366415	2558.385577
876.677169	2475.206538
876.987882	2417.233269
877.298554	2563.426731
877.609183	2432.356731
877.919771	2477.727115
878.230317	2432.356731
878.540822	2447.480192
878.851285	2460.083077
879.161707	2530.659231
879.472087	2412.192115
879.782425	2404.630385
880.092722	2497.891731
880.402977	2480.247692
880.713191	2495.371154
881.023363	2455.041923
881.333494	2467.644808
881.643583	2497.891731
881.953631	2530.659231
882.263637	2548.303269
882.573602	2548.303269
882.883526	2543.262115
883.193408	2467.644808
883.503248	2555.865000
883.813048	2538.220962
884.122806	2482.768269
884.432522	2530.659231
884.742197	2507.974038
885.051831	2507.974038
885.361424	2513.015192
885.670975	2490.330000
885.980485	2535.700385
886.289954	2533.179808
886.599382	2422.274423
886.908768	2490.330000
887.218113	2505.453462
887.527417	2457.562500
887.836680	2505.453462
888.145901	2611.317692
888.455082	2636.523462
888.764221	2533.179808
889.073319	2578.550192
889.382376	2528.138654
889.691392	2485.288846
890.000366	2487.809423
890.309300	2555.865000
890.618193	2482.768269
890.927044	2482.768269
891.235855	2462.603654
891.544625	2518.056346
891.853353	2502.932885
892.162041	2485.288846
892.470687	2520.576923
892.779293	2475.206538
893.087858	2437.397885
893.396381	2495.371154
893.704864	2533.179808
894.013306	2540.741538
894.321707	2563.426731
894.630068	2472.685962
894.938387	2563.426731
895.246665	2596.194231
895.554903	2450.000769
895.863100	2429.836154
896.171256	2424.795000
896.479371	2460.083077
896.787446	2467.644808
897.095480	2404.630385
897.403473	2530.659231
897.711425	2482.768269
898.019336	2530.659231
898.327207	2482.768269
898.635038	2528.138654
898.942827	2470.165385
899.250576	2550.823846
899.558284	2470.165385
899.865952	2495.371154
900.173579	2482.768269
900.481165	2460.083077
900.788711	2490.330000
901.096216	2540.741538
901.403681	2518.056346
901.711105	2455.041923
902.018489	2470.165385
902.325832	2535.700385
902.633135	2444.959615
902.940397	2507.974038
903.247619	2608.797115
903.554800	2439.918462
903.861941	2497.891731
904.169041	2477.727115
904.476101	2513.015192
904.783121	2472.685962
905.090100	2424.795000
905.397039	2553.344423
905.703938	2417.233269
906.010796	2465.124231
906.317614	2500.412308
906.624391	2442.439038
906.931129	2465.124231
907.237826	2538.220962
907.544483	2553.344423
907.851099	2505.453462
908.157675	2429.836154
908.464211	2412.192115
908.770707	2558.385577
909.077163	2555.865000
909.383578	2447.480192
909.689954	2439.918462
909.996289	2485.288846
910.302584	2502.932885
910.608839	2558.385577
910.915054	2538.220962
911.221229	2525.618077
911.527363	2583.591346
911.833458	2444.959615
912.139513	2528.138654
912.445527	2523.097500
912.751502	2427.315577
913.057436	2434.877308
913.363331	2553.344423
913.669186	2427.315577
913.975000	2450.000769
914.280775	2507.974038
914.586510	2477.727115
914.892205	2510.494615
915.197859	2407.150962
915.503475	2525.618077
915.809050	2482.768269
916.114585	2533.179808
916.420081	2470.165385
916.725536	2497.891731
917.030952	2462.603654
917.336328	2429.836154
917.641665	2485.288846
917.946961	2480.247692
918.252218	2523.097500
918.557435	2434.877308
918.862612	2465.124231
919.167750	2447.480192
919.472848	2525.618077
919.777906	2475.206538
920.082925	2538.220962
920.387904	2397.068654
920.692843	2543.262115
920.997743	2482.768269
921.302603	2497.891731
921.607423	2427.315577
921.912204	2548.303269
922.216946	2555.865000
922.521647	2535.700385
922.826310	2442.439038
923.130932	2472.685962
923.435516	2543.262115
923.740059	2356.739423
924.044564	2518.056346
924.349028	2455.041923
924.653454	2535.700385
924.957840	2444.959615
925.262186	2487.809423
925.566493	2472.685962
925.870761	2533.179808
926.174989	2507.974038
926.479178	2568.467885
926.783328	2548.303269
927.087438	2555.865000
927.391509	2450.000769
927.695541	2482.768269
927.999533	2467.644808
928.303486	2502.932885
928.607400	2472.685962
928.911275	2505.453462
929.215110	2505.453462
929.518906	2502.932885
929.822663	2510.494615
930.126381	2480.247692
930.430060	2492.850577
930.733699	2502.932885
931.037299	2480.247692
931.340861	2515.535769
931.644383	2475.206538
931.947866	2525.618077
932.251309	2510.494615
932.554714	2490.330000
932.858080	2538.220962
933.161407	2573.509038
933.464694	2523.097500
933.767943	2555.865000
934.071153	2470.165385
934.374323	2523.097500
934.677455	2465.124231
934.980548	2475.206538
935.283602	2467.644808
935.586617	2515.535769
935.889593	2439.918462
936.192530	2407.150962
936.495428	2492.850577
936.798287	2492.850577
937.101108	2568.467885
937.403890	2444.959615
937.706632	2518.056346
938.009336	2450.000769
938.312002	2490.330000
938.614628	2402.109808
938.917216	2392.027500
939.219765	2472.685962
939.522275	2475.206538
939.824747	2495.371154
940.127179	2535.700385
940.429573	2525.618077
940.731929	2475.206538
941.034246	2518.056346
941.336524	2528.138654
941.638763	2492.850577
941.940964	2462.603654
942.243126	2518.056346
942.545250	2523.097500
942.847335	2497.891731
943.149381	2591.153077
943.451389	2485.288846
943.753359	2548.303269
944.055290	2520.576923
944.357182	2492.850577
944.659036	2540.741538
944.960851	2472.685962
945.262628	2502.932885
945.564367	2565.947308
945.866067	2535.700385
946.167729	2500.412308
946.469352	2540.741538
946.770937	2530.659231
947.072484	2497.891731
947.373992	2558.385577
947.675462	2535.700385
947.976893	2505.453462
948.278286	2480.247692
948.579641	2422.274423
948.880958	2518.056346
949.182236	2528.138654
949.483476	2472.685962
949.784678	2490.330000
950.085841	2490.330000
950.386967	2568.467885
950.688054	2467.644808
950.989103	2570.988462
951.290114	2409.671538
951.591087	2444.959615
951.892021	2497.891731
952.192917	2472.685962
952.493776	2510.494615
952.794596	2465.124231
953.095378	2533.179808
953.396122	2513.015192
953.696828	2510.494615
953.997496	2450.000769
954.298126	2533.179808
954.598718	2515.535769
954.899272	2520.576923
955.199788	2439.918462
955.500266	2555.865000
955.800706	2419.753846
956.101108	2558.385577
956.401472	2490.330000
956.701798	2429.836154
957.002087	2412.192115
957.302337	2379.424615
957.602550	2477.727115
957.902724	2510.494615
958.202861	2545.782692
958.502960	2510.494615
958.803022	2434.877308
959.103045	2523.097500
959.403031	2505.453462
959.702979	2376.904038
960.002889	2576.029615
960.302762	2452.521346
960.602596	2535.700385
960.902393	2578.550192
961.202153	2513.015192
961.501875	2507.974038
961.801559	2465.124231
962.101205	2437.397885
962.400814	2497.891731
962.700385	2490.330000
962.999918	2472.685962
963.299414	2497.891731
963.598873	2603.755962
963.898293	2518.056346
964.197677	2490.330000
964.497022	2485.288846
964.796331	2593.673654
965.095601	2419.753846
965.394835	2462.603654
965.694030	2520.576923
965.993189	2533.179808
966.292309	2475.206538
966.591393	2581.070769
966.890439	2500.412308
967.189447	2535.700385
967.488419	2535.700385
967.787353	2437.397885
968.086249	2495.371154
968.385108	2485.288846
968.683930	2432.356731
968.982714	2447.480192
969.281462	2462.603654
969.580172	2422.274423
969.878844	2538.220962
970.177480	2596.194231
970.476078	2462.603654
970.774639	2450.000769
971.073162	2480.247692
971.371649	2462.603654
971.670098	2467.644808
971.968510	2419.753846
972.266885	2545.782692
972.565223	2545.782692
972.863524	2419.753846
973.161788	2477.727115
973.460014	2475.206538
973.758204	2497.891731
974.056356	2442.439038
974.354471	2570.988462
974.652550	2477.727115
974.950591	2518.056346
975.248595	2533.179808
975.546563	2465.124231
975.844493	2470.165385
976.142386	2366.821731
976.440243	2518.056346
976.738062	2570.988462
977.035845	2538.220962
977.333590	2530.659231
977.631299	2543.262115
977.928971	2487.809423
978.226606	2460.083077
978.524204	2467.644808
978.821765	2460.083077
979.119290	2424.795000
979.416777	2447.480192
979.714228	2414.712692
980.011642	2497.891731
980.309020	2409.671538
980.606360	2513.015192
980.903664	2513.015192
981.200931	2417.233269
981.498162	2573.509038
981.795356	2475.206538
982.092513	2465.124231
982.389633	2560.906154
982.686717	2482.768269
982.983764	2444.959615
983.280775	2548.303269
983.577749	2528.138654
983.874686	2570.988462
984.171587	2495.371154
984.468451	2457.562500
984.765279	2467.644808
985.062070	2472.685962
985.358824	2460.083077
985.655543	2381.945192
985.952224	2538.220962
986.248869	2452.521346
986.545478	2465.124231
986.842050	2490.330000
987.138586	2480.247692
987.435086	2402.109808
987.731549	2490.330000
988.027975	2497.891731
988.324366	2520.576923
988.620719	2545.782692
988.917037	2596.194231
989.213318	2550.823846
989.509563	2598.714808
989.805772	2409.671538
990.101944	2513.015192
990.398080	2442.439038
990.694180	2444.959615
990.990244	2548.303269
991.286271	2460.083077
991.582262	2520.576923
991.878217	2480.247692
992.174136	2513.015192
992.470019	2563.426731
992.765865	2495.371154
993.061676	2429.836154
993.357450	2520.576923
993.653188	2455.041923
993.948890	2470.165385
994.244556	2437.397885
994.540186	2550.823846
994.835780	2465.124231
995.131337	2502.932885
995.426859	2565.947308
995.722345	2588.632500
996.017795	2465.124231
996.313208	2452.521346
996.608586	2505.453462
996.903928	2513.015192
997.199234	2482.768269
997.494504	2543.262115
997.789738	2596.194231
998.084936	2482.768269
998.380099	2530.659231
998.675225	2465.124231
998.970316	2515.535769
999.265371	2593.673654
999.560390	2434.877308
999.855373	2565.947308
1000.150320	2477.727115
1000.445232	2497.891731
1000.740108	2500.412308
1001.034948	2573.509038
1001.329752	2422.274423
1001.624521	2462.603654
1001.919254	2462.603654
1002.213951	2576.029615
1002.508613	2490.330000
1002.803239	2480.247692
1003.097829	2485.288846
1003.392384	2450.000769
1003.686903	2457.562500
1003.981386	2439.918462
1004.275834	2490.330000
1004.570246	2538.220962
1004.864623	2404.630385
1005.158964	2518.056346
1005.453270	2591.153077
1005.747540	2465.124231
1006.041775	2538.220962
1006.335974	2578.550192
1006.630138	2472.685962
1006.924266	2535.700385
1007.218359	2492.850577
1007.512416	2523.097500
1007.806438	2583.591346
1008.100425	2485.288846
1008.394376	2497.891731
1008.688292	2470.165385
1008.982172	2414.712692
1009.276017	2455.041923
1009.569827	2427.315577
1009.863602	2487.809423
1010.157341	2439.918462
1010.451045	2442.439038
1010.744714	2467.644808
1011.038347	2507.974038
1011.331945	2422.274423
1011.625508	2530.659231
1011.919036	2450.000769
1012.212528	2568.467885
1012.505986	2467.644808
1012.799408	2510.494615
1013.092795	2460.083077
1013.386147	2434.877308
1013.679464	2482.768269
1013.972745	2457.562500
1014.265992	2530.659231
1014.559204	2470.165385
1014.852380	2492.850577
1015.145521	2576.029615
1015.438628	2477.727115
1015.731699	2535.700385
1016.024736	2530.659231
1016.317737	2505.453462
1016.610703	2462.603654
1016.903635	2432.356731
1017.196531	2467.644808
1017.489393	2460.083077
1017.782219	2487.809423
1018.075011	2460.083077
1018.367768	2490.330000
1018.660490	2513.015192
1018.953177	2513.015192
1019.245829	2513.015192
