Dividing Wavelength (nm)	Counts (n)	Blue Motor Position (mm): 0.000000	Red Motor Position (mm): 40.100000	
326.493990	2128.594444
326.888308	2128.594444
327.282561	2128.594444
327.676750	2093.419793
328.070874	2093.039186
328.464933	2096.041193
328.858929	2103.555033
329.252859	2110.597525
329.646726	2121.683022
330.040528	2137.925620
330.434265	2154.606798
330.827938	2170.884684
331.221547	2190.046109
331.615091	2207.606969
332.008571	2227.348127
332.401986	2246.507033
332.795338	2266.548140
333.188625	2285.185285
333.581847	2304.495425
333.975006	2321.559731
334.368100	2343.087978
334.761129	2357.130113
335.154095	2377.410674
335.546996	2395.873900
335.939833	2416.633372
336.332606	2431.018304
336.725315	2442.711261
337.117960	2451.797941
337.510540	2461.774384
337.903056	2472.796867
338.295508	2480.567806
338.687896	2488.248003
339.080220	2495.769405
339.472480	2501.309633
339.864676	2509.698113
340.256807	2511.843124
340.648875	2515.664319
341.040879	2515.147600
341.432818	2519.488034
341.824694	2523.425175
342.216506	2521.827129
342.608253	2523.044568
342.999937	2524.322500
343.391557	2519.598939
343.783113	2520.783610
344.174605	2517.829494
344.566033	2518.467200
344.957397	2516.206243
345.348697	2514.371263
345.739934	2512.664832
346.131106	2513.186592
346.522215	2513.095851
346.913260	2509.637619
347.304241	2508.369769
347.695159	2504.621671
348.086012	2503.106804
348.476802	2501.561691
348.867528	2498.509272
349.258191	2497.465753
349.648789	2496.167656
350.039324	2494.546925
350.429796	2496.255876
350.820203	2494.418376
351.210548	2493.760505
351.600828	2493.037100
351.991045	2489.321769
352.381198	2490.589619
352.771288	2491.439054
353.161314	2490.070381
353.551276	2491.081132
353.941175	2491.237408
354.331010	2489.891420
354.720782	2492.669095
355.110490	2489.165493
355.500135	2488.179948
355.889717	2489.404948
356.279235	2490.244300
356.668689	2492.243118
357.058080	2491.930566
357.447408	2488.376553
357.836672	2487.678353
358.225873	2489.896461
358.615010	2488.903353
359.004084	2491.282778
359.393095	2493.924343
359.782043	2495.023314
360.170927	2495.691267
360.559748	2495.114055
360.948505	2496.414673
361.337199	2496.434837
361.725830	2497.904334
362.114398	2497.692605
362.502903	2500.029180
362.891344	2496.245794
363.279722	2501.102946
363.668037	2500.487925
364.056289	2501.453306
364.444478	2501.896928
364.832603	2504.097391
365.220665	2505.317350
365.608665	2505.942453
365.996601	2507.119563
366.384474	2505.340036
366.772284	2509.569564
367.160031	2508.228617
367.547715	2511.170130
367.935336	2513.337826
368.322893	2516.307066
368.710388	2519.757736
369.097820	2526.681760
369.485189	2527.533715
369.872495	2537.381609
370.259738	2542.654656
370.646918	2550.332334
371.034035	2556.948848
371.421090	2565.760785
371.808081	2576.858885
372.195010	2585.058322
372.581875	2599.430652
372.968678	2612.877929
373.355418	2623.431585
373.742096	2639.409522
374.128710	2654.734630
374.515262	2672.141734
374.901751	2686.871986
375.288177	2699.878162
375.674540	2721.729044
376.060841	2739.698237
376.447079	2757.548962
376.833254	2779.770369
377.219367	2790.518109
377.605417	2830.844819
377.991404	2837.282372
378.377329	2860.421268
378.763191	2878.077910
379.148991	2913.809608
379.534727	2942.957560
379.920402	2971.288844
380.306013	2980.078096
380.691563	3031.245808
381.077049	3053.588202
381.462474	3069.941705
381.847835	3108.415791
382.233134	3130.634676
382.618371	3130.818678
383.003545	3196.940973
383.388657	3204.182590
383.773706	3234.540419
384.158693	3255.105806
384.543618	3279.930968
384.928480	3318.954540
385.313280	3361.806868
385.698017	3360.478524
386.082692	3413.977769
386.467305	3421.317689
386.851856	3454.075107
387.236344	3473.418014
387.620770	3505.530164
388.005133	3530.458670
388.389435	3560.330027
388.773674	3572.522058
389.157851	3613.234416
389.541965	3626.744709
389.926018	3591.428905
390.310008	3669.208868
390.693936	3683.321578
391.077802	3726.214236
391.461606	3712.076320
391.845348	3776.804735
392.229027	3774.392543
392.612645	3790.433495
392.996200	3869.025083
393.379694	3908.819952
393.763125	3969.218016
394.146494	3937.398253
394.529801	4001.398221
394.913047	4049.831107
395.296230	4014.762320
395.679351	4067.192841
396.062410	4096.819702
396.445408	4074.280703
396.828343	4107.181794
397.211217	4131.028972
397.594028	4049.125345
397.976778	4117.001961
398.359466	4145.691168
398.742092	4175.549922
399.124656	4094.183178
399.507158	4176.379192
399.889598	4199.253428
400.271977	4263.621400
400.654294	4234.110486
401.036549	4245.838730
401.418742	4210.938822
401.800874	4317.501253
402.182944	4339.647042
402.564952	4398.230290
402.946898	4388.508425
403.328783	4385.667735
403.710606	4297.787821
404.092367	4490.616996
404.474067	4453.854382
404.855705	4464.236638
405.237282	4389.889701
405.618797	4501.770549
406.000250	4532.088048
406.381642	4611.309781
406.762972	4576.845933
407.144240	4590.956123
407.525447	4586.000668
407.906593	4648.284124
408.287677	4686.054969
408.668700	4615.302375
409.049661	4667.589223
409.430560	4713.418352
409.811399	4636.840705
410.192176	4798.936486
410.572891	4737.048761
410.953545	4837.493751
411.334138	4721.950505
411.714669	4789.116318
412.095139	4681.843085
412.475547	4827.121577
412.855894	4806.029390
413.236180	4812.855112
413.616405	4768.442547
413.996568	4858.855641
414.376670	4794.482627
414.756711	4754.218931
415.136691	4786.799908
415.516609	4860.602401
415.896466	4899.363832
416.276262	4937.235501
416.655997	4915.586266
417.035670	5097.390438
417.415283	5181.048386
417.794834	5130.745232
418.174324	5085.684879
418.553753	4989.371114
418.933121	5177.040669
419.312428	5241.131378
419.691674	5184.183984
420.070859	5306.779804
420.449983	5222.353080
420.829045	5336.618394
421.208047	5244.786215
421.586988	5315.702646
421.965867	5324.159182
422.344686	5458.979800
422.723444	5311.871369
423.102141	5131.055263
423.480777	5430.898053
423.859352	5195.841652
424.237866	5459.297393
424.616319	5446.253407
424.994712	5557.332712
425.373044	5438.825267
425.751314	5583.881949
426.129524	5382.785281
426.507673	5573.540022
426.885762	5663.728784
427.263789	5589.487712
427.641756	5477.473273
428.019662	5593.495429
428.397508	5598.609680
428.775292	5546.121186
429.153016	5649.414428
429.530679	5574.328962
429.908282	5655.456251
430.285824	5531.549731
430.663305	5804.046781
431.040726	5540.248242
431.418086	5538.738416
431.795385	5646.054499
432.172624	5662.503784
432.549802	5645.268079
432.926920	5661.457745
433.303977	5670.093241
433.680974	5711.672678
434.057910	5728.671449
434.434786	5733.916769
434.811601	5701.207243
435.188355	5942.239932
435.565050	5808.069622
435.941683	5792.817611
436.318257	6006.852400
436.694770	5988.343804
437.071222	6025.164392
437.447614	5955.984638
437.823946	5866.872161
438.200218	6024.161202
438.576429	5888.735645
438.952580	5987.204503
439.328670	6029.595566
439.704700	5940.082318
440.080670	5923.015491
440.456580	6195.953643
440.832429	6075.507875
441.208218	5925.571356
441.583947	6084.261838
441.959616	6087.936839
442.335224	6008.762998
442.710773	6146.630994
443.086261	6178.538977
443.461689	5970.994673
443.837057	6117.099914
444.212365	6273.920128
444.587612	6164.801833
444.962800	6323.973745
445.337927	6301.996835
445.712995	5909.908491
446.088002	6492.718808
446.462949	6313.515871
446.837837	6247.627990
447.212664	6420.257263
447.587431	6562.362348
447.962139	7108.543641
448.336786	8030.608488
448.711374	7770.837831
449.085901	6846.779207
449.460369	6769.231138
449.834776	6704.628751
450.209124	7094.998061
450.583412	7247.644199
450.957640	7393.492342
451.331808	7156.510220
451.705917	6706.887188
452.079965	6632.888091
452.453954	6843.172262
452.827883	6720.634415
453.201752	6819.400701
453.575562	6615.367561
453.949311	6816.544887
454.323001	6707.348454
454.696632	6779.777232
455.070202	6920.851401
455.443713	7073.006027
455.817164	7177.282295
456.190556	7254.328769
456.563888	7327.831313
456.937160	7373.867130
457.310373	7031.766868
457.683526	7056.299643
458.056619	6948.040865
458.429653	6939.276819
458.802628	6872.355501
459.175542	6980.606718
459.548398	7331.017322
459.921194	7493.118145
460.293930	7496.604103
460.666607	8026.908282
461.039224	8333.007143
461.411782	8460.059343
461.784280	8476.493505
462.156719	8374.140438
462.529099	8250.601922
462.901419	7838.583377
463.273680	7730.221254
463.645882	7739.882626
464.018024	7608.159796
464.390106	7773.408819
464.762130	8160.125813
465.134094	8629.724417
465.505999	9654.439760
465.877845	10877.645493
466.249631	11524.329750
466.621358	11138.731892
466.993026	10512.446665
467.364634	10256.519887
467.736184	9899.608715
468.107674	9564.339217
468.479105	9592.625131
468.850477	9359.270120
469.221790	9127.883679
469.593043	8797.025190
469.964238	8663.757247
470.335373	8671.639091
470.706449	8734.915654
471.077467	8712.986635
471.448425	10025.602273
471.819324	11105.787952
472.190164	11123.666404
472.560945	9875.181804
472.931667	9080.209487
473.302330	8947.453221
473.672934	8598.050848
474.043479	8951.869272
474.413965	8893.512875
474.784393	8772.893187
475.154761	8934.227754
475.525070	9015.407975
475.895321	8848.659208
476.265513	9019.640023
476.635645	9187.981794
477.005719	9183.049025
477.375734	9300.845667
477.745691	9544.325836
478.115588	9673.026494
478.485427	9918.742415
478.855207	10457.397265
479.224928	11267.505647
479.594591	11897.249106
479.964194	11710.113913
480.333739	11653.277424
480.703226	11566.990514
481.072653	11655.775316
481.442022	11888.404401
481.811333	12087.819845
482.180584	11891.817263
482.549777	11595.672159
482.918912	11425.553382
483.287988	11441.445619
483.657005	11452.629419
484.025964	11139.193158
484.394864	11265.350553
484.763706	11242.599826
485.132489	11001.899853
485.501213	10962.961981
485.869879	11038.125585
486.238487	10878.883097
486.607036	10983.769344
486.975527	10766.188102
487.343959	10958.578698
487.712333	11002.111582
488.080648	10937.418455
488.448905	10978.244239
488.817104	10916.076730
489.185244	11180.825527
489.553326	11335.389824
489.921350	11870.467976
490.289315	12937.970112
490.657222	13279.223459
491.025070	13188.036548
491.392861	13061.916961
491.760593	12676.868589
492.128267	12333.513080
492.495883	12008.237669
492.863440	11668.809219
493.230939	11336.498878
493.598380	11273.965885
493.965763	11139.069650
494.333088	11032.552589
494.700354	10957.494850
495.067563	11016.183963
495.434713	10844.439413
495.801805	10973.606377
496.168839	10894.430015
496.535815	10830.072125
496.902733	10830.165386
497.269593	10759.581670
497.636395	10864.654440
498.003139	10855.746721
498.369825	10719.086082
498.736453	10870.119051
499.103023	10801.430809
499.469535	10827.778400
499.835989	10818.202728
500.202385	10782.375247
500.568723	10640.184462
500.935003	10853.468120
501.301226	10660.568368
501.667390	10919.212328
502.033497	11023.017247
502.399546	10876.576769
502.765537	10783.882553
503.131470	10861.269305
503.497345	11037.669361
503.863163	10651.469085
504.228923	10954.513007
504.594625	11024.529593
504.960269	10768.781776
505.325856	10985.715229
505.691385	10782.539085
506.056856	10937.173959
506.422270	10966.813423
506.787625	10852.631288
507.152924	10969.976747
507.518164	10950.222985
507.883347	10873.025276
508.248472	10782.508838
508.613540	11021.058759
508.978550	10908.555328
509.343503	10880.259332
509.708398	10993.803760
510.073236	11110.324990
510.438016	11111.111410
510.802738	11066.991232
511.167403	11118.307657
511.532010	11012.755978
511.896561	11243.620660
512.261053	11317.791156
512.625488	11181.463233
512.989866	11169.387149
513.354186	11157.074131
513.718449	11054.020343
514.082655	11254.428894
514.446803	11142.222891
514.810894	11265.491706
515.174927	11132.102775
515.538904	11159.975315
515.902822	11311.550208
516.266684	11196.914369
516.630488	11137.867334
516.994235	11195.545696
517.357925	11258.108936
517.721558	11343.102790
518.085133	11369.084897
518.448651	11374.292409
518.812112	11253.705488
519.175516	11273.343303
519.538863	11385.045190
519.902152	11307.436626
520.265385	11466.774897
520.628560	11379.441947
520.991678	11350.049500
521.354739	11416.055848
521.717743	11345.209992
522.080690	11327.843217
522.443580	11462.792385
522.806413	11417.870663
523.169189	11448.800663
523.531908	11506.274858
523.894569	11323.437249
524.257174	11329.945378
524.619722	11444.364447
524.982213	11387.066692
525.344647	11448.707401
525.707025	11390.608103
526.069345	11486.624440
526.431608	11402.994218
526.793815	11515.232988
527.155964	11300.487396
527.518057	11358.566529
527.880093	11306.609877
528.242072	11377.307019
528.603995	11277.184662
528.965860	11200.501150
529.327669	11251.532751
529.689421	11198.714061
530.051117	11170.486120
530.412755	11276.405804
530.774337	11166.501088
531.135862	11151.218830
531.497331	11171.779176
531.858743	11023.947340
532.220098	11189.516476
532.581396	11062.746580
532.942638	11047.431555
533.303824	11003.757519
533.664953	11010.673982
534.026025	10935.265882
534.387040	11024.539675
534.747999	11033.026458
535.108902	11090.611558
535.469748	10847.075937
535.830537	10952.350352
536.191270	10932.878896
536.551947	10949.247522
536.912567	10947.573859
537.273131	10872.758095
537.633638	10851.088695
537.994089	10838.395070
538.354483	10787.983531
538.714821	10936.178331
539.075103	10939.167735
539.435328	10908.212530
539.795497	10736.639379
540.155609	10889.411547
540.515665	10978.481173
540.875665	10717.929137
541.235609	10789.321958
541.595496	10780.736873
541.955328	10932.715058
542.315102	10814.099229
542.674821	10775.204206
543.034483	10768.890161
543.394090	10777.225709
543.753640	10708.008146
544.113134	10929.529049
544.472571	10779.526996
544.831953	10927.550396
545.191278	10723.607997
545.550548	10754.477502
545.909761	10896.123843
546.268918	10871.573424
546.628019	10949.587800
546.987064	10812.695267
547.346053	10736.304143
547.704986	10836.963382
548.063863	10821.265229
548.422684	10809.473970
548.781449	10731.147042
549.140158	10828.335447
549.498811	10707.420852
549.857408	10561.658409
550.215949	10786.879518
550.574434	10641.853084
550.932864	10744.702705
551.291237	10801.345109
551.649555	10744.813610
552.007817	10755.026988
552.366022	10723.933151
552.724173	10710.611902
553.082267	10700.751405
553.440305	10833.122023
553.798288	10641.296037
554.156215	10790.093254
554.514086	10762.946641
554.871902	10619.198139
555.229661	10651.040587
555.587365	10632.156425
555.945014	10519.532007
556.302606	10648.094033
556.660143	10547.059227
557.017625	10695.546414
557.375050	10589.548592
557.732421	10727.156969
558.089735	10642.024483
558.446994	10630.142484
558.804197	10670.035655
559.161345	10673.153608
559.518437	10531.792093
559.875474	10606.703639
560.232455	10642.657148
560.589381	10584.459547
560.946251	10588.915928
561.303065	10694.644047
561.659825	10627.160641
562.016528	10555.336802
562.373177	10429.020610
562.729770	10547.633919
563.086307	10458.536566
563.442789	10555.881246
563.799216	10423.520711
564.155587	10473.705397
564.511904	10428.521536
564.868164	10418.585421
565.224370	10430.028841
565.580520	10351.507828
565.936615	10356.223828
566.292654	10229.763963
566.648638	10358.472182
567.004567	10304.183997
567.360441	10294.189909
567.716260	10201.672133
568.072023	10297.345671
568.427732	10241.474563
568.783385	10159.218056
569.138982	10220.896573
569.494525	10231.866124
569.850013	10106.696795
570.205445	10189.507829
570.560823	10084.735008
570.916145	10005.566207
571.271412	10064.613242
571.626625	10010.506538
571.981782	9981.943360
572.336884	9956.561151
572.691931	9961.027613
573.046923	9900.634590
573.401860	9857.452066
573.756743	9789.882961
574.111570	9830.643210
574.466342	9809.941712
574.821059	9839.863480
575.175722	9727.617149
575.530330	9732.607891
575.884882	9728.033044
576.239380	9642.038521
576.593823	9619.214697
576.948211	9634.053333
577.302544	9515.908852
577.656823	9516.561681
578.011047	9523.160552
578.365216	9489.437753
578.719330	9409.434642
579.073389	9411.330115
579.427394	9363.421510
579.781344	9330.908588
580.135239	9276.993448
580.489080	9280.789437
580.842866	9176.079630
581.196597	9178.443931
581.550273	9202.810348
581.903895	9171.598044
582.257463	9230.511489
582.610975	9102.405687
582.964434	9120.193398
583.317837	9038.317498
583.671186	9021.066670
584.024481	9008.310030
584.377721	8924.568903
584.730906	8897.518071
585.084037	8913.364938
585.437113	8852.372018
585.790135	8867.926498
586.143103	8759.650075
586.496016	8724.183037
586.848874	8775.708671
587.201679	8755.307121
587.554428	8628.811968
587.907124	8666.136672
588.259765	8636.703895
588.612352	8625.358778
588.964884	8507.617589
589.317362	8505.981734
589.669786	8496.461515
590.022155	8537.650263
590.374470	8536.301754
590.726731	8475.076941
591.078937	8323.373498
591.431090	8416.760873
591.783188	8291.301677
592.135232	8267.421732
592.487222	8267.275538
592.839157	8302.664438
593.191038	8232.156340
593.542866	8171.992689
593.894639	8067.030825
594.246358	8108.007844
594.598022	8105.394006
594.949633	7999.527254
595.301190	7968.302347
595.652692	7985.008731
596.004141	8066.763644
596.355535	7854.349585
596.706876	7824.637025
597.058162	7749.972495
597.409395	7807.910476
597.760573	7856.741613
598.111698	7761.322653
598.462768	7733.578663
598.813785	7695.888476
599.164748	7647.158162
599.515657	7630.744165
599.866511	7527.829010
600.217312	7636.269270
600.568060	7488.906261
600.918753	7571.916421
601.269392	7528.227261
601.619978	7435.167561
601.970510	7480.527863
602.320988	7470.133004
602.671412	7499.222982
603.021783	7434.260153
603.372100	7392.804224
603.722363	7371.969136
604.072572	7347.479210
604.422728	7334.402457
604.772830	7256.690550
605.122878	7251.966989
605.472872	7241.811584
605.822813	7240.289156
606.172701	7179.263468
606.522534	7227.124183
606.872314	7212.189764
607.222041	7170.774165
607.571714	7196.345418
607.921333	7149.606360
608.270899	7135.143290
608.620411	7193.335849
608.969870	7094.446055
609.319276	7076.993580
609.668627	7070.588794
610.017926	7084.121772
610.367171	7095.114007
610.716362	7069.114257
611.065500	7033.243926
611.414585	7037.254164
611.763616	7013.543097
612.112594	6977.093034
612.461518	6967.129194
612.810389	7000.476426
613.159207	6928.052690
613.507971	6876.519494
613.856682	6946.120185
614.205340	6888.865280
614.553945	6931.147958
614.902496	6832.694223
615.250994	6851.258273
615.599439	6820.875238
615.947830	6802.941333
616.296169	6765.183091
616.644454	6757.233192
616.992686	6728.110446
617.340864	6746.586275
617.688990	6659.076885
618.037063	6709.687549
618.385082	6648.417365
618.733048	6679.390214
619.080961	6614.772704
619.428821	6616.622808
619.776628	6592.324446
620.124382	6540.113216
620.472083	6507.499471
620.819731	6506.702969
621.167326	6408.027423
621.514868	6398.018212
621.862357	6300.885260
622.209793	6297.618592
622.557176	6233.835393
622.904506	6197.206370
623.251783	6131.966277
623.599007	6082.121868
623.946179	6069.108130
624.293297	6016.297002
624.640363	5948.395180
624.987376	5922.634884
625.334336	5873.685280
625.681243	5808.389735
626.028097	5789.349297
626.374899	5758.336119
626.721647	5730.713116
627.068343	5670.219270
627.414987	5631.840966
627.761577	5582.432617
628.108115	5591.957877
628.454600	5507.538715
628.801032	5514.581207
629.147412	5476.313808
629.493739	5450.336742
629.840014	5393.210387
630.186236	5410.703191
630.532405	5319.886804
630.878521	5334.402807
631.224585	5290.217093
631.570597	5233.037806
631.916556	5226.300303
632.262462	5212.643818
632.608316	5169.867107
632.954117	5145.553622
633.299866	5121.270384
633.645562	5090.025312
633.991206	5036.977250
634.336797	4989.323223
634.682336	4945.177839
635.027823	4907.706942
635.373257	4891.446700
635.718639	4836.157846
636.063968	4828.747349
636.409245	4756.633644
636.754470	4737.631014
637.099642	4702.630283
637.444762	4653.514321
637.789829	4645.705574
638.134845	4600.839305
638.479808	4574.683278
638.824719	4566.819078
639.169577	4517.176315
639.514383	4512.084750
639.859137	4458.043581
640.203839	4454.968477
640.548489	4425.102161
640.893086	4405.134151
641.237632	4373.674830
641.582125	4371.492010
641.926566	4340.987988
642.270955	4334.626052
642.615292	4320.530986
642.959576	4309.634532
643.303809	4295.894867
643.647990	4283.720481
643.992118	4264.359929
644.336195	4232.101586
644.680219	4223.395513
645.024192	4212.173905
645.368112	4238.032503
645.711981	4235.587544
646.055797	4261.788941
646.399562	4230.438005
646.743274	4265.184158
647.086935	4279.634626
647.430544	4263.250876
647.774101	4257.501440
648.117606	4249.296962
648.461059	4230.695104
648.804460	4202.487328
649.147810	4153.933454
649.491108	4121.725522
649.834354	4097.444805
650.177548	4050.834297
650.520690	4001.534332
650.863781	3983.358452
651.206820	3978.700426
651.549807	3932.715021
651.892742	3897.464752
652.235626	3887.362280
652.578458	3871.883417
652.921238	3825.340964
653.263967	3830.397242
653.606644	3799.835247
653.949269	3784.154738
654.291843	3758.099534
654.634365	3764.264865
654.976836	3730.680698
655.319255	3725.760532
655.661622	3707.884600
656.003938	3691.667208
656.346203	3674.497038
656.688416	3666.990760
657.030577	3642.364724
657.372687	3625.396200
657.714746	3609.589662
658.056753	3615.828090
658.398708	3583.181578
658.740612	3570.392170
659.082465	3578.016916
659.424266	3566.240780
659.766016	3552.004562
660.107715	3536.858415
660.449362	3533.889175
660.790958	3521.981970
661.132503	3508.537213
661.473996	3507.881863
661.815438	3496.451046
662.156829	3488.508708
662.498168	3472.581183
662.839456	3460.101807
663.180693	3459.587609
663.521879	3450.185857
663.863013	3441.066410
664.204097	3432.466201
664.545129	3437.744289
664.886110	3427.021755
665.227040	3422.109151
665.567918	3413.178747
665.908746	3408.107346
666.249522	3403.955956
666.590248	3393.218298
666.930922	3394.528998
667.271545	3385.706979
667.612118	3378.488046
667.952639	3365.386088
668.293109	3355.576002
668.633528	3337.238805
668.973896	3331.386025
669.314213	3317.752225
669.654480	3305.686223
669.994695	3295.903864
670.334859	3283.830301
670.674973	3274.773868
671.015035	3273.722787
671.355047	3258.254007
671.695008	3253.354005
672.034918	3240.917478
672.374777	3236.521592
672.714585	3223.709500
673.054342	3222.134139
673.394049	3214.960577
673.733705	3212.077037
674.073310	3203.444061
674.412864	3193.119778
674.752368	3180.388344
675.091820	3171.354597
675.431223	3154.774242
675.770574	3142.811583
676.109875	3128.971096
676.449125	3115.072634
676.788324	3107.941922
677.127473	3092.994901
677.466571	3083.469641
677.805619	3075.653332
678.144616	3065.616395
678.483562	3055.413099
678.822458	3043.992365
679.161303	3039.755275
679.500098	3028.027031
679.838842	3026.310518
680.177535	3021.675177
680.516179	3017.463293
680.854771	3012.643950
681.193314	3022.824560
681.531805	3039.475491
681.870247	3057.386711
682.208638	3075.794484
682.546978	3072.202662
682.885268	3057.704304
683.223508	3036.816283
683.561697	3021.382790
683.899836	3012.253261
684.237925	3001.210613
684.575963	2992.683501
684.913951	2985.739312
685.251889	2984.383242
685.589776	2984.040443
685.927614	2978.366624
686.265401	2982.298724
686.603137	2980.899804
686.940824	2985.459528
687.278460	2989.754591
687.616046	2990.727534
687.953582	2996.050992
688.291068	2992.267606
688.628504	2996.451764
688.965889	2990.757781
689.303224	2975.311685
689.640510	2961.226701
689.977745	2944.230451
690.314930	2926.868717
690.652065	2910.737025
690.989150	2896.137843
691.326185	2880.585884
691.663170	2866.697505
692.000105	2852.783920
692.336990	2839.865964
692.673825	2830.300374
693.010610	2820.195381
693.347345	2806.876653
693.684030	2799.894655
694.020665	2791.755712
694.357251	2780.156017
694.693786	2780.508898
695.030272	2774.043618
695.366707	2767.311157
695.703093	2763.623553
696.039429	2760.568614
696.375716	2754.909918
696.711952	2752.195257
697.048139	2748.641244
697.384276	2747.743918
697.720363	2747.360791
698.056400	2747.174268
698.392388	2737.472567
698.728326	2733.913513
699.064214	2731.443347
699.400053	2725.993860
699.735842	2722.538149
700.071581	2716.672767
700.407270	2710.837631
700.742910	2708.622044
701.078501	2702.126517
701.414042	2696.102338
701.749533	2693.153263
702.084974	2690.592357
702.420366	2686.836698
702.755709	2683.587674
703.091002	2676.204904
703.426246	2679.474092
703.761440	2672.668535
704.096584	2671.201559
704.431679	2667.869356
704.766725	2668.421363
705.101721	2666.306598
705.436668	2664.456495
705.771565	2660.869714
706.106413	2662.447595
706.441212	2661.540187
706.775961	2659.133037
707.110661	2659.553973
707.445311	2658.276040
707.779913	2658.046668
708.114465	2658.555824
708.448967	2661.348624
708.783421	2663.317194
709.117825	2663.334838
709.452180	2664.385919
709.786485	2667.793739
710.120742	2669.918585
710.454949	2674.226251
710.789107	2675.771365
711.123216	2678.828825
711.457275	2680.686490
711.791286	2687.202181
712.125247	2685.021882
712.459159	2685.100020
712.793023	2688.603622
713.126837	2678.990142
713.460602	2678.372600
713.794318	2670.831034
714.127985	2670.281548
714.461602	2660.146308
714.795171	2658.127326
715.128691	2651.750267
715.462162	2643.913793
715.795584	2640.130407
716.128957	2637.458596
716.462281	2634.229737
716.795556	2631.857874
717.128782	2627.575413
717.461960	2625.206071
717.795088	2624.318828
718.128167	2621.805813
718.461198	2617.893877
718.794180	2618.347581
719.127113	2614.677621
719.459997	2612.484719
719.792833	2610.644698
720.125619	2608.948350
720.458357	2608.461879
720.791046	2607.493977
721.123686	2600.557349
721.456278	2603.299737
721.788821	2603.093050
722.121315	2604.396188
722.453761	2600.680858
722.786158	2601.265632
723.118506	2599.763368
723.450805	2599.440734
723.783056	2600.080960
724.115259	2596.194231
724.447412	2598.828234
724.779518	2599.465940
725.111574	2598.777822
725.443582	2594.492841
725.775542	2596.892431
726.107453	2601.268152
726.439315	2596.915116
726.771129	2602.717484
727.102895	2600.882504
727.434612	2606.032042
727.766281	2601.905858
728.097901	2601.099273
728.429473	2600.612802
728.760996	2600.827051
729.092471	2597.807400
729.423897	2600.285127
729.755276	2603.098091
730.086606	2602.210848
730.417887	2600.675817
730.749120	2602.299068
731.080305	2605.948863
731.411442	2603.982813
731.742530	2602.336877
732.073570	2600.806887
732.404562	2604.186980
732.735506	2604.678493
733.066401	2604.686054
733.397249	2601.431990
733.728048	2595.133068
734.058798	2591.720207
734.389501	2587.873806
734.720156	2587.465473
735.050762	2587.266347
735.381320	2580.808629
735.711831	2582.643609
736.042293	2584.770976
736.372707	2579.634040
736.703073	2578.711509
737.033391	2579.107240
737.363661	2580.090265
737.693883	2579.621438
738.024056	2581.078331
738.354182	2580.054977
738.684260	2579.775193
739.014290	2583.316603
739.344272	2582.225193
739.674207	2585.433888
740.004093	2585.529670
740.333931	2585.575040
740.663722	2586.371543
740.993464	2582.933476
741.323159	2585.577561
741.652806	2582.449525
741.982405	2579.744946
742.311956	2580.402816
742.641460	2579.288721
742.970915	2576.173288
743.300323	2571.961404
743.629683	2577.194122
743.958996	2576.024574
744.288260	2573.178843
744.617477	2570.809501
744.946647	2566.353121
745.275768	2568.886300
745.604842	2566.043090
745.933869	2566.035528
746.262847	2563.850188
746.591778	2568.359500
746.920662	2568.233471
747.249498	2569.803790
747.578286	2566.650549
747.907027	2570.796898
748.235720	2571.971487
748.564365	2570.285221
748.892963	2568.130127
749.221514	2568.636763
749.550017	2570.960735
749.878473	2569.904613
750.206881	2565.969993
750.535242	2568.546022
750.863555	2566.499314
751.191821	2564.538305
751.520039	2565.909499
751.848210	2566.418656
752.176334	2566.741289
752.504411	2567.099211
752.832440	2562.360527
753.160421	2569.012329
753.488356	2564.142575
753.816243	2565.975034
754.144082	2565.125600
754.471875	2565.806155
754.799620	2563.986299
755.127318	2562.723490
755.454969	2564.480332
755.782572	2563.063768
756.110129	2561.158212
756.437638	2565.455795
756.765100	2562.937739
757.092515	2562.635270
757.419882	2563.255332
757.747203	2563.734241
758.074477	2566.010322
758.401703	2561.677450
758.728882	2565.070147
759.056014	2564.843295
759.383099	2564.913871
759.710138	2567.172308
760.037129	2564.263562
760.364073	2568.248594
760.690970	2566.151474
761.017820	2566.335477
761.344623	2563.144426
761.671379	2565.196176
761.998088	2564.755075
762.324751	2568.959397
762.651366	2575.893504
762.977935	2589.227356
763.304456	2598.046855
763.630931	2603.183791
763.957359	2598.084663
764.283740	2588.551842
764.610074	2580.140676
764.936362	2572.440314
765.262602	2572.442834
765.588796	2569.370251
765.914943	2568.246074
766.241044	2563.756926
766.567097	2563.502348
766.893104	2560.235680
767.219064	2559.368602
767.544978	2558.645196
767.870845	2556.835422
768.196665	2558.007490
768.522438	2555.514640
768.848165	2557.067315
769.173846	2556.543035
769.499479	2556.532953
769.825066	2554.690411
770.150607	2555.096224
770.476101	2553.505740
770.801548	2555.519681
771.126949	2551.690925
771.452303	2553.820812
771.777611	2553.546069
772.102872	2554.362736
772.428087	2552.389124
772.753256	2552.258054
773.078378	2553.299053
773.403453	2550.934752
773.728482	2550.455842
774.053465	2550.677653
774.378401	2550.135729
774.703291	2549.293856
775.028135	2550.957437
775.352932	2553.258723
775.677683	2551.232180
776.002388	2552.245452
776.327046	2548.890564
776.651658	2549.301418
776.976224	2547.927703
777.300743	2551.287632
777.625216	2548.089020
777.949643	2551.637992
778.274024	2553.009186
778.598359	2547.529452
778.922647	2544.827394
779.246889	2547.521890
779.571086	2547.108516
779.895236	2548.749411
780.219339	2545.732281
780.543397	2548.386448
780.867409	2549.495502
781.191374	2548.283105
781.515294	2548.477189
781.839167	2548.124308
782.162995	2550.851572
782.486776	2548.341078
782.810511	2549.767724
783.134201	2549.465255
783.457844	2547.655481
783.781441	2547.728578
784.104993	2549.404761
784.428498	2546.818649
784.751958	2547.680687
785.075372	2548.767055
785.398739	2549.072045
785.722061	2549.588763
786.045337	2546.518701
786.368568	2550.957437
786.691752	2548.890564
787.014891	2544.683721
787.337983	2549.951727
787.661030	2552.293343
787.984031	2552.265616
788.306987	2552.850390
788.629897	2555.698642
788.952760	2553.117571
789.275579	2552.091696
789.598351	2551.731254
789.921078	2550.657488
790.243759	2547.300080
790.566395	2548.842673
790.888984	2549.465255
791.211529	2548.767055
791.534027	2547.884853
791.856480	2546.213711
792.178888	2547.262271
792.501249	2548.051212
792.823566	2550.740667
793.145836	2544.129194
793.468062	2545.248330
793.790241	2547.534493
794.112375	2546.090203
794.434464	2547.368135
794.756507	2546.135573
795.078505	2548.318393
795.400457	2544.638350
795.722364	2543.637681
796.044226	2548.615821
796.366042	2545.896118
796.687812	2548.434339
797.009538	2547.652960
797.331218	2550.579350
797.652852	2545.591128
797.974442	2550.281922
798.295986	2549.069525
798.617484	2548.383928
798.938938	2547.027857
799.260346	2546.531304
799.581709	2548.212528
799.903026	2548.832590
800.224299	2546.380069
800.545526	2546.664894
800.866708	2547.980635
801.187845	2547.365615
801.508936	2547.312683
801.829983	2546.702703
802.150984	2546.407795
802.471940	2546.904349
802.792851	2545.074410
803.113717	2547.436191
803.434538	2544.192208
803.755314	2545.991900
804.076045	2546.009544
804.396731	2543.378062
804.717372	2544.986190
805.037967	2544.832435
805.358518	2545.003834
805.679024	2547.970553
805.999485	2545.069369
806.319901	2546.758156
806.640272	2545.923845
806.960598	2547.622713
807.280879	2546.059956
807.601115	2544.204811
807.921306	2545.828063
808.241453	2546.284287
808.561554	2547.559699
808.881611	2548.638506
809.201623	2546.256561
809.521590	2546.246478
809.841513	2544.991231
810.161390	2545.253371
810.481223	2548.026006
810.801011	2545.999462
811.120755	2542.747918
811.440453	2546.077600
811.760107	2544.298073
812.079716	2543.481406
812.399281	2542.765562
812.718801	2542.450490
813.038276	2540.842362
813.357707	2544.114070
813.677093	2543.181457
813.996434	2546.148176
814.315731	2542.054759
814.634983	2545.369318
814.954191	2546.589277
815.273354	2545.659184
815.592473	2542.422763
815.911547	2547.151366
816.230577	2546.163299
816.549562	2546.087682
816.868502	2546.737991
817.187399	2548.883002
817.506250	2546.261602
817.825058	2550.027344
818.143821	2547.688248
818.462539	2549.803013
818.781213	2549.293856
819.099843	2553.225956
819.418429	2551.453990
819.736970	2556.916081
820.055466	2560.394477
820.373919	2563.625856
820.692327	2568.185580
821.010691	2577.826787
821.329011	2596.035434
821.647286	2639.044038
821.965517	2684.180009
822.283704	2712.423074
822.601847	2721.671071
822.919945	2698.113759
823.237999	2671.972855
823.556010	2645.688279
823.873976	2624.192799
824.191897	2608.976076
824.509775	2597.406628
824.827609	2587.026892
825.145398	2582.527663
825.463144	2579.268557
825.780845	2581.869792
826.098502	2586.069073
826.416116	2599.654983
826.733685	2612.194853
827.051210	2617.230966
827.368692	2608.003134
827.686129	2599.579366
828.003522	2586.686615
828.320872	2570.529717
828.638177	2564.833213
828.955439	2558.264589
829.272656	2555.272664
829.589830	2552.686553
829.906960	2556.328786
830.224046	2551.902653
830.541088	2550.397869
830.858086	2549.097251
831.175041	2552.827705
831.491952	2550.201264
831.808819	2546.642209
832.125642	2550.917107
832.442421	2552.023641
832.759157	2557.473128
833.075849	2564.135013
833.392497	2575.938875
833.709101	2581.622776
834.025662	2582.777200
834.342179	2575.732187
834.658653	2569.715570
834.975083	2561.561504
835.291469	2566.675754
835.607811	2554.082952
835.924110	2554.004814
836.240366	2551.471634
836.556578	2548.588094
836.872746	2549.074566
837.188871	2547.700851
837.504952	2547.839483
837.820990	2543.360418
838.136984	2541.893442
838.452935	2544.507280
838.768842	2545.843186
839.084706	2545.691952
839.400526	2546.334699
839.716303	2554.561862
840.032037	2557.689898
840.347727	2556.142263
840.663373	2555.277706
840.978977	2548.630944
841.294537	2549.140101
841.610054	2545.812939
841.925527	2545.235727
842.240957	2545.235727
842.556344	2545.419729
842.871687	2542.521066
843.186987	2540.141641
843.502244	2539.813966
843.817458	2542.939482
844.132629	2540.807073
844.447756	2540.945705
844.762840	2535.203831
845.077881	2538.291538
845.392879	2536.582587
845.707833	2538.989738
846.022745	2533.353727
846.337613	2539.287166
846.652438	2540.577701
846.967221	2542.364790
847.281960	2539.942516
847.596656	2540.519728
847.911309	2538.785571
848.225919	2540.741538
848.540485	2535.400436
848.855009	2540.250026
849.169490	2537.769778
849.483928	2538.306661
849.798323	2539.040149
850.112675	2540.144162
850.426984	2536.522093
850.741251	2539.692978
851.055474	2536.254912
851.369654	2538.576363
851.683792	2535.350024
851.997887	2539.536703
852.311938	2541.701878
852.625947	2538.916641
852.939914	2539.100643
853.253837	2541.081816
853.567718	2538.175591
853.881555	2538.193235
854.195350	2538.835982
854.509103	2537.880684
854.822812	2538.140303
855.136479	2539.992927
855.450103	2535.420601
855.763685	2541.701878
856.077224	2536.136444
856.390720	2537.381609
856.704173	2541.094419
857.017584	2539.929913
857.330953	2539.440921
857.644278	2538.712474
857.957561	2542.221117
858.270802	2539.095602
858.584000	2536.937988
858.897155	2538.785571
859.210268	2537.666435
859.523339	2537.815149
859.836367	2539.302289
860.149352	2538.352032
860.462295	2539.526620
860.775195	2535.730632
861.088054	2535.506300
861.400869	2534.437576
861.713642	2536.186856
862.026373	2536.237267
862.339062	2540.796991
862.651708	2540.189532
862.964312	2539.420756
863.276873	2538.281455
863.589392	2537.295910
863.901869	2536.010416
864.214303	2537.164840
864.526696	2538.188194
864.839045	2540.663401
865.151353	2540.033256
865.463619	2539.733308
865.775842	2541.475026
866.088023	2539.771116
866.400162	2539.350180
866.712258	2540.073586
867.024313	2539.319933
867.336325	2538.067206
867.648296	2538.989737
867.960224	2538.490663
868.272110	2540.612989
868.583954	2541.757331
868.895755	2540.670962
869.207515	2541.475026
869.519233	2541.810263
869.830909	2540.991076
870.142542	2538.916641
870.454134	2540.605427
870.765684	2545.588608
871.077191	2539.841693
871.388657	2541.154913
871.700081	2540.817156
872.011463	2540.565098
872.322803	2543.713299
872.634101	2540.514687
872.945357	2543.040305
873.256571	2542.072403
873.567744	2544.270346
873.878874	2541.288504
874.189963	2545.457538
874.501010	2545.102137
874.812015	2543.955274
875.122979	2541.366642
875.433900	2541.991745
875.744780	2544.439225
876.055618	2540.348328
876.366415	2539.761034
876.677169	2543.249512
876.987882	2540.996117
877.298554	2540.660880
877.609183	2539.703061
877.919771	2540.542413
878.230317	2541.890922
878.540822	2545.518032
878.851285	2547.685728
879.161707	2549.792930
879.472087	2552.573127
879.782425	2554.912222
880.092722	2563.404046
880.402977	2576.624472
880.713191	2597.688933
881.023363	2617.631737
881.333494	2635.953811
881.643583	2640.405150
881.953631	2637.428349
882.263637	2632.162863
882.573602	2625.594240
882.883526	2611.841972
883.193408	2601.681527
883.503248	2591.999991
883.813048	2583.356932
884.122806	2576.813515
884.432522	2570.945612
884.742197	2564.752554
885.051831	2561.591751
885.361424	2560.500341
885.670975	2557.256358
885.980485	2552.953734
886.289954	2554.395504
886.599382	2547.156407
886.908768	2548.162117
887.218113	2547.950388
887.527417	2547.721016
887.836680	2544.446787
888.145901	2547.239586
888.455082	2545.870913
888.764221	2542.606765
889.073319	2542.959646
889.382376	2540.524769
889.691392	2543.975439
890.000366	2544.792106
890.309300	2546.997610
890.618193	2545.084493
890.927044	2544.915614
891.235855	2542.710109
891.544625	2543.970398
891.853353	2547.937786
892.162041	2545.273536
892.470687	2544.996272
892.779293	2548.608259
893.087858	2548.862837
893.396381	2547.993238
893.704864	2553.175544
894.013306	2555.433981
894.321707	2565.997719
894.630068	2574.391240
894.938387	2578.802250
895.246665	2575.470047
895.554903	2570.015519
895.863100	2565.670044
896.171256	2561.115362
896.479371	2561.432954
896.787446	2558.972871
897.095480	2552.421892
897.403473	2550.173537
897.711425	2548.008362
898.019336	2548.794782
898.327207	2548.146993
898.635038	2547.201777
898.942827	2544.484595
899.250576	2547.040460
899.558284	2544.557692
899.865952	2545.293700
900.173579	2543.536858
900.481165	2543.816642
900.788711	2543.108360
901.096216	2545.558361
901.403681	2543.405788
901.711105	2542.876467
902.018489	2545.026519
902.325832	2545.933927
902.633135	2542.934440
902.940397	2543.511653
903.247619	2548.109185
903.554800	2554.395504
903.861941	2566.020404
904.169041	2580.483475
904.476101	2587.543611
904.783121	2586.452201
905.090100	2580.632189
905.397039	2573.251940
905.703938	2565.296999
906.010796	2561.019580
906.317614	2556.734599
906.624391	2551.108671
906.931129	2545.898639
907.237826	2549.261088
907.544483	2543.622558
907.851099	2542.415202
908.157675	2544.560213
908.464211	2538.578883
908.770707	2538.006713
909.077163	2538.006712
909.383578	2532.773995
909.689954	2534.538399
909.996289	2535.924716
910.302584	2538.379758
910.608839	2539.607279
910.915054	2538.760365
911.221229	2540.008051
911.527363	2539.970242
911.833458	2538.445293
912.139513	2540.363452
912.445527	2540.018133
912.751502	2540.875129
913.057436	2538.838503
913.363331	2543.249512
913.669186	2543.335212
913.975000	2543.214224
914.280775	2544.628268
914.586510	2549.422405
914.892205	2553.840977
915.197859	2560.112172
915.503475	2568.319171
915.809050	2577.350398
916.114585	2581.562282
916.420081	2586.006059
916.725536	2581.600090
917.030952	2578.051118
917.336328	2573.451065
917.641665	2565.778429
917.946961	2563.764488
918.252218	2560.119734
918.557435	2556.598488
918.862612	2554.219063
919.167750	2552.560524
919.472848	2546.715306
919.777906	2547.116077
920.082925	2547.395862
920.387904	2542.989893
920.692843	2547.274874
920.997743	2540.265149
921.302603	2541.162475
921.607423	2540.126518
921.912204	2544.650953
922.216946	2542.205994
922.521647	2541.016281
922.826310	2539.939995
923.130932	2542.644574
923.435516	2538.044521
923.740059	2539.700540
924.044564	2535.934798
924.349028	2539.337577
924.653454	2529.872811
924.957840	2533.711649
925.262186	2534.929088
925.566493	2534.361958
925.870761	2532.693336
926.174989	2536.005374
926.479178	2534.838347
926.783328	2534.578728
927.087438	2533.820034
927.391509	2537.986548
927.695541	2534.407329
927.999533	2535.294572
928.303486	2535.700385
928.607400	2536.128883
928.911275	2533.341125
929.215110	2533.363810
929.518906	2535.344983
929.822663	2535.594520
930.126381	2534.427493
930.430060	2536.459078
930.733699	2533.704088
931.037299	2535.506300
931.340861	2534.835827
931.644383	2534.803059
931.947866	2533.787267
932.251309	2533.131917
932.554714	2535.115611
932.858080	2535.874304
933.161407	2535.113090
933.464694	2536.174253
933.767943	2533.630991
934.071153	2537.089223
934.374323	2533.235260
934.677455	2534.840868
934.980548	2536.842206
935.283602	2531.352389
935.586617	2535.198790
935.889593	2534.931609
936.192530	2535.213913
936.495428	2535.201310
936.798287	2534.873635
937.101108	2535.902031
937.403890	2537.641229
937.706632	2534.263656
938.009336	2539.103163
938.312002	2537.298430
938.614628	2537.610982
938.917216	2542.682383
939.219765	2536.869932
939.522275	2540.055942
939.824747	2537.041332
940.127179	2535.312216
940.429573	2533.038655
940.731929	2533.870446
941.034246	2532.438758
941.336524	2533.522606
941.638763	2535.609644
941.940964	2536.454037
942.243126	2535.050076
942.545250	2536.254912
942.847335	2533.814993
943.149381	2534.402288
943.451389	2535.960004
943.753359	2532.753830
944.055290	2536.995961
944.357182	2537.641229
944.659036	2534.475384
944.960851	2535.261804
945.262628	2535.276928
945.564367	2533.159643
945.866067	2534.646783
946.167729	2534.707277
946.469352	2535.337422
946.770937	2533.694005
947.072484	2534.510672
947.373992	2536.355735
947.675462	2535.065199
947.976893	2535.458409
948.278286	2532.968079
948.579641	2533.888090
948.880958	2534.949253
949.182236	2533.381454
949.483476	2534.059489
949.784678	2534.644263
950.085841	2532.678213
950.386967	2536.706095
950.688054	2534.215765
950.989103	2534.634181
951.290114	2534.603934
951.591087	2534.929088
951.892021	2534.359438
952.192917	2535.534027
952.493776	2534.293903
952.794596	2536.950591
953.095378	2532.519417
953.396122	2536.375899
953.696828	2534.203162
953.997496	2534.026722
954.298126	2530.704601
954.598718	2536.189377
954.899272	2534.394726
955.199788	2534.896321
955.500266	2534.293903
955.800706	2532.267359
956.101108	2528.426000
956.401472	2531.554036
956.701798	2528.146216
957.002087	2529.787111
957.302337	2532.227030
957.602550	2532.983203
957.902724	2532.670651
958.202861	2530.782739
958.502960	2531.191073
958.803022	2533.620909
959.103045	2532.907585
959.403031	2532.872297
959.702979	2531.969931
960.002889	2533.215096
960.302762	2530.573531
960.602596	2533.124355
960.902393	2529.751823
961.202153	2530.805424
961.501875	2528.849457
961.801559	2533.893131
962.101205	2531.309540
962.400814	2531.581762
962.700385	2529.058664
962.999918	2527.198479
963.299414	2528.443644
963.598873	2529.131761
963.898293	2531.790970
964.197677	2528.020187
964.497022	2528.042872
964.796331	2528.035310
965.095601	2529.598068
965.394835	2531.473377
965.694030	2529.915661
965.993189	2529.240146
966.292309	2530.944056
966.591393	2529.414066
966.890439	2529.983716
967.189447	2533.336083
967.488419	2527.916843
967.787353	2530.538243
968.086249	2531.304498
968.385108	2531.065044
968.683930	2531.082688
968.982714	2531.929602
969.281462	2528.385670
969.580172	2530.223171
969.878844	2529.280475
970.177480	2532.663089
970.476078	2528.531864
970.774639	2532.075795
971.073162	2530.054292
971.371649	2528.052954
971.670098	2524.519105
971.968510	2526.417100
972.266885	2525.693694
972.565223	2531.506145
972.863524	2530.235774
973.161788	2528.957841
973.460014	2532.501772
973.758204	2530.076978
974.056356	2530.356762
974.354471	2530.719725
974.652550	2527.700073
974.950591	2531.735517
975.248595	2530.044210
975.546563	2528.052954
975.844493	2530.495393
976.142386	2531.372554
976.440243	2530.691998
976.738062	2530.334076
977.035845	2530.601257
977.333590	2531.029756
977.631299	2530.429858
977.928971	2527.569003
978.226606	2527.926925
978.524204	2527.324507
978.821765	2530.341638
979.119290	2528.597399
979.416777	2527.642100
979.714228	2529.441792
980.011642	2532.668131
980.309020	2531.811134
980.606360	2527.571524
980.903664	2531.039838
981.200931	2526.628828
981.498162	2530.994468
981.795356	2532.196783
982.092513	2528.849457
982.389633	2529.479601
982.686717	2530.631504
982.983764	2533.494880
983.280775	2531.521268
983.577749	2532.393388
983.874686	2533.487318
984.171587	2533.376413
984.468451	2532.103521
984.765279	2529.890455
985.062070	2529.595547
985.358824	2528.904909
985.655543	2527.442975
985.952224	2527.695032
986.248869	2530.076977
986.545478	2522.343848
986.842050	2525.451719
987.138586	2524.181348
987.435086	2526.812830
987.731549	2521.902747
988.027975	2531.117976
988.324366	2527.697553
988.620719	2528.690660
988.917037	2527.127902
989.213318	2529.739220
989.509563	2526.497758
989.805772	2528.002543
990.101944	2523.911646
990.398080	2525.993643
990.694180	2528.511699
990.990244	2527.853829
991.286271	2527.712676
991.582262	2527.347193
991.878217	2530.364323
992.174136	2528.660413
992.470019	2527.977337
992.765865	2528.443644
993.061676	2528.826771
993.357450	2528.516740
993.653188	2527.420289
993.948890	2528.569672
994.244556	2526.223015
994.540186	2529.348531
994.835780	2530.918850
995.131337	2529.451874
995.426859	2529.714014
995.722345	2527.886596
996.017795	2528.899868
996.313208	2530.848274
996.608586	2529.792152
996.903928	2528.456247
997.199234	2527.997502
997.494504	2529.282996
997.789738	2527.301822
998.084936	2526.565814
998.380099	2525.219826
998.675225	2529.035979
998.970316	2527.316946
999.265371	2528.531864
999.560390	2528.426000
999.855373	2530.165198
1000.150320	2526.999353
1000.445232	2529.409025
1000.740108	2529.393901
1001.034948	2528.252080
1001.329752	2527.170752
1001.624521	2527.853829
1001.919254	2522.358971
1002.213951	2525.671009
1002.508613	2524.819054
1002.803239	2524.720752
1003.097829	2522.048940
1003.392384	2529.933305
1003.686903	2527.027079
1003.981386	2528.637728
1004.275834	2526.797707
1004.570246	2527.407687
1004.864623	2527.861390
1005.158964	2528.708304
1005.453270	2527.977337
1005.747540	2526.379291
1006.041775	2528.410876
1006.335974	2525.345855
1006.630138	2525.270237
1006.924266	2528.305012
1007.218359	2529.842564
1007.512416	2526.185207
1007.806438	2529.046062
1008.100425	2526.674199
1008.394376	2527.004394
1008.688292	2528.887265
1008.982172	2527.352234
1009.276017	2528.983047
1009.569827	2527.425331
1009.863602	2528.357944
1010.157341	2525.983561
1010.451045	2524.604805
1010.744714	2527.795855
1011.038347	2528.075639
1011.331945	2528.204189
1011.625508	2526.848118
1011.919036	2525.895340
1012.212528	2527.231246
1012.505986	2528.138654
1012.799408	2525.693694
1013.092795	2527.629497
1013.386147	2525.497089
1013.679464	2527.140505
1013.972745	2524.763601
1014.265992	2526.520443
1014.559204	2529.184693
1014.852380	2525.781914
1015.145521	2527.934487
1015.438628	2527.289219
1015.731699	2527.143026
1016.024736	2525.527336
1016.317737	2529.673685
1016.610703	2526.762419
1016.903635	2523.064733
1017.196531	2524.486338
1017.489393	2523.152953
1017.782219	2523.657068
1018.075011	2525.360978
1018.367768	2527.868952
1018.660490	2526.822913
1018.953177	2526.822913
1019.245829	2526.822913
