Dividing Wavelength (nm)	Counts (n)	Blue Motor Position (mm): 0.000000	Red Motor Position (mm): 27.000000	
326.493990	2145.124388
326.888308	2145.124388
327.282561	2145.124388
327.676750	2119.071704
328.070874	2119.006169
328.464933	2125.242077
328.858929	2136.151134
329.252859	2146.578760
329.646726	2161.130051
330.040528	2172.449962
330.434265	2193.380833
330.827938	2210.830787
331.221547	2229.009188
331.615091	2250.199678
332.008571	2270.888573
332.401986	2292.066460
332.795338	2309.962557
333.188625	2329.428972
333.581847	2349.888495
333.975006	2372.160313
334.368100	2389.517005
334.761129	2406.140210
335.154095	2425.904054
335.546996	2440.329316
335.939833	2455.049485
336.332606	2468.330405
336.725315	2481.722230
337.117960	2488.943683
337.510540	2496.218068
337.903056	2505.682834
338.295508	2510.504698
338.687896	2520.181192
339.080220	2524.871986
339.472480	2534.293903
339.864676	2535.551671
340.256807	2539.582073
340.648875	2544.398896
341.040879	2544.333361
341.432818	2543.897301
341.824694	2544.066179
342.216506	2544.613145
342.608253	2544.940820
342.999937	2544.232538
343.391557	2544.625747
343.783113	2543.040305
344.174605	2544.020809
344.566033	2537.641229
344.957397	2538.049562
345.348697	2536.370858
345.739934	2533.676361
346.131106	2533.275590
346.522215	2531.047400
346.913260	2526.832995
347.304241	2527.082532
347.695159	2524.274609
348.086012	2524.171266
348.476802	2523.132788
348.867528	2521.812006
349.258191	2521.844773
349.648789	2519.820750
350.039324	2515.954185
350.429796	2520.985257
350.820203	2517.111130
351.210548	2514.693897
351.600828	2513.660460
351.991045	2516.551562
352.381198	2517.269926
352.771288	2514.346057
353.161314	2514.751870
353.551276	2513.277332
353.941175	2512.644667
354.331010	2512.921931
354.720782	2512.964781
355.110490	2513.650378
355.500135	2514.696417
355.889717	2513.622651
356.279235	2515.578619
356.668689	2518.515091
357.058080	2514.857734
357.447408	2515.064421
357.836672	2513.627692
358.225873	2513.423526
358.615010	2512.369925
359.004084	2518.104237
359.393095	2519.455266
359.782043	2518.958713
360.170927	2517.138856
360.559748	2521.943076
360.948505	2520.087931
361.337199	2521.408713
361.725830	2522.326203
362.114398	2524.035155
362.502903	2520.523991
362.891344	2520.834022
363.279722	2522.860566
363.668037	2525.227387
364.056289	2522.416944
364.444478	2523.886441
364.832603	2526.522964
365.220665	2525.368540
365.608665	2525.350896
365.996601	2524.811492
366.384474	2527.183355
366.772284	2530.465146
367.160031	2527.057326
367.547715	2527.710156
367.935336	2526.346524
368.322893	2527.639580
368.710388	2529.053623
369.097820	2531.145702
369.485189	2528.673016
369.872495	2530.044210
370.259738	2528.063037
370.646918	2531.354910
371.034035	2530.066895
371.421090	2532.272400
371.808081	2528.950280
372.195010	2531.284334
372.581875	2533.028573
372.968678	2531.538912
373.355418	2531.995137
373.742096	2536.363296
374.128710	2535.687782
374.515262	2536.322967
374.901751	2535.917154
375.288177	2538.404964
375.674540	2542.770603
376.060841	2544.267826
376.447079	2542.274049
376.833254	2545.719678
377.219367	2545.094575
377.605417	2545.727240
377.991404	2550.193702
378.377329	2551.401058
378.763191	2552.132026
379.148991	2559.892882
379.534727	2561.921946
379.920402	2567.474777
380.306013	2570.837227
380.691563	2573.713205
381.077049	2578.035995
381.462474	2581.017837
381.847835	2590.064188
382.233134	2596.403439
382.618371	2599.602051
383.003545	2606.364759
383.388657	2613.377004
383.773706	2615.748867
384.158693	2624.228087
384.543618	2632.306536
384.928480	2638.996147
385.313280	2645.431180
385.698017	2655.548776
386.082692	2663.029848
386.467305	2668.875066
386.851856	2676.933351
387.236344	2687.718899
387.620770	2692.969261
388.005133	2702.572659
388.389435	2715.389793
388.773674	2719.601677
389.157851	2726.573593
389.541965	2738.309399
389.926018	2742.813670
390.310008	2754.952768
390.693936	2763.331166
391.077802	2772.037239
391.461606	2781.912859
391.845348	2789.819909
392.229027	2800.108904
392.612645	2815.441573
392.996200	2825.435661
393.379694	2838.328412
393.763125	2855.238962
394.146494	2862.092411
394.529801	2873.687065
394.913047	2889.168448
395.296230	2890.683315
395.679351	2894.839746
396.062410	2915.276584
396.445408	2910.369021
396.828343	2924.559869
397.211217	2929.999274
397.594028	2923.591967
397.976778	2937.356838
398.359466	2951.754373
398.742092	2949.732871
399.124656	2965.330201
399.507158	2979.941985
399.889598	2982.623879
400.271977	2996.807165
400.654294	3005.120028
401.036549	3014.362983
401.418742	3022.827081
401.800874	3044.899773
402.182944	3051.266750
402.564952	3081.856472
402.946898	3070.723083
403.328783	3082.874785
403.710606	3094.691249
404.092367	3120.141515
404.474067	3145.165802
404.855705	3135.209523
405.237282	3137.440234
405.618797	3169.083557
406.000250	3189.074252
406.381642	3221.929972
406.762972	3222.802092
407.144240	3212.316492
407.525447	3235.412538
407.906593	3236.503948
408.287677	3257.213008
408.668700	3279.416770
409.049661	3275.245216
409.430560	3287.850621
409.811399	3295.238432
410.192176	3316.287770
410.572891	3325.177844
410.953545	3362.996581
411.334138	3329.009121
411.714669	3381.127090
412.095139	3327.151456
412.475547	3378.036863
412.855894	3369.923126
413.236180	3400.437230
413.616405	3379.269425
413.996568	3402.816655
414.376670	3407.351173
414.756711	3401.826068
415.136691	3427.319183
415.516609	3449.381793
415.896466	3457.185499
416.276262	3485.312617
416.655997	3512.716329
417.035670	3521.855941
417.415283	3586.055035
417.794834	3606.222171
418.174324	3589.288936
418.553753	3593.493258
418.933121	3635.032366
419.312428	3624.438381
419.691674	3618.502422
420.070859	3659.214781
420.449983	3637.810041
420.829045	3687.934234
421.208047	3672.251204
421.586988	3717.944223
421.965867	3749.910179
422.344686	3757.126591
422.723444	3795.315852
423.102141	3698.334134
423.480777	3802.968324
423.859352	3771.808952
424.237866	3867.212788
424.616319	3852.540510
424.994712	3915.401178
425.373044	3902.878952
425.751314	3964.605360
426.129524	3899.365267
426.507673	3999.583406
426.885762	3976.126917
427.263789	3996.561234
427.641756	4000.873941
428.019662	4031.970299
428.397508	4035.393242
428.775292	4073.456474
429.153016	4081.923092
429.530679	4093.084207
429.908282	4097.953962
430.285824	4080.340170
430.663305	4151.357425
431.040726	4109.720015
431.418086	4099.451184
431.795385	4175.101259
432.172624	4214.213052
432.549802	4174.292154
432.926920	4194.328220
433.303977	4192.067263
433.680974	4229.361719
434.057910	4249.909462
434.434786	4255.116974
434.811601	4248.991972
435.188355	4356.547510
435.565050	4329.179086
435.941683	4323.772448
436.318257	4410.170263
436.694770	4419.473713
437.071222	4472.108400
437.447614	4409.769492
437.823946	4411.977517
438.200218	4426.927059
438.576429	4407.480808
438.952580	4435.738996
439.328670	4442.693267
439.704700	4485.830421
440.080670	4449.866829
440.456580	4509.291951
440.832429	4543.541550
441.208218	4447.502528
441.583947	4496.139580
441.959616	4508.913864
442.335224	4536.047875
442.710773	4558.100402
443.086261	4614.863795
443.461689	4563.401176
443.837057	4576.155295
444.212365	4652.526255
444.587612	4658.772245
444.962800	4623.088437
445.337927	4663.460518
445.712995	4554.821132
446.088002	4740.817023
446.462949	4761.941979
446.837837	4782.275473
447.212664	4770.809368
447.587431	4987.831041
447.962139	5290.222134
448.336786	5621.942660
448.711374	5611.328511
449.085901	5257.106795
449.460369	5187.836300
449.834776	5127.891939
450.209124	5361.831725
450.583412	5371.543507
450.957640	5491.928782
451.331808	5350.741186
451.705917	5207.572417
452.079965	5197.411971
452.453954	5236.382611
452.827883	5200.638310
453.201752	5203.882292
453.575562	5233.418413
453.949311	5366.709041
454.323001	5368.871696
454.696632	5360.316858
455.070202	5517.948697
455.443713	5542.126071
455.817164	5632.395493
456.190556	5703.601791
456.563888	5672.714641
456.937160	5747.588379
457.310373	5591.965439
457.683526	5641.850177
458.056619	5634.815247
458.429653	5613.798676
458.802628	5654.725284
459.175542	5680.402401
459.548398	5813.478780
459.921194	5996.197922
460.293930	6044.189706
460.666607	6285.905472
461.039224	6488.522047
461.411782	6606.560665
461.784280	6518.358117
462.156719	6525.289703
462.529099	6480.632642
462.901419	6337.252144
463.273680	6201.793820
463.645882	6182.476118
464.018024	6178.854049
464.390106	6231.967646
464.762130	6466.255271
465.134094	6819.912378
465.505999	7394.651807
465.877845	8047.458545
466.249631	8373.843010
466.621358	8293.741596
466.993026	8094.051410
467.364634	7879.202474
467.736184	7597.855678
468.107674	7434.360976
468.479105	7332.844741
468.850477	7250.898264
469.221790	7082.851401
469.593043	6860.123142
469.964238	6753.679178
470.335373	6710.479010
470.706449	6826.100394
471.077467	6966.201621
471.448425	7509.443922
471.819324	8009.826332
472.190164	8031.314250
472.560945	7565.816624
472.931667	7136.456510
473.302330	6939.007117
473.672934	6808.433671
474.043479	6845.836512
474.413965	6736.962712
474.784393	6667.374624
475.154761	6761.021619
475.525070	6742.666778
475.895321	6671.155490
476.265513	6714.327931
476.635645	6810.092210
477.005719	6771.126612
477.375734	6803.334543
477.745691	6853.491504
478.115588	6969.974925
478.485427	7113.463807
478.855207	7426.940398
479.224928	7704.770989
479.594591	7945.692772
479.964194	7909.860251
480.333739	7915.592043
480.703226	7862.564146
481.072653	7868.001030
481.442022	7891.528095
481.811333	7939.035929
482.180584	7767.850947
482.549777	7664.424114
482.918912	7555.078967
483.287988	7481.896536
483.657005	7356.321394
484.025964	7242.514825
484.394864	7225.447999
484.763706	7134.498022
485.132489	7009.432036
485.501213	6944.522139
485.869879	6913.846718
486.238487	6818.599157
486.607036	6794.116794
486.975527	6702.766045
487.343959	6668.924779
487.712333	6624.454240
488.080648	6583.653662
488.448905	6570.201343
488.817104	6505.316652
489.185244	6522.504466
489.553326	6556.396143
489.921350	6716.856070
490.289315	6949.278468
490.657222	7010.964547
491.025070	7018.891761
491.392861	6899.842393
491.760593	6742.288691
492.128267	6547.443054
492.495883	6365.545620
492.863440	6185.422672
493.230939	6008.400035
493.598380	5861.513414
493.965763	5771.712820
494.333088	5654.314430
494.700354	5555.182660
495.067563	5476.999405
495.434713	5407.527264
495.801805	5359.873236
496.168839	5279.882728
496.535815	5203.567220
496.902733	5156.182895
497.269593	5076.109207
497.636395	5015.985886
498.003139	4987.246268
498.369825	4900.198143
498.736453	4862.881002
499.103023	4787.109939
499.469535	4733.096496
499.835989	4686.964897
500.202385	4619.410915
500.568723	4566.509047
500.935003	4523.739898
501.301226	4461.806802
501.667390	4448.281386
502.033497	4416.113784
502.399546	4340.725848
502.765537	4267.916463
503.131470	4237.309098
503.497345	4205.675858
503.863163	4109.089870
504.228923	4082.424687
504.594625	4052.926375
504.960269	3990.106037
505.325856	3968.693736
505.691385	3902.921802
506.056856	3865.917212
506.422270	3835.571986
506.787625	3786.329995
507.152924	3749.108636
507.518164	3713.744942
507.883347	3657.457938
508.248472	3631.516161
508.613540	3602.768981
508.978550	3573.011050
509.343503	3536.422355
509.708398	3506.780371
510.073236	3482.950836
510.438016	3448.756690
510.802738	3404.560894
511.167403	3390.493554
511.532010	3360.234028
511.896561	3338.942715
512.261053	3324.051147
512.625488	3282.544806
512.989866	3253.170003
513.354186	3226.719069
513.718449	3199.307795
514.082655	3182.273736
514.446803	3158.066115
514.810894	3138.798825
515.174927	3115.851493
515.538904	3092.125302
515.902822	3079.948395
516.266684	3050.056873
516.630488	3035.268648
516.994235	3019.139477
517.357925	3003.698423
517.721558	2986.273674
518.085133	2972.148361
518.448651	2954.101030
518.812112	2939.864812
519.175516	2923.317224
519.538863	2908.700399
519.902152	2896.170611
520.265385	2886.015207
520.628560	2874.118083
520.991678	2856.668129
521.354739	2846.333764
521.717743	2837.098370
522.080690	2825.050012
522.443580	2817.841162
522.806413	2808.704071
523.169189	2798.893986
523.531908	2792.111113
523.894569	2783.321862
524.257174	2773.529420
524.619722	2766.295364
524.982213	2762.161618
525.344647	2750.695514
525.707025	2748.800040
526.069345	2741.402147
526.431608	2734.929305
526.793815	2733.111969
527.155964	2724.751216
527.518057	2719.057232
527.880093	2714.215204
528.242072	2710.419215
528.603995	2705.763710
528.965860	2701.771116
529.327669	2698.617874
529.689421	2694.484128
530.051117	2690.746112
530.412755	2688.346523
530.774337	2685.203364
531.135862	2683.297807
531.497331	2675.708350
531.858743	2670.964625
532.220098	2672.509738
532.581396	2668.333142
532.942638	2665.003460
533.303824	2665.326094
533.664953	2662.543377
534.026025	2665.157215
534.387040	2661.998932
534.747999	2659.939621
535.108902	2659.616987
535.469748	2657.340906
535.830537	2657.103972
536.191270	2655.488282
536.551947	2653.602891
536.912567	2650.701707
537.273131	2652.211532
537.633638	2648.760862
537.994089	2650.336223
538.354483	2646.951088
538.714821	2646.363794
539.075103	2643.487816
539.435328	2644.478402
539.795497	2642.378762
540.155609	2642.472023
540.515665	2642.345994
540.875665	2642.691313
541.235609	2641.131076
541.595496	2642.842548
541.955328	2640.684934
542.315102	2637.879532
542.674821	2637.115797
543.034483	2638.116466
543.394090	2634.754017
543.753640	2635.926085
544.113134	2636.145375
544.472571	2633.526496
544.831953	2633.115642
545.191278	2634.018008
545.550548	2632.195631
545.909761	2631.656227
546.268918	2633.617236
546.628019	2631.051289
546.987064	2632.019191
547.346053	2632.185549
547.704986	2632.634211
548.063863	2631.247894
548.422684	2629.864097
548.781449	2628.376957
549.140158	2630.196813
549.498811	2629.095321
549.857408	2627.525002
550.215949	2623.164404
550.574434	2623.275309
550.932864	2625.344703
551.291237	2623.905453
551.649555	2626.385701
552.007817	2626.138685
552.366022	2624.447377
552.724173	2623.721451
553.082267	2626.602471
553.440305	2626.768829
553.798288	2625.415279
554.156215	2625.299332
554.514086	2624.132305
554.871902	2625.720269
555.229661	2626.950310
555.587365	2624.338993
555.945014	2625.977368
556.302606	2626.015176
556.660143	2623.565176
557.017625	2623.786986
557.375050	2624.386884
557.732421	2625.639610
558.089735	2623.981071
558.446994	2624.674229
558.804197	2623.802110
559.161345	2625.745475
559.518437	2622.206585
559.875474	2622.798920
560.232455	2625.621966
560.589381	2623.595422
560.946251	2624.142388
561.303065	2623.807151
561.659825	2625.821092
562.016528	2621.110134
562.373177	2621.233642
562.729770	2622.824126
563.086307	2622.178858
563.442789	2621.808333
563.799216	2623.819754
564.155587	2622.123406
564.511904	2622.763632
564.868164	2623.827316
565.224370	2620.512757
565.580520	2620.989146
565.936615	2622.899743
566.292654	2622.287243
566.648638	2622.677932
567.004567	2623.154322
567.360441	2620.762294
567.716260	2621.959568
568.072023	2622.148611
568.427732	2621.120216
568.783385	2617.712396
569.138982	2619.454115
569.494525	2616.976387
569.850013	2618.715586
570.205445	2623.318159
570.560823	2621.730196
570.916145	2620.033847
571.271412	2617.815740
571.626625	2624.003756
571.981782	2619.499485
572.336884	2620.661471
572.691931	2619.925462
573.046923	2620.757253
573.401860	2621.490741
573.756743	2621.445370
574.111570	2619.444032
574.466342	2619.872530
574.821059	2621.720113
575.175722	2616.184926
575.530330	2619.723816
575.884882	2618.972684
576.239380	2617.951851
576.593823	2619.854886
576.948211	2616.013527
577.302544	2617.941768
577.656823	2619.373456
578.011047	2618.871861
578.365216	2616.827673
578.719330	2618.277005
579.073389	2619.476800
579.427394	2613.853393
579.781344	2617.331789
580.135239	2617.052005
580.489080	2619.585185
580.842866	2616.734412
581.196597	2620.122067
581.550273	2617.606532
581.903895	2613.921448
582.257463	2617.241048
582.610975	2616.563013
582.964434	2616.724330
583.317837	2616.250461
583.671186	2616.832715
584.024481	2616.835235
584.377721	2617.946810
584.730906	2615.169134
585.084037	2618.304732
585.437113	2617.601491
585.790135	2614.367590
586.143103	2616.560492
586.496016	2614.420522
586.848874	2613.692076
587.201679	2613.883640
587.554428	2613.432456
587.907124	2614.302055
588.259765	2610.909359
588.612352	2616.462190
588.964884	2615.920266
589.317362	2614.067642
589.669786	2614.710389
590.022155	2615.872375
590.374470	2617.276336
590.726731	2617.014196
591.078937	2612.671242
591.431090	2613.140069
591.783188	2615.809360
592.135232	2613.225769
592.487222	2613.359360
592.839157	2612.197374
593.191038	2613.301386
593.542866	2614.695265
593.894639	2614.715430
594.246358	2612.951026
594.598022	2612.749380
594.949633	2610.803495
595.301190	2609.835593
595.652692	2611.433639
596.004141	2610.480861
596.355535	2612.300717
596.706876	2611.973042
597.058162	2610.569081
597.409395	2612.051180
597.760573	2610.836262
598.111698	2612.691407
598.462768	2610.793412
598.813785	2609.749893
599.164748	2611.426077
599.515657	2611.282404
599.866511	2610.501025
600.217312	2613.412292
600.568060	2609.989348
600.918753	2613.359360
601.269392	2609.255860
601.619978	2609.470109
601.970510	2609.475151
602.320988	2611.776437
602.671412	2610.616972
603.021783	2611.680655
603.372100	2610.833742
603.722363	2609.835593
604.072572	2609.880963
604.422728	2610.410285
604.772830	2607.267125
605.122878	2606.778133
605.472872	2609.197887
605.822813	2607.168823
606.172701	2606.647063
606.522534	2613.271139
606.872314	2608.862650
607.222041	2607.788885
607.571714	2610.521190
607.921333	2609.306272
608.270899	2609.394492
608.620411	2609.886005
608.969870	2605.961466
609.319276	2611.443721
609.668627	2609.828031
610.017926	2608.514811
610.367171	2611.723505
610.716362	2608.900459
611.065500	2610.556478
611.414585	2610.178392
611.763616	2613.051849
612.112594	2608.408947
612.461518	2610.609410
612.810389	2609.747373
613.159207	2610.075048
613.507971	2609.485233
613.856682	2612.860285
614.205340	2610.435490
614.553945	2613.036726
614.902496	2611.708382
615.250994	2610.458176
615.599439	2608.388782
615.947830	2610.458176
616.296169	2611.554627
616.644454	2614.586881
616.992686	2611.224431
617.340864	2609.913731
617.688990	2611.577312
618.037063	2611.622682
618.385082	2609.976745
618.733048	2613.142590
619.080961	2611.153855
619.428821	2611.920110
619.776628	2610.193515
620.124382	2613.503033
620.472083	2612.041098
620.819731	2611.481530
621.167326	2610.117898
621.514868	2611.053032
621.862357	2608.426591
622.209793	2610.095212
622.557176	2608.860130
622.904506	2604.660849
623.251783	2605.495160
623.599007	2606.705037
623.946179	2605.517845
624.293297	2604.257556
624.640363	2606.750407
624.987376	2608.164451
625.334336	2613.349277
625.681243	2607.194028
626.028097	2607.630088
626.374899	2605.800149
626.721647	2604.688575
627.068343	2605.658997
627.414987	2606.508432
627.761577	2606.125304
628.108115	2607.410798
628.454600	2606.132866
628.801032	2607.362907
629.147412	2604.744028
629.493739	2605.243102
629.840014	2608.028339
630.186236	2604.476847
630.532405	2606.699995
630.878521	2605.265787
631.224585	2607.141096
631.570597	2604.078595
631.916556	2607.821652
632.262462	2605.767382
632.608316	2605.611106
632.954117	2604.610437
633.299866	2605.590942
633.645562	2606.090016
633.991206	2605.089347
634.336797	2601.784870
634.682336	2602.772937
635.027823	2603.768564
635.373257	2601.628595
635.718639	2603.118256
636.063968	2603.582042
636.409245	2604.040787
636.754470	2601.890735
637.099642	2603.007350
637.444762	2602.611620
637.789829	2600.993409
638.134845	2602.435179
638.479808	2600.398553
638.824719	2600.799325
639.169577	2600.504417
639.514383	2599.869232
639.859137	2600.103646
640.203839	2601.558018
640.548489	2601.699171
640.893086	2596.794128
641.237632	2597.545260
641.582125	2595.478387
641.926566	2597.207503
642.270955	2600.746393
642.615292	2599.541557
642.959576	2599.360075
643.303809	2600.723707
643.647990	2601.043821
643.992118	2599.165991
644.336195	2599.665065
644.680219	2599.380240
645.024192	2599.362596
645.368112	2599.188676
645.711981	2599.740682
646.055797	2599.476022
646.399562	2599.907041
646.743274	2601.447113
647.086935	2600.857298
647.430544	2600.559870
647.774101	2601.023656
648.117606	2602.999788
648.461059	2602.266301
648.804460	2606.160592
649.147810	2601.174891
649.491108	2600.806887
649.834354	2601.099273
650.177548	2600.438882
650.520690	2598.094746
650.863781	2600.542226
651.206820	2603.120776
651.549807	2599.065168
651.892742	2599.259252
652.235626	2597.227667
652.578458	2599.334870
652.921238	2597.426793
653.263967	2598.666917
653.606644	2593.202306
653.949269	2600.234716
654.291843	2596.277410
654.634365	2597.026021
654.976836	2595.218768
655.319255	2599.985178
655.661622	2595.790938
656.003938	2595.450661
656.346203	2596.204313
656.688416	2597.036103
657.030577	2598.581217
657.372687	2595.241453
657.714746	2597.515013
658.056753	2593.961000
658.398708	2592.693149
658.740612	2594.999477
659.082465	2594.074426
659.424266	2593.232553
659.766016	2591.546287
660.107715	2596.237081
660.449362	2594.336566
660.790958	2596.877307
661.132503	2595.581731
661.473996	2598.205651
661.815438	2595.649786
662.156829	2595.440578
662.498168	2595.801021
662.839456	2593.721545
663.180693	2594.591144
663.521879	2596.264807
663.863013	2597.988882
664.204097	2595.957297
664.545129	2596.910075
664.886110	2598.190528
665.227040	2596.027873
665.567918	2597.250352
665.908746	2596.957966
666.249522	2597.429313
666.590248	2596.443768
666.930922	2598.992071
667.271545	2596.864704
667.612118	2594.994436
667.952639	2596.592482
668.293109	2596.131216
668.633528	2598.049375
668.973896	2594.477718
669.314213	2596.821854
669.654480	2596.990733
669.994695	2594.984354
670.334859	2598.581217
670.674973	2595.995105
671.015035	2596.395877
671.355047	2594.649117
671.695008	2597.257914
672.034918	2596.224478
672.374777	2597.777153
672.714585	2595.518716
673.054342	2593.817327
673.394049	2593.434199
673.733705	2596.416042
674.073310	2599.223964
674.412864	2600.511979
674.752368	2594.722214
675.091820	2594.255907
675.431223	2593.759353
675.770574	2596.877307
676.109875	2591.500917
676.449125	2592.476380
676.788324	2593.653489
677.127473	2593.628283
677.466571	2590.868252
677.805619	2592.302460
678.144616	2595.541401
678.483562	2594.505444
678.822458	2593.265320
679.161303	2594.734817
679.500098	2594.339086
679.838842	2591.871441
680.177535	2595.160794
680.516179	2592.799014
680.854771	2592.587285
681.193314	2593.885382
681.531805	2593.096442
681.870247	2595.826227
682.208638	2598.271186
682.546978	2596.564756
682.885268	2596.771443
683.223508	2597.089036
683.561697	2597.164653
683.899836	2597.250352
684.237925	2596.065681
684.575963	2597.504931
684.913951	2594.278592
685.251889	2596.693305
685.589776	2593.459405
685.927614	2594.245825
686.265401	2595.700198
686.603137	2593.744230
686.940824	2596.718511
687.278460	2595.485949
687.616046	2593.605598
687.953582	2597.310846
688.291068	2596.350507
688.628504	2597.116762
688.965889	2595.654827
689.303224	2594.991916
689.640510	2598.639190
689.977745	2597.091556
690.314930	2596.766402
690.652065	2595.314549
690.989150	2597.484766
691.326185	2592.786411
691.663170	2589.998653
692.000105	2591.674836
692.336990	2591.135433
692.673825	2591.226174
693.010610	2593.207347
693.347345	2585.484299
693.684030	2587.871286
694.020665	2587.314238
694.357251	2583.719896
694.693786	2585.736357
695.030272	2587.520926
695.366707	2587.808271
695.703093	2588.398086
696.039429	2587.878847
696.375716	2589.234918
696.711952	2589.542428
697.048139	2590.553180
697.384276	2588.829105
697.720363	2586.313569
698.056400	2589.562593
698.392388	2587.715010
698.728326	2588.599732
699.064214	2586.230390
699.400053	2587.944383
699.735842	2590.238107
700.071581	2589.028231
700.407270	2585.496902
700.742910	2586.600915
701.078501	2586.769794
701.414042	2587.135277
701.749533	2587.387335
702.084974	2585.736357
702.420366	2585.512026
702.755709	2586.928590
703.091002	2584.987746
703.426246	2587.795668
703.761440	2583.228383
704.096584	2585.950606
704.431679	2584.713003
704.766725	2585.050760
705.101721	2583.210739
705.436668	2589.073601
705.771565	2584.821388
706.106413	2586.457242
706.441212	2584.130750
706.775961	2587.304156
707.110661	2584.140832
707.445311	2588.289702
707.779913	2582.978846
708.114465	2586.447160
708.448967	2586.852973
708.783421	2585.123857
709.117825	2586.016141
709.452180	2587.750298
709.786485	2586.071594
710.120742	2586.661409
710.454949	2587.470514
710.789107	2586.923549
711.123216	2583.782910
711.457275	2584.009762
711.791286	2587.258786
712.125247	2584.092941
712.459159	2586.164855
712.793023	2591.258941
713.126837	2589.718869
713.460602	2590.704414
713.794318	2588.014959
714.127985	2590.762388
714.461602	2587.833477
714.795171	2587.997315
715.128691	2587.437747
715.462162	2586.608477
715.795584	2585.627972
716.128957	2586.830287
716.462281	2584.919690
716.795556	2585.078487
717.128782	2584.705441
717.461960	2585.360791
717.795088	2585.948086
718.128167	2585.396079
718.461198	2586.429516
718.794180	2582.878023
719.127113	2583.760225
719.459997	2581.970615
719.792833	2581.431212
720.125619	2583.866089
720.458357	2581.630337
720.791046	2581.864751
721.123686	2582.389031
721.456278	2583.379618
721.788821	2582.504977
722.121315	2582.570512
722.453761	2580.433063
722.786158	2581.786613
723.118506	2582.139494
723.450805	2581.073290
723.783056	2582.174782
724.115259	2582.245358
724.447412	2584.894484
724.779518	2582.076479
725.111574	2583.931624
725.443582	2583.193095
725.775542	2582.935996
726.107453	2583.697210
726.439315	2581.239648
726.771129	2584.491192
727.102895	2582.593198
727.434612	2584.997828
727.766281	2581.763928
728.097901	2581.968095
728.429473	2581.363156
728.760996	2580.138156
729.092471	2578.015830
729.423897	2582.678897
729.755276	2583.462797
730.086606	2584.314752
730.417887	2583.286356
730.749120	2582.386510
731.080305	2584.181161
731.411442	2583.752663
731.742530	2586.157293
732.073570	2585.408682
732.404562	2585.842221
732.735506	2586.381625
733.066401	2584.269381
733.397249	2585.338106
733.728048	2585.322982
734.058798	2586.648806
734.389501	2583.364494
734.720156	2583.150245
735.050762	2582.547827
735.381320	2584.105544
735.711831	2581.912642
736.042293	2580.347364
736.372707	2580.833835
736.703073	2583.929103
737.033391	2583.886254
737.363661	2582.595718
737.693883	2583.079669
738.024056	2584.581933
738.354182	2582.762076
738.684260	2581.224524
739.014290	2580.712847
739.344272	2583.498085
739.674207	2583.331727
740.004093	2585.252406
740.333931	2583.041860
740.663722	2585.985894
740.993464	2583.077148
741.323159	2584.609659
741.652806	2582.878023
741.982405	2584.297108
742.311956	2582.968764
742.641460	2584.347519
742.970915	2580.705286
743.300323	2580.886767
743.629683	2579.205542
743.958996	2578.403999
744.288260	2581.554720
744.617477	2582.888105
744.946647	2576.037177
745.275768	2578.761921
745.604842	2577.627661
745.933869	2576.291755
746.262847	2577.675552
746.591778	2579.608835
746.920662	2576.805953
747.249498	2580.493557
747.578286	2581.279977
747.907027	2580.367528
748.235720	2580.337281
748.564365	2582.885585
748.892963	2580.367528
749.221514	2581.716037
749.550017	2579.162692
749.878473	2579.717219
750.206881	2579.742425
750.535242	2582.462128
750.863555	2580.067580
751.191821	2581.169072
751.520039	2580.846438
751.848210	2579.016499
752.176334	2577.121025
752.504411	2581.630337
752.832440	2577.514235
753.160421	2577.781416
753.488356	2579.051787
753.816243	2577.622620
754.144082	2577.708320
754.471875	2580.254102
754.799620	2578.139338
755.127318	2577.252095
755.454969	2578.711509
755.782572	2576.863926
756.110129	2579.225707
756.437638	2578.547672
756.765100	2577.781416
757.092515	2578.283011
757.419882	2578.522466
757.747203	2580.186047
758.074477	2580.291911
758.401703	2577.244533
758.728882	2579.208063
759.056014	2579.913824
759.383099	2579.124884
759.710138	2578.739236
760.037129	2580.359967
760.364073	2581.902560
760.690970	2580.569174
761.017820	2579.843248
761.344623	2579.379462
761.671379	2580.332240
761.998088	2579.238310
762.324751	2576.818556
762.651366	2580.304514
762.977935	2586.500092
763.304456	2588.740885
763.630931	2593.645928
763.957359	2594.767584
764.283740	2593.255238
764.610074	2591.642069
764.936362	2588.692994
765.262602	2586.406831
765.588796	2585.035637
765.914943	2580.319637
766.241044	2580.879205
766.567097	2580.294432
766.893104	2579.094637
767.219064	2579.364339
767.544978	2576.745459
767.870845	2576.800912
768.196665	2577.166396
768.522438	2576.833679
768.848165	2576.720253
769.173846	2576.659760
769.499479	2579.341653
769.825066	2574.877712
770.150607	2575.351580
770.476101	2574.310582
770.801548	2577.322671
771.126949	2574.915520
771.452303	2575.346539
771.777611	2573.657752
772.102872	2574.804615
772.428087	2573.834193
772.753256	2575.442321
773.078378	2576.654718
773.403453	2575.538103
773.728482	2573.249419
774.053465	2575.585994
774.378401	2570.597772
774.703291	2571.568194
775.028135	2571.825293
775.352932	2576.039698
775.677683	2573.385530
776.002388	2575.182702
776.327046	2570.587690
776.651658	2575.815366
776.976224	2571.762279
777.300743	2573.148596
777.625216	2572.168092
777.949643	2572.430232
778.274024	2572.820921
778.598359	2568.062072
778.922647	2568.896383
779.246889	2570.817062
779.571086	2568.956877
779.895236	2570.317988
780.219339	2571.956363
780.543397	2572.289079
780.867409	2572.087433
781.191374	2571.613565
781.515294	2573.120870
781.839167	2569.564336
782.162995	2570.796898
782.486776	2571.147258
782.810511	2571.621126
783.134201	2574.567681
783.457844	2569.932340
783.781441	2573.423339
784.104993	2574.207238
784.428498	2571.487536
784.751958	2571.772361
785.075372	2573.793864
785.398739	2572.994841
785.722061	2571.837896
786.045337	2572.762948
786.368568	2572.694892
786.691752	2572.553740
787.014891	2573.665314
787.337983	2571.825293
787.661030	2576.281673
787.984031	2572.405026
788.306987	2574.376117
788.629897	2575.470047
788.952760	2573.667835
789.275579	2577.390727
789.598351	2577.388206
789.921078	2573.700602
790.243759	2574.849985
790.566395	2573.110787
790.888984	2573.703123
791.211529	2573.108267
791.534027	2572.962073
791.856480	2569.932340
792.178888	2571.956363
792.501249	2570.892680
792.823566	2573.186405
793.145836	2574.252609
793.468062	2571.540468
793.790241	2571.679100
794.112375	2572.026939
794.434464	2572.543657
794.756507	2574.081209
795.078505	2571.200190
795.400457	2571.437124
795.722364	2567.247925
796.044226	2571.157340
796.366042	2573.171281
796.687812	2572.140365
797.009538	2574.212279
797.331218	2573.902248
797.652852	2575.386868
797.974442	2574.852506
798.295986	2571.071641
798.617484	2573.803946
798.938938	2574.572722
799.260346	2572.352094
799.581709	2572.664645
799.903026	2573.062896
800.224299	2571.384192
800.545526	2571.681620
800.866708	2572.142886
801.187845	2572.437793
801.508936	2571.139696
801.829983	2573.733370
802.150984	2571.437124
802.471940	2572.059707
802.792851	2569.014850
803.113717	2572.730180
803.434538	2572.021898
803.755314	2569.881928
804.076045	2571.185067
804.396731	2569.748338
804.717372	2571.250602
805.037967	2568.775395
805.358518	2570.940571
805.679024	2570.065930
805.999485	2571.953842
806.319901	2570.464182
806.640272	2570.696075
806.960598	2568.939232
807.280879	2571.966445
807.601115	2570.317988
807.921306	2570.829665
808.241453	2569.410580
808.561554	2570.310426
808.881611	2572.972156
809.201623	2573.451065
809.521590	2572.029460
809.841513	2570.902762
810.161390	2570.305385
810.481223	2571.908472
810.801011	2570.827145
811.120755	2571.419480
811.440453	2572.389902
811.760107	2568.959397
812.079716	2566.320353
812.399281	2567.648697
812.718801	2568.321691
813.038276	2568.268759
813.357707	2569.362689
813.677093	2570.993503
813.996434	2569.178687
814.315731	2571.840417
814.634983	2571.245560
814.954191	2571.255643
815.273354	2572.369738
815.592473	2572.291600
815.911547	2571.462330
816.230577	2570.557443
816.549562	2571.744635
816.868502	2572.180694
817.187399	2572.833524
817.506250	2572.808318
817.825058	2572.147927
818.143821	2573.710685
818.462539	2571.434604
818.781213	2572.306723
819.099843	2573.093143
819.418429	2573.572053
819.736970	2575.281004
820.055466	2577.453741
820.373919	2577.708320
820.692327	2582.855338
821.010691	2586.467324
821.329011	2594.785228
821.647286	2614.922117
821.965517	2632.132617
822.283704	2649.025523
822.601847	2655.808396
822.919945	2653.688590
823.237999	2646.784730
823.556010	2637.791312
823.873976	2627.351082
824.191897	2621.357150
824.509775	2613.046808
824.827609	2606.969697
825.145398	2601.285796
825.463144	2599.750765
825.780845	2594.437389
826.098502	2598.193048
826.416116	2600.116248
826.733685	2606.357197
827.051210	2609.074379
827.368692	2608.794595
827.686129	2600.874942
828.003522	2599.516351
828.320872	2588.549321
828.638177	2588.133426
828.955439	2584.430698
829.272656	2578.754359
829.589830	2578.502301
829.906960	2577.456262
830.224046	2577.645305
830.541088	2574.638257
830.858086	2573.239337
831.175041	2575.046590
831.491952	2571.974007
831.808819	2572.999882
832.125642	2574.116497
832.442421	2574.418967
832.759157	2578.192270
833.075849	2580.085224
833.392497	2586.149732
833.709101	2588.594691
834.025662	2588.539239
834.342179	2589.744074
834.658653	2582.147056
834.975083	2583.692169
835.291469	2588.647623
835.607811	2579.344174
835.924110	2576.863926
836.240366	2574.260170
836.556578	2575.099522
836.872746	2574.192115
837.188871	2572.470561
837.504952	2572.679769
837.820990	2569.125755
838.136984	2570.335632
838.452935	2569.740776
838.768842	2569.332442
839.084706	2570.209603
839.400526	2571.840417
839.716303	2574.144224
840.032037	2572.334450
840.347727	2574.557598
840.663373	2575.613720
840.978977	2572.531055
841.294537	2571.169943
841.610054	2569.193811
841.925527	2570.431414
842.240957	2568.934191
842.556344	2571.774882
842.871687	2566.615261
843.186987	2569.773543
843.502244	2566.229612
843.817458	2569.657597
844.132629	2566.688357
844.447756	2569.239181
844.762840	2561.501010
845.077881	2563.303223
845.392879	2563.134344
845.707833	2564.873542
846.022745	2562.055537
846.337613	2565.899417
846.652438	2565.133161
846.967221	2565.324725
847.281960	2567.676423
847.596656	2568.626681
847.911309	2565.317163
848.225919	2566.355641
848.540485	2565.798594
848.855009	2568.772874
849.169490	2565.753223
849.483928	2564.535785
849.798323	2566.668193
850.112675	2563.943449
850.426984	2567.343707
850.741251	2566.953018
851.055474	2563.623336
851.369654	2566.406053
851.683792	2563.910682
851.997887	2566.292627
852.311938	2566.118707
852.625947	2566.905127
852.939914	2563.202399
853.253837	2567.966290
853.567718	2567.139541
853.881555	2566.554767
854.195350	2565.455795
854.509103	2566.537123
854.822812	2566.337997
855.136479	2565.145764
855.450103	2564.934036
855.763685	2568.374623
856.077224	2564.220712
856.390720	2566.922771
856.704173	2565.425548
857.017584	2564.747513
857.330953	2565.206258
857.644278	2564.074519
857.957561	2570.819583
858.270802	2568.573749
858.584000	2567.482339
858.897155	2565.657441
859.210268	2564.399673
859.523339	2567.126938
859.836367	2565.544015
860.149352	2565.758264
860.462295	2569.322360
860.775195	2562.196689
861.088054	2563.744323
861.400869	2562.693243
861.713642	2560.694425
862.026373	2561.256514
862.339062	2564.687019
862.651708	2565.952349
862.964312	2566.458985
863.276873	2564.760116
863.589392	2568.881259
863.901869	2564.790363
864.214303	2564.659293
864.526696	2566.204407
864.839045	2566.378326
865.151353	2567.499983
865.463619	2566.920250
865.775842	2568.150292
866.088023	2565.090312
866.400162	2567.709191
866.712258	2565.102914
867.024313	2568.067113
867.336325	2567.593244
867.648296	2563.779612
867.960224	2565.969993
868.272110	2565.554098
868.583954	2565.826320
868.895755	2572.110118
869.207515	2565.218861
869.519233	2567.313460
869.830909	2567.318502
870.142542	2568.183059
870.454134	2566.280024
870.765684	2567.474777
871.077191	2565.448233
871.388657	2566.829510
871.700081	2566.380847
872.011463	2569.771023
872.322803	2563.845147
872.634101	2567.028635
872.945357	2569.385375
873.256571	2567.860426
873.567744	2568.304047
873.878874	2568.309088
874.189963	2568.926630
874.501010	2569.443348
874.812015	2566.083419
875.122979	2567.497463
875.433900	2569.496280
875.744780	2568.982082
876.055618	2570.270097
876.366415	2568.835889
876.677169	2569.609706
876.987882	2566.990827
877.298554	2565.801114
877.609183	2564.692060
877.919771	2565.501166
878.230317	2565.866649
878.540822	2572.773030
878.851285	2571.283369
879.161707	2570.136507
879.472087	2570.396126
879.782425	2572.720098
880.092722	2575.749831
880.402977	2581.660584
880.713191	2592.763726
881.023363	2600.224633
881.333494	2606.352156
881.643583	2610.579163
881.953631	2613.931531
882.263637	2607.982969
882.573602	2609.966663
882.883526	2607.315016
883.193408	2603.594645
883.503248	2599.105497
883.813048	2598.339242
884.122806	2596.032914
884.432522	2590.248190
884.742197	2587.883889
885.051831	2584.307190
885.361424	2582.507498
885.670975	2579.407188
885.980485	2574.043401
886.289954	2576.354770
886.599382	2574.628175
886.908768	2574.671024
887.218113	2571.974007
887.527417	2572.641960
887.836680	2570.927968
888.145901	2570.302865
888.455082	2566.794222
888.764221	2567.550395
889.073319	2569.110632
889.382376	2568.823286
889.691392	2568.903944
890.000366	2570.350756
890.309300	2569.650035
890.618193	2566.549726
890.927044	2568.170457
891.235855	2565.443192
891.544625	2567.036197
891.853353	2567.207596
892.162041	2566.942936
892.470687	2566.892524
892.779293	2569.012329
893.087858	2565.546536
893.396381	2573.287228
893.704864	2568.651887
894.013306	2573.236816
894.321707	2577.027764
894.630068	2579.681931
894.938387	2579.656726
895.246665	2582.593198
895.554903	2580.148238
895.863100	2579.147569
896.171256	2577.625141
896.479371	2574.822259
896.787446	2577.446180
897.095480	2572.732701
897.403473	2574.043401
897.711425	2572.125242
898.019336	2574.751683
898.327207	2569.670200
898.635038	2572.858730
898.942827	2568.273800
899.250576	2567.568039
899.558284	2569.057700
899.865952	2568.724983
900.173579	2564.694581
900.481165	2567.401681
900.788711	2567.189952
901.096216	2567.263049
901.403681	2567.177349
901.711105	2566.721125
902.018489	2567.404201
902.325832	2567.643656
902.633135	2568.493090
902.940397	2567.361351
903.247619	2568.213306
903.554800	2570.280179
903.861941	2574.182032
904.169041	2579.172775
904.476101	2582.237796
904.783121	2582.878023
905.090100	2583.679566
905.397039	2580.735532
905.703938	2578.782085
906.010796	2577.294945
906.317614	2577.007599
906.624391	2575.623802
906.931129	2573.771178
907.237826	2571.691703
907.544483	2571.253122
907.851099	2572.498287
908.157675	2568.475446
908.464211	2568.029304
908.770707	2565.448233
909.077163	2563.005794
909.383578	2562.249621
909.689954	2561.967317
909.996289	2559.711400
910.302584	2564.639128
910.608839	2562.922615
910.915054	2564.646690
911.221229	2565.992678
911.527363	2567.772205
911.833458	2564.828172
912.139513	2566.033007
912.445527	2563.615774
912.751502	2562.758778
913.057436	2565.112997
913.363331	2565.954869
913.669186	2564.702143
913.975000	2567.351269
914.280775	2568.815724
914.586510	2570.189439
914.892205	2571.598441
915.197859	2572.165571
915.503475	2576.541292
915.809050	2579.397106
916.114585	2582.263002
916.420081	2583.835842
916.725536	2584.123188
917.030952	2584.160997
917.336328	2583.271233
917.641665	2580.249061
917.946961	2578.829976
918.252218	2575.868298
918.557435	2576.584142
918.862612	2579.286201
919.167750	2575.533062
919.472848	2572.306723
919.777906	2571.812690
920.082925	2572.339491
920.387904	2570.486867
920.692843	2570.035683
920.997743	2569.443348
921.302603	2567.699109
921.607423	2569.433266
921.912204	2566.761454
922.216946	2567.449572
922.521647	2568.175498
922.826310	2568.714901
923.130932	2564.324056
923.435516	2566.751372
923.740059	2567.931002
924.044564	2563.940928
924.349028	2566.368244
924.653454	2560.712069
924.957840	2559.955896
925.262186	2559.529919
925.566493	2563.283058
925.870761	2560.349106
926.174989	2564.059396
926.479178	2566.373285
926.783328	2564.755075
927.087438	2562.741134
927.391509	2565.213820
927.695541	2562.753737
927.999533	2563.220043
928.303486	2561.105279
928.607400	2563.653583
928.911275	2559.824826
929.215110	2562.426062
929.518906	2562.698284
929.822663	2560.533108
930.126381	2563.041082
930.430060	2561.710218
930.733699	2561.127965
931.037299	2563.542677
931.340861	2561.329611
931.644383	2562.799107
931.947866	2563.227605
932.251309	2563.431772
932.554714	2562.504200
932.858080	2565.249108
933.161407	2563.467060
933.464694	2562.731052
933.767943	2561.770712
934.071153	2562.917574
934.374323	2564.233315
934.677455	2560.795248
934.980548	2561.798438
935.283602	2563.041083
935.586617	2561.256514
935.889593	2561.218705
936.192530	2561.967317
936.495428	2559.260217
936.798287	2562.393294
937.101108	2562.746175
937.403890	2563.058727
937.706632	2564.876063
938.009336	2562.209292
938.312002	2563.640980
938.614628	2565.168449
938.917216	2564.596278
939.219765	2562.612584
939.522275	2561.974878
939.824747	2565.584345
940.127179	2557.886503
940.429573	2557.528581
940.731929	2558.168807
941.034246	2558.178890
941.336524	2560.268448
941.638763	2565.700291
941.940964	2565.405384
942.243126	2563.646021
942.545250	2563.966134
942.847335	2564.555949
943.149381	2563.094015
943.451389	2563.855229
943.753359	2562.980589
944.055290	2563.005794
944.357182	2561.503531
944.659036	2560.943962
944.960851	2564.240877
945.262628	2565.024777
945.564367	2562.511761
945.866067	2564.858418
946.167729	2564.104766
946.469352	2559.529919
946.770937	2561.806000
947.072484	2562.282389
947.373992	2562.463870
947.675462	2564.303892
947.976893	2564.442523
948.278286	2562.075702
948.579641	2561.705177
948.880958	2562.841957
949.182236	2564.808007
949.483476	2560.177707
949.784678	2560.606205
950.085841	2562.201730
950.386967	2564.624005
950.688054	2561.523695
950.989103	2560.722152
951.290114	2560.165104
951.591087	2561.974878
951.892021	2562.426062
952.192917	2562.549570
952.493776	2566.564849
952.794596	2563.691391
953.095378	2563.136864
953.396122	2566.025446
953.696828	2562.269786
953.997496	2561.657286
954.298126	2564.825651
954.598718	2560.797769
954.899272	2560.921277
955.199788	2561.725341
955.500266	2563.822461
955.800706	2559.918088
956.101108	2557.387428
956.401472	2558.045299
956.701798	2559.061092
957.002087	2559.353478
957.302337	2561.052347
957.602550	2561.039744
957.902724	2562.773901
958.202861	2558.010011
958.502960	2560.386915
958.803022	2560.744837
959.103045	2562.481514
959.403031	2563.951011
959.702979	2560.570917
960.002889	2561.707697
960.302762	2561.385063
960.602596	2559.608057
960.902393	2559.671071
961.202153	2561.541339
961.501875	2560.684343
961.801559	2556.979095
962.101205	2562.393294
962.400814	2560.558314
962.700385	2560.424724
962.999918	2562.438665
963.299414	2557.946997
963.598873	2560.109652
963.898293	2561.251473
964.197677	2562.068140
964.497022	2557.566389
964.796331	2560.515464
965.095601	2558.665361
965.394835	2562.748696
965.694030	2560.765002
965.993189	2559.600495
966.292309	2559.199723
966.591393	2560.681823
966.890439	2558.279713
967.189447	2562.196689
967.488419	2559.978582
967.787353	2559.953376
968.086249	2557.168138
968.385108	2559.681153
968.683930	2559.509754
968.982714	2560.109652
969.281462	2558.418344
969.580172	2563.416648
969.878844	2557.805844
970.177480	2559.224929
970.476078	2558.448591
970.774639	2559.209806
971.073162	2561.755588
971.371649	2557.795762
971.670098	2557.165618
971.968510	2557.911708
972.266885	2556.371636
972.565223	2561.145609
972.863524	2557.941955
973.161788	2559.229970
973.460014	2557.876420
973.758204	2557.687377
974.056356	2560.676781
974.354471	2561.284240
974.652550	2559.703839
974.950591	2561.138047
975.248595	2562.141237
975.546563	2562.300033
975.844493	2558.841801
976.142386	2560.457491
976.440243	2560.875907
976.738062	2558.733417
977.035845	2558.448591
977.333590	2561.725341
977.631299	2558.249466
977.928971	2558.085628
978.226606	2558.730896
978.524204	2564.235836
978.821765	2561.503531
979.119290	2562.073181
979.416777	2560.870866
979.714228	2561.228788
980.011642	2558.982954
980.309020	2563.126782
980.606360	2559.736606
980.903664	2561.163253
981.200931	2560.507903
981.498162	2558.836760
981.795356	2557.357182
982.092513	2562.090825
982.389633	2560.777604
982.686717	2561.253993
982.983764	2560.374312
983.280775	2563.711556
983.577749	2560.863304
983.874686	2562.133675
984.171587	2560.245763
984.468451	2562.216854
984.765279	2563.537636
985.062070	2560.107131
985.358824	2561.979920
985.655543	2561.057388
985.952224	2564.306412
986.248869	2561.654765
986.545478	2559.459343
986.842050	2559.608057
987.138586	2557.987326
987.435086	2553.533466
987.731549	2554.869372
988.027975	2559.925649
988.324366	2557.326935
988.620719	2560.749878
988.917037	2557.059753
989.213318	2559.600495
989.509563	2560.046637
989.805772	2557.795762
990.101944	2557.939435
990.398080	2560.921277
990.694180	2559.098900
990.990244	2557.057233
991.286271	2556.971533
991.582262	2558.342727
991.878217	2557.826009
992.174136	2556.243087
992.470019	2559.474466
992.765865	2561.064950
993.061676	2558.103272
993.357450	2560.472615
993.653188	2560.399518
993.948890	2558.251986
994.244556	2559.998746
994.540186	2557.798282
994.835780	2559.008159
995.131337	2562.678119
995.426859	2557.183262
995.722345	2556.137222
996.017795	2561.932029
996.313208	2561.833726
996.608586	2560.505382
996.903928	2560.636452
997.199234	2560.817934
997.494504	2562.156360
997.789738	2560.409600
998.084936	2560.608726
998.380099	2560.681822
998.675225	2557.873900
998.970316	2559.749209
999.265371	2559.169476
999.560390	2562.277348
999.855373	2558.163766
1000.150320	2558.647717
1000.445232	2560.979251
1000.740108	2558.950186
1001.034948	2559.902964
1001.329752	2558.199054
1001.624521	2561.750547
1001.919254	2552.946172
1002.213951	2553.452808
1002.508613	2555.431461
1002.803239	2556.371636
1003.097829	2554.476162
1003.392384	2559.212326
1003.686903	2558.493962
1003.981386	2557.919270
1004.275834	2557.705021
1004.570246	2560.369271
1004.864623	2557.702501
1005.158964	2558.435988
1005.453270	2559.250135
1005.747540	2556.268292
1006.041775	2558.740978
1006.335974	2559.255176
1006.630138	2558.504044
1006.924266	2559.169476
1007.218359	2558.763663
1007.512416	2559.540001
1007.806438	2559.890361
1008.100425	2561.281720
1008.394376	2557.357182
1008.688292	2558.463715
1008.982172	2556.532953
1009.276017	2558.735937
1009.569827	2559.066133
1009.863602	2558.315001
1010.157341	2559.877758
1010.451045	2556.842984
1010.744714	2561.168294
1011.038347	2559.363561
1011.331945	2557.957079
1011.625508	2558.214178
1011.919036	2559.514795
1012.212528	2558.393139
1012.505986	2560.268448
1012.799408	2561.737944
1013.092795	2559.083777
1013.386147	2559.444219
1013.679464	2556.613611
1013.972745	2559.406411
1014.265992	2559.171997
1014.559204	2559.406411
1014.852380	2557.836091
1015.145521	2560.714590
1015.438628	2558.501523
1015.731699	2561.422872
1016.024736	2558.125957
1016.317737	2557.722665
1016.610703	2560.207954
1016.903635	2555.476831
1017.196531	2556.681667
1017.489393	2555.431461
1017.782219	2553.450287
1018.075011	2555.955741
1018.367768	2563.184755
1018.660490	2558.998077
1018.953177	2558.998077
1019.245829	2558.998077
