Dividing Wavelength (nm)	Counts (n)	Blue Motor Position (mm): 0.000000	Red Motor Position (mm): 10.500000	
326.493990	2083.949986
326.888308	2083.949986
327.282561	2083.949986
327.676750	2059.392005
328.070874	2062.935936
328.464933	2067.619168
328.858929	2078.256002
329.252859	2092.378795
329.646726	2107.305651
330.040528	2123.276027
330.434265	2139.687503
330.827938	2159.665596
331.221547	2180.926662
331.615091	2200.738397
332.008571	2223.295040
332.401986	2243.326064
332.795338	2263.019332
333.188625	2282.047167
333.581847	2299.106432
333.975006	2317.882209
334.368100	2336.894921
334.761129	2352.136850
335.154095	2369.861547
335.546996	2385.658002
335.939833	2400.410939
336.332606	2415.088258
336.725315	2424.961358
337.117960	2433.493511
337.510540	2442.030705
337.903056	2451.243414
338.295508	2455.180555
338.687896	2463.669858
339.080220	2470.793008
339.472480	2478.127887
339.864676	2477.591004
340.256807	2481.303814
340.648875	2482.284318
341.040879	2485.278764
341.432818	2487.751450
341.824694	2487.131388
342.216506	2486.654999
342.608253	2486.342447
342.999937	2485.072077
343.391557	2485.014103
343.783113	2482.521253
344.174605	2481.064359
344.566033	2478.135449
344.957397	2480.456900
345.348697	2475.309882
345.739934	2477.664101
346.131106	2472.391054
346.522215	2473.510190
346.913260	2471.440797
347.304241	2467.894345
347.695159	2469.570528
348.086012	2466.051803
348.476802	2464.042903
348.867528	2464.065588
349.258191	2460.403190
349.648789	2463.057358
350.039324	2459.760443
350.429796	2460.680454
350.820203	2460.521657
351.210548	2460.710701
351.600828	2459.732717
351.991045	2456.723148
352.381198	2457.587706
352.771288	2458.122068
353.161314	2457.045782
353.551276	2458.921091
353.941175	2461.103911
354.331010	2457.761626
354.720782	2459.851184
355.110490	2458.968982
355.500135	2459.667182
355.889717	2458.757253
356.279235	2460.272120
356.668689	2462.170115
357.058080	2461.494600
357.447408	2457.633076
357.836672	2460.675412
358.225873	2462.162553
358.615010	2459.699949
359.004084	2462.492748
359.393095	2465.154478
359.782043	2463.901751
360.170927	2466.324025
360.559748	2465.025928
360.948505	2468.227061
361.337199	2468.156485
361.725830	2466.550877
362.114398	2467.733028
362.502903	2469.734366
362.891344	2469.086578
363.279722	2469.991465
363.668037	2471.680251
364.056289	2472.272587
364.444478	2473.759727
364.832603	2471.453399
365.220665	2474.296610
365.608665	2472.252422
365.996601	2471.332412
366.384474	2475.637557
366.772284	2475.400623
367.160031	2476.865078
367.547715	2477.734677
367.935336	2476.590335
368.322893	2475.254429
368.710388	2476.925572
369.097820	2480.371201
369.485189	2479.632672
369.872495	2483.098465
370.259738	2481.475213
370.646918	2484.285657
371.034035	2483.862200
371.421090	2488.802530
371.808081	2490.098107
372.195010	2490.405617
372.581875	2499.998933
372.968678	2501.105466
373.355418	2510.010665
373.742096	2516.475944
374.128710	2526.187727
374.515262	2537.484953
374.901751	2548.076417
375.288177	2564.649211
375.674540	2581.416088
376.060841	2597.262955
376.447079	2619.121398
376.833254	2643.956643
377.219367	2665.416835
377.605417	2696.019159
377.991404	2719.422716
378.377329	2754.993097
378.763191	2789.451905
379.148991	2829.715600
379.534727	2874.050028
379.920402	2920.761359
380.306013	2964.022021
380.691563	3024.445291
381.077049	3074.685430
381.462474	3128.386322
381.847835	3194.735468
382.233134	3263.353134
382.618371	3316.512101
383.003545	3400.792632
383.388657	3473.937253
383.773706	3560.735840
384.158693	3626.941314
384.543618	3715.471537
384.928480	3790.335192
385.313280	3885.267681
385.698017	3983.870129
386.082692	4096.179475
386.467305	4152.196777
386.851856	4272.539202
387.236344	4413.550357
387.620770	4470.800221
388.005133	4581.617385
388.389435	4712.962128
388.773674	4786.494918
389.157851	4905.065377
389.541965	5026.441239
389.926018	5044.443199
390.310008	5198.941962
390.693936	5297.085665
391.077802	5389.588318
391.461606	5504.168703
391.845348	5586.273976
392.229027	5685.241908
392.612645	5860.323702
392.996200	5943.512823
393.379694	6072.306742
393.763125	6233.232976
394.146494	6277.373319
394.529801	6356.897521
394.913047	6527.744745
395.296230	6475.147866
395.679351	6473.809440
396.062410	6631.489171
396.445408	6498.944633
396.828343	6566.468368
397.211217	6607.049657
397.594028	6450.723476
397.976778	6543.624380
398.359466	6594.865188
398.742092	6513.385018
399.124656	6542.928700
399.507158	6600.430622
399.889598	6531.853285
400.271977	6599.447597
400.654294	6532.876640
401.036549	6570.198822
401.418742	6496.844992
401.800874	6588.409990
402.182944	6542.656478
402.564952	6656.188304
402.946898	6456.591379
403.328783	6373.099789
403.710606	6374.297063
404.092367	6405.378297
404.474067	6474.966385
404.855705	6255.524958
405.237282	6114.589420
405.618797	6201.133428
406.000250	6194.143869
406.381642	6232.935547
406.762972	6087.410039
407.144240	5883.389502
407.525447	5857.926633
407.906593	5714.571342
408.287677	5689.317681
408.668700	5617.879490
409.049661	5489.158668
409.430560	5419.237864
409.811399	5295.343947
410.192176	5229.637547
410.572891	5127.758349
410.953545	5137.306294
411.334138	4886.594590
411.714669	4914.825051
412.095139	4647.278414
412.475547	4643.583248
412.855894	4513.672713
413.236180	4474.374399
413.616405	4308.361641
413.996568	4259.167541
414.376670	4161.648940
414.756711	4051.091395
415.136691	4000.029548
415.516609	3936.533695
415.896466	3863.336141
416.276262	3810.542657
416.655997	3783.111219
417.035670	3702.765309
417.415283	3693.867672
417.794834	3618.419243
418.174324	3524.575644
418.553753	3445.590845
418.933121	3414.408788
419.312428	3334.161181
419.691674	3267.189452
420.070859	3238.245667
420.449983	3166.472239
420.829045	3141.452992
421.208047	3079.638364
421.586988	3054.331772
421.965867	3020.740043
422.344686	2979.122798
422.723444	2958.650672
423.102141	2880.636295
423.480777	2883.003117
423.859352	2842.542816
424.237866	2838.328412
424.616319	2802.846250
424.994712	2791.327214
425.373044	2767.684202
425.751314	2755.063674
426.129524	2723.294322
426.507673	2724.783983
426.885762	2703.177598
427.263789	2693.659899
427.641756	2679.353105
428.019662	2670.828513
428.397508	2660.554642
428.775292	2651.964516
429.153016	2642.265336
429.530679	2637.261991
429.908282	2633.433234
430.285824	2623.449229
430.663305	2623.517285
431.040726	2615.562344
431.418086	2607.148658
431.795385	2609.951540
432.172624	2608.313165
432.549802	2602.740169
432.926920	2601.127000
433.303977	2597.346134
433.680974	2593.439240
434.057910	2596.600044
434.434786	2593.449322
434.811601	2592.206678
435.188355	2588.761049
435.565050	2586.789958
435.941683	2589.096286
436.318257	2589.575196
436.694770	2586.691656
437.071222	2589.807089
437.447614	2580.400296
437.823946	2578.033474
438.200218	2581.746284
438.576429	2581.315265
438.952580	2582.444484
439.328670	2579.976839
439.704700	2578.507342
440.080670	2578.892991
440.456580	2579.921386
440.832429	2583.125039
441.208218	2574.847465
441.583947	2577.378124
441.959616	2577.138669
442.335224	2579.482806
442.710773	2575.253278
443.086261	2581.673187
443.461689	2578.146900
443.837057	2578.817373
444.212365	2580.208732
444.587612	2580.296952
444.962800	2578.189750
445.337927	2579.881057
445.712995	2572.198338
446.088002	2583.190574
446.462949	2583.056984
446.837837	2581.526994
447.212664	2581.680749
447.587431	2592.236925
447.962139	2603.125817
448.336786	2613.059411
448.711374	2607.703185
449.085901	2592.312542
449.460369	2591.352202
449.834776	2593.474528
450.209124	2601.802514
450.583412	2600.849736
450.957640	2600.960642
451.331808	2598.707246
451.705917	2592.947728
452.079965	2591.929415
452.453954	2593.116606
452.827883	2592.945207
453.201752	2590.333889
453.575562	2591.853797
453.949311	2596.020311
454.323001	2596.678182
454.696632	2596.965527
455.070202	2600.396032
455.443713	2602.694799
455.817164	2602.677155
456.190556	2601.268152
456.563888	2602.291506
456.937160	2601.673965
457.310373	2599.102977
457.683526	2601.013574
458.056619	2600.068358
458.429653	2600.491814
458.802628	2601.603389
459.175542	2602.122628
459.548398	2607.123452
459.921194	2610.614451
460.293930	2615.025461
460.666607	2622.660288
461.039224	2628.475259
461.411782	2628.828140
461.784280	2626.504168
462.156719	2621.581482
462.529099	2622.763632
462.901419	2615.789196
463.273680	2612.552775
463.645882	2614.546551
464.018024	2616.066459
464.390106	2615.320368
464.762130	2630.156484
465.134094	2644.765748
465.505999	2662.256031
465.877845	2678.866633
466.249631	2685.808302
466.621358	2677.777744
466.993026	2671.040242
467.364634	2665.613440
467.736184	2658.056750
468.107674	2653.973416
468.479105	2652.607263
468.850477	2649.973260
469.221790	2645.284987
469.593043	2637.733338
469.964238	2636.430200
470.335373	2637.650159
470.706449	2643.036632
471.077467	2654.230514
471.448425	2671.438493
471.819324	2683.229752
472.190164	2675.915038
472.560945	2662.334169
472.931667	2649.698517
473.302330	2645.804226
473.672934	2642.948412
474.043479	2642.529996
474.413965	2640.992444
474.784393	2633.750827
475.154761	2638.275262
475.525070	2639.865747
475.895321	2635.737042
476.265513	2635.674027
476.635645	2642.003196
477.005719	2641.703247
477.375734	2641.330202
477.745691	2643.497898
478.115588	2650.590801
478.485427	2653.565082
478.855207	2663.901968
479.224928	2671.952691
479.594591	2674.803463
479.964194	2670.359686
480.333739	2671.314985
480.703226	2668.837258
481.072653	2669.348935
481.442022	2669.497649
481.811333	2670.089984
482.180584	2661.809889
482.549777	2659.800989
482.918912	2656.751091
483.287988	2657.015752
483.657005	2651.664567
484.025964	2648.541572
484.394864	2646.192395
484.763706	2645.400933
485.132489	2639.540592
485.501213	2639.139820
485.869879	2637.796353
486.238487	2634.154119
486.607036	2635.888276
486.975527	2630.678244
487.343959	2632.140178
487.712333	2633.922226
488.080648	2630.811834
488.448905	2632.820734
488.817104	2629.377626
489.185244	2634.333080
489.553326	2637.539254
489.921350	2641.567136
490.289315	2650.832777
490.657222	2653.822181
491.025070	2651.369660
491.392861	2648.682725
491.760593	2645.007723
492.128267	2637.700571
492.495883	2634.265025
492.863440	2631.454581
493.230939	2624.281019
493.598380	2619.912860
493.965763	2619.315483
494.333088	2617.762807
494.700354	2616.459669
495.067563	2615.033023
495.434713	2611.305089
495.801805	2619.010493
496.168839	2612.877929
496.535815	2613.818105
496.902733	2614.158383
497.269593	2610.538834
497.636395	2609.644029
498.003139	2612.346088
498.369825	2610.425408
498.736453	2606.856271
499.103023	2609.258381
499.469535	2610.014554
499.835989	2608.618154
500.202385	2606.223606
500.568723	2607.345263
500.935003	2604.912906
501.301226	2605.480036
501.667390	2604.991044
502.033497	2609.785182
502.399546	2603.519027
502.765537	2603.766044
503.131470	2604.262597
503.497345	2607.254522
503.863163	2600.665734
504.228923	2603.526589
504.594625	2603.466095
504.960269	2600.058275
505.325856	2602.596496
505.691385	2599.556680
506.056856	2598.676999
506.422270	2599.811259
506.787625	2599.576845
507.152924	2599.861670
507.518164	2598.016608
507.883347	2596.847060
508.248472	2596.179107
508.613540	2598.359406
508.978550	2596.073243
509.343503	2597.189859
509.708398	2597.373861
510.073236	2595.924529
510.438016	2596.521906
510.802738	2593.189703
511.167403	2598.107349
511.532010	2595.538881
511.896561	2594.888572
512.261053	2596.547112
512.625488	2592.088211
512.989866	2590.333889
513.354186	2592.315063
513.718449	2586.663929
514.082655	2595.337235
514.446803	2590.772470
514.810894	2594.697008
515.174927	2593.840012
515.538904	2592.821699
515.902822	2596.710949
516.266684	2591.881524
516.630488	2592.584765
516.994235	2590.298601
517.357925	2590.545618
517.721558	2592.284816
518.085133	2592.884713
518.448651	2590.051585
518.812112	2593.315732
519.175516	2591.747933
519.538863	2591.652151
519.902152	2588.128385
520.265385	2592.410845
520.628560	2590.616194
520.991678	2591.533684
521.354739	2589.088724
521.717743	2591.042172
522.080690	2588.030082
522.443580	2589.368508
522.806413	2587.026892
523.169189	2587.846080
523.531908	2588.408169
523.894569	2589.310535
524.257174	2588.337593
524.619722	2586.605956
524.982213	2586.726944
525.344647	2585.562437
525.707025	2588.231728
526.069345	2587.735175
526.431608	2586.737026
526.793815	2585.917839
527.155964	2586.311049
527.518057	2585.322982
527.880093	2585.552355
528.242072	2584.713003
528.603995	2585.932962
528.965860	2582.898187
529.327669	2585.370873
529.689421	2583.493044
530.051117	2583.485482
530.412755	2582.010944
530.774337	2581.789134
531.135862	2581.244689
531.497331	2581.184195
531.858743	2575.656570
532.220098	2577.831828
532.581396	2577.574729
532.942638	2575.094481
533.303824	2577.413412
533.664953	2577.705799
534.026025	2577.562126
534.387040	2579.482806
534.747999	2579.810481
535.108902	2577.983062
535.469748	2575.694379
535.830537	2577.347877
536.191270	2576.004410
536.551947	2576.448031
536.912567	2577.705799
537.273131	2575.734708
537.633638	2573.524162
537.994089	2575.044070
538.354483	2572.236147
538.714821	2575.323854
539.075103	2576.742939
539.435328	2574.728998
539.795497	2573.274625
540.155609	2573.372927
540.515665	2572.520972
540.875665	2575.477609
541.235609	2572.480643
541.595496	2573.841755
541.955328	2573.834193
542.315102	2573.667835
542.674821	2571.096846
543.034483	2572.473081
543.394090	2571.353945
543.753640	2573.219172
544.113134	2571.318657
544.472571	2570.557443
544.831953	2569.687844
545.191278	2572.347052
545.550548	2564.530743
545.909761	2571.790005
546.268918	2569.108111
546.628019	2570.166753
546.987064	2570.539799
547.346053	2569.458471
547.704986	2569.771023
548.063863	2571.606003
548.422684	2571.013667
548.781449	2570.872515
549.140158	2567.641135
549.498811	2568.089798
549.857408	2568.583831
550.215949	2566.746331
550.574434	2567.225240
550.932864	2567.086608
551.291237	2564.984447
551.649555	2569.123235
552.007817	2568.735066
552.366022	2566.108625
552.724173	2565.481001
553.082267	2568.034345
553.440305	2566.569890
553.798288	2567.817576
554.156215	2565.375137
554.514086	2567.389078
554.871902	2564.828172
555.229661	2568.364541
555.587365	2566.418656
555.945014	2565.914540
556.302606	2565.733059
556.660143	2566.847154
557.017625	2567.371434
557.375050	2564.026628
557.732421	2564.384550
558.089735	2565.889334
558.446994	2563.610733
558.804197	2569.299675
559.161345	2565.506207
559.518437	2567.255487
559.875474	2565.377657
560.232455	2563.265414
560.589381	2566.030487
560.946251	2567.152143
561.303065	2567.129458
561.659825	2567.537792
562.016528	2566.337997
562.373177	2563.212482
562.729770	2565.115517
563.086307	2564.913871
563.442789	2563.494786
563.799216	2564.724828
564.155587	2563.255332
564.511904	2565.246587
564.868164	2561.576627
565.224370	2564.931515
565.580520	2564.860939
565.936615	2565.554098
566.292654	2562.360527
566.648638	2562.872204
567.004567	2565.009653
567.360441	2564.344221
567.716260	2564.661813
568.072023	2564.397153
568.427732	2560.613767
568.783385	2560.492779
569.138982	2558.579661
569.494525	2558.884651
569.850013	2557.909188
570.205445	2564.404715
570.560823	2561.977399
570.916145	2562.395815
571.271412	2560.830537
571.626625	2563.162070
571.981782	2558.264589
572.336884	2561.170814
572.691931	2561.533778
573.046923	2559.456822
573.401860	2558.791390
573.756743	2560.240722
574.111570	2559.333314
574.466342	2562.239539
574.821059	2561.702656
575.175722	2559.764333
575.530330	2560.008828
575.884882	2558.846842
576.239380	2559.918088
576.593823	2560.402038
576.948211	2558.219219
577.302544	2558.153684
577.656823	2560.157543
578.011047	2560.228119
578.365216	2557.541184
578.719330	2557.982285
579.073389	2556.545556
579.427394	2556.318704
579.781344	2556.245607
580.135239	2556.069167
580.489080	2558.153684
580.842866	2558.130999
581.196597	2558.410783
581.550273	2556.190154
581.903895	2555.812068
582.257463	2557.750392
582.610975	2555.885165
582.964434	2554.148487
583.317837	2553.820812
583.671186	2556.220401
584.024481	2554.093034
584.377721	2556.348951
584.730906	2553.659495
585.084037	2555.985988
585.437113	2554.985319
585.790135	2555.670916
586.143103	2553.357026
586.496016	2555.393652
586.848874	2550.533980
587.201679	2551.869886
587.554428	2548.961140
587.907124	2554.072870
588.259765	2548.136911
588.612352	2555.693601
588.964884	2551.431305
589.317362	2552.726882
589.669786	2551.443908
590.022155	2553.561193
590.374470	2553.341902
590.726731	2551.343085
591.078937	2553.241079
591.431090	2554.108158
591.783188	2552.648744
592.135232	2552.061449
592.487222	2551.010369
592.839157	2550.418033
593.191038	2551.053219
593.542866	2552.376522
593.894639	2551.154042
594.246358	2550.672612
594.598022	2552.371480
594.949633	2549.215718
595.301190	2549.513146
595.652692	2546.165820
596.004141	2550.423074
596.355535	2549.067004
596.706876	2548.696479
597.058162	2549.984494
597.409395	2548.373845
597.760573	2549.939124
598.111698	2547.073228
598.462768	2548.293187
598.813785	2547.534493
599.164748	2547.405944
599.515657	2547.027857
599.866511	2547.693290
600.217312	2546.551468
600.568060	2546.798485
600.918753	2548.711603
601.269392	2545.540717
601.619978	2548.862837
601.970510	2547.907539
602.320988	2547.264792
602.671412	2549.152704
603.021783	2547.622713
603.372100	2546.135573
603.722363	2547.660522
604.072572	2545.306303
604.422728	2547.133722
604.772830	2545.888557
605.122878	2542.463093
605.472872	2543.304965
605.822813	2544.318237
606.172701	2545.303783
606.522534	2547.385779
606.872314	2546.795964
607.222041	2546.594318
607.571714	2547.821839
607.921333	2545.134904
608.270899	2547.030378
608.620411	2547.068187
608.969870	2547.700851
609.319276	2546.929555
609.668627	2547.065666
610.017926	2547.118598
610.367171	2546.309493
610.716362	2546.480892
611.065500	2547.552137
611.414585	2545.399565
611.763616	2547.095913
612.112594	2546.049873
612.461518	2549.727395
612.810389	2546.634647
613.159207	2547.363094
613.507971	2546.879143
613.856682	2549.787889
614.205340	2545.371838
614.553945	2548.154555
614.902496	2548.454504
615.250994	2551.637992
615.599439	2547.519370
615.947830	2546.274205
616.296169	2547.232024
616.644454	2545.102137
616.992686	2547.335368
617.340864	2544.333361
617.688990	2547.700851
618.037063	2547.894936
618.385082	2544.088865
618.733048	2547.778989
619.080961	2549.228321
619.428821	2547.940306
619.776628	2546.674977
620.124382	2549.636654
620.472083	2547.625234
620.819731	2545.180274
621.167326	2546.317055
621.514868	2545.946530
621.862357	2544.774462
622.209793	2545.999462
622.557176	2548.572971
622.904506	2544.466951
623.251783	2540.786909
623.599007	2543.123484
623.946179	2538.730118
624.293297	2544.963505
624.640363	2543.289842
624.987376	2542.546272
625.334336	2544.782023
625.681243	2544.880326
626.028097	2542.090047
626.374899	2541.510314
626.721647	2540.386137
627.068343	2541.477547
627.414987	2543.065510
627.761577	2541.981662
628.108115	2542.069883
628.454600	2542.453010
628.801032	2544.499719
629.147412	2543.569626
629.493739	2541.560726
629.840014	2538.099974
630.186236	2542.621889
630.532405	2541.265818
630.878521	2539.355221
631.224585	2542.541230
631.570597	2543.136087
631.916556	2540.749100
632.262462	2540.459234
632.608316	2539.829090
632.954117	2538.886394
633.299866	2543.108360
633.645562	2540.502084
633.991206	2540.434028
634.336797	2540.290355
634.682336	2540.592824
635.027823	2540.804553
635.373257	2539.503935
635.718639	2538.530992
636.063968	2538.949408
636.409245	2539.352701
636.754470	2536.494366
637.099642	2538.805735
637.444762	2536.922864
637.789829	2537.792463
638.134845	2536.368338
638.479808	2540.615510
638.824719	2537.081661
639.169577	2537.994110
639.514383	2538.863709
639.859137	2537.883204
640.203839	2538.745242
640.548489	2536.353214
640.893086	2533.469674
641.237632	2532.219468
641.582125	2534.974458
641.926566	2530.432379
642.270955	2537.525282
642.615292	2535.289531
642.959576	2537.419418
643.303809	2533.648635
643.647990	2536.789274
643.992118	2535.261804
644.336195	2536.501928
644.680219	2533.026052
645.024192	2535.458409
645.368112	2533.651156
645.711981	2534.503111
646.055797	2535.516383
646.399562	2534.419932
646.743274	2536.524613
647.086935	2535.430683
647.430544	2539.375386
647.774101	2538.210879
648.117606	2538.538554
648.461059	2537.245498
648.804460	2537.336239
649.147810	2537.285827
649.491108	2532.975641
649.834354	2536.509490
650.177548	2532.123686
650.520690	2535.856660
650.863781	2532.332894
651.206820	2536.464119
651.549807	2536.108718
651.892742	2535.725590
652.235626	2531.629653
652.578458	2533.331042
652.921238	2532.279962
653.263967	2532.272400
653.606644	2536.554860
653.949269	2534.825744
654.291843	2532.297606
654.634365	2533.094108
654.976836	2531.647297
655.319255	2531.266690
655.661622	2532.355579
656.003938	2532.078316
656.346203	2531.291896
656.688416	2535.259284
657.030577	2532.307688
657.372687	2531.818696
657.714746	2534.218285
658.056753	2533.086546
658.398708	2527.132944
658.740612	2531.107893
659.082465	2527.422810
659.424266	2529.928263
659.766016	2528.022707
660.107715	2534.666948
660.449362	2529.855167
660.790958	2532.174097
661.132503	2530.576052
661.473996	2533.310878
661.815438	2530.971782
662.156829	2532.970600
662.498168	2530.999509
662.839456	2530.939015
663.180693	2530.550846
663.521879	2531.170908
663.863013	2531.329704
664.204097	2531.506145
664.545129	2532.113604
664.886110	2534.180477
665.227040	2529.769467
665.567918	2532.577390
665.908746	2531.811134
666.249522	2532.055630
666.590248	2532.411032
666.930922	2533.676361
667.271545	2530.739889
667.612118	2531.712832
667.952639	2532.572349
668.293109	2533.575538
668.633528	2531.669982
668.973896	2531.604447
669.314213	2533.101670
669.654480	2532.368182
669.994695	2531.367513
670.334859	2533.247863
670.674973	2532.705939
671.015035	2532.524458
671.355047	2530.918850
671.695008	2530.414735
672.034918	2529.414066
672.374777	2530.838192
672.714585	2532.663089
673.054342	2532.786598
673.394049	2531.672503
673.733705	2531.312060
674.073310	2532.010260
674.412864	2532.645445
674.752368	2533.068902
675.091820	2532.567308
675.431223	2531.687626
675.770574	2530.863397
676.109875	2526.255783
676.449125	2528.299971
676.788324	2529.524971
677.127473	2526.885927
677.466571	2524.871986
677.805619	2530.765095
678.144616	2527.760567
678.483562	2530.626463
678.822458	2528.340300
679.161303	2527.672347
679.500098	2529.141843
679.838842	2529.116638
680.177535	2528.506658
680.516179	2529.076308
680.854771	2528.085722
681.193314	2531.082688
681.531805	2530.104704
681.870247	2531.899355
682.208638	2531.947246
682.546978	2531.730476
682.885268	2531.123017
683.223508	2533.439427
683.561697	2527.810979
683.899836	2532.403470
684.237925	2528.025228
684.575963	2529.882893
684.913951	2530.387008
685.251889	2533.290713
685.589776	2528.680578
685.927614	2533.867925
686.265401	2529.303160
686.603137	2531.301978
686.940824	2532.804242
687.278460	2533.935981
687.616046	2532.411032
687.953582	2532.413552
688.291068	2533.207534
688.628504	2530.321473
688.965889	2530.941535
689.303224	2533.232740
689.640510	2528.660413
689.977745	2530.112266
690.314930	2531.586803
690.652065	2529.656041
690.989150	2527.692512
691.326185	2530.911288
691.663170	2528.592358
692.000105	2529.439272
692.336990	2527.644621
692.673825	2530.707122
693.010610	2528.257121
693.347345	2526.800228
693.684030	2522.729496
694.020665	2522.371574
694.357251	2522.729496
694.693786	2524.781245
695.030272	2523.682274
695.366707	2525.570186
695.703093	2525.111441
696.039429	2525.726462
696.375716	2523.702438
696.711952	2524.942562
697.048139	2526.901051
697.384276	2527.566483
697.720363	2523.594054
698.056400	2525.292922
698.392388	2525.159332
698.728326	2525.401307
699.064214	2522.437109
699.400053	2525.928108
699.735842	2524.231760
700.071581	2523.568848
700.407270	2523.432737
700.742910	2524.793848
701.078501	2524.965248
701.414042	2523.221008
701.749533	2522.605988
702.084974	2522.840401
702.420366	2522.583302
702.755709	2522.066584
703.091002	2521.406193
703.426246	2524.057840
703.761440	2524.471214
704.096584	2521.970802
704.431679	2524.398118
704.766725	2524.536749
705.101721	2522.444671
705.436668	2522.265710
705.771565	2523.604136
706.106413	2521.990967
706.441212	2520.816378
706.775961	2522.273271
707.110661	2518.736902
707.445311	2525.968437
707.779913	2521.212108
708.114465	2524.612367
708.448967	2521.171779
708.783421	2524.614887
709.117825	2523.349558
709.452180	2525.756709
709.786485	2521.451563
710.120742	2526.727131
710.454949	2524.738396
710.789107	2523.271420
711.123216	2522.321162
711.457275	2521.696059
711.791286	2523.377284
712.125247	2524.342665
712.459159	2526.948942
712.793023	2528.148736
713.126837	2524.589682
713.460602	2525.834847
713.794318	2523.563807
714.127985	2527.332069
714.461602	2523.357119
714.795171	2523.823426
715.128691	2524.133457
715.462162	2523.503313
715.795584	2525.706297
716.128957	2522.502644
716.462281	2523.614218
716.795556	2522.323683
717.128782	2521.708662
717.461960	2521.741430
717.795088	2521.927952
718.128167	2519.372087
718.461198	2523.026924
718.794180	2521.849814
719.127113	2520.970133
719.459997	2522.653878
719.792833	2520.400483
720.125619	2521.214629
720.458357	2522.563138
720.791046	2521.257479
721.123686	2520.065246
721.456278	2521.060874
721.788821	2520.397962
722.121315	2522.384177
722.453761	2520.004752
722.786158	2520.113137
723.118506	2520.957530
723.450805	2522.585823
723.783056	2522.346368
724.115259	2519.614063
724.447412	2519.954341
724.779518	2519.263703
725.111574	2519.979546
725.443582	2521.723786
725.775542	2519.740092
726.107453	2519.399814
726.439315	2520.370236
726.771129	2526.308715
727.102895	2522.626152
727.434612	2525.232429
727.766281	2520.405524
728.097901	2521.403672
728.429473	2518.242869
728.760996	2518.933507
729.092471	2517.675739
729.423897	2522.275792
729.755276	2520.473579
730.086606	2522.081708
730.417887	2521.161697
730.749120	2521.948117
731.080305	2523.646986
731.411442	2521.945596
731.742530	2522.432068
732.073570	2524.531708
732.404562	2522.550535
732.735506	2522.820237
733.066401	2523.301667
733.397249	2524.448529
733.728048	2522.716893
734.058798	2519.029289
734.389501	2521.761594
734.720156	2519.213291
735.050762	2520.420647
735.381320	2520.327386
735.711831	2517.620286
736.042293	2517.678260
736.372707	2520.559279
736.703073	2518.510050
737.033391	2519.041892
737.363661	2517.945441
737.693883	2517.582478
738.024056	2521.325534
738.354182	2519.757736
738.684260	2519.833353
739.014290	2518.651202
739.344272	2520.886954
739.674207	2522.104393
740.004093	2522.295957
740.333931	2520.279495
740.663722	2519.349402
740.993464	2519.556089
741.323159	2521.043230
741.652806	2519.230935
741.982405	2521.892664
742.311956	2519.770338
742.641460	2520.206398
742.970915	2519.089783
743.300323	2520.970133
743.629683	2519.276305
743.958996	2518.759587
744.288260	2519.828312
744.617477	2520.750843
744.946647	2515.974350
745.275768	2516.720440
745.604842	2516.859072
745.933869	2516.455780
746.262847	2515.140039
746.591778	2518.333610
746.920662	2517.479134
747.249498	2517.259844
747.578286	2516.788496
747.907027	2518.900739
748.235720	2519.833353
748.564365	2517.085924
748.892963	2517.302694
749.221514	2518.754546
749.550017	2517.867303
749.878473	2516.607014
750.206881	2519.810668
750.535242	2520.213960
750.863555	2515.926459
751.191821	2518.089114
751.520039	2516.894360
751.848210	2518.270595
752.176334	2517.393434
752.504411	2518.149608
752.832440	2517.532066
753.160421	2516.541479
753.488356	2518.472241
753.816243	2516.284381
754.144082	2517.748836
754.471875	2517.101047
754.799620	2517.393434
755.127318	2516.105420
755.454969	2519.188085
755.782572	2516.317148
756.110129	2516.579288
756.437638	2518.086593
756.765100	2520.410565
757.092515	2517.663136
757.419882	2518.104237
757.747203	2516.894360
758.074477	2519.185565
758.401703	2515.926459
758.728882	2516.123064
759.056014	2516.438136
759.383099	2518.832684
759.710138	2519.372087
760.037129	2517.569875
760.364073	2516.549041
760.690970	2517.799247
761.017820	2518.603311
761.344623	2517.973167
761.671379	2519.624145
761.998088	2515.102230
762.324751	2515.616428
762.651366	2519.538445
762.977935	2525.086235
763.304456	2527.190917
763.630931	2525.998684
763.957359	2527.437933
764.283740	2526.606143
764.610074	2523.679753
764.936362	2521.819568
765.262602	2521.801923
765.588796	2521.191944
765.914943	2518.434433
766.241044	2519.336799
766.567097	2516.526356
766.893104	2516.818743
767.219064	2515.744977
767.544978	2516.024761
767.870845	2516.775893
768.196665	2515.883609
768.522438	2514.368742
768.848165	2515.389576
769.173846	2516.607014
769.499479	2516.995183
769.825066	2514.174658
770.150607	2513.279853
770.476101	2514.754390
770.801548	2514.610717
771.126949	2514.882940
771.452303	2517.083403
771.777611	2511.855727
772.102872	2516.949813
772.428087	2516.170955
772.753256	2512.564009
773.078378	2514.973681
773.403453	2515.041736
773.728482	2515.669360
774.053465	2512.891684
774.378401	2511.580984
774.703291	2515.432426
775.028135	2512.629544
775.352932	2513.547034
775.677683	2510.678617
776.002388	2515.928979
776.327046	2511.409585
776.651658	2513.040398
776.976224	2511.906138
777.300743	2514.850172
777.625216	2515.694566
777.949643	2514.761952
778.274024	2512.490912
778.598359	2510.907990
778.922647	2506.207114
779.246889	2512.032167
779.571086	2509.990500
779.895236	2510.482012
780.219339	2510.943278
780.543397	2511.371776
780.867409	2514.149452
781.191374	2511.885974
781.515294	2511.218021
781.839167	2510.988648
782.162995	2511.795233
782.486776	2511.144924
782.810511	2514.361180
783.134201	2510.839934
783.457844	2512.057373
783.781441	2514.368742
784.104993	2513.050480
784.428498	2513.063083
784.751958	2512.841273
785.075372	2512.226252
785.398739	2511.986797
785.722061	2512.024606
786.045337	2510.615603
786.368568	2513.463855
786.691752	2510.761797
787.014891	2514.093999
787.337983	2511.321365
787.661030	2516.518794
787.984031	2512.417816
788.306987	2515.112312
788.629897	2513.763804
788.952760	2514.028464
789.275579	2515.223218
789.598351	2514.081396
789.921078	2512.460665
790.243759	2512.246416
790.566395	2510.539986
790.888984	2515.513084
791.211529	2512.800943
791.534027	2512.901766
791.856480	2511.160048
792.178888	2512.372445
792.501249	2511.107116
792.823566	2514.149452
793.145836	2510.895387
793.468062	2511.926303
793.790241	2512.412774
794.112375	2512.470748
794.434464	2512.748011
794.756507	2512.581653
795.078505	2514.887981
795.400457	2510.550068
795.722364	2508.364728
796.044226	2512.180881
796.366042	2509.506549
796.687812	2510.872702
797.009538	2512.702641
797.331218	2514.363701
797.652852	2514.459483
797.974442	2512.836231
798.295986	2513.484020
798.617484	2512.503515
798.938938	2510.512259
799.260346	2513.060563
799.581709	2513.952847
799.903026	2513.413443
800.224299	2512.521159
800.545526	2510.769358
800.866708	2512.115346
801.187845	2513.925121
801.508936	2512.349760
801.829983	2512.866478
802.150984	2511.258350
802.471940	2512.909328
802.792851	2511.883453
803.113717	2510.292969
803.434538	2510.600480
803.755314	2514.509894
804.076045	2511.076869
804.396731	2511.102074
804.717372	2509.045284
805.037967	2512.196005
805.358518	2511.006292
805.679024	2512.102743
805.999485	2512.632065
806.319901	2511.971673
806.640272	2511.636437
806.960598	2515.205574
807.280879	2511.638957
807.601115	2510.718947
807.921306	2510.960922
808.241453	2509.050325
808.561554	2511.591066
808.881611	2509.047804
809.201623	2513.766324
809.521590	2510.958402
809.841513	2512.233813
810.161390	2511.631396
810.481223	2511.966632
810.801011	2510.413957
811.120755	2512.352281
811.440453	2514.414112
811.760107	2513.922600
812.079716	2512.359842
812.399281	2506.401198
812.718801	2509.151148
813.038276	2505.289624
813.357707	2512.397651
813.677093	2510.497136
813.996434	2512.745491
814.315731	2511.578463
814.634983	2511.155007
814.954191	2510.741632
815.273354	2513.209277
815.592473	2512.672394
815.911547	2512.654750
816.230577	2512.044770
816.549562	2513.179030
816.868502	2509.551920
817.187399	2510.436642
817.506250	2513.257168
817.825058	2515.117353
818.143821	2512.642147
818.462539	2512.538803
818.781213	2516.715399
819.099843	2514.615759
819.418429	2515.155162
819.736970	2514.651047
820.055466	2518.628517
820.373919	2517.746315
820.692327	2522.946265
821.010691	2528.864580
821.329011	2538.203318
821.647286	2557.369784
821.965517	2572.775551
822.283704	2585.746439
822.601847	2583.243507
822.919945	2576.168247
823.237999	2566.718604
823.556010	2561.876576
823.873976	2550.912066
824.191897	2543.907383
824.509775	2539.745911
824.827609	2532.010260
825.145398	2531.906916
825.463144	2527.440454
825.780845	2529.555218
826.098502	2531.528830
826.416116	2534.702236
826.733685	2538.667104
827.051210	2540.060983
827.368692	2539.188863
827.686129	2533.459592
828.003522	2526.099507
828.320872	2521.660771
828.638177	2521.023065
828.955439	2518.472241
829.272656	2517.380832
829.589830	2512.937054
829.906960	2518.399145
830.224046	2513.431088
830.541088	2513.128618
830.858086	2515.490399
831.175041	2513.166427
831.491952	2514.159534
831.808819	2512.221211
832.125642	2512.251458
832.442421	2516.770852
832.759157	2519.225894
833.075849	2519.800585
833.392497	2525.378622
833.709101	2525.469363
834.025662	2520.266892
834.342179	2520.768487
834.658653	2520.491223
834.975083	2519.147756
835.291469	2522.835360
835.607811	2517.511902
835.924110	2514.144411
836.240366	2513.902435
836.556578	2510.776920
836.872746	2514.610718
837.188871	2511.313803
837.504952	2509.022598
837.820990	2508.432783
838.136984	2509.932527
838.452935	2510.426560
838.768842	2510.250119
839.084706	2507.956394
839.400526	2512.143073
839.716303	2515.392096
840.032037	2511.681807
840.347727	2513.244565
840.663373	2513.315141
840.978977	2511.863289
841.294537	2511.807836
841.610054	2510.361025
841.925527	2511.497805
842.240957	2511.714575
842.556344	2508.558812
842.871687	2509.136024
843.186987	2509.002434
843.502244	2506.703668
843.817458	2508.647032
844.132629	2506.756600
844.447756	2508.710047
844.762840	2503.252998
845.077881	2506.799450
845.392879	2504.472957
845.707833	2506.116373
846.022745	2503.996568
846.337613	2506.978411
846.652438	2507.742145
846.967221	2508.901611
847.281960	2507.296003
847.596656	2509.743483
847.911309	2506.930520
848.225919	2507.958915
848.540485	2506.300375
848.855009	2507.623678
849.169490	2506.297855
849.483928	2507.225427
849.798323	2505.960098
850.112675	2507.817763
850.426984	2507.752228
850.741251	2507.384223
851.055474	2506.812052
851.369654	2506.547392
851.683792	2507.878257
851.997887	2508.314316
852.311938	2507.316168
852.625947	2509.007475
852.939914	2505.347597
853.253837	2510.166940
853.567718	2505.314830
853.881555	2505.740807
854.195350	2504.853564
854.509103	2507.999244
854.822812	2505.403050
855.136479	2505.975221
855.450103	2503.749552
855.763685	2504.911538
856.077224	2503.994048
856.390720	2508.445386
856.704173	2505.115704
857.017584	2506.701147
857.330953	2506.887670
857.644278	2506.857423
857.957561	2512.311951
858.270802	2507.716940
858.584000	2507.328771
858.897155	2506.340705
859.210268	2507.270798
859.523339	2506.144100
859.836367	2504.286434
860.149352	2507.845489
860.462295	2509.378000
860.775195	2506.265087
861.088054	2502.217041
861.400869	2504.639315
861.713642	2501.944818
862.026373	2503.878101
862.339062	2507.222907
862.651708	2505.944974
862.964312	2506.189470
863.276873	2507.159892
863.589392	2510.194667
863.901869	2504.606548
864.214303	2507.364059
864.526696	2506.706188
864.839045	2506.602845
865.151353	2507.331291
865.463619	2506.086126
865.775842	2507.467403
866.088023	2506.711229
866.400162	2507.182577
866.712258	2506.247443
867.024313	2508.427742
867.336325	2508.475633
867.648296	2510.482013
867.960224	2507.628719
868.272110	2506.355828
868.583954	2509.294821
868.895755	2508.405057
869.207515	2507.744666
869.519233	2507.800119
869.830909	2509.680469
870.142542	2506.615448
870.454134	2508.705006
870.765684	2508.059738
871.077191	2506.716271
871.388657	2509.975377
871.700081	2507.167454
872.011463	2509.226765
872.322803	2509.239368
872.634101	2508.299193
872.945357	2507.046466
873.256571	2508.193329
873.567744	2509.017557
873.878874	2509.292300
874.189963	2510.033350
874.501010	2509.481343
874.812015	2508.919255
875.122979	2510.542506
875.433900	2507.936230
875.744780	2507.898421
876.055618	2509.015037
876.366415	2508.813391
876.677169	2507.762310
876.987882	2509.022598
877.298554	2504.866167
877.609183	2505.929851
877.919771	2507.374141
878.230317	2506.118894
878.540822	2511.689369
878.851285	2510.333298
879.161707	2508.725170
879.472087	2512.130470
879.782425	2515.185409
880.092722	2517.892509
880.402977	2523.921729
880.713191	2531.533871
881.023363	2538.669624
881.333494	2540.035777
881.643583	2545.328988
881.953631	2544.315717
882.263637	2544.015768
882.573602	2538.334387
882.883526	2536.990920
883.193408	2530.830630
883.503248	2529.403983
883.813048	2528.665454
884.122806	2526.943900
884.432522	2522.520288
884.742197	2516.831346
885.051831	2517.101048
885.361424	2514.187261
885.670975	2515.934020
885.980485	2511.628875
886.289954	2512.347239
886.599382	2512.135511
886.908768	2511.530572
887.218113	2511.346570
887.527417	2508.921775
887.836680	2507.119563
888.145901	2510.678618
888.455082	2509.519152
888.764221	2510.570233
889.073319	2508.883967
889.382376	2509.151148
889.691392	2507.686693
890.000366	2510.436642
890.309300	2511.081910
890.618193	2509.947650
890.927044	2508.705006
891.235855	2505.178719
891.544625	2507.250633
891.853353	2508.773061
892.162041	2508.084944
892.470687	2507.706857
892.779293	2510.628206
893.087858	2507.767351
893.396381	2508.047135
893.704864	2508.949502
894.013306	2510.779441
894.321707	2517.237159
894.630068	2517.985770
894.938387	2519.737571
895.246665	2518.134484
895.554903	2516.062570
895.863100	2517.315297
896.171256	2513.725995
896.479371	2515.893691
896.787446	2512.687517
897.095480	2512.006962
897.403473	2509.630057
897.711425	2511.928824
898.019336	2510.207270
898.327207	2507.621158
898.635038	2510.376148
898.942827	2509.645181
899.250576	2507.774913
899.558284	2508.987310
899.865952	2506.537310
900.173579	2510.345901
900.481165	2505.710560
900.788711	2508.248781
901.096216	2508.452948
901.403681	2504.004130
901.711105	2503.598317
902.018489	2507.031343
902.325832	2509.423370
902.633135	2506.050838
902.940397	2508.324399
903.247619	2509.050325
903.554800	2515.681963
903.861941	2515.767662
904.169041	2520.155987
904.476101	2518.391583
904.783121	2520.617252
905.090100	2519.475431
905.397039	2517.965605
905.703938	2513.204236
906.010796	2513.995697
906.317614	2511.056704
906.624391	2511.293638
906.931129	2509.703154
907.237826	2510.061076
907.544483	2510.028309
907.851099	2506.605365
908.157675	2507.850530
908.464211	2508.692403
908.770707	2502.665703
909.077163	2504.838441
909.383578	2504.483039
909.689954	2504.246105
909.996289	2503.865498
910.302584	2502.557319
910.608839	2506.005468
910.915054	2506.002947
911.221229	2506.630571
911.527363	2505.715602
911.833458	2502.842144
912.139513	2507.497649
912.445527	2506.489419
912.751502	2505.811383
913.057436	2507.149810
913.363331	2506.088647
913.669186	2507.099398
913.975000	2505.733246
914.280775	2507.827845
914.586510	2511.086951
914.892205	2509.599811
915.197859	2515.071983
915.503475	2517.842097
915.809050	2517.504340
916.114585	2520.697911
916.420081	2518.583147
916.725536	2519.175482
917.030952	2519.316635
917.336328	2519.699762
917.641665	2519.765297
917.946961	2516.327230
918.252218	2515.744977
918.557435	2511.830521
918.862612	2514.426715
919.167750	2512.579133
919.472848	2511.109636
919.777906	2509.410767
920.082925	2510.764317
920.387904	2508.999913
920.692843	2511.376817
920.997743	2508.589059
921.302603	2508.941940
921.607423	2505.967659
921.912204	2506.925478
922.216946	2505.398009
922.521647	2508.967146
922.826310	2506.643174
923.130932	2506.532268
923.435516	2504.009171
923.740059	2507.409429
924.044564	2505.511435
924.349028	2504.909017
924.653454	2501.959942
924.957840	2502.794253
925.262186	2502.479181
925.566493	2505.544202
925.870761	2501.919613
926.174989	2505.851713
926.479178	2501.939777
926.783328	2508.795747
927.087438	2503.787360
927.391509	2506.738956
927.695541	2503.142093
927.999533	2502.774088
928.303486	2501.405415
928.607400	2504.888852
928.911275	2501.148316
929.215110	2502.287617
929.518906	2503.719305
929.822663	2504.097391
930.126381	2501.947339
930.430060	2505.947495
930.733699	2504.916579
931.037299	2504.563698
931.340861	2504.702330
931.644383	2501.934736
931.947866	2503.825169
932.251309	2502.262411
932.554714	2503.928513
932.858080	2502.983296
933.161407	2504.329284
933.464694	2505.367762
933.767943	2505.944974
934.071153	2504.157885
934.374323	2503.595796
934.677455	2507.001096
934.980548	2505.332474
935.283602	2504.165447
935.586617	2504.049500
935.889593	2501.496156
936.192530	2504.873729
936.495428	2504.793070
936.798287	2502.159067
937.101108	2504.268790
937.403890	2504.901455
937.706632	2505.438338
938.009336	2503.240395
938.312002	2508.198370
938.614628	2505.365241
938.917216	2505.639984
939.219765	2505.682834
939.522275	2509.067969
939.824747	2503.734428
940.127179	2502.466578
940.429573	2501.327277
940.731929	2503.870539
941.034246	2499.784684
941.336524	2504.306599
941.638763	2502.348111
941.940964	2506.728873
942.243126	2502.935405
942.545250	2504.924140
942.847335	2505.062772
943.149381	2506.030674
943.451389	2502.834582
943.753359	2503.159737
944.055290	2501.508759
944.357182	2505.425735
944.659036	2502.479181
944.960851	2503.900786
945.262628	2504.755262
945.564367	2505.443379
945.866067	2505.423215
946.167729	2502.290138
946.469352	2502.252329
946.770937	2504.324243
947.072484	2503.217710
947.373992	2502.706033
947.675462	2501.793584
947.976893	2504.420025
948.278286	2501.833913
948.579641	2505.486229
948.880958	2500.860970
949.182236	2505.579490
949.483476	2504.271311
949.784678	2503.598317
950.085841	2504.563698
950.386967	2504.281393
950.688054	2505.216527
950.989103	2504.006650
951.290114	2503.270642
951.591087	2506.882629
951.892021	2501.440703
952.192917	2506.335663
952.493776	2501.622185
952.794596	2502.640498
953.095378	2503.799963
953.396122	2504.354490
953.696828	2504.762823
953.997496	2505.791219
954.298126	2507.727022
954.598718	2506.181908
954.899272	2503.331136
955.199788	2506.338184
955.500266	2501.728049
955.800706	2501.843995
956.101108	2498.254694
956.401472	2502.892555
956.701798	2498.448778
957.002087	2502.196876
957.302337	2503.805004
957.602550	2502.774088
957.902724	2501.145796
958.202861	2503.278204
958.502960	2501.828872
958.803022	2504.586383
959.103045	2503.963801
959.403031	2504.314161
959.702979	2503.598317
960.002889	2504.127638
960.302762	2503.220230
960.602596	2504.626712
960.902393	2501.904489
961.202153	2504.256188
961.501875	2502.272493
961.801559	2503.530261
962.101205	2500.762668
962.400814	2501.833913
962.700385	2502.123779
962.999918	2504.238543
963.299414	2501.826351
963.598873	2501.874242
963.898293	2502.847185
964.197677	2503.931033
964.497022	2502.179232
964.796331	2502.118738
965.095601	2505.264418
965.394835	2502.476660
965.694030	2505.019922
965.993189	2502.534633
966.292309	2501.949860
966.591393	2503.333656
966.890439	2500.906341
967.189447	2502.332987
967.488419	2501.879283
967.787353	2502.547236
968.086249	2499.560353
968.385108	2500.762668
968.683930	2501.556650
968.982714	2499.767040
969.281462	2505.024963
969.580172	2501.665034
969.878844	2503.051352
970.177480	2502.300220
970.476078	2502.746362
970.774639	2502.481701
971.073162	2503.328615
971.371649	2501.715446
971.670098	2498.514313
971.968510	2499.298213
972.266885	2497.218737
972.565223	2501.917092
972.863524	2503.525220
973.161788	2499.270486
973.460014	2502.857267
973.758204	2500.039262
974.056356	2503.464726
974.354471	2502.007833
974.652550	2503.195025
974.950591	2503.268121
975.248595	2499.462050
975.546563	2502.272493
975.844493	2501.665034
976.142386	2501.690240
976.440243	2500.399705
976.738062	2501.337359
977.035845	2498.771412
977.333590	2502.665703
977.631299	2501.970024
977.928971	2499.255363
978.226606	2500.724859
978.524204	2505.163595
978.821765	2501.163440
979.119290	2501.889366
979.416777	2501.594458
979.714228	2501.647390
980.011642	2499.411639
980.309020	2502.728718
980.606360	2503.129490
980.903664	2504.130159
981.200931	2502.065806
981.498162	2503.421877
981.795356	2501.874242
982.092513	2503.840292
982.389633	2500.992040
982.686717	2505.236692
982.983764	2503.016064
983.280775	2504.293996
983.577749	2503.129490
983.874686	2506.086126
984.171587	2503.696619
984.468451	2506.375993
984.765279	2505.982783
985.062070	2504.906496
985.358824	2501.665034
985.655543	2501.496156
985.952224	2504.490601
986.248869	2502.574963
986.545478	2498.630260
986.842050	2501.027328
987.138586	2498.930208
987.435086	2499.071361
987.731549	2499.164622
988.027975	2501.254180
988.324366	2499.366268
988.620719	2501.284427
988.917037	2503.079078
989.213318	2504.087309
989.509563	2503.106804
989.805772	2501.838954
990.101944	2500.881135
990.398080	2501.244098
990.694180	2500.157729
990.990244	2497.382574
991.286271	2505.319871
991.582262	2503.719305
991.878217	2502.214520
992.174136	2502.358193
992.470019	2501.599499
992.765865	2501.659993
993.061676	2503.373986
993.357450	2499.787205
993.653188	2502.327946
993.948890	2501.685199
994.244556	2502.562360
994.540186	2501.929695
994.835780	2500.555981
995.131337	2500.616474
995.426859	2502.353152
995.722345	2501.796104
996.017795	2502.910199
996.313208	2503.058913
996.608586	2499.590600
996.903928	2505.677793
997.199234	2501.483553
997.494504	2502.433810
997.789738	2500.651763
998.084936	2503.000940
998.380099	2502.648059
998.675225	2503.989006
998.970316	2500.429952
999.265371	2499.550270
999.560390	2499.971207
999.855373	2504.084788
1000.150320	2500.757627
1000.445232	2500.482884
1000.740108	2501.418018
1001.034948	2501.339880
1001.329752	2500.452637
1001.624521	2500.049345
1001.919254	2500.508090
1002.213951	2499.504900
1002.508613	2498.224447
1002.803239	2499.842657
1003.097829	2496.210506
1003.392384	2501.022287
1003.686903	2501.912051
1003.981386	2503.018584
1004.275834	2499.162102
1004.570246	2500.724859
1004.864623	2498.882318
1005.158964	2502.227123
1005.453270	2499.293172
1005.747540	2502.249808
1006.041775	2501.032370
1006.335974	2500.634118
1006.630138	2499.552791
1006.924266	2500.021618
1007.218359	2500.946670
1007.512416	2501.740652
1007.806438	2499.746875
1008.100425	2501.594458
1008.394376	2501.455827
1008.688292	2501.168481
1008.982172	2500.245950
1009.276017	2502.141423
1009.569827	2499.900631
1009.863602	2501.869201
1010.157341	2499.245281
1010.451045	2499.623367
1010.744714	2500.291320
1011.038347	2501.251660
1011.331945	2500.923985
1011.625508	2499.837616
1011.919036	2501.128152
1012.212528	2500.382061
1012.505986	2497.740496
1012.799408	2499.404077
1013.092795	2501.450785
1013.386147	2500.596310
1013.679464	2502.212000
1013.972745	2500.770230
1014.265992	2499.078923
1014.559204	2498.645383
1014.852380	2502.239726
1015.145521	2500.009015
1015.438628	2499.704026
1015.731699	2501.168481
1016.024736	2499.885507
1016.317737	2500.815600
1016.610703	2502.259891
1016.903635	2499.923316
1017.196531	2494.040289
1017.489393	2499.393995
1017.782219	2495.895434
1018.075011	2500.795435
1018.367768	2499.643532
1018.660490	2502.078409
1018.953177	2502.078409
1019.245829	2502.078409
