Dividing Wavelength (nm)	Counts (n)	Blue Motor Position (mm): 0.000000	Red Motor Position (mm): 5.400000	
326.493990	2129.887500
326.888308	2129.887500
327.282561	2129.887500
327.676750	2165.175577
328.070874	2066.873077
328.464933	2056.790769
328.858929	2076.955385
329.252859	2013.940962
329.646726	2139.969808
330.040528	2071.914231
330.434265	2122.325769
330.827938	2137.449231
331.221547	2124.846346
331.615091	2177.778462
332.008571	2255.916346
332.401986	2250.875192
332.795338	2243.313462
333.188625	2190.381346
333.581847	2329.013077
333.975006	2276.080962
334.368100	2323.971923
334.761129	2341.615962
335.154095	2349.177692
335.546996	2308.848462
335.939833	2462.603654
336.332606	2392.027500
336.725315	2364.301154
337.117960	2379.424615
337.510540	2419.753846
337.903056	2450.000769
338.295508	2334.054231
338.687896	2392.027500
339.080220	2495.371154
339.472480	2495.371154
339.864676	2444.959615
340.256807	2462.603654
340.648875	2429.836154
341.040879	2452.521346
341.432818	2513.015192
341.824694	2442.439038
342.216506	2384.465769
342.608253	2475.206538
342.999937	2540.741538
343.391557	2515.535769
343.783113	2581.070769
344.174605	2482.768269
344.566033	2507.974038
344.957397	2465.124231
345.348697	2533.179808
345.739934	2545.782692
346.131106	2495.371154
346.522215	2523.097500
346.913260	2543.262115
347.304241	2364.301154
347.695159	2361.780577
348.086012	2407.150962
348.476802	2581.070769
348.867528	2439.918462
349.258191	2351.698269
349.648789	2389.506923
350.039324	2447.480192
350.429796	2424.795000
350.820203	2480.247692
351.210548	2399.589231
351.600828	2394.548077
351.991045	2417.233269
352.381198	2432.356731
352.771288	2515.535769
353.161314	2495.371154
353.551276	2412.192115
353.941175	2507.974038
354.331010	2444.959615
354.720782	2397.068654
355.110490	2437.397885
355.500135	2520.576923
355.889717	2447.480192
356.279235	2437.397885
356.668689	2402.109808
357.058080	2402.109808
357.447408	2545.782692
357.836672	2412.192115
358.225873	2437.397885
358.615010	2429.836154
359.004084	2409.671538
359.393095	2477.727115
359.782043	2389.506923
360.170927	2447.480192
360.559748	2530.659231
360.948505	2374.383462
361.337199	2407.150962
361.725830	2485.288846
362.114398	2548.303269
362.502903	2364.301154
362.891344	2417.233269
363.279722	2452.521346
363.668037	2356.739423
364.056289	2513.015192
364.444478	2457.562500
364.832603	2376.904038
365.220665	2374.383462
365.608665	2321.451346
365.996601	2424.795000
366.384474	2477.727115
366.772284	2432.356731
367.160031	2502.932885
367.547715	2444.959615
367.935336	2487.809423
368.322893	2467.644808
368.710388	2369.342308
369.097820	2409.671538
369.485189	2331.533654
369.872495	2477.727115
370.259738	2432.356731
370.646918	2414.712692
371.034035	2475.206538
371.421090	2475.206538
371.808081	2462.603654
372.195010	2495.371154
372.581875	2492.850577
372.968678	2422.274423
373.355418	2518.056346
373.742096	2439.918462
374.128710	2472.685962
374.515262	2475.206538
374.901751	2495.371154
375.288177	2477.727115
375.674540	2560.906154
376.060841	2455.041923
376.447079	2432.356731
376.833254	2543.262115
377.219367	2422.274423
377.605417	2450.000769
377.991404	2533.179808
378.377329	2550.823846
378.763191	2414.712692
379.148991	2470.165385
379.534727	2444.959615
379.920402	2399.589231
380.306013	2510.494615
380.691563	2417.233269
381.077049	2500.412308
381.462474	2417.233269
381.847835	2515.535769
382.233134	2525.618077
382.618371	2437.397885
383.003545	2424.795000
383.388657	2472.685962
383.773706	2472.685962
384.158693	2442.439038
384.543618	2437.397885
384.928480	2462.603654
385.313280	2394.548077
385.698017	2389.506923
386.082692	2505.453462
386.467305	2477.727115
386.851856	2495.371154
387.236344	2392.027500
387.620770	2525.618077
388.005133	2392.027500
388.389435	2482.768269
388.773674	2497.891731
389.157851	2515.535769
389.541965	2487.809423
389.926018	2450.000769
390.310008	2475.206538
390.693936	2553.344423
391.077802	2417.233269
391.461606	2467.644808
391.845348	2450.000769
392.229027	2513.015192
392.612645	2399.589231
392.996200	2472.685962
393.379694	2427.315577
393.763125	2510.494615
394.146494	2460.083077
394.529801	2560.906154
394.913047	2465.124231
395.296230	2523.097500
395.679351	2439.918462
396.062410	2485.288846
396.445408	2429.836154
396.828343	2427.315577
397.211217	2404.630385
397.594028	2500.412308
397.976778	2452.521346
398.359466	2530.659231
398.742092	2457.562500
399.124656	2432.356731
399.507158	2480.247692
399.889598	2404.630385
400.271977	2505.453462
400.654294	2472.685962
401.036549	2480.247692
401.418742	2424.795000
401.800874	2482.768269
402.182944	2507.974038
402.564952	2475.206538
402.946898	2419.753846
403.328783	2482.768269
403.710606	2475.206538
404.092367	2477.727115
404.474067	2467.644808
404.855705	2555.865000
405.237282	2470.165385
405.618797	2457.562500
406.000250	2528.138654
406.381642	2523.097500
406.762972	2492.850577
407.144240	2500.412308
407.525447	2467.644808
407.906593	2507.974038
408.287677	2475.206538
408.668700	2399.589231
409.049661	2424.795000
409.430560	2462.603654
409.811399	2507.974038
410.192176	2427.315577
410.572891	2429.836154
410.953545	2497.891731
411.334138	2465.124231
411.714669	2452.521346
412.095139	2376.904038
412.475547	2540.741538
412.855894	2533.179808
413.236180	2447.480192
413.616405	2500.412308
413.996568	2457.562500
414.376670	2485.288846
414.756711	2485.288846
415.136691	2502.932885
415.516609	2419.753846
415.896466	2422.274423
416.276262	2502.932885
416.655997	2472.685962
417.035670	2419.753846
417.415283	2495.371154
417.794834	2500.412308
418.174324	2520.576923
418.553753	2576.029615
418.933121	2525.618077
419.312428	2457.562500
419.691674	2455.041923
420.070859	2374.383462
420.449983	2518.056346
420.829045	2533.179808
421.208047	2447.480192
421.586988	2507.974038
421.965867	2467.644808
422.344686	2492.850577
422.723444	2465.124231
423.102141	2472.685962
423.480777	2452.521346
423.859352	2533.179808
424.237866	2581.070769
424.616319	2437.397885
424.994712	2515.535769
425.373044	2525.618077
425.751314	2490.330000
426.129524	2434.877308
426.507673	2457.562500
426.885762	2376.904038
427.263789	2472.685962
427.641756	2530.659231
428.019662	2447.480192
428.397508	2487.809423
428.775292	2487.809423
429.153016	2480.247692
429.530679	2545.782692
429.908282	2528.138654
430.285824	2543.262115
430.663305	2513.015192
431.040726	2424.795000
431.418086	2523.097500
431.795385	2457.562500
432.172624	2490.330000
432.549802	2505.453462
432.926920	2513.015192
433.303977	2480.247692
433.680974	2502.932885
434.057910	2570.988462
434.434786	2427.315577
434.811601	2515.535769
435.188355	2470.165385
435.565050	2480.247692
435.941683	2460.083077
436.318257	2507.974038
436.694770	2462.603654
437.071222	2470.165385
437.447614	2460.083077
437.823946	2465.124231
438.200218	2457.562500
438.576429	2414.712692
438.952580	2530.659231
439.328670	2424.795000
439.704700	2497.891731
440.080670	2523.097500
440.456580	2492.850577
440.832429	2470.165385
441.208218	2472.685962
441.583947	2518.056346
441.959616	2490.330000
442.335224	2485.288846
442.710773	2520.576923
443.086261	2520.576923
443.461689	2397.068654
443.837057	2510.494615
444.212365	2513.015192
444.587612	2560.906154
444.962800	2444.959615
445.337927	2528.138654
445.712995	2450.000769
446.088002	2490.330000
446.462949	2500.412308
446.837837	2432.356731
447.212664	2381.945192
447.587431	2525.618077
447.962139	2495.371154
448.336786	2444.959615
448.711374	2470.165385
449.085901	2540.741538
449.460369	2407.150962
449.834776	2472.685962
450.209124	2477.727115
450.583412	2490.330000
450.957640	2500.412308
451.331808	2497.891731
451.705917	2505.453462
452.079965	2578.550192
452.453954	2424.795000
452.827883	2550.823846
453.201752	2442.439038
453.575562	2513.015192
453.949311	2477.727115
454.323001	2513.015192
454.696632	2520.576923
455.070202	2495.371154
455.443713	2505.453462
455.817164	2432.356731
456.190556	2510.494615
456.563888	2510.494615
456.937160	2543.262115
457.310373	2482.768269
457.683526	2525.618077
458.056619	2485.288846
458.429653	2520.576923
458.802628	2490.330000
459.175542	2414.712692
459.548398	2528.138654
459.921194	2422.274423
460.293930	2490.330000
460.666607	2485.288846
461.039224	2452.521346
461.411782	2553.344423
461.784280	2460.083077
462.156719	2439.918462
462.529099	2538.220962
462.901419	2535.700385
463.273680	2475.206538
463.645882	2460.083077
464.018024	2525.618077
464.390106	2482.768269
464.762130	2462.603654
465.134094	2538.220962
465.505999	2485.288846
465.877845	2492.850577
466.249631	2510.494615
466.621358	2505.453462
466.993026	2422.274423
467.364634	2528.138654
467.736184	2520.576923
468.107674	2434.877308
468.479105	2452.521346
468.850477	2444.959615
469.221790	2467.644808
469.593043	2485.288846
469.964238	2462.603654
470.335373	2545.782692
470.706449	2492.850577
471.077467	2452.521346
471.448425	2543.262115
471.819324	2389.506923
472.190164	2507.974038
472.560945	2510.494615
472.931667	2545.782692
473.302330	2485.288846
473.672934	2520.576923
474.043479	2528.138654
474.413965	2500.412308
474.784393	2467.644808
475.154761	2497.891731
475.525070	2500.412308
475.895321	2492.850577
476.265513	2480.247692
476.635645	2492.850577
477.005719	2492.850577
477.375734	2485.288846
477.745691	2570.988462
478.115588	2429.836154
478.485427	2455.041923
478.855207	2409.671538
479.224928	2487.809423
479.594591	2429.836154
479.964194	2384.465769
480.333739	2513.015192
480.703226	2374.383462
481.072653	2472.685962
481.442022	2434.877308
481.811333	2457.562500
482.180584	2475.206538
482.549777	2472.685962
482.918912	2570.988462
483.287988	2457.562500
483.657005	2417.233269
484.025964	2482.768269
484.394864	2520.576923
484.763706	2525.618077
485.132489	2407.150962
485.501213	2432.356731
485.869879	2455.041923
486.238487	2434.877308
486.607036	2437.397885
486.975527	2427.315577
487.343959	2409.671538
487.712333	2502.932885
488.080648	2533.179808
488.448905	2523.097500
488.817104	2523.097500
489.185244	2550.823846
489.553326	2439.918462
489.921350	2495.371154
490.289315	2389.506923
490.657222	2540.741538
491.025070	2500.412308
491.392861	2555.865000
491.760593	2412.192115
492.128267	2525.618077
492.495883	2520.576923
492.863440	2535.700385
493.230939	2422.274423
493.598380	2505.453462
493.965763	2548.303269
494.333088	2525.618077
494.700354	2412.192115
495.067563	2505.453462
495.434713	2472.685962
495.801805	2563.426731
496.168839	2472.685962
496.535815	2525.618077
496.902733	2507.974038
497.269593	2495.371154
497.636395	2525.618077
498.003139	2570.988462
498.369825	2497.891731
498.736453	2568.467885
499.103023	2472.685962
499.469535	2573.509038
499.835989	2475.206538
500.202385	2482.768269
500.568723	2513.015192
500.935003	2520.576923
501.301226	2429.836154
501.667390	2442.439038
502.033497	2495.371154
502.399546	2530.659231
502.765537	2500.412308
503.131470	2444.959615
503.497345	2450.000769
503.863163	2578.550192
504.228923	2480.247692
504.594625	2530.659231
504.960269	2442.439038
505.325856	2550.823846
505.691385	2457.562500
506.056856	2490.330000
506.422270	2515.535769
506.787625	2505.453462
507.152924	2515.535769
507.518164	2442.439038
507.883347	2525.618077
508.248472	2649.126346
508.613540	2528.138654
508.978550	2462.603654
509.343503	2485.288846
509.708398	2457.562500
510.073236	2513.015192
510.438016	2558.385577
510.802738	2455.041923
511.167403	2548.303269
511.532010	2568.467885
511.896561	2520.576923
512.261053	2492.850577
512.625488	2568.467885
512.989866	2502.932885
513.354186	2487.809423
513.718449	2409.671538
514.082655	2424.795000
514.446803	2523.097500
514.810894	2535.700385
515.174927	2482.768269
515.538904	2530.659231
515.902822	2477.727115
516.266684	2485.288846
516.630488	2502.932885
516.994235	2450.000769
517.357925	2444.959615
517.721558	2588.632500
518.085133	2427.315577
518.448651	2465.124231
518.812112	2505.453462
519.175516	2533.179808
519.538863	2497.891731
519.902152	2472.685962
520.265385	2462.603654
520.628560	2528.138654
520.991678	2525.618077
521.354739	2492.850577
521.717743	2490.330000
522.080690	2520.576923
522.443580	2462.603654
522.806413	2492.850577
523.169189	2419.753846
523.531908	2495.371154
523.894569	2565.947308
524.257174	2490.330000
524.619722	2576.029615
524.982213	2540.741538
525.344647	2507.974038
525.707025	2462.603654
526.069345	2460.083077
526.431608	2538.220962
526.793815	2565.947308
527.155964	2492.850577
527.518057	2495.371154
527.880093	2540.741538
528.242072	2538.220962
528.603995	2457.562500
528.965860	2480.247692
529.327669	2487.809423
529.689421	2450.000769
530.051117	2543.262115
530.412755	2457.562500
530.774337	2424.795000
531.135862	2447.480192
531.497331	2540.741538
531.858743	2510.494615
532.220098	2548.303269
532.581396	2588.632500
532.942638	2543.262115
533.303824	2500.412308
533.664953	2560.906154
534.026025	2457.562500
534.387040	2518.056346
534.747999	2439.918462
535.108902	2434.877308
535.469748	2555.865000
535.830537	2563.426731
536.191270	2492.850577
536.551947	2505.453462
536.912567	2608.797115
537.273131	2497.891731
537.633638	2490.330000
537.994089	2465.124231
538.354483	2487.809423
538.714821	2533.179808
539.075103	2462.603654
539.435328	2530.659231
539.795497	2502.932885
540.155609	2538.220962
540.515665	2510.494615
540.875665	2515.535769
541.235609	2510.494615
541.595496	2520.576923
541.955328	2533.179808
542.315102	2520.576923
542.674821	2427.315577
543.034483	2555.865000
543.394090	2545.782692
543.753640	2475.206538
544.113134	2480.247692
544.472571	2518.056346
544.831953	2442.439038
545.191278	2523.097500
545.550548	2593.673654
545.909761	2465.124231
546.268918	2507.974038
546.628019	2444.959615
546.987064	2560.906154
547.346053	2611.317692
547.704986	2477.727115
548.063863	2462.603654
548.422684	2447.480192
548.781449	2500.412308
549.140158	2540.741538
549.498811	2487.809423
549.857408	2500.412308
550.215949	2477.727115
550.574434	2510.494615
550.932864	2490.330000
551.291237	2513.015192
551.649555	2545.782692
552.007817	2593.673654
552.366022	2465.124231
552.724173	2530.659231
553.082267	2485.288846
553.440305	2502.932885
553.798288	2560.906154
554.156215	2432.356731
554.514086	2460.083077
554.871902	2472.685962
555.229661	2530.659231
555.587365	2455.041923
555.945014	2515.535769
556.302606	2460.083077
556.660143	2570.988462
557.017625	2505.453462
557.375050	2518.056346
557.732421	2427.315577
558.089735	2439.918462
558.446994	2621.400000
558.804197	2507.974038
559.161345	2452.521346
559.518437	2543.262115
559.875474	2475.206538
560.232455	2540.741538
560.589381	2513.015192
560.946251	2500.412308
561.303065	2500.412308
561.659825	2518.056346
562.016528	2490.330000
562.373177	2475.206538
562.729770	2535.700385
563.086307	2485.288846
563.442789	2462.603654
563.799216	2389.506923
564.155587	2528.138654
564.511904	2543.262115
564.868164	2507.974038
565.224370	2439.918462
565.580520	2490.330000
565.936615	2482.768269
566.292654	2530.659231
566.648638	2548.303269
567.004567	2414.712692
567.360441	2455.041923
567.716260	2515.535769
568.072023	2475.206538
568.427732	2518.056346
568.783385	2513.015192
569.138982	2497.891731
569.494525	2462.603654
569.850013	2487.809423
570.205445	2543.262115
570.560823	2515.535769
570.916145	2583.591346
571.271412	2570.988462
571.626625	2492.850577
571.981782	2515.535769
572.336884	2477.727115
572.691931	2470.165385
573.046923	2530.659231
573.401860	2535.700385
573.756743	2492.850577
574.111570	2497.891731
574.466342	2510.494615
574.821059	2439.918462
575.175722	2472.685962
575.530330	2505.453462
575.884882	2558.385577
576.239380	2465.124231
576.593823	2429.836154
576.948211	2455.041923
577.302544	2432.356731
577.656823	2472.685962
578.011047	2422.274423
578.365216	2500.412308
578.719330	2513.015192
579.073389	2545.782692
579.427394	2470.165385
579.781344	2429.836154
580.135239	2439.918462
580.489080	2586.111923
580.842866	2452.521346
581.196597	2505.453462
581.550273	2364.301154
581.903895	2490.330000
582.257463	2462.603654
582.610975	2505.453462
582.964434	2442.439038
583.317837	2523.097500
583.671186	2520.576923
584.024481	2450.000769
584.377721	2523.097500
584.730906	2455.041923
585.084037	2570.988462
585.437113	2485.288846
585.790135	2581.070769
586.143103	2505.453462
586.496016	2518.056346
586.848874	2480.247692
587.201679	2558.385577
587.554428	2475.206538
587.907124	2543.262115
588.259765	2412.192115
588.612352	2555.865000
588.964884	2513.015192
589.317362	2518.056346
589.669786	2414.712692
590.022155	2550.823846
590.374470	2568.467885
590.726731	2434.877308
591.078937	2507.974038
591.431090	2563.426731
591.783188	2505.453462
592.135232	2528.138654
592.487222	2513.015192
592.839157	2477.727115
593.191038	2490.330000
593.542866	2502.932885
593.894639	2543.262115
594.246358	2475.206538
594.598022	2487.809423
594.949633	2424.795000
595.301190	2505.453462
595.652692	2434.877308
596.004141	2502.932885
596.355535	2477.727115
596.706876	2558.385577
597.058162	2492.850577
597.409395	2538.220962
597.760573	2495.371154
598.111698	2558.385577
598.462768	2487.809423
598.813785	2520.576923
599.164748	2482.768269
599.515657	2467.644808
599.866511	2548.303269
600.217312	2507.974038
600.568060	2535.700385
600.918753	2490.330000
601.269392	2507.974038
601.619978	2412.192115
601.970510	2533.179808
602.320988	2513.015192
602.671412	2500.412308
603.021783	2447.480192
603.372100	2475.206538
603.722363	2540.741538
604.072572	2444.959615
604.422728	2424.795000
604.772830	2548.303269
605.122878	2507.974038
605.472872	2505.453462
605.822813	2452.521346
606.172701	2538.220962
606.522534	2422.274423
606.872314	2513.015192
607.222041	2528.138654
607.571714	2419.753846
607.921333	2513.015192
608.270899	2565.947308
608.620411	2450.000769
608.969870	2538.220962
609.319276	2550.823846
609.668627	2485.288846
610.017926	2462.603654
610.367171	2495.371154
610.716362	2563.426731
611.065500	2409.671538
611.414585	2538.220962
611.763616	2565.947308
612.112594	2467.644808
612.461518	2520.576923
612.810389	2475.206538
613.159207	2447.480192
613.507971	2543.262115
613.856682	2558.385577
614.205340	2500.412308
614.553945	2568.467885
614.902496	2457.562500
615.250994	2475.206538
615.599439	2528.138654
615.947830	2555.865000
616.296169	2518.056346
616.644454	2482.768269
616.992686	2492.850577
617.340864	2462.603654
617.688990	2563.426731
618.037063	2573.509038
618.385082	2460.083077
618.733048	2394.548077
619.080961	2535.700385
619.428821	2560.906154
619.776628	2429.836154
620.124382	2520.576923
620.472083	2457.562500
620.819731	2467.644808
621.167326	2596.194231
621.514868	2515.535769
621.862357	2490.330000
622.209793	2452.521346
622.557176	2568.467885
622.904506	2462.603654
623.251783	2518.056346
623.599007	2515.535769
623.946179	2495.371154
624.293297	2513.015192
624.640363	2520.576923
624.987376	2482.768269
625.334336	2497.891731
625.681243	2487.809423
626.028097	2424.795000
626.374899	2500.412308
626.721647	2490.330000
627.068343	2437.397885
627.414987	2442.439038
627.761577	2523.097500
628.108115	2439.918462
628.454600	2540.741538
628.801032	2523.097500
629.147412	2515.535769
629.493739	2530.659231
629.840014	2550.823846
630.186236	2475.206538
630.532405	2485.288846
630.878521	2462.603654
631.224585	2555.865000
631.570597	2490.330000
631.916556	2563.426731
632.262462	2553.344423
632.608316	2500.412308
632.954117	2452.521346
633.299866	2500.412308
633.645562	2520.576923
633.991206	2490.330000
634.336797	2480.247692
634.682336	2555.865000
635.027823	2545.782692
635.373257	2465.124231
635.718639	2550.823846
636.063968	2505.453462
636.409245	2447.480192
636.754470	2563.426731
637.099642	2528.138654
637.444762	2555.865000
637.789829	2447.480192
638.134845	2492.850577
638.479808	2434.877308
638.824719	2538.220962
639.169577	2502.932885
639.514383	2548.303269
639.859137	2439.918462
640.203839	2497.891731
640.548489	2538.220962
640.893086	2495.371154
641.237632	2497.891731
641.582125	2495.371154
641.926566	2518.056346
642.270955	2523.097500
642.615292	2502.932885
642.959576	2603.755962
643.303809	2412.192115
643.647990	2447.480192
643.992118	2535.700385
644.336195	2485.288846
644.680219	2545.782692
645.024192	2545.782692
645.368112	2492.850577
645.711981	2361.780577
646.055797	2487.809423
646.399562	2407.150962
646.743274	2507.974038
647.086935	2505.453462
647.430544	2480.247692
647.774101	2553.344423
648.117606	2477.727115
648.461059	2513.015192
648.804460	2518.056346
649.147810	2535.700385
649.491108	2505.453462
649.834354	2513.015192
650.177548	2490.330000
650.520690	2513.015192
650.863781	2477.727115
651.206820	2502.932885
651.549807	2570.988462
651.892742	2460.083077
652.235626	2515.535769
652.578458	2427.315577
652.921238	2510.494615
653.263967	2460.083077
653.606644	2586.111923
653.949269	2523.097500
654.291843	2442.439038
654.634365	2495.371154
654.976836	2530.659231
655.319255	2482.768269
655.661622	2545.782692
656.003938	2596.194231
656.346203	2543.262115
656.688416	2525.618077
657.030577	2510.494615
657.372687	2533.179808
657.714746	2513.015192
658.056753	2470.165385
658.398708	2513.015192
658.740612	2545.782692
659.082465	2576.029615
659.424266	2510.494615
659.766016	2419.753846
660.107715	2419.753846
660.449362	2578.550192
660.790958	2482.768269
661.132503	2535.700385
661.473996	2485.288846
661.815438	2545.782692
662.156829	2497.891731
662.498168	2485.288846
662.839456	2487.809423
663.180693	2467.644808
663.521879	2482.768269
663.863013	2497.891731
664.204097	2427.315577
664.545129	2502.932885
664.886110	2598.714808
665.227040	2510.494615
665.567918	2447.480192
665.908746	2477.727115
666.249522	2581.070769
666.590248	2533.179808
666.930922	2576.029615
667.271545	2573.509038
667.612118	2502.932885
667.952639	2480.247692
668.293109	2455.041923
668.633528	2583.591346
668.973896	2535.700385
669.314213	2439.918462
669.654480	2465.124231
669.994695	2528.138654
670.334859	2465.124231
670.674973	2568.467885
671.015035	2480.247692
671.355047	2457.562500
671.695008	2487.809423
672.034918	2407.150962
672.374777	2568.467885
672.714585	2480.247692
673.054342	2543.262115
673.394049	2518.056346
673.733705	2427.315577
674.073310	2513.015192
674.412864	2525.618077
674.752368	2404.630385
675.091820	2518.056346
675.431223	2492.850577
675.770574	2439.918462
676.109875	2487.809423
676.449125	2523.097500
676.788324	2502.932885
677.127473	2490.330000
677.466571	2444.959615
677.805619	2482.768269
678.144616	2444.959615
678.483562	2510.494615
678.822458	2475.206538
679.161303	2538.220962
679.500098	2460.083077
679.838842	2497.891731
680.177535	2450.000769
680.516179	2442.439038
680.854771	2507.974038
681.193314	2490.330000
681.531805	2427.315577
681.870247	2535.700385
682.208638	2394.548077
682.546978	2563.426731
682.885268	2490.330000
683.223508	2452.521346
683.561697	2407.150962
683.899836	2507.974038
684.237925	2495.371154
684.575963	2490.330000
684.913951	2540.741538
685.251889	2568.467885
685.589776	2462.603654
685.927614	2482.768269
686.265401	2591.153077
686.603137	2545.782692
686.940824	2447.480192
687.278460	2455.041923
687.616046	2490.330000
687.953582	2485.288846
688.291068	2518.056346
688.628504	2467.644808
688.965889	2492.850577
689.303224	2455.041923
689.640510	2583.591346
689.977745	2502.932885
690.314930	2482.768269
690.652065	2510.494615
690.989150	2523.097500
691.326185	2550.823846
691.663170	2570.988462
692.000105	2480.247692
692.336990	2460.083077
692.673825	2545.782692
693.010610	2505.453462
693.347345	2475.206538
693.684030	2560.906154
694.020665	2429.836154
694.357251	2492.850577
694.693786	2432.356731
695.030272	2573.509038
695.366707	2485.288846
695.703093	2495.371154
696.039429	2450.000769
696.375716	2480.247692
696.711952	2394.548077
697.048139	2492.850577
697.384276	2467.644808
697.720363	2480.247692
698.056400	2455.041923
698.392388	2477.727115
698.728326	2505.453462
699.064214	2608.797115
699.400053	2495.371154
699.735842	2427.315577
700.071581	2432.356731
700.407270	2442.439038
700.742910	2533.179808
701.078501	2492.850577
701.414042	2492.850577
701.749533	2480.247692
702.084974	2485.288846
702.420366	2545.782692
702.755709	2480.247692
703.091002	2530.659231
703.426246	2505.453462
703.761440	2523.097500
704.096584	2538.220962
704.431679	2475.206538
704.766725	2520.576923
705.101721	2502.932885
705.436668	2510.494615
705.771565	2457.562500
706.106413	2523.097500
706.441212	2444.959615
706.775961	2495.371154
707.110661	2475.206538
707.445311	2533.179808
707.779913	2450.000769
708.114465	2513.015192
708.448967	2518.056346
708.783421	2457.562500
709.117825	2515.535769
709.452180	2500.412308
709.786485	2550.823846
710.120742	2447.480192
710.454949	2513.015192
710.789107	2568.467885
711.123216	2465.124231
711.457275	2530.659231
711.791286	2477.727115
712.125247	2505.453462
712.459159	2563.426731
712.793023	2442.439038
713.126837	2500.412308
713.460602	2437.397885
713.794318	2462.603654
714.127985	2485.288846
714.461602	2480.247692
714.795171	2550.823846
715.128691	2452.521346
715.462162	2480.247692
715.795584	2513.015192
716.128957	2510.494615
716.462281	2520.576923
716.795556	2480.247692
717.128782	2470.165385
717.461960	2455.041923
717.795088	2485.288846
718.128167	2490.330000
718.461198	2545.782692
718.794180	2545.782692
719.127113	2578.550192
719.459997	2457.562500
719.792833	2465.124231
720.125619	2543.262115
720.458357	2533.179808
720.791046	2543.262115
721.123686	2568.467885
721.456278	2472.685962
721.788821	2500.412308
722.121315	2465.124231
722.453761	2540.741538
722.786158	2497.891731
723.118506	2555.865000
723.450805	2495.371154
723.783056	2507.974038
724.115259	2515.535769
724.447412	2447.480192
724.779518	2452.521346
725.111574	2422.274423
725.443582	2497.891731
725.775542	2528.138654
726.107453	2447.480192
726.439315	2520.576923
726.771129	2515.535769
727.102895	2497.891731
727.434612	2523.097500
727.766281	2492.850577
728.097901	2560.906154
728.429473	2472.685962
728.760996	2467.644808
729.092471	2505.453462
729.423897	2455.041923
729.755276	2455.041923
730.086606	2520.576923
730.417887	2487.809423
730.749120	2513.015192
731.080305	2467.644808
731.411442	2497.891731
731.742530	2565.947308
732.073570	2462.603654
732.404562	2520.576923
732.735506	2548.303269
733.066401	2482.768269
733.397249	2543.262115
733.728048	2570.988462
734.058798	2475.206538
734.389501	2477.727115
734.720156	2475.206538
735.050762	2399.589231
735.381320	2470.165385
735.711831	2477.727115
736.042293	2502.932885
736.372707	2533.179808
736.703073	2530.659231
737.033391	2495.371154
737.363661	2553.344423
737.693883	2455.041923
738.024056	2480.247692
738.354182	2500.412308
738.684260	2507.974038
739.014290	2450.000769
739.344272	2502.932885
739.674207	2470.165385
740.004093	2505.453462
740.333931	2518.056346
740.663722	2576.029615
740.993464	2470.165385
741.323159	2450.000769
741.652806	2583.591346
741.982405	2472.685962
742.311956	2613.838269
742.641460	2460.083077
742.970915	2555.865000
743.300323	2404.630385
743.629683	2586.111923
743.958996	2419.753846
744.288260	2439.918462
744.617477	2487.809423
744.946647	2533.179808
745.275768	2422.274423
745.604842	2525.618077
745.933869	2455.041923
746.262847	2487.809423
746.591778	2535.700385
746.920662	2439.918462
747.249498	2452.521346
747.578286	2502.932885
747.907027	2482.768269
748.235720	2472.685962
748.564365	2520.576923
748.892963	2510.494615
749.221514	2485.288846
749.550017	2485.288846
749.878473	2434.877308
750.206881	2439.918462
750.535242	2520.576923
750.863555	2422.274423
751.191821	2523.097500
751.520039	2462.603654
751.848210	2475.206538
752.176334	2515.535769
752.504411	2485.288846
752.832440	2465.124231
753.160421	2500.412308
753.488356	2351.698269
753.816243	2407.150962
754.144082	2553.344423
754.471875	2482.768269
754.799620	2500.412308
755.127318	2475.206538
755.454969	2487.809423
755.782572	2455.041923
756.110129	2586.111923
756.437638	2500.412308
756.765100	2482.768269
757.092515	2482.768269
757.419882	2533.179808
757.747203	2452.521346
758.074477	2480.247692
758.401703	2565.947308
758.728882	2465.124231
759.056014	2520.576923
759.383099	2480.247692
759.710138	2520.576923
760.037129	2507.974038
760.364073	2502.932885
760.690970	2450.000769
761.017820	2444.959615
761.344623	2525.618077
761.671379	2507.974038
761.998088	2510.494615
762.324751	2510.494615
762.651366	2563.426731
762.977935	2533.179808
763.304456	2437.397885
763.630931	2550.823846
763.957359	2591.153077
764.283740	2429.836154
764.610074	2535.700385
764.936362	2437.397885
765.262602	2465.124231
765.588796	2490.330000
765.914943	2510.494615
766.241044	2548.303269
766.567097	2533.179808
766.893104	2492.850577
767.219064	2490.330000
767.544978	2545.782692
767.870845	2588.632500
768.196665	2444.959615
768.522438	2490.330000
768.848165	2530.659231
769.173846	2452.521346
769.499479	2543.262115
769.825066	2502.932885
770.150607	2535.700385
770.476101	2450.000769
770.801548	2545.782692
771.126949	2444.959615
771.452303	2480.247692
771.777611	2442.439038
772.102872	2500.412308
772.428087	2492.850577
772.753256	2472.685962
773.078378	2389.506923
773.403453	2434.877308
773.728482	2515.535769
774.053465	2495.371154
774.378401	2490.330000
774.703291	2510.494615
775.028135	2482.768269
775.352932	2462.603654
775.677683	2432.356731
776.002388	2480.247692
776.327046	2490.330000
776.651658	2495.371154
776.976224	2485.288846
777.300743	2520.576923
777.625216	2455.041923
777.949643	2470.165385
778.274024	2447.480192
778.598359	2507.974038
778.922647	2530.659231
779.246889	2553.344423
779.571086	2565.947308
779.895236	2457.562500
780.219339	2528.138654
780.543397	2480.247692
780.867409	2490.330000
781.191374	2573.509038
781.515294	2492.850577
781.839167	2442.439038
782.162995	2601.235385
782.486776	2495.371154
782.810511	2424.795000
783.134201	2444.959615
783.457844	2455.041923
783.781441	2510.494615
784.104993	2502.932885
784.428498	2538.220962
784.751958	2477.727115
785.075372	2543.262115
785.398739	2470.165385
785.722061	2515.535769
786.045337	2497.891731
786.368568	2492.850577
786.691752	2525.618077
787.014891	2490.330000
787.337983	2543.262115
787.661030	2462.603654
787.984031	2480.247692
788.306987	2452.521346
788.629897	2545.782692
788.952760	2485.288846
789.275579	2515.535769
789.598351	2450.000769
789.921078	2510.494615
790.243759	2533.179808
790.566395	2497.891731
790.888984	2482.768269
791.211529	2429.836154
791.534027	2485.288846
791.856480	2480.247692
792.178888	2507.974038
792.501249	2490.330000
792.823566	2495.371154
793.145836	2472.685962
793.468062	2455.041923
793.790241	2427.315577
794.112375	2480.247692
794.434464	2487.809423
794.756507	2460.083077
795.078505	2487.809423
795.400457	2457.562500
795.722364	2540.741538
796.044226	2553.344423
796.366042	2570.988462
796.687812	2472.685962
797.009538	2513.015192
797.331218	2460.083077
797.652852	2460.083077
797.974442	2475.206538
798.295986	2495.371154
798.617484	2535.700385
798.938938	2485.288846
799.260346	2490.330000
799.581709	2513.015192
799.903026	2482.768269
800.224299	2412.192115
800.545526	2523.097500
800.866708	2515.535769
801.187845	2555.865000
801.508936	2475.206538
801.829983	2490.330000
802.150984	2550.823846
802.471940	2507.974038
802.792851	2437.397885
803.113717	2543.262115
803.434538	2480.247692
803.755314	2505.453462
804.076045	2467.644808
804.396731	2528.138654
804.717372	2434.877308
805.037967	2460.083077
805.358518	2392.027500
805.679024	2513.015192
805.999485	2497.891731
806.319901	2523.097500
806.640272	2520.576923
806.960598	2520.576923
807.280879	2485.288846
807.601115	2528.138654
807.921306	2480.247692
808.241453	2550.823846
808.561554	2520.576923
808.881611	2462.603654
809.201623	2513.015192
809.521590	2455.041923
809.841513	2500.412308
810.161390	2465.124231
810.481223	2500.412308
810.801011	2535.700385
811.120755	2432.356731
811.440453	2480.247692
811.760107	2447.480192
812.079716	2490.330000
812.399281	2422.274423
812.718801	2500.412308
813.038276	2520.576923
813.357707	2507.974038
813.677093	2485.288846
813.996434	2439.918462
814.315731	2490.330000
814.634983	2419.753846
814.954191	2558.385577
815.273354	2492.850577
815.592473	2530.659231
815.911547	2565.947308
816.230577	2465.124231
816.549562	2502.932885
816.868502	2565.947308
817.187399	2470.165385
817.506250	2472.685962
817.825058	2452.521346
818.143821	2419.753846
818.462539	2477.727115
818.781213	2545.782692
819.099843	2515.535769
819.418429	2515.535769
819.736970	2520.576923
820.055466	2447.480192
820.373919	2523.097500
820.692327	2543.262115
821.010691	2568.467885
821.329011	2500.412308
821.647286	2492.850577
821.965517	2540.741538
822.283704	2485.288846
822.601847	2528.138654
822.919945	2576.029615
823.237999	2500.412308
823.556010	2525.618077
823.873976	2497.891731
824.191897	2492.850577
824.509775	2437.397885
824.827609	2480.247692
825.145398	2487.809423
825.463144	2513.015192
825.780845	2439.918462
826.098502	2502.932885
826.416116	2495.371154
826.733685	2543.262115
827.051210	2525.618077
827.368692	2540.741538
827.686129	2505.453462
828.003522	2447.480192
828.320872	2505.453462
828.638177	2507.974038
828.955439	2500.412308
829.272656	2573.509038
829.589830	2553.344423
829.906960	2513.015192
830.224046	2533.179808
830.541088	2444.959615
830.858086	2505.453462
831.175041	2505.453462
831.491952	2444.959615
831.808819	2570.988462
832.125642	2412.192115
832.442421	2513.015192
832.759157	2548.303269
833.075849	2533.179808
833.392497	2500.412308
833.709101	2444.959615
834.025662	2570.988462
834.342179	2442.439038
834.658653	2520.576923
834.975083	2475.206538
835.291469	2482.768269
835.607811	2555.865000
835.924110	2480.247692
836.240366	2520.576923
836.556578	2432.356731
836.872746	2505.453462
837.188871	2487.809423
837.504952	2510.494615
837.820990	2429.836154
838.136984	2470.165385
838.452935	2507.974038
838.768842	2533.179808
839.084706	2470.165385
839.400526	2540.741538
839.716303	2510.494615
840.032037	2477.727115
840.347727	2444.959615
840.663373	2505.453462
840.978977	2414.712692
841.294537	2424.795000
841.610054	2402.109808
841.925527	2533.179808
842.240957	2477.727115
842.556344	2502.932885
842.871687	2371.862885
843.186987	2505.453462
843.502244	2490.330000
843.817458	2502.932885
844.132629	2540.741538
844.447756	2434.877308
844.762840	2502.932885
845.077881	2480.247692
845.392879	2419.753846
845.707833	2545.782692
846.022745	2447.480192
846.337613	2470.165385
846.652438	2505.453462
846.967221	2581.070769
847.281960	2462.603654
847.596656	2513.015192
847.911309	2495.371154
848.225919	2467.644808
848.540485	2570.988462
848.855009	2500.412308
849.169490	2485.288846
849.483928	2477.727115
849.798323	2528.138654
850.112675	2414.712692
850.426984	2485.288846
850.741251	2477.727115
851.055474	2452.521346
851.369654	2422.274423
851.683792	2457.562500
851.997887	2397.068654
852.311938	2502.932885
852.625947	2429.836154
852.939914	2429.836154
853.253837	2528.138654
853.567718	2487.809423
853.881555	2560.906154
854.195350	2475.206538
854.509103	2500.412308
854.822812	2422.274423
855.136479	2523.097500
855.450103	2455.041923
855.763685	2502.932885
856.077224	2424.795000
856.390720	2419.753846
856.704173	2460.083077
857.017584	2538.220962
857.330953	2475.206538
857.644278	2497.891731
857.957561	2500.412308
858.270802	2480.247692
858.584000	2487.809423
858.897155	2422.274423
859.210268	2427.315577
859.523339	2480.247692
859.836367	2480.247692
860.149352	2513.015192
860.462295	2419.753846
860.775195	2427.315577
861.088054	2465.124231
861.400869	2520.576923
861.713642	2434.877308
862.026373	2530.659231
862.339062	2513.015192
862.651708	2467.644808
862.964312	2460.083077
863.276873	2523.097500
863.589392	2586.111923
863.901869	2455.041923
864.214303	2563.426731
864.526696	2470.165385
864.839045	2560.906154
865.151353	2482.768269
865.463619	2417.233269
865.775842	2525.618077
866.088023	2530.659231
866.400162	2439.918462
866.712258	2525.618077
867.024313	2432.356731
867.336325	2548.303269
867.648296	2550.823846
867.960224	2500.412308
868.272110	2497.891731
868.583954	2545.782692
868.895755	2523.097500
869.207515	2455.041923
869.519233	2455.041923
869.830909	2558.385577
870.142542	2487.809423
870.454134	2444.959615
870.765684	2563.426731
871.077191	2639.044038
871.388657	2523.097500
871.700081	2432.356731
872.011463	2487.809423
872.322803	2470.165385
872.634101	2482.768269
872.945357	2525.618077
873.256571	2510.494615
873.567744	2538.220962
873.878874	2495.371154
874.189963	2570.988462
874.501010	2432.356731
874.812015	2515.535769
875.122979	2588.632500
875.433900	2543.262115
875.744780	2455.041923
876.055618	2455.041923
876.366415	2477.727115
876.677169	2422.274423
876.987882	2545.782692
877.298554	2447.480192
877.609183	2492.850577
877.919771	2457.562500
878.230317	2500.412308
878.540822	2558.385577
878.851285	2497.891731
879.161707	2505.453462
879.472087	2497.891731
879.782425	2465.124231
880.092722	2497.891731
880.402977	2523.097500
880.713191	2487.809423
881.023363	2507.974038
881.333494	2623.920577
881.643583	2507.974038
881.953631	2490.330000
882.263637	2467.644808
882.573602	2407.150962
882.883526	2515.535769
883.193408	2502.932885
883.503248	2490.330000
883.813048	2467.644808
884.122806	2548.303269
884.432522	2518.056346
884.742197	2515.535769
885.051831	2510.494615
885.361424	2502.932885
885.670975	2417.233269
885.980485	2523.097500
886.289954	2467.644808
886.599382	2545.782692
886.908768	2586.111923
887.218113	2432.356731
887.527417	2465.124231
887.836680	2538.220962
888.145901	2417.233269
888.455082	2507.974038
888.764221	2460.083077
889.073319	2543.262115
889.382376	2477.727115
889.691392	2513.015192
890.000366	2502.932885
890.309300	2450.000769
890.618193	2505.453462
890.927044	2543.262115
891.235855	2450.000769
891.544625	2495.371154
891.853353	2490.330000
892.162041	2472.685962
892.470687	2475.206538
892.779293	2485.288846
893.087858	2533.179808
893.396381	2475.206538
893.704864	2530.659231
894.013306	2452.521346
894.321707	2507.974038
894.630068	2515.535769
894.938387	2513.015192
895.246665	2485.288846
895.554903	2500.412308
895.863100	2513.015192
896.171256	2467.644808
896.479371	2535.700385
896.787446	2548.303269
897.095480	2520.576923
897.403473	2560.906154
897.711425	2518.056346
898.019336	2548.303269
898.327207	2477.727115
898.635038	2505.453462
898.942827	2525.618077
899.250576	2457.562500
899.558284	2482.768269
899.865952	2608.797115
900.173579	2528.138654
900.481165	2412.192115
900.788711	2417.233269
901.096216	2465.124231
901.403681	2432.356731
901.711105	2487.809423
902.018489	2596.194231
902.325832	2523.097500
902.633135	2518.056346
902.940397	2515.535769
903.247619	2513.015192
903.554800	2432.356731
903.861941	2510.494615
904.169041	2502.932885
904.476101	2487.809423
904.783121	2581.070769
905.090100	2470.165385
905.397039	2545.782692
905.703938	2414.712692
906.010796	2568.467885
906.317614	2500.412308
906.624391	2495.371154
906.931129	2447.480192
907.237826	2437.397885
907.544483	2467.644808
907.851099	2525.618077
908.157675	2467.644808
908.464211	2507.974038
908.770707	2518.056346
909.077163	2528.138654
909.383578	2558.385577
909.689954	2518.056346
909.996289	2538.220962
910.302584	2462.603654
910.608839	2442.439038
910.915054	2457.562500
911.221229	2502.932885
911.527363	2538.220962
911.833458	2485.288846
912.139513	2515.535769
912.445527	2573.509038
912.751502	2460.083077
913.057436	2573.509038
913.363331	2568.467885
913.669186	2507.974038
913.975000	2510.494615
914.280775	2465.124231
914.586510	2485.288846
914.892205	2437.397885
915.197859	2538.220962
915.503475	2485.288846
915.809050	2538.220962
916.114585	2588.632500
916.420081	2477.727115
916.725536	2528.138654
917.030952	2553.344423
917.336328	2452.521346
917.641665	2608.797115
917.946961	2427.315577
918.252218	2502.932885
918.557435	2495.371154
918.862612	2510.494615
919.167750	2593.673654
919.472848	2482.768269
919.777906	2510.494615
920.082925	2502.932885
920.387904	2510.494615
920.692843	2505.453462
920.997743	2525.618077
921.302603	2465.124231
921.607423	2540.741538
921.912204	2455.041923
922.216946	2507.974038
922.521647	2457.562500
922.826310	2497.891731
923.130932	2465.124231
923.435516	2447.480192
923.740059	2533.179808
924.044564	2492.850577
924.349028	2528.138654
924.653454	2422.274423
924.957840	2507.974038
925.262186	2515.535769
925.566493	2530.659231
925.870761	2477.727115
926.174989	2540.741538
926.479178	2447.480192
926.783328	2548.303269
927.087438	2525.618077
927.391509	2533.179808
927.695541	2510.494615
927.999533	2523.097500
928.303486	2513.015192
928.607400	2487.809423
928.911275	2444.959615
929.215110	2490.330000
929.518906	2495.371154
929.822663	2505.453462
930.126381	2447.480192
930.430060	2502.932885
930.733699	2510.494615
931.037299	2507.974038
931.340861	2518.056346
931.644383	2492.850577
931.947866	2535.700385
932.251309	2455.041923
932.554714	2538.220962
932.858080	2472.685962
933.161407	2429.836154
933.464694	2528.138654
933.767943	2523.097500
934.071153	2502.932885
934.374323	2560.906154
934.677455	2480.247692
934.980548	2558.385577
935.283602	2510.494615
935.586617	2490.330000
935.889593	2495.371154
936.192530	2505.453462
936.495428	2518.056346
936.798287	2621.400000
937.101108	2510.494615
937.403890	2472.685962
937.706632	2538.220962
938.009336	2402.109808
938.312002	2505.453462
938.614628	2525.618077
938.917216	2434.877308
939.219765	2442.439038
939.522275	2530.659231
939.824747	2654.167500
940.127179	2447.480192
940.429573	2518.056346
940.731929	2485.288846
941.034246	2490.330000
941.336524	2586.111923
941.638763	2543.262115
941.940964	2477.727115
942.243126	2507.974038
942.545250	2565.947308
942.847335	2533.179808
943.149381	2470.165385
943.451389	2563.426731
943.753359	2523.097500
944.055290	2523.097500
944.357182	2460.083077
944.659036	2515.535769
944.960851	2470.165385
945.262628	2475.206538
945.564367	2560.906154
945.866067	2560.906154
946.167729	2412.192115
946.469352	2409.671538
946.770937	2553.344423
947.072484	2581.070769
947.373992	2429.836154
947.675462	2470.165385
947.976893	2485.288846
948.278286	2520.576923
948.579641	2550.823846
948.880958	2485.288846
949.182236	2500.412308
949.483476	2392.027500
949.784678	2470.165385
950.085841	2560.906154
950.386967	2487.809423
950.688054	2535.700385
950.989103	2495.371154
951.290114	2460.083077
951.591087	2545.782692
951.892021	2422.274423
952.192917	2422.274423
952.493776	2518.056346
952.794596	2560.906154
953.095378	2457.562500
953.396122	2515.535769
953.696828	2545.782692
953.997496	2397.068654
954.298126	2424.795000
954.598718	2502.932885
954.899272	2518.056346
955.199788	2447.480192
955.500266	2507.974038
955.800706	2518.056346
956.101108	2485.288846
956.401472	2492.850577
956.701798	2407.150962
957.002087	2422.274423
957.302337	2533.179808
957.602550	2452.521346
957.902724	2429.836154
958.202861	2386.986346
958.502960	2429.836154
958.803022	2535.700385
959.103045	2434.877308
959.403031	2535.700385
959.702979	2513.015192
960.002889	2505.453462
960.302762	2412.192115
960.602596	2427.315577
960.902393	2457.562500
961.202153	2450.000769
961.501875	2407.150962
961.801559	2535.700385
962.101205	2462.603654
962.400814	2507.974038
962.700385	2465.124231
962.999918	2583.591346
963.299414	2487.809423
963.598873	2339.095385
963.898293	2467.644808
964.197677	2573.509038
964.497022	2525.618077
964.796331	2573.509038
965.095601	2535.700385
965.394835	2462.603654
965.694030	2424.795000
965.993189	2502.932885
966.292309	2530.659231
966.591393	2538.220962
966.890439	2530.659231
967.189447	2593.673654
967.488419	2515.535769
967.787353	2475.206538
968.086249	2518.056346
968.385108	2485.288846
968.683930	2525.618077
968.982714	2467.644808
969.281462	2457.562500
969.580172	2477.727115
969.878844	2507.974038
970.177480	2452.521346
970.476078	2563.426731
970.774639	2452.521346
971.073162	2533.179808
971.371649	2452.521346
971.670098	2520.576923
971.968510	2540.741538
972.266885	2470.165385
972.565223	2439.918462
972.863524	2475.206538
973.161788	2444.959615
973.460014	2475.206538
973.758204	2525.618077
974.056356	2404.630385
974.354471	2492.850577
974.652550	2502.932885
974.950591	2518.056346
975.248595	2437.397885
975.546563	2528.138654
975.844493	2424.795000
976.142386	2485.288846
976.440243	2507.974038
976.738062	2422.274423
977.035845	2573.509038
977.333590	2502.932885
977.631299	2487.809423
977.928971	2487.809423
978.226606	2485.288846
978.524204	2485.288846
978.821765	2495.371154
979.119290	2538.220962
979.416777	2482.768269
979.714228	2513.015192
980.011642	2523.097500
980.309020	2487.809423
980.606360	2497.891731
980.903664	2409.671538
981.200931	2530.659231
981.498162	2444.959615
981.795356	2573.509038
982.092513	2472.685962
982.389633	2535.700385
982.686717	2535.700385
982.983764	2457.562500
983.280775	2500.412308
983.577749	2450.000769
983.874686	2492.850577
984.171587	2472.685962
984.468451	2492.850577
984.765279	2560.906154
985.062070	2576.029615
985.358824	2485.288846
985.655543	2495.371154
985.952224	2419.753846
986.248869	2550.823846
986.545478	2482.768269
986.842050	2492.850577
987.138586	2492.850577
987.435086	2525.618077
987.731549	2470.165385
988.027975	2495.371154
988.324366	2525.618077
988.620719	2515.535769
988.917037	2528.138654
989.213318	2540.741538
989.509563	2573.509038
989.805772	2472.685962
990.101944	2371.862885
990.398080	2462.603654
990.694180	2465.124231
990.990244	2606.276538
991.286271	2545.782692
991.582262	2460.083077
991.878217	2510.494615
992.174136	2533.179808
992.470019	2462.603654
992.765865	2482.768269
993.061676	2510.494615
993.357450	2525.618077
993.653188	2535.700385
993.948890	2379.424615
994.244556	2535.700385
994.540186	2530.659231
994.835780	2427.315577
995.131337	2543.262115
995.426859	2515.535769
995.722345	2492.850577
996.017795	2470.165385
996.313208	2553.344423
996.608586	2434.877308
996.903928	2487.809423
997.199234	2480.247692
997.494504	2470.165385
997.789738	2480.247692
998.084936	2543.262115
998.380099	2502.932885
998.675225	2510.494615
998.970316	2505.453462
999.265371	2455.041923
999.560390	2475.206538
999.855373	2500.412308
1000.150320	2470.165385
1000.445232	2376.904038
1000.740108	2457.562500
1001.034948	2472.685962
1001.329752	2510.494615
1001.624521	2540.741538
1001.919254	2432.356731
1002.213951	2513.015192
1002.508613	2444.959615
1002.803239	2560.906154
1003.097829	2500.412308
1003.392384	2540.741538
1003.686903	2515.535769
1003.981386	2462.603654
1004.275834	2460.083077
1004.570246	2485.288846
1004.864623	2525.618077
1005.158964	2528.138654
1005.453270	2560.906154
1005.747540	2530.659231
1006.041775	2402.109808
1006.335974	2482.768269
1006.630138	2492.850577
1006.924266	2555.865000
1007.218359	2470.165385
1007.512416	2455.041923
1007.806438	2520.576923
1008.100425	2530.659231
1008.394376	2477.727115
1008.688292	2424.795000
1008.982172	2502.932885
1009.276017	2485.288846
1009.569827	2414.712692
1009.863602	2553.344423
1010.157341	2492.850577
1010.451045	2495.371154
1010.744714	2497.891731
1011.038347	2417.233269
1011.331945	2550.823846
1011.625508	2450.000769
1011.919036	2452.521346
1012.212528	2553.344423
1012.505986	2482.768269
1012.799408	2565.947308
1013.092795	2495.371154
1013.386147	2510.494615
1013.679464	2535.700385
1013.972745	2530.659231
1014.265992	2593.673654
1014.559204	2548.303269
1014.852380	2475.206538
1015.145521	2452.521346
1015.438628	2525.618077
1015.731699	2485.288846
1016.024736	2588.632500
1016.317737	2507.974038
1016.610703	2540.741538
1016.903635	2578.550192
1017.196531	2502.932885
1017.489393	2482.768269
1017.782219	2613.838269
1018.075011	2550.823846
1018.367768	2513.015192
1018.660490	2555.865000
1018.953177	2555.865000
1019.245829	2555.865000
