Dividing Wavelength (nm)	Counts (n)	Blue Motor Position (mm): 0.000000	Red Motor Position (mm): 21.500000	
326.493990	2141.272946
326.888308	2141.272946
327.282561	2141.272946
327.676750	2119.860645
328.070874	2120.437857
328.464933	2129.065792
328.858929	2133.007974
329.252859	2147.551703
329.646726	2162.168529
330.040528	2172.971721
330.434265	2193.615246
330.827938	2214.561241
331.221547	2233.331977
331.615091	2253.005080
332.008571	2273.116763
332.401986	2292.666358
332.795338	2311.018678
333.188625	2333.845023
333.581847	2352.401510
333.975006	2369.319623
334.368100	2386.273023
334.761129	2407.234141
335.154095	2424.467325
335.546996	2440.558688
335.939833	2454.696604
336.332606	2470.339304
336.725315	2482.269195
337.117960	2488.066522
337.510540	2495.708911
337.903056	2504.130159
338.295508	2510.058556
338.687896	2521.501975
339.080220	2528.247039
339.472480	2531.334745
339.864676	2534.291382
340.256807	2542.909235
340.648875	2540.844882
341.040879	2540.711292
341.432818	2544.966025
341.824694	2544.605583
342.216506	2545.981818
342.608253	2543.983000
342.999937	2543.483926
343.391557	2544.713968
343.783113	2541.061652
344.174605	2543.753628
344.566033	2537.928575
344.957397	2536.091074
345.348697	2534.147709
345.739934	2534.911444
346.131106	2531.014632
346.522215	2532.668131
346.913260	2528.584796
347.304241	2527.485824
347.695159	2525.073632
348.086012	2526.119672
348.476802	2520.773528
348.867528	2524.214116
349.258191	2521.234794
349.648789	2519.591378
350.039324	2516.841428
350.429796	2520.027437
350.820203	2514.499812
351.210548	2514.905625
351.600828	2511.434791
351.991045	2516.627179
352.381198	2514.867816
352.771288	2516.773373
353.161314	2514.547703
353.551276	2513.811695
353.941175	2513.496623
354.331010	2514.716582
354.720782	2513.957888
355.110490	2513.083248
355.500135	2514.724143
355.889717	2515.500481
356.279235	2511.555778
356.668689	2515.974350
357.058080	2520.670184
357.447408	2513.683145
357.836672	2512.672394
358.225873	2513.854544
358.615010	2514.661129
359.004084	2518.815040
359.393095	2517.723630
359.782043	2516.322189
360.170927	2518.809999
360.559748	2519.442663
360.948505	2518.905781
361.337199	2521.781759
361.725830	2519.853517
362.114398	2517.942920
362.502903	2522.648837
362.891344	2522.464835
363.279722	2524.902233
363.668037	2525.003056
364.056289	2525.514733
364.444478	2524.377953
364.832603	2521.857376
365.220665	2527.095135
365.608665	2525.282840
365.996601	2525.139167
366.384474	2525.708818
366.772284	2526.853160
367.160031	2526.404497
367.547715	2528.988088
367.935336	2523.710000
368.322893	2527.490866
368.710388	2528.420958
369.097820	2531.153264
369.485189	2525.918026
369.872495	2527.576565
370.259738	2526.054137
370.646918	2531.727955
371.034035	2530.276103
371.421090	2530.523120
371.808081	2533.419262
372.195010	2532.237112
372.581875	2533.799870
372.968678	2531.480939
373.355418	2532.509334
373.742096	2536.877494
374.128710	2534.261135
374.515262	2537.873122
374.901751	2539.985365
375.288177	2539.675334
375.674540	2540.681045
376.060841	2543.486447
376.447079	2540.204656
376.833254	2545.946530
377.219367	2541.964018
377.605417	2545.921324
377.991404	2548.943496
378.377329	2550.155893
378.763191	2550.241593
379.148991	2557.536142
379.534727	2562.163922
379.920402	2567.683985
380.306013	2571.429562
380.691563	2573.322516
381.077049	2579.669328
381.462474	2581.476582
381.847835	2590.769949
382.233134	2594.321442
382.618371	2597.668768
383.003545	2607.360387
383.388657	2612.852724
383.773706	2617.195678
384.158693	2625.901750
384.543618	2629.770836
384.928480	2635.066568
385.313280	2643.502939
385.698017	2650.694145
386.082692	2660.479025
386.467305	2669.162412
386.851856	2677.820594
387.236344	2686.985412
387.620770	2693.591844
388.005133	2702.436548
388.389435	2712.478527
388.773674	2722.419682
389.157851	2727.735579
389.541965	2737.933833
389.926018	2742.735532
390.310008	2755.761873
390.693936	2763.442071
391.077802	2771.530603
391.461606	2783.760442
391.845348	2790.041720
392.229027	2797.263172
392.612645	2816.780000
392.996200	2825.198727
393.379694	2836.944615
393.763125	2854.414734
394.146494	2862.314222
394.529801	2869.641539
394.913047	2888.455125
395.296230	2891.378994
395.679351	2898.179511
396.062410	2915.042170
396.445408	2909.017992
396.828343	2920.259765
397.211217	2930.188317
397.594028	2924.048192
397.976778	2938.178546
398.359466	2951.862758
398.742092	2949.657253
399.124656	2966.643421
399.507158	2977.880153
399.889598	2984.257213
400.271977	2999.121055
400.654294	3003.980727
401.036549	3014.095802
401.418742	3022.892616
401.800874	3044.501522
402.182944	3052.905125
402.564952	3083.157089
402.946898	3072.013619
403.328783	3079.230031
403.710606	3094.948348
404.092367	3117.121863
404.474067	3143.643374
404.855705	3135.239770
405.237282	3136.495018
405.618797	3167.782939
406.000250	3191.995601
406.381642	3217.665156
406.762972	3223.200343
407.144240	3214.320351
407.525447	3238.485122
407.906593	3234.868094
408.287677	3260.575458
408.668700	3277.468364
409.049661	3272.442334
409.430560	3289.993111
409.811399	3293.484110
410.192176	3315.254333
410.572891	3321.049139
410.953545	3360.314687
411.334138	3327.930314
411.714669	3380.794374
412.095139	3327.443843
412.475547	3377.194990
412.855894	3369.691233
413.236180	3398.647621
413.616405	3378.742625
413.996568	3402.418404
414.376670	3405.251532
414.756711	3400.926222
415.136691	3426.079059
415.516609	3449.659056
415.896466	3457.485448
416.276262	3482.512256
416.655997	3510.611647
417.035670	3516.819828
417.415283	3585.553441
417.794834	3607.850464
418.174324	3590.813885
418.553753	3589.273812
418.933121	3635.617139
419.312428	3625.214718
419.691674	3618.905714
420.070859	3654.793689
420.449983	3637.835247
420.829045	3686.442052
421.208047	3669.907068
421.586988	3714.869119
421.965867	3747.639140
422.344686	3753.527207
422.723444	3791.850059
423.102141	3698.752550
423.480777	3798.481697
423.859352	3764.274947
424.237866	3861.274309
424.616319	3846.085313
424.994712	3904.630753
425.373044	3895.314700
425.751314	3955.974905
426.129524	3889.925707
426.507673	3988.475223
426.885762	3963.697952
427.263789	3986.897342
427.641756	3987.749297
428.019662	4017.744163
428.397508	4015.964635
428.775292	4053.811098
429.153016	4056.485430
429.530679	4066.824837
429.908282	4072.828851
430.285824	4045.498235
430.663305	4116.840644
431.040726	4075.861105
431.418086	4059.966347
431.795385	4129.937562
432.172624	4156.209535
432.549802	4117.609420
432.926920	4135.843274
433.303977	4121.566726
433.680974	4155.733146
434.057910	4170.881814
434.434786	4169.321577
434.811601	4157.671470
435.188355	4245.795880
435.565050	4212.625088
435.941683	4196.770659
436.318257	4270.805045
436.694770	4267.074591
437.071222	4305.762926
437.447614	4239.197010
437.823946	4232.446905
438.200218	4233.276175
438.576429	4203.185528
438.952580	4210.222978
439.328670	4203.170404
439.704700	4229.800299
440.080670	4183.673742
440.456580	4218.984504
440.832429	4235.383377
441.208218	4136.400321
441.583947	4164.729085
441.959616	4162.926873
442.335224	4161.560720
442.710773	4161.255730
443.086261	4185.279349
443.461689	4128.536121
443.837057	4118.123618
444.212365	4158.372190
444.587612	4141.736383
444.962800	4093.553034
445.337927	4102.720373
445.712995	3998.814630
446.088002	4112.694295
446.462949	4105.581227
446.837837	4092.980863
447.212664	4058.902663
447.587431	4182.564688
447.962139	4341.580324
448.336786	4528.622255
448.711374	4490.901822
449.085901	4245.551384
449.460369	4170.740661
449.834776	4100.472018
450.209124	4201.842060
450.583412	4172.820137
450.957640	4211.823545
451.331808	4104.431844
451.705917	3990.053105
452.079965	3949.774285
452.453954	3936.306843
452.827883	3886.414543
453.201752	3857.243907
453.575562	3839.395701
453.949311	3867.099362
454.323001	3835.340093
454.696632	3797.846511
455.070202	3829.550328
455.443713	3808.977379
455.817164	3803.767347
456.190556	3797.566727
456.563888	3752.765993
456.937160	3742.063623
457.310373	3653.500633
457.683526	3637.252994
458.056619	3603.036162
458.429653	3561.895306
458.802628	3540.949311
459.175542	3516.862678
459.548398	3521.956764
459.921194	3540.760268
460.293930	3526.589585
460.666607	3557.408679
461.039224	3580.562698
461.411782	3573.492480
461.784280	3513.553161
462.156719	3477.385403
462.529099	3425.766508
462.901419	3359.944162
463.273680	3298.636169
463.645882	3260.424223
464.018024	3227.444995
464.390106	3212.286245
464.762130	3226.986250
465.134094	3264.585696
465.505999	3338.599917
465.877845	3414.953233
466.249631	3430.497631
466.621358	3368.430944
466.993026	3299.634318
467.364634	3233.743917
467.736184	3161.365550
468.107674	3111.589197
468.479105	3076.270873
468.850477	3040.428269
469.221790	2999.771364
469.593043	2957.166052
469.964238	2925.676484
470.335373	2903.361817
470.706449	2892.553583
471.077467	2887.346071
471.448425	2912.274577
471.819324	2931.645211
472.190164	2912.720719
472.560945	2866.384953
472.931667	2825.823830
473.302330	2801.230561
473.672934	2782.038888
474.043479	2770.958432
474.413965	2758.264806
474.784393	2743.559761
475.154761	2737.097001
475.525070	2727.685167
475.895321	2715.089844
476.265513	2710.406612
476.635645	2711.251006
477.005719	2698.701053
477.375734	2699.174922
477.745691	2692.855835
478.115588	2692.031607
478.485427	2689.115299
478.855207	2693.730475
479.224928	2695.850281
479.594591	2698.857329
479.964194	2691.272913
480.333739	2687.053467
480.703226	2678.904442
481.072653	2679.360666
481.442022	2676.721622
481.811333	2675.000068
482.180584	2666.944304
482.549777	2664.385919
482.918912	2656.834270
483.287988	2655.654640
483.657005	2651.848569
484.025964	2646.320944
484.394864	2645.388331
484.763706	2643.868423
485.132489	2638.701240
485.501213	2638.696199
485.869879	2637.138482
486.238487	2634.345683
486.607036	2634.509521
486.975527	2629.417955
487.343959	2628.883593
487.712333	2631.389046
488.080648	2628.676906
488.448905	2629.838892
488.817104	2627.146915
489.185244	2625.558952
489.553326	2626.846967
489.921350	2629.927112
490.289315	2634.174284
490.657222	2635.706795
491.025070	2635.023718
491.392861	2635.447175
491.760593	2633.392905
492.128267	2630.194293
492.495883	2626.418469
492.863440	2625.861421
493.230939	2624.230608
493.598380	2623.812192
493.965763	2616.898250
494.333088	2616.933538
494.700354	2615.983280
495.067563	2616.215173
495.434713	2613.377004
495.801805	2617.906480
496.168839	2615.214504
496.535815	2616.053856
496.902733	2615.358177
497.269593	2615.126284
497.636395	2615.398506
498.003139	2614.097889
498.369825	2613.177878
498.736453	2614.874226
499.103023	2615.012858
499.469535	2612.867847
499.835989	2610.743001
500.202385	2613.515635
500.568723	2611.342898
500.935003	2610.984976
501.301226	2610.440532
501.667390	2611.479009
502.033497	2610.052363
502.399546	2611.295007
502.765537	2610.213680
503.131470	2611.345419
503.497345	2606.621858
503.863163	2607.872064
504.228923	2609.742332
504.594625	2609.608741
504.960269	2608.547578
505.325856	2610.806015
505.691385	2606.503390
506.056856	2606.105139
506.422270	2607.398195
506.787625	2606.276538
507.152924	2606.082454
507.518164	2608.628237
507.883347	2606.823504
508.248472	2607.496498
508.613540	2606.389964
508.978550	2608.721498
509.343503	2607.728391
509.708398	2609.235696
510.073236	2609.260902
510.438016	2610.654781
510.802738	2607.567074
511.167403	2605.689244
511.532010	2607.788885
511.896561	2609.112187
512.261053	2610.793412
512.625488	2606.349635
512.989866	2605.631271
513.354186	2602.788060
513.718449	2603.246805
514.082655	2605.754779
514.446803	2607.466251
514.810894	2607.607403
515.174927	2608.668566
515.538904	2606.357197
515.902822	2607.544389
516.266684	2607.206631
516.630488	2605.999275
516.994235	2608.759307
517.357925	2605.933740
517.721558	2608.265274
518.085133	2606.770572
518.448651	2608.613113
518.812112	2608.484564
519.175516	2607.105808
519.538863	2606.329471
519.902152	2609.308792
520.265385	2609.046652
520.628560	2609.419698
520.991678	2608.098916
521.354739	2611.040429
521.717743	2608.345932
522.080690	2607.912393
522.443580	2606.503390
522.806413	2605.106991
523.169189	2607.919955
523.531908	2606.740325
523.894569	2607.675459
524.257174	2605.636312
524.619722	2604.859974
524.982213	2607.385592
525.344647	2607.625047
525.707025	2608.552619
526.069345	2608.043463
526.431608	2607.221755
526.793815	2607.398195
527.155964	2605.840479
527.518057	2608.615634
527.880093	2606.137907
528.242072	2607.935078
528.603995	2606.256374
528.965860	2602.586414
529.327669	2606.773092
529.689421	2606.266456
530.051117	2604.713781
530.412755	2605.908534
530.774337	2606.107660
531.135862	2607.791405
531.497331	2605.142279
531.858743	2601.464757
532.220098	2603.070365
532.581396	2602.243615
532.942638	2600.990889
533.303824	2603.854264
533.664953	2607.907352
534.026025	2604.529779
534.387040	2606.175715
534.747999	2604.754110
535.108902	2604.960797
535.469748	2601.590786
535.830537	2605.832917
536.191270	2605.593462
536.551947	2602.843513
536.912567	2602.891404
537.273131	2607.408278
537.633638	2604.507093
537.994089	2606.145468
538.354483	2605.759820
538.714821	2605.492639
539.075103	2604.786877
539.435328	2600.751434
539.795497	2603.312340
540.155609	2601.989037
540.515665	2603.095570
540.875665	2604.633122
541.235609	2602.402412
541.595496	2605.427104
541.955328	2604.996085
542.315102	2601.863008
542.674821	2603.208996
543.034483	2604.519696
543.394090	2600.733790
543.753640	2605.590942
544.113134	2602.664552
544.472571	2602.215889
544.831953	2603.002309
545.191278	2603.594645
545.550548	2602.929212
545.909761	2602.160436
546.268918	2602.757813
546.628019	2603.939964
546.987064	2605.527927
547.346053	2601.086671
547.704986	2603.491301
548.063863	2604.214707
548.422684	2603.337546
548.781449	2602.611620
549.140158	2600.161619
549.498811	2604.050869
549.857408	2604.098760
550.215949	2598.210692
550.574434	2600.675817
550.932864	2601.258070
551.291237	2601.578183
551.649555	2603.965169
552.007817	2603.100612
552.366022	2603.987855
552.724173	2604.620519
553.082267	2603.884511
553.440305	2602.457864
553.798288	2604.229830
554.156215	2604.325612
554.514086	2602.866198
554.871902	2604.255036
555.229661	2603.456013
555.587365	2604.108842
555.945014	2601.505086
556.302606	2602.543564
556.660143	2603.728235
557.017625	2602.314192
557.375050	2604.186980
557.732421	2604.295365
558.089735	2603.816455
558.446994	2602.528441
558.804197	2602.967021
559.161345	2604.759151
559.518437	2605.774944
559.875474	2602.805704
560.232455	2604.028184
560.589381	2603.826538
560.946251	2606.596652
561.303065	2603.692947
561.659825	2605.250664
562.016528	2604.716301
562.373177	2602.430138
562.729770	2602.868718
563.086307	2603.319902
563.442789	2605.976590
563.799216	2605.301075
564.155587	2604.718822
564.511904	2602.805704
564.868164	2604.968359
565.224370	2606.715119
565.580520	2603.728235
565.936615	2602.132710
566.292654	2603.524068
566.648638	2603.143461
567.004567	2601.295878
567.360441	2603.614809
567.716260	2604.542382
568.072023	2604.325612
568.427732	2599.539036
568.783385	2600.338059
569.138982	2600.486773
569.494525	2599.433172
569.850013	2600.312853
570.205445	2604.292844
570.560823	2601.585745
570.916145	2604.123966
571.271412	2602.840992
571.626625	2604.897783
571.981782	2604.433997
572.336884	2604.628081
572.691931	2604.991044
573.046923	2606.004316
573.401860	2603.987855
573.756743	2602.236054
574.111570	2601.734459
574.466342	2600.741352
574.821059	2602.798142
575.175722	2603.670262
575.530330	2602.362082
575.884882	2601.905858
576.239380	2602.261259
576.593823	2603.196393
576.948211	2601.121959
577.302544	2600.363265
577.656823	2601.013574
578.011047	2604.517176
578.365216	2600.983327
578.719330	2602.243615
579.073389	2600.413677
579.427394	2601.305961
579.781344	2600.985848
580.135239	2600.758996
580.489080	2600.653131
580.842866	2604.731425
581.196597	2606.402567
581.550273	2600.638008
581.903895	2600.252360
582.257463	2601.724377
582.610975	2601.389140
582.964434	2599.229005
583.317837	2603.546754
583.671186	2600.045672
584.024481	2599.266814
584.377721	2601.212699
584.730906	2603.551795
585.084037	2604.423914
585.437113	2602.087340
585.790135	2602.004161
586.143103	2601.391660
586.496016	2599.561722
586.848874	2595.095259
587.201679	2597.162132
587.554428	2597.764550
587.907124	2596.912595
588.259765	2596.010229
588.612352	2600.524582
588.964884	2598.777822
589.317362	2600.529623
589.669786	2601.177411
590.022155	2600.005343
590.374470	2600.176742
590.726731	2599.077771
591.078937	2598.364447
591.431090	2600.653131
591.783188	2599.927205
592.135232	2599.077771
592.487222	2599.765888
592.839157	2600.887545
593.191038	2600.940477
593.542866	2598.009046
593.894639	2601.323605
594.246358	2599.536516
594.598022	2598.147678
594.949633	2599.042483
595.301190	2598.687081
595.652692	2599.211361
596.004141	2598.893769
596.355535	2597.472163
596.706876	2598.593820
597.058162	2597.487287
597.409395	2598.853439
597.760573	2598.767740
598.111698	2596.874787
598.462768	2597.830085
598.813785	2597.003336
599.164748	2597.300764
599.515657	2597.124324
599.866511	2595.773294
600.217312	2595.599375
600.568060	2595.001998
600.918753	2596.221957
601.269392	2597.023501
601.619978	2598.253542
601.970510	2594.654158
602.320988	2595.899323
602.671412	2596.998295
603.021783	2595.763212
603.372100	2595.468305
603.722363	2595.309508
604.072572	2597.293202
604.422728	2597.699015
604.772830	2594.182810
605.122878	2592.967892
605.472872	2595.092739
605.822813	2592.395721
606.172701	2593.708942
606.522534	2596.970568
606.872314	2596.337904
607.222041	2594.954107
607.571714	2594.691967
607.921333	2597.981320
608.270899	2597.424272
608.620411	2595.574169
608.969870	2599.241608
609.319276	2594.369333
609.668627	2596.960486
610.017926	2595.997626
610.367171	2595.826227
610.716362	2594.752461
611.065500	2596.458891
611.414585	2596.441247
611.763616	2596.620208
612.112594	2596.368151
612.461518	2595.289344
612.810389	2595.962338
613.159207	2596.098449
613.507971	2596.070722
613.856682	2595.644745
614.205340	2595.349837
614.553945	2596.108531
614.902496	2598.603902
615.250994	2598.412338
615.599439	2595.841350
615.947830	2597.313367
616.296169	2597.172215
616.644454	2597.802359
616.992686	2600.065837
617.340864	2596.158943
617.688990	2596.811772
618.037063	2597.772112
618.385082	2601.109356
618.733048	2600.466609
619.080961	2597.293202
619.428821	2598.273707
619.776628	2597.540219
620.124382	2599.740683
620.472083	2594.608788
620.819731	2597.043665
621.167326	2596.143819
621.514868	2597.736824
621.862357	2594.865887
622.209793	2595.077615
622.557176	2596.849581
622.904506	2590.863211
623.251783	2591.127871
623.599007	2591.808427
623.946179	2593.814806
624.293297	2592.725917
624.640363	2596.078284
624.987376	2597.394025
625.334336	2593.151894
625.681243	2594.581062
626.028097	2596.441247
626.374899	2592.206678
626.721647	2592.317583
627.068343	2595.138109
627.414987	2595.274220
627.761577	2594.916298
628.108115	2593.345979
628.454600	2594.825557
628.801032	2595.037286
629.147412	2594.654158
629.493739	2594.354210
629.840014	2591.306832
630.186236	2593.769436
630.532405	2594.051740
630.878521	2592.103334
631.224585	2593.900506
631.570597	2595.228850
631.916556	2591.833633
632.262462	2591.712645
632.608316	2593.522419
632.954117	2593.172059
633.299866	2590.885896
633.645562	2591.465628
633.991206	2594.482759
634.336797	2589.353385
634.682336	2592.128540
635.027823	2591.347161
635.373257	2592.799014
635.718639	2590.394383
636.063968	2591.647110
636.409245	2590.906060
636.754470	2591.669795
637.099642	2592.088211
637.444762	2591.521081
637.789829	2590.868252
638.134845	2588.375401
638.479808	2588.209043
638.824719	2590.280957
639.169577	2590.817840
639.514383	2589.441605
639.859137	2589.272727
640.203839	2588.670309
640.548489	2586.568147
640.893086	2584.982705
641.237632	2584.166038
641.582125	2585.340627
641.926566	2581.463979
642.270955	2588.997984
642.615292	2588.995463
642.959576	2588.942531
643.303809	2586.923549
643.647990	2588.962696
643.992118	2588.418251
644.336195	2592.005032
644.680219	2588.297263
645.024192	2590.038982
645.368112	2589.560072
645.711981	2588.635021
646.055797	2589.207192
646.399562	2590.449836
646.743274	2589.890268
647.086935	2590.727099
647.430544	2590.659044
647.774101	2590.648962
648.117606	2588.304825
648.461059	2591.934456
648.804460	2592.577203
649.147810	2589.970926
649.491108	2591.067377
649.834354	2587.203333
650.177548	2585.990935
650.520690	2590.212902
650.863781	2589.769280
651.206820	2591.669795
651.549807	2585.350709
651.892742	2585.683425
652.235626	2586.731985
652.578458	2586.638724
652.921238	2588.355237
653.263967	2589.025710
653.606644	2588.713158
653.949269	2587.979671
654.291843	2586.726944
654.634365	2586.905905
654.976836	2587.399938
655.319255	2587.102510
655.661622	2586.421954
656.003938	2584.352560
656.346203	2585.655699
656.688416	2585.771645
657.030577	2585.789289
657.372687	2586.031265
657.714746	2586.815164
658.056753	2588.569486
658.398708	2585.048240
658.740612	2583.175451
659.082465	2585.736357
659.424266	2584.143352
659.766016	2581.234607
660.107715	2584.980184
660.449362	2588.551842
660.790958	2585.738878
661.132503	2586.099320
661.473996	2588.912284
661.815438	2587.115113
662.156829	2586.280802
662.498168	2587.115113
662.839456	2586.784917
663.180693	2584.806264
663.521879	2588.756008
663.863013	2587.074783
664.204097	2587.377253
664.545129	2586.666450
664.886110	2586.915987
665.227040	2587.372212
665.567918	2588.725761
665.908746	2585.144022
666.249522	2587.200812
666.590248	2585.496902
666.930922	2586.205184
667.271545	2587.674681
667.612118	2585.214598
667.952639	2587.944382
668.293109	2589.028231
668.633528	2584.140832
668.973896	2582.631006
669.314213	2586.122005
669.654480	2587.674681
669.994695	2586.477407
670.334859	2586.699217
670.674973	2585.902715
671.015035	2586.084197
671.355047	2583.961871
671.695008	2582.401634
672.034918	2586.366501
672.374777	2586.326172
672.714585	2584.523960
673.054342	2585.312900
673.394049	2586.951275
673.733705	2587.205853
674.073310	2587.485638
674.412864	2586.311049
674.752368	2585.421285
675.091820	2582.512539
675.431223	2584.902046
675.770574	2587.657037
676.109875	2580.823753
676.449125	2580.904411
676.788324	2582.832652
677.127473	2581.847107
677.466571	2582.925914
677.805619	2587.218456
678.144616	2584.531521
678.483562	2586.893302
678.822458	2585.325503
679.161303	2585.761563
679.500098	2582.966243
679.838842	2587.362129
680.177535	2586.837849
680.516179	2584.523960
680.854771	2584.357602
681.193314	2585.365832
681.531805	2583.132601
681.870247	2587.956985
682.208638	2586.686615
682.546978	2585.171748
682.885268	2586.240472
683.223508	2586.527818
683.561697	2586.948755
683.899836	2586.711820
684.237925	2585.607808
684.575963	2587.246183
684.913951	2582.225193
685.251889	2587.770463
685.589776	2582.923393
685.927614	2585.345668
686.265401	2584.758373
686.603137	2583.934145
686.940824	2584.271902
687.278460	2587.841039
687.616046	2586.260637
687.953582	2586.449680
688.291068	2588.022520
688.628504	2588.597212
688.965889	2584.523960
689.303224	2583.833322
689.640510	2586.666450
689.977745	2585.680904
690.314930	2584.012282
690.652065	2585.282653
690.989150	2583.235945
691.326185	2586.472366
691.663170	2585.701069
692.000105	2584.912128
692.336990	2583.777869
692.673825	2585.310380
693.010610	2583.301480
693.347345	2580.662436
693.684030	2578.986252
694.020665	2575.689337
694.357251	2577.859554
694.693786	2576.158165
695.030272	2579.959195
695.366707	2582.996490
695.703093	2582.567992
696.039429	2582.469689
696.375716	2581.831983
696.711952	2579.714699
697.048139	2580.148238
697.384276	2582.706624
697.720363	2580.649833
698.056400	2581.894998
698.392388	2579.543300
698.728326	2581.211922
699.064214	2579.291242
699.400053	2579.979359
699.735842	2580.377611
700.071581	2577.690676
700.407270	2581.400965
700.742910	2581.988259
701.078501	2577.529359
701.414042	2579.114802
701.749533	2579.593711
702.084974	2578.983732
702.420366	2579.659246
702.755709	2579.820563
703.091002	2579.248392
703.426246	2581.282498
703.761440	2580.102868
704.096584	2579.568505
704.431679	2578.754359
704.766725	2579.762590
705.101721	2576.138000
705.436668	2579.112281
705.771565	2575.926272
706.106413	2580.508681
706.441212	2578.013309
706.775961	2580.160841
707.110661	2579.742425
707.445311	2578.613207
707.779913	2578.116653
708.114465	2582.525142
708.448967	2580.274267
708.783421	2581.239648
709.117825	2579.230748
709.452180	2580.690162
709.786485	2580.289390
710.120742	2581.045563
710.454949	2579.510532
710.789107	2579.306365
711.123216	2576.947105
711.457275	2575.986766
711.791286	2579.641602
712.125247	2574.514749
712.459159	2580.060018
712.793023	2583.339288
713.126837	2581.509350
713.460602	2582.341140
713.794318	2577.723443
714.127985	2583.853486
714.461602	2581.937848
714.795171	2583.152766
715.128691	2579.666808
715.462162	2581.751325
715.795584	2579.939030
716.128957	2582.308372
716.462281	2578.840059
716.795556	2579.349215
717.128782	2579.762590
717.461960	2578.081365
717.795088	2578.661098
718.128167	2577.541962
718.461198	2578.000707
718.794180	2578.570357
719.127113	2576.168247
719.459997	2577.786457
719.792833	2577.778896
720.125619	2577.166396
720.458357	2574.797053
720.791046	2579.359297
721.123686	2578.338464
721.456278	2578.867785
721.788821	2578.015830
722.121315	2578.010789
722.453761	2575.946436
722.786158	2577.718402
723.118506	2578.719071
723.450805	2576.195973
723.783056	2577.383165
724.115259	2580.309555
724.447412	2576.180850
724.779518	2577.085737
725.111574	2576.138000
725.443582	2576.919379
725.775542	2576.296797
726.107453	2577.426015
726.439315	2576.581622
726.771129	2581.365677
727.102895	2578.494740
727.434612	2580.738053
727.766281	2577.108422
728.097901	2576.914338
728.429473	2573.985427
728.760996	2577.373083
729.092471	2573.108267
729.423897	2578.464493
729.755276	2577.332754
730.086606	2576.180850
730.417887	2578.875347
730.749120	2576.833679
731.080305	2578.255285
731.411442	2577.478947
731.742530	2581.620255
732.073570	2580.712847
732.404562	2579.636561
732.735506	2580.140676
733.066401	2581.718557
733.397249	2580.932138
733.728048	2579.039184
734.058798	2581.693352
734.389501	2579.049267
734.720156	2575.724626
735.050762	2575.810325
735.381320	2577.317630
735.711831	2577.317630
736.042293	2578.295614
736.372707	2576.972311
736.703073	2579.545820
737.033391	2575.394430
737.363661	2578.431725
737.693883	2575.326374
738.024056	2580.541448
738.354182	2577.206725
738.684260	2576.710171
739.014290	2575.311251
739.344272	2577.499112
739.674207	2576.135480
740.004093	2577.388206
740.333931	2578.325861
740.663722	2576.624472
740.993464	2580.049936
741.323159	2576.644636
741.652806	2579.092116
741.982405	2578.920717
742.311956	2576.180850
742.641460	2579.051787
742.970915	2579.089596
743.300323	2576.387537
743.629683	2578.809812
743.958996	2578.005748
744.288260	2574.928123
744.617477	2575.326374
744.946647	2572.273956
745.275768	2574.597928
745.604842	2574.597928
745.933869	2572.578946
746.262847	2573.284707
746.591778	2575.797722
746.920662	2574.431570
747.249498	2574.970973
747.578286	2573.776220
747.907027	2577.073134
748.235720	2573.050293
748.564365	2575.018864
748.892963	2577.025243
749.221514	2574.678586
749.550017	2575.545665
749.878473	2575.873340
750.206881	2574.660942
750.535242	2575.288566
750.863555	2575.414595
751.191821	2575.207907
751.520039	2575.548185
751.848210	2573.584656
752.176334	2573.488874
752.504411	2575.618761
752.832440	2576.727815
753.160421	2576.581622
753.488356	2577.851992
753.816243	2577.083217
754.144082	2576.707651
754.471875	2573.773699
754.799620	2576.553895
755.127318	2574.144224
755.454969	2574.103895
755.782572	2576.702609
756.110129	2574.217321
756.437638	2575.313772
756.765100	2575.548185
757.092515	2574.681107
757.419882	2573.481312
757.747203	2573.640108
758.074477	2574.310582
758.401703	2572.291600
758.728882	2575.361663
759.056014	2574.305541
759.383099	2574.562640
759.710138	2575.233113
760.037129	2574.726477
760.364073	2577.000037
760.690970	2577.042887
761.017820	2575.144893
761.344623	2575.122208
761.671379	2575.893504
761.998088	2572.127762
762.324751	2573.325036
762.651366	2576.521128
762.977935	2579.419791
763.304456	2577.877198
763.630931	2582.930955
763.957359	2581.045563
764.283740	2585.043198
764.610074	2581.058166
764.936362	2583.442632
765.262602	2577.988104
765.588796	2579.260995
765.914943	2577.015161
766.241044	2575.157496
766.567097	2575.598597
766.893104	2573.486353
767.219064	2574.887794
767.544978	2573.839234
767.870845	2575.172619
768.196665	2572.420149
768.522438	2572.437793
768.848165	2575.918710
769.173846	2573.587176
769.499479	2574.050962
769.825066	2574.469378
770.150607	2569.473595
770.476101	2570.449058
770.801548	2573.657752
771.126949	2571.933678
771.452303	2572.019377
771.777611	2571.711867
772.102872	2573.839234
772.428087	2571.343863
772.753256	2571.293451
773.078378	2571.921075
773.403453	2572.402505
773.728482	2572.069789
774.053465	2571.709347
774.378401	2573.380489
774.703291	2571.114490
775.028135	2572.049624
775.352932	2572.185736
775.677683	2573.922413
776.002388	2571.931157
776.327046	2574.484502
776.651658	2571.290931
776.976224	2571.530386
777.300743	2568.165415
777.625216	2569.488718
777.949643	2573.377968
778.274024	2572.183215
778.598359	2568.067113
778.922647	2568.699778
779.246889	2566.194324
779.571086	2568.210786
779.895236	2569.037535
780.219339	2569.811352
780.543397	2570.781774
780.867409	2573.075499
781.191374	2569.148440
781.515294	2570.040725
781.839167	2569.009809
782.162995	2571.444686
782.486776	2571.658935
782.810511	2572.561302
783.134201	2570.980900
783.457844	2571.779923
783.781441	2571.986610
784.104993	2570.073492
784.428498	2569.972669
784.751958	2571.293451
785.075372	2569.811352
785.398739	2572.163050
785.722061	2570.877556
786.045337	2570.292782
786.368568	2569.919737
786.691752	2569.836558
787.014891	2570.691033
787.337983	2569.120714
787.661030	2571.890828
787.984031	2570.131465
788.306987	2572.180694
788.629897	2573.226734
788.952760	2572.392423
789.275579	2571.081723
789.598351	2572.122721
789.921078	2571.469892
790.243759	2571.961404
790.566395	2572.994841
790.888984	2571.235478
791.211529	2571.411918
791.534027	2571.505180
791.856480	2572.276476
792.178888	2572.561302
792.501249	2568.959397
792.823566	2573.390571
793.145836	2569.201373
793.468062	2571.295972
793.790241	2568.586352
794.112375	2570.983420
794.434464	2573.677917
794.756507	2570.234809
795.078505	2573.539285
795.400457	2570.257494
795.722364	2565.221382
796.044226	2569.468554
796.366042	2568.523337
796.687812	2567.762123
797.009538	2572.294120
797.331218	2572.452917
797.652852	2572.304203
797.974442	2569.266907
798.295986	2570.423852
798.617484	2572.780592
798.938938	2571.716908
799.260346	2571.790005
799.581709	2569.531568
799.903026	2574.567681
800.224299	2567.532751
800.545526	2568.782957
800.866708	2569.834037
801.187845	2570.083574
801.508936	2568.273800
801.829983	2569.244222
802.150984	2571.941240
802.471940	2567.618450
802.792851	2571.086764
803.113717	2570.386044
803.434538	2568.422514
803.755314	2570.806980
804.076045	2569.997875
804.396731	2569.705488
804.717372	2566.779098
805.037967	2569.730694
805.358518	2569.377813
805.679024	2568.586352
805.999485	2570.605334
806.319901	2569.682803
806.640272	2568.712381
806.960598	2568.556105
807.280879	2571.172464
807.601115	2570.915365
807.921306	2567.328584
808.241453	2567.580642
808.561554	2571.427042
808.881611	2568.634243
809.201623	2569.357648
809.521590	2570.302865
809.841513	2568.924109
810.161390	2572.044583
810.481223	2566.781619
810.801011	2569.382854
811.120755	2570.353276
811.440453	2570.567525
811.760107	2569.682803
812.079716	2567.827658
812.399281	2569.219017
812.718801	2567.366392
813.038276	2563.812379
813.357707	2569.055179
813.677093	2571.724470
813.996434	2569.196331
814.315731	2569.816393
814.634983	2570.065930
814.954191	2570.144068
815.273354	2569.675241
815.592473	2569.246743
815.911547	2570.363358
816.230577	2570.431414
816.549562	2568.220868
816.868502	2570.103739
817.187399	2572.102557
817.506250	2570.522155
817.825058	2569.551733
818.143821	2571.333781
818.462539	2567.414283
818.781213	2571.217834
819.099843	2572.435273
819.418429	2572.256312
819.736970	2569.881928
820.055466	2573.083061
820.373919	2577.857034
820.692327	2577.322671
821.010691	2579.850810
821.329011	2587.916656
821.647286	2600.650611
821.965517	2611.186622
822.283704	2621.011831
822.601847	2625.959724
822.919945	2623.983591
823.237999	2618.143415
823.556010	2612.651077
823.873976	2606.591611
824.191897	2603.037597
824.509775	2598.571135
824.827609	2591.483272
825.145398	2591.190886
825.463144	2585.887592
825.780845	2588.055288
826.098502	2589.960844
826.416116	2590.485124
826.733685	2591.692480
827.051210	2592.249528
827.368692	2595.982502
827.686129	2589.539908
828.003522	2589.663416
828.320872	2580.987590
828.638177	2578.663618
828.955439	2575.737228
829.272656	2577.305027
829.589830	2573.279666
829.906960	2577.494071
830.224046	2573.730849
830.541088	2572.263873
830.858086	2573.302351
831.175041	2572.881415
831.491952	2570.927968
831.808819	2573.231775
832.125642	2569.193811
832.442421	2570.857392
832.759157	2573.408215
833.075849	2576.846282
833.392497	2579.235789
833.709101	2578.966087
834.025662	2579.951633
834.342179	2581.683269
834.658653	2578.872826
834.975083	2576.584142
835.291469	2579.303845
835.607811	2574.655901
835.924110	2571.661456
836.240366	2571.142217
836.556578	2571.129614
836.872746	2570.199521
837.188871	2568.619119
837.504952	2570.491908
837.820990	2571.419480
838.136984	2567.784808
838.452935	2568.140210
838.768842	2569.047617
839.084706	2570.955694
839.400526	2570.217165
839.716303	2570.464182
840.032037	2573.483833
840.347727	2572.793195
840.663373	2572.790674
840.978977	2571.447207
841.294537	2570.895200
841.610054	2568.021742
841.925527	2569.123235
842.240957	2568.210786
842.556344	2571.258163
842.871687	2567.094170
843.186987	2569.249263
843.502244	2567.820096
843.817458	2565.750703
844.132629	2567.003429
844.447756	2566.842113
844.762840	2561.838767
845.077881	2563.646021
845.392879	2564.538305
845.707833	2561.730382
846.022745	2558.380536
846.337613	2566.779098
846.652438	2565.841443
846.967221	2568.137689
847.281960	2566.330435
847.596656	2569.055179
847.911309	2566.829510
848.225919	2567.255487
848.540485	2564.475291
848.855009	2564.535785
849.169490	2566.126269
849.483928	2571.099367
849.798323	2567.381516
850.112675	2564.500497
850.426984	2565.685168
850.741251	2565.470919
851.055474	2565.087791
851.369654	2563.462019
851.683792	2565.523851
851.997887	2567.005950
852.311938	2565.105435
852.625947	2565.299519
852.939914	2566.574931
853.253837	2567.467216
853.567718	2564.689540
853.881555	2566.867318
854.195350	2564.818089
854.509103	2564.331618
854.822812	2565.168449
855.136479	2567.235322
855.450103	2564.770198
855.763685	2564.823130
856.077224	2567.741958
856.390720	2564.601320
856.704173	2564.548387
857.017584	2565.944787
857.330953	2564.722307
857.644278	2562.867163
857.957561	2566.907647
858.270802	2563.865311
858.584000	2566.015363
858.897155	2566.433779
859.210268	2564.061916
859.523339	2566.811866
859.836367	2567.124417
860.149352	2566.151474
860.462295	2566.653069
860.775195	2561.722821
861.088054	2563.454457
861.400869	2564.944118
861.713642	2563.794735
862.026373	2562.486556
862.339062	2566.128789
862.651708	2564.931515
862.964312	2565.894376
863.276873	2564.755075
863.589392	2567.164746
863.901869	2566.080898
864.214303	2564.273645
864.526696	2565.496124
864.839045	2566.537123
865.151353	2562.720969
865.463619	2567.562997
865.775842	2564.510579
866.088023	2567.308419
866.400162	2565.569221
866.712258	2567.595765
867.024313	2566.116186
867.336325	2566.615261
867.648296	2567.099211
867.960224	2566.476629
868.272110	2567.822617
868.583954	2561.843808
868.895755	2568.064592
869.207515	2564.868501
869.519233	2569.065261
869.830909	2566.758933
870.142542	2567.820096
870.454134	2566.300188
870.765684	2566.264900
871.077191	2565.768347
871.388657	2567.328584
871.700081	2563.837585
872.011463	2565.846485
872.322803	2567.595765
872.634101	2569.329922
872.945357	2565.135682
873.256571	2569.584500
873.567744	2564.656772
873.878874	2566.993347
874.189963	2564.659293
874.501010	2565.460836
874.812015	2566.479149
875.122979	2568.183059
875.433900	2563.217523
875.744780	2567.000909
876.055618	2565.518810
876.366415	2567.200034
876.677169	2566.839592
876.987882	2565.400342
877.298554	2561.206102
877.609183	2562.705846
877.919771	2564.228274
878.230317	2564.752554
878.540822	2569.019891
878.851285	2566.675754
879.161707	2565.034859
879.472087	2569.614747
879.782425	2571.537947
880.092722	2574.136662
880.402977	2577.239492
880.713191	2582.510019
881.023363	2588.138467
881.333494	2594.190372
881.643583	2598.185487
881.953631	2598.714808
882.263637	2595.659868
882.573602	2596.640373
882.883526	2592.320104
883.193408	2590.447315
883.503248	2587.886409
883.813048	2587.641913
884.122806	2583.495564
884.432522	2584.221490
884.742197	2579.540779
885.051831	2580.367528
885.361424	2576.097671
885.670975	2575.033987
885.980485	2573.080540
886.289954	2572.420149
886.599382	2569.372772
886.908768	2571.792526
887.218113	2565.324725
887.527417	2569.599624
887.836680	2572.825962
888.145901	2569.418142
888.455082	2566.857236
888.764221	2567.610888
889.073319	2566.569890
889.382376	2565.294478
889.691392	2568.041907
890.000366	2568.422514
890.309300	2567.331104
890.618193	2568.346897
890.927044	2565.861608
891.235855	2565.407904
891.544625	2563.976217
891.853353	2566.650549
892.162041	2567.467216
892.470687	2567.731876
892.779293	2568.924109
893.087858	2563.696432
893.396381	2565.261711
893.704864	2568.193142
894.013306	2565.969993
894.321707	2570.186918
894.630068	2575.248237
894.938387	2575.495253
895.246665	2577.385686
895.554903	2572.962073
895.863100	2575.883422
896.171256	2573.236816
896.479371	2569.604665
896.787446	2570.990982
897.095480	2569.259346
897.403473	2572.226065
897.711425	2569.561815
898.019336	2569.453430
898.327207	2568.961918
898.635038	2569.317319
898.942827	2565.012174
899.250576	2566.159036
899.558284	2567.484860
899.865952	2566.189283
900.173579	2568.765313
900.481165	2567.852864
900.788711	2565.584345
901.096216	2566.259859
901.403681	2567.492421
901.711105	2564.896227
902.018489	2568.044428
902.325832	2568.193142
902.633135	2564.560990
902.940397	2566.315312
903.247619	2569.299675
903.554800	2567.406722
903.861941	2572.858730
904.169041	2577.068093
904.476101	2577.826787
904.783121	2575.240675
905.090100	2577.075655
905.397039	2575.104564
905.703938	2572.505849
906.010796	2571.351425
906.317614	2572.110118
906.624391	2571.893349
906.931129	2571.079202
907.237826	2570.948132
907.544483	2569.133317
907.851099	2570.958215
908.157675	2567.593244
908.464211	2568.399829
908.770707	2563.159550
909.077163	2562.781463
909.383578	2561.659806
909.689954	2563.905640
909.996289	2561.453119
910.302584	2566.297668
910.608839	2565.569221
910.915054	2565.443192
911.221229	2563.951011
911.527363	2564.634087
911.833458	2563.509910
912.139513	2565.271793
912.445527	2564.760116
912.751502	2563.882955
913.057436	2565.150805
913.363331	2565.768347
913.669186	2564.918912
913.975000	2564.629046
914.280775	2567.018553
914.586510	2565.997719
914.892205	2567.084088
915.197859	2570.607854
915.503475	2571.306054
915.809050	2576.092630
916.114585	2578.010789
916.420081	2577.002558
916.725536	2573.728329
917.030952	2577.093299
917.336328	2575.747311
917.641665	2573.466189
917.946961	2574.151786
918.252218	2574.076168
918.557435	2572.165571
918.862612	2570.539799
919.167750	2571.260684
919.472848	2572.228585
919.777906	2569.249263
920.082925	2569.859243
920.387904	2569.186249
920.692843	2567.537792
920.997743	2568.472926
921.302603	2567.822617
921.607423	2566.048131
921.912204	2567.338666
922.216946	2566.229612
922.521647	2564.641649
922.826310	2564.054354
923.130932	2566.204407
923.435516	2565.735579
923.740059	2565.927143
924.044564	2565.881773
924.349028	2564.848336
924.653454	2560.923798
924.957840	2563.772050
925.262186	2562.050496
925.566493	2564.059396
925.870761	2559.174518
926.174989	2562.032852
926.479178	2563.956052
926.783328	2562.660475
927.087438	2564.140054
927.391509	2563.777091
927.695541	2563.542677
927.999533	2562.733572
928.303486	2562.405897
928.607400	2565.377657
928.911275	2564.631567
929.215110	2563.603171
929.518906	2561.926988
929.822663	2562.494117
930.126381	2562.857080
930.430060	2565.324725
930.733699	2563.749365
931.037299	2563.381360
931.340861	2561.533777
931.644383	2561.846329
931.947866	2562.791545
932.251309	2563.991340
932.554714	2563.754406
932.858080	2564.825651
933.161407	2563.308264
933.464694	2561.932029
933.767943	2562.690722
934.071153	2562.930177
934.374323	2562.110990
934.677455	2564.460167
934.980548	2563.462019
935.283602	2563.073850
935.586617	2562.783984
935.889593	2562.022769
936.192530	2562.985630
936.495428	2561.551422
936.798287	2560.981771
937.101108	2561.929508
937.403890	2562.519323
937.706632	2565.065106
938.009336	2562.378171
938.312002	2565.254149
938.614628	2564.334138
938.917216	2563.383881
939.219765	2562.325239
939.522275	2565.425548
939.824747	2564.956721
940.127179	2559.603016
940.429573	2561.251473
940.731929	2563.215002
941.034246	2559.003118
941.336524	2562.615105
941.638763	2562.960424
941.940964	2564.848336
942.243126	2565.788511
942.545250	2563.913202
942.847335	2564.059396
943.149381	2564.503017
943.451389	2566.307750
943.753359	2564.094684
944.055290	2560.613767
944.357182	2563.940928
944.659036	2565.014694
944.960851	2563.343552
945.262628	2563.961093
945.564367	2564.639128
945.866067	2562.136195
946.167729	2563.933367
946.469352	2561.329611
946.770937	2562.720969
947.072484	2565.060065
947.373992	2564.482852
947.675462	2562.826833
947.976893	2563.036041
948.278286	2563.676268
948.579641	2562.844478
948.880958	2563.333469
949.182236	2563.996381
949.483476	2561.816082
949.784678	2566.466547
950.085841	2565.659962
950.386967	2564.162739
950.688054	2563.741803
950.989103	2564.573593
951.290114	2559.784497
951.591087	2561.624518
951.892021	2560.553273
952.192917	2564.371947
952.493776	2563.958573
952.794596	2565.344890
953.095378	2560.943962
953.396122	2564.591237
953.696828	2562.002605
953.997496	2565.919581
954.298126	2561.228788
954.598718	2563.353634
954.899272	2561.329611
955.199788	2560.122254
955.500266	2564.450085
955.800706	2559.240052
956.101108	2558.410783
956.401472	2559.885320
956.701798	2558.919939
957.002087	2558.710731
957.302337	2561.705177
957.602550	2560.102090
957.902724	2558.937583
958.202861	2562.393294
958.502960	2561.196020
958.803022	2561.526216
959.103045	2560.008828
959.403031	2560.883469
959.702979	2563.330949
960.002889	2563.015877
960.302762	2562.090825
960.602596	2564.344221
960.902393	2560.644014
961.202153	2559.716442
961.501875	2560.303736
961.801559	2563.288099
962.101205	2561.291802
962.400814	2562.587379
962.700385	2563.046124
962.999918	2563.388922
963.299414	2561.488407
963.598873	2560.782646
963.898293	2561.727862
964.197677	2561.301884
964.497022	2561.662327
964.796331	2559.774415
965.095601	2561.359858
965.394835	2561.659806
965.694030	2560.719631
965.993189	2562.438665
966.292309	2561.067471
966.591393	2561.513613
966.890439	2560.878428
967.189447	2561.551422
967.488419	2562.678119
967.787353	2561.889179
968.086249	2561.347255
968.385108	2561.609395
968.683930	2561.357337
968.982714	2562.196689
969.281462	2559.267779
969.580172	2561.400187
969.878844	2562.751216
970.177480	2561.722821
970.476078	2558.529250
970.774639	2562.383212
971.073162	2560.817934
971.371649	2557.919270
971.670098	2558.151163
971.968510	2556.366595
972.266885	2556.543035
972.565223	2561.052347
972.863524	2559.285423
973.161788	2563.081412
973.460014	2559.587892
973.758204	2560.583520
974.056356	2560.104610
974.354471	2563.706515
974.652550	2560.303736
974.950591	2560.709549
975.248595	2563.010836
975.546563	2560.611246
975.844493	2560.460012
976.142386	2563.797256
976.440243	2559.958417
976.738062	2561.480845
977.035845	2564.830692
977.333590	2561.264076
977.631299	2559.335834
977.928971	2559.938252
978.226606	2558.604867
978.524204	2562.216854
978.821765	2560.714590
979.119290	2562.521844
979.416777	2562.877245
979.714228	2561.581668
980.011642	2561.140567
980.309020	2564.084601
980.606360	2561.538819
980.903664	2560.603685
981.200931	2560.873386
981.498162	2559.545042
981.795356	2560.250804
982.092513	2562.670558
982.389633	2560.853222
982.686717	2561.823644
982.983764	2564.553429
983.280775	2564.603840
983.577749	2563.572924
983.874686	2561.687533
984.171587	2562.426062
984.468451	2560.883469
984.765279	2562.783984
985.062070	2559.653427
985.358824	2561.143088
985.655543	2561.097718
985.952224	2559.847512
986.248869	2560.039075
986.545478	2557.563869
986.842050	2558.504044
987.138586	2558.690567
987.435086	2556.900957
987.731549	2557.901626
988.027975	2561.579148
988.324366	2558.083108
988.620719	2561.382543
988.917037	2560.732234
989.213318	2561.032183
989.509563	2559.608057
989.805772	2559.222408
990.101944	2561.974878
990.398080	2559.199723
990.694180	2560.316339
990.990244	2561.342214
991.286271	2560.192831
991.582262	2562.337842
991.878217	2557.339538
992.174136	2560.218036
992.470019	2558.161246
992.765865	2560.608726
993.061676	2560.386915
993.357450	2559.860114
993.653188	2559.870197
993.948890	2561.231308
994.244556	2561.937070
994.540186	2560.855742
994.835780	2559.411452
995.131337	2559.759291
995.426859	2560.155022
995.722345	2559.333314
996.017795	2560.089487
996.313208	2559.638304
996.608586	2559.545042
996.903928	2560.265927
997.199234	2561.319528
997.494504	2563.388922
997.789738	2561.193500
998.084936	2561.027142
998.380099	2563.532595
998.675225	2559.368602
998.970316	2561.478325
999.265371	2561.347255
999.560390	2560.056719
999.855373	2564.979406
1000.150320	2560.147460
1000.445232	2561.921946
1000.740108	2561.874055
1001.034948	2558.226781
1001.329752	2563.225085
1001.624521	2562.161401
1001.919254	2554.942469
1002.213951	2556.164949
1002.508613	2553.735112
1002.803239	2557.722665
1003.097829	2557.150494
1003.392384	2561.304405
1003.686903	2563.615774
1003.981386	2560.742316
1004.275834	2558.672923
1004.570246	2561.697615
1004.864623	2558.836760
1005.158964	2560.976730
1005.453270	2560.681822
1005.747540	2557.803324
1006.041775	2560.384394
1006.335974	2560.197872
1006.630138	2559.731565
1006.924266	2561.783315
1007.218359	2558.430947
1007.512416	2558.743499
1007.806438	2560.016390
1008.100425	2560.220557
1008.394376	2561.367419
1008.688292	2560.323901
1008.982172	2561.135526
1009.276017	2557.762994
1009.569827	2560.429765
1009.863602	2561.997564
1010.157341	2561.213664
1010.451045	2560.061761
1010.744714	2559.590413
1011.038347	2560.142419
1011.331945	2556.772408
1011.625508	2558.168807
1011.919036	2559.744168
1012.212528	2557.241235
1012.505986	2557.546225
1012.799408	2559.983623
1013.092795	2557.788200
1013.386147	2556.356512
1013.679464	2558.216698
1013.972745	2559.267779
1014.265992	2560.071843
1014.559204	2559.524878
1014.852380	2560.404559
1015.145521	2558.541853
1015.438628	2561.443037
1015.731699	2560.018911
1016.024736	2558.677964
1016.317737	2559.005639
1016.610703	2560.575958
1016.903635	2555.698642
1017.196531	2557.894064
1017.489393	2556.628735
1017.782219	2553.094886
1018.075011	2556.616132
1018.367768	2558.456153
1018.660490	2558.526729
1018.953177	2558.526729
1019.245829	2558.526729
