Dividing Wavelength (nm)	Counts (n)	Blue Motor Position (mm): 0.000000	Red Motor Position (mm): 5.800000	
326.493990	2128.060082
326.888308	2128.060082
327.282561	2128.060082
327.676750	2096.517582
328.070874	2092.219998
328.464933	2094.632191
328.858929	2101.810794
329.252859	2112.954264
329.646726	2123.712087
330.040528	2137.766823
330.434265	2154.173259
330.827938	2172.790240
331.221547	2188.077539
331.615091	2205.991279
332.008571	2228.421893
332.401986	2246.277660
332.795338	2267.195928
333.188625	2285.371808
333.581847	2304.500466
333.975006	2321.547128
334.368100	2342.588904
334.761129	2357.732530
335.154095	2375.442104
335.546996	2392.506410
335.939833	2405.908317
336.332606	2422.511357
336.725315	2435.872936
337.117960	2445.740994
337.510540	2450.056222
337.903056	2464.191617
338.295508	2468.882411
338.687896	2477.422126
339.080220	2487.953096
339.472480	2494.330156
339.864676	2499.787205
340.256807	2503.830210
340.648875	2504.316681
341.040879	2508.987310
341.432818	2509.773730
341.824694	2512.516118
342.216506	2509.791374
342.608253	2510.633247
342.999937	2512.107785
343.391557	2511.349091
343.783113	2508.820952
344.174605	2510.933196
344.566033	2505.017402
344.957397	2505.105622
345.348697	2504.004130
345.739934	2500.737462
346.131106	2501.813748
346.522215	2497.269148
346.913260	2497.717811
347.304241	2496.548263
347.695159	2495.661020
348.086012	2491.318066
348.476802	2491.522233
348.867528	2488.195071
349.258191	2488.041316
349.648789	2484.865389
350.039324	2486.428147
350.429796	2483.859679
350.820203	2484.620893
351.210548	2483.869761
351.600828	2481.608804
351.991045	2481.603763
352.381198	2478.354739
352.771288	2479.123515
353.161314	2477.717033
353.551276	2479.567137
353.941175	2481.898670
354.331010	2478.952116
354.720782	2477.838021
355.110490	2476.875160
355.500135	2477.217959
355.889717	2477.946406
356.279235	2476.774337
356.668689	2481.470172
357.058080	2476.935654
357.447408	2478.160655
357.836672	2476.804584
358.225873	2479.252064
358.615010	2475.481281
359.004084	2478.299286
359.393095	2480.451859
359.782043	2483.375728
360.170927	2483.400934
360.559748	2482.382621
360.948505	2484.099134
361.337199	2486.201295
361.725830	2483.695842
362.114398	2486.299598
362.502903	2482.584267
362.891344	2487.033085
363.279722	2486.896974
363.668037	2486.627273
364.056289	2487.295225
364.444478	2487.237252
364.832603	2488.742037
365.220665	2487.141470
365.608665	2490.791266
365.996601	2491.459218
366.384474	2492.187665
366.772284	2493.553818
367.160031	2495.328304
367.547715	2495.298057
367.935336	2497.503562
368.322893	2502.660662
368.710388	2502.706033
369.097820	2512.894205
369.485189	2511.611231
369.872495	2516.859072
370.259738	2520.055164
370.646918	2527.657224
371.034035	2531.463295
371.421090	2541.361600
371.808081	2546.269164
372.195010	2552.547921
372.581875	2565.332287
372.968678	2569.448389
373.355418	2574.983576
373.742096	2583.719896
374.128710	2592.433530
374.515262	2595.801021
374.901751	2601.411825
375.288177	2605.943822
375.674540	2614.722992
376.060841	2619.862448
376.447079	2624.301184
376.833254	2629.851494
377.219367	2628.767646
377.605417	2638.912968
377.991404	2634.791825
378.377329	2638.335756
378.763191	2636.772999
379.148991	2646.590646
379.534727	2647.674494
379.920402	2648.987714
380.306013	2644.463279
380.691563	2651.074752
381.077049	2648.153403
381.462474	2646.696510
381.847835	2643.578556
382.233134	2639.737197
382.618371	2629.186062
383.003545	2635.633698
383.388657	2624.422172
383.773706	2624.586009
384.158693	2615.272477
384.543618	2608.771910
384.928480	2606.183277
385.313280	2602.596496
385.698017	2591.342120
386.082692	2588.705597
386.467305	2580.425502
386.851856	2579.543300
387.236344	2569.483677
387.620770	2565.133161
388.005133	2555.534804
388.389435	2555.013045
388.773674	2548.096582
389.157851	2542.911755
389.541965	2539.892104
389.926018	2532.882380
390.310008	2530.457585
390.693936	2526.321318
391.077802	2523.926770
391.461606	2523.087418
391.845348	2520.536594
392.229027	2519.072139
392.612645	2513.877230
392.996200	2516.279339
393.379694	2512.352281
393.763125	2513.436129
394.146494	2512.639626
394.529801	2513.176509
394.913047	2511.306241
395.296230	2511.233144
395.679351	2509.521673
396.062410	2507.941271
396.445408	2510.764317
396.828343	2510.093844
397.211217	2504.427587
397.594028	2505.972700
397.976778	2506.615447
398.359466	2510.081241
398.742092	2506.832217
399.124656	2510.887825
399.507158	2511.046622
399.889598	2509.199039
400.271977	2507.432114
400.654294	2513.998217
401.036549	2511.659122
401.418742	2511.868330
401.800874	2509.380520
402.182944	2511.681807
402.564952	2510.812208
402.946898	2513.768845
403.328783	2511.449914
403.710606	2510.469410
404.092367	2510.187105
404.474067	2512.009482
404.855705	2512.127949
405.237282	2512.720285
405.618797	2509.375479
406.000250	2514.625841
406.381642	2512.208608
406.762972	2515.291273
407.144240	2517.700945
407.525447	2516.904443
407.906593	2514.343536
408.287677	2511.666684
408.668700	2512.170799
409.049661	2515.946623
409.430560	2515.878568
409.811399	2515.419823
410.192176	2514.300687
410.572891	2516.092817
410.953545	2516.027282
411.334138	2514.066273
411.714669	2516.594412
412.095139	2513.287415
412.475547	2515.533249
412.855894	2513.605007
413.236180	2516.150790
413.616405	2515.417302
413.996568	2514.469565
414.376670	2516.042405
414.756711	2515.810512
415.136691	2518.976357
415.516609	2517.985770
415.896466	2517.605163
416.276262	2514.593073
416.655997	2514.950995
417.035670	2514.467045
417.415283	2516.544000
417.794834	2511.263391
418.174324	2515.462672
418.553753	2515.704648
418.933121	2518.895698
419.312428	2516.228928
419.691674	2516.854031
420.070859	2516.092817
420.449983	2519.304032
420.829045	2517.925276
421.208047	2519.735050
421.586988	2516.735564
421.965867	2517.733712
422.344686	2518.976357
422.723444	2515.719771
423.102141	2518.010976
423.480777	2518.731861
423.859352	2517.867303
424.237866	2518.988960
424.616319	2519.470390
424.994712	2520.894516
425.373044	2520.191275
425.751314	2519.871162
426.129524	2520.060205
426.507673	2520.856707
426.885762	2520.110616
427.263789	2524.302336
427.641756	2518.328568
428.019662	2520.329907
428.397508	2522.028775
428.775292	2524.206554
429.153016	2521.083559
429.530679	2522.742099
429.908282	2518.391583
430.285824	2523.314270
430.663305	2521.441481
431.040726	2519.314114
431.418086	2521.660771
431.795385	2523.583971
432.172624	2519.367046
432.549802	2524.135978
432.926920	2521.804444
433.303977	2524.219157
433.680974	2522.752181
434.057910	2524.814013
434.434786	2522.817716
434.811601	2524.327542
435.188355	2522.253107
435.565050	2523.654548
435.941683	2521.834691
436.318257	2520.745802
436.694770	2516.927128
437.071222	2521.106244
437.447614	2518.981398
437.823946	2521.612880
438.200218	2521.638086
438.576429	2522.999198
438.952580	2523.737727
439.328670	2525.239990
439.704700	2522.754702
440.080670	2523.178158
440.456580	2522.071625
440.832429	2522.905936
441.208218	2523.364681
441.583947	2526.588499
441.959616	2525.131606
442.335224	2525.416431
442.710773	2526.696884
443.086261	2524.032634
443.461689	2522.573220
443.837057	2525.537418
444.212365	2522.525329
444.587612	2527.528674
444.962800	2527.667306
445.337927	2525.978519
445.712995	2524.297295
446.088002	2526.412059
446.462949	2526.795186
446.837837	2526.061698
447.212664	2527.480783
447.587431	2524.330062
447.962139	2525.393746
448.336786	2529.701412
448.711374	2525.660927
449.085901	2526.006246
449.460369	2527.654703
449.834776	2524.730834
450.209124	2527.435413
450.583412	2526.530526
450.957640	2526.966586
451.331808	2524.871986
451.705917	2526.530526
452.079965	2527.064888
452.453954	2528.894827
452.827883	2527.332069
453.201752	2526.719569
453.575562	2524.957686
453.949311	2529.449354
454.323001	2525.880217
454.696632	2526.510361
455.070202	2530.981865
455.443713	2526.717048
455.817164	2527.009435
456.190556	2522.963909
456.563888	2524.950124
456.937160	2524.514064
457.310373	2530.107224
457.683526	2526.243180
458.056619	2528.504138
458.429653	2529.033459
458.802628	2528.148736
459.175542	2528.993129
459.548398	2528.599919
459.921194	2530.921371
460.293930	2527.889117
460.666607	2528.148736
461.039224	2531.193593
461.411782	2532.174098
461.784280	2531.425486
462.156719	2529.106555
462.529099	2528.952800
462.901419	2529.852646
463.273680	2530.044210
463.645882	2530.820548
464.018024	2528.683098
464.390106	2530.142512
464.762130	2530.379447
465.134094	2529.025897
465.505999	2528.390712
465.877845	2529.618232
466.249631	2532.113604
466.621358	2531.460774
466.993026	2535.004705
467.364634	2534.273738
467.736184	2530.941535
468.107674	2528.935156
468.479105	2530.694519
468.850477	2532.355579
469.221790	2528.703263
469.593043	2528.299971
469.964238	2531.571680
470.335373	2528.985568
470.706449	2533.759540
471.077467	2527.226205
471.448425	2532.655528
471.819324	2531.095291
472.190164	2531.415404
472.560945	2532.995806
472.931667	2529.633356
473.302330	2530.316432
473.672934	2530.500434
474.043479	2532.065713
474.413965	2532.602596
474.784393	2524.161183
475.154761	2530.555887
475.525070	2525.933149
475.895321	2529.010773
476.265513	2524.438447
476.635645	2534.127545
477.005719	2531.564118
477.375734	2532.010260
477.745691	2530.649148
478.115588	2533.026052
478.485427	2533.809952
478.855207	2532.640404
479.224928	2531.465815
479.594591	2532.201824
479.964194	2532.889941
480.333739	2531.848943
480.703226	2531.085208
481.072653	2533.991433
481.442022	2531.758202
481.811333	2532.796680
482.180584	2532.461443
482.549777	2533.404139
482.918912	2531.680064
483.287988	2531.513706
483.657005	2533.275590
484.025964	2535.609644
484.394864	2534.931609
484.763706	2532.496731
485.132489	2534.619057
485.501213	2535.539068
485.869879	2534.908923
486.238487	2531.485980
486.607036	2533.643594
486.975527	2533.300795
487.343959	2532.259797
487.712333	2535.770961
488.080648	2532.713501
488.448905	2532.327853
488.817104	2532.466484
489.185244	2532.945394
489.553326	2533.744417
489.921350	2534.109901
490.289315	2535.213913
490.657222	2533.767102
491.025070	2535.586959
491.392861	2534.288862
491.760593	2534.482946
492.128267	2536.136444
492.495883	2532.857174
492.863440	2535.975127
493.230939	2533.641073
493.598380	2536.937988
493.965763	2528.494055
494.333088	2534.150230
494.700354	2529.963552
495.067563	2533.159643
495.434713	2528.166380
495.801805	2535.453368
496.168839	2533.499921
496.535815	2534.059489
496.902733	2535.355066
497.269593	2534.203162
497.636395	2534.021680
498.003139	2534.576207
498.369825	2532.131248
498.736453	2536.529654
499.103023	2534.964376
499.469535	2533.893131
499.835989	2534.394726
500.202385	2535.735673
500.568723	2533.436907
500.935003	2532.292565
501.301226	2533.900693
501.667390	2534.845909
502.033497	2537.711805
502.399546	2535.902031
502.765537	2533.399098
503.131470	2534.755168
503.497345	2536.501928
503.863163	2535.972607
504.228923	2534.397246
504.594625	2534.561084
504.960269	2533.373892
505.325856	2534.724921
505.691385	2535.849099
506.056856	2536.922864
506.422270	2534.399767
506.787625	2535.208872
507.152924	2534.480425
507.518164	2537.825231
507.883347	2536.191897
508.248472	2533.492359
508.613540	2534.911444
508.978550	2534.777853
509.343503	2534.682072
509.708398	2537.931095
510.073236	2536.638039
510.438016	2536.103677
510.802738	2536.264994
511.167403	2536.207021
511.532010	2536.270035
511.896561	2534.553522
512.261053	2537.535365
512.625488	2533.144520
512.989866	2532.668131
513.354186	2534.142668
513.718449	2530.066895
514.082655	2531.521268
514.446803	2536.126362
514.810894	2538.054603
515.174927	2536.897659
515.538904	2536.464119
515.902822	2535.337422
516.266684	2534.450178
516.630488	2534.435055
516.994235	2534.644263
517.357925	2535.932278
517.721558	2535.896990
518.085133	2535.922195
518.448651	2535.776002
518.812112	2536.297761
519.175516	2536.998482
519.538863	2537.459747
519.902152	2535.970086
520.265385	2538.047042
520.628560	2538.029398
520.991678	2538.135262
521.354739	2540.363452
521.717743	2538.289017
522.080690	2539.715664
522.443580	2535.622247
522.806413	2537.401774
523.169189	2538.515869
523.531908	2538.709953
523.894569	2535.861702
524.257174	2536.045704
524.619722	2537.351362
524.982213	2538.752803
525.344647	2535.397915
525.707025	2538.392361
526.069345	2536.605272
526.431608	2538.457896
526.793815	2538.510828
527.155964	2538.052083
527.518057	2537.525282
527.880093	2536.320447
528.242072	2537.253060
528.603995	2540.464275
528.965860	2538.727597
529.327669	2540.653318
529.689421	2535.899510
530.051117	2539.725746
530.412755	2532.663089
530.774337	2538.709953
531.135862	2537.469830
531.497331	2536.005374
531.858743	2533.005888
532.220098	2536.496887
532.581396	2535.259284
532.942638	2535.541588
533.303824	2538.954449
533.664953	2539.050231
534.026025	2534.268697
534.387040	2541.981662
534.747999	2537.169881
535.108902	2536.627957
535.469748	2538.099974
535.830537	2538.581404
536.191270	2537.598379
536.551947	2536.753986
536.912567	2540.194573
537.273131	2538.359593
537.633638	2538.702392
537.994089	2536.053265
538.354483	2539.118287
538.714821	2539.932433
539.075103	2536.665766
539.435328	2536.985879
539.795497	2538.344470
540.155609	2540.439069
540.515665	2537.560570
540.875665	2538.301620
541.235609	2536.973276
541.595496	2540.060983
541.955328	2536.645601
542.315102	2538.001671
542.674821	2539.511497
543.034483	2539.808925
543.394090	2539.425797
543.753640	2538.619213
544.113134	2539.277083
544.472571	2539.939995
544.831953	2538.588966
545.191278	2540.963349
545.550548	2536.549819
545.909761	2539.261960
546.268918	2536.882535
546.628019	2541.543082
546.987064	2538.616692
547.346053	2539.506456
547.704986	2538.145344
548.063863	2536.670807
548.422684	2538.820859
548.781449	2536.600231
549.140158	2538.203317
549.498811	2540.192053
549.857408	2537.255581
550.215949	2536.930426
550.574434	2531.264169
550.932864	2535.546629
551.291237	2533.570497
551.649555	2539.798843
552.007817	2537.346321
552.366022	2539.330015
552.724173	2538.301620
553.082267	2537.719367
553.440305	2540.784388
553.798288	2537.633667
554.156215	2539.352701
554.514086	2539.090561
554.871902	2537.495035
555.229661	2540.103832
555.587365	2540.681045
555.945014	2538.956970
556.302606	2537.978986
556.660143	2540.013092
557.017625	2538.024357
557.375050	2538.962011
557.732421	2538.412525
558.089735	2542.226158
558.446994	2540.504604
558.804197	2539.440921
559.161345	2539.418236
559.518437	2539.566950
559.875474	2539.698020
560.232455	2539.604758
560.589381	2538.150385
560.946251	2540.338246
561.303065	2538.525951
561.659825	2538.742721
562.016528	2540.802032
562.373177	2536.048224
562.729770	2537.074099
563.086307	2540.973432
563.442789	2539.413194
563.799216	2538.760365
564.155587	2538.510828
564.511904	2541.293545
564.868164	2539.314892
565.224370	2537.908410
565.580520	2536.655683
565.936615	2539.115766
566.292654	2539.582073
566.648638	2541.326312
567.004567	2541.013761
567.360441	2540.615510
567.716260	2537.167360
568.072023	2537.610982
568.427732	2536.965714
568.783385	2537.792463
569.138982	2536.254912
569.494525	2537.119469
569.850013	2534.808100
570.205445	2537.628626
570.560823	2538.755324
570.916145	2538.699871
571.271412	2536.242309
571.626625	2537.421939
571.981782	2538.767927
572.336884	2538.195756
572.691931	2538.059645
573.046923	2539.947557
573.401860	2538.301620
573.756743	2537.502597
574.111570	2535.670138
574.466342	2538.480581
574.821059	2536.706095
575.175722	2537.540406
575.530330	2537.565612
575.884882	2540.549975
576.239380	2540.212217
576.593823	2541.674152
576.948211	2538.709953
577.302544	2540.865047
577.656823	2538.099974
578.011047	2538.273894
578.365216	2538.289017
578.719330	2537.918492
579.073389	2540.066024
579.427394	2537.482432
579.781344	2540.285314
580.135239	2537.174922
580.489080	2537.800025
580.842866	2539.803884
581.196597	2542.803370
581.550273	2540.078627
581.903895	2538.067206
582.257463	2539.206507
582.610975	2537.434542
582.964434	2541.013761
583.317837	2540.108874
583.671186	2539.902186
584.024481	2539.082999
584.377721	2538.558719
584.730906	2537.903369
585.084037	2538.475540
585.437113	2536.955632
585.790135	2538.314223
586.143103	2537.767258
586.496016	2540.287835
586.848874	2534.674510
587.201679	2537.605941
587.554428	2537.437062
587.907124	2535.052596
588.259765	2533.245343
588.612352	2537.099305
588.964884	2539.554347
589.317362	2538.261291
589.669786	2541.787578
590.022155	2538.147865
590.374470	2538.520910
590.726731	2540.345808
591.078937	2538.594007
591.431090	2537.724408
591.783188	2540.660880
592.135232	2540.179450
592.487222	2540.093750
592.839157	2538.823379
593.191038	2539.002340
593.542866	2540.300438
593.894639	2537.915972
594.246358	2540.802032
594.598022	2540.418905
594.949633	2539.652649
595.301190	2538.460416
595.652692	2535.776002
596.004141	2539.007382
596.355535	2541.417053
596.706876	2541.522917
597.058162	2539.461085
597.409395	2541.114584
597.760573	2539.012423
598.111698	2537.946219
598.462768	2540.696168
598.813785	2538.052083
599.164748	2536.658204
599.515657	2539.352701
599.866511	2541.243133
600.217312	2536.567463
600.568060	2540.986034
600.918753	2537.951260
601.269392	2538.825900
601.619978	2538.024357
601.970510	2538.488143
602.320988	2540.854964
602.671412	2538.394881
603.021783	2537.759696
603.372100	2537.278266
603.722363	2539.219110
604.072572	2542.216076
604.422728	2539.269522
604.772830	2535.675179
605.122878	2532.978162
605.472872	2532.786598
605.822813	2536.222144
606.172701	2540.181970
606.522534	2536.978317
606.872314	2540.986034
607.222041	2537.719367
607.571714	2536.506969
607.921333	2539.884542
608.270899	2540.101312
608.620411	2538.039480
608.969870	2541.593493
609.319276	2540.567619
609.668627	2545.018957
610.017926	2546.279246
610.367171	2545.291180
610.716362	2546.395193
611.065500	2545.064328
611.414585	2543.173895
611.763616	2543.020140
612.112594	2542.778165
612.461518	2542.783206
612.810389	2539.342618
613.159207	2542.057280
613.507971	2538.460416
613.856682	2539.798843
614.205340	2536.030580
614.553945	2538.004192
614.902496	2538.067206
615.250994	2539.055273
615.599439	2539.342618
615.947830	2539.710622
616.296169	2539.612320
616.644454	2544.068700
616.992686	2537.709284
617.340864	2536.499408
617.688990	2541.691796
618.037063	2538.311702
618.385082	2540.494522
618.733048	2538.231044
619.080961	2540.060983
619.428821	2539.937474
619.776628	2536.237268
620.124382	2541.500232
620.472083	2538.601569
620.819731	2539.118287
621.167326	2540.078627
621.514868	2539.105684
621.862357	2538.364634
622.209793	2540.587783
622.557176	2538.893956
622.904506	2537.651311
623.251783	2534.946732
623.599007	2535.357586
623.946179	2533.499921
624.293297	2533.751979
624.640363	2537.066537
624.987376	2537.961342
625.334336	2539.156096
625.681243	2538.591486
626.028097	2538.631816
626.374899	2539.272042
626.721647	2538.967052
627.068343	2538.183153
627.414987	2538.490663
627.761577	2537.734490
628.108115	2538.195756
628.454600	2537.532844
628.801032	2537.908410
629.147412	2540.635674
629.493739	2539.312371
629.840014	2540.343287
630.186236	2537.429500
630.532405	2538.102494
630.878521	2538.427649
631.224585	2537.311033
631.570597	2537.668955
631.916556	2537.873122
632.262462	2537.686599
632.608316	2539.763555
632.954117	2536.154088
633.299866	2537.033770
633.645562	2535.014788
633.991206	2539.571991
634.336797	2536.605272
634.682336	2538.528472
635.027823	2538.019315
635.373257	2536.590148
635.718639	2538.621733
636.063968	2537.520241
636.409245	2537.144675
636.754470	2535.322298
637.099642	2536.814480
637.444762	2538.321785
637.789829	2536.436393
638.134845	2537.313554
638.479808	2537.711805
638.824719	2540.214738
639.169577	2536.965714
639.514383	2538.488143
639.859137	2537.154758
640.203839	2536.055786
640.548489	2533.245343
640.893086	2532.920188
641.237632	2533.124355
641.582125	2534.404808
641.926566	2534.092257
642.270955	2534.243491
642.615292	2539.541744
642.959576	2538.205838
643.303809	2539.403112
643.647990	2535.982689
643.992118	2539.012423
644.336195	2538.425128
644.680219	2538.185673
645.024192	2535.289531
645.368112	2536.532175
645.711981	2534.495549
646.055797	2538.014274
646.399562	2535.632329
646.743274	2537.258101
647.086935	2536.723739
647.430544	2536.718698
647.774101	2537.043852
648.117606	2537.237937
648.461059	2536.663245
648.804460	2539.871939
649.147810	2537.167360
649.491108	2537.512679
649.834354	2539.476209
650.177548	2537.505118
650.520690	2536.406146
650.863781	2537.003523
651.206820	2538.654501
651.549807	2536.088553
651.892742	2537.323636
652.235626	2538.946888
652.578458	2538.430169
652.921238	2537.926054
653.263967	2537.489994
653.606644	2536.953111
653.949269	2537.517721
654.291843	2534.329191
654.634365	2536.305323
654.976836	2533.353728
655.319255	2537.527803
655.661622	2535.498738
656.003938	2538.533513
656.346203	2536.562422
656.688416	2536.486805
657.030577	2535.526465
657.372687	2535.743234
657.714746	2536.481763
658.056753	2535.370189
658.398708	2533.656197
658.740612	2534.545960
659.082465	2535.045035
659.424266	2532.688295
659.766016	2532.216947
660.107715	2536.544778
660.449362	2535.269366
660.790958	2539.017464
661.132503	2535.841537
661.473996	2536.965714
661.815438	2535.796167
662.156829	2539.776157
662.498168	2538.276414
662.839456	2535.022349
663.180693	2534.253573
663.521879	2538.657021
663.863013	2537.658873
664.204097	2537.394212
664.545129	2536.343132
664.886110	2534.871115
665.227040	2535.705426
665.567918	2536.859850
665.908746	2533.789787
666.249522	2534.460261
666.590248	2536.212062
666.930922	2536.481763
667.271545	2534.641742
667.612118	2535.733152
667.952639	2536.028060
668.293109	2535.705426
668.633528	2535.304654
668.973896	2535.188707
669.314213	2536.537216
669.654480	2537.442103
669.994695	2535.080323
670.334859	2537.381609
670.674973	2535.097967
671.015035	2537.255581
671.355047	2536.123842
671.695008	2536.900179
672.034918	2535.155940
672.374777	2535.125693
672.714585	2536.370858
673.054342	2536.690971
673.394049	2539.004861
673.733705	2536.340611
674.073310	2533.610826
674.412864	2536.542257
674.752368	2537.520241
675.091820	2537.737011
675.431223	2533.966228
675.770574	2536.456558
676.109875	2529.721576
676.449125	2533.580579
676.788324	2534.394726
677.127473	2536.728780
677.466571	2531.044879
677.805619	2534.341794
678.144616	2533.099149
678.483562	2535.254243
678.822458	2534.795497
679.161303	2538.299099
679.500098	2538.253729
679.838842	2536.149047
680.177535	2533.759540
680.516179	2539.720705
680.854771	2534.714839
681.193314	2539.168698
681.531805	2534.561084
681.870247	2538.576363
682.208638	2537.132072
682.546978	2535.818852
682.885268	2536.990920
683.223508	2535.287010
683.561697	2535.327339
683.899836	2537.482432
684.237925	2533.633512
684.575963	2533.381454
684.913951	2538.397402
685.251889	2539.569470
685.589776	2535.009747
685.927614	2537.363965
686.265401	2536.748945
686.603137	2537.573173
686.940824	2535.715508
687.278460	2537.754655
687.616046	2535.743234
687.953582	2535.342463
688.291068	2535.828934
688.628504	2534.742565
688.965889	2537.542926
689.303224	2537.001002
689.640510	2534.117462
689.977745	2534.246012
690.314930	2536.454037
690.652065	2537.495035
690.989150	2534.729962
691.326185	2536.625436
691.663170	2534.510672
692.000105	2534.737524
692.336990	2534.850950
692.673825	2533.615867
693.010610	2536.350693
693.347345	2533.910775
693.684030	2529.971113
694.020665	2533.434386
694.357251	2529.338448
694.693786	2534.150230
695.030272	2535.413039
695.366707	2536.617875
695.703093	2535.402957
696.039429	2536.927906
696.375716	2536.126362
696.711952	2534.629139
697.048139	2532.635363
697.384276	2536.058307
697.720363	2535.460930
698.056400	2532.660569
698.392388	2535.811290
698.728326	2535.029911
699.064214	2536.164171
699.400053	2534.523275
699.735842	2538.382278
700.071581	2536.665766
700.407270	2535.115611
700.742910	2536.978317
701.078501	2534.969417
701.414042	2538.233564
701.749533	2535.665097
702.084974	2536.164171
702.420366	2532.153933
702.755709	2534.843388
703.091002	2533.696526
703.426246	2535.662576
703.761440	2537.391692
704.096584	2535.531506
704.431679	2536.514531
704.766725	2536.746424
705.101721	2536.748945
705.436668	2536.224665
705.771565	2532.317770
706.106413	2535.032432
706.441212	2534.878677
706.775961	2536.207021
707.110661	2532.040507
707.445311	2536.328008
707.779913	2534.669469
708.114465	2537.300951
708.448967	2536.065868
708.783421	2534.603934
709.117825	2535.833975
709.452180	2536.234747
709.786485	2536.572504
710.120742	2538.346990
710.454949	2535.339942
710.789107	2533.139478
711.123216	2532.043027
711.457275	2533.991433
711.791286	2530.230733
712.125247	2532.458923
712.459159	2534.432534
712.793023	2535.460930
713.126837	2534.956814
713.460602	2534.119983
713.794318	2535.559232
714.127985	2535.813811
714.461602	2532.849612
714.795171	2536.958152
715.128691	2536.098636
715.462162	2536.670807
715.795584	2534.399767
716.128957	2535.947401
716.462281	2533.099149
716.795556	2536.176774
717.128782	2535.062679
717.461960	2533.903213
717.795088	2534.024201
718.128167	2533.446989
718.461198	2534.094777
718.794180	2534.987061
719.127113	2532.857174
719.459997	2533.762061
719.792833	2535.511341
720.125619	2535.385313
720.458357	2532.511855
720.791046	2533.361289
721.123686	2537.008564
721.456278	2531.874149
721.788821	2535.443286
722.121315	2534.084695
722.453761	2532.718542
722.786158	2534.354397
723.118506	2533.610826
723.450805	2535.085364
723.783056	2532.874818
724.115259	2535.869263
724.447412	2535.798687
724.779518	2536.983358
725.111574	2533.643594
725.443582	2534.548481
725.775542	2537.071578
726.107453	2535.806249
726.439315	2535.171063
726.771129	2538.785571
727.102895	2536.617875
727.434612	2535.531506
727.766281	2533.507483
728.097901	2533.641073
728.429473	2531.455733
728.760996	2531.710311
729.092471	2529.993798
729.423897	2532.045548
729.755276	2533.661238
730.086606	2532.090918
730.417887	2534.404808
730.749120	2534.840868
731.080305	2534.629139
731.411442	2532.796680
731.742530	2536.398584
732.073570	2533.194931
732.404562	2532.214427
732.735506	2536.496887
733.066401	2533.222657
733.397249	2535.055117
733.728048	2536.075951
734.058798	2534.934129
734.389501	2534.606454
734.720156	2535.849099
735.050762	2530.876000
735.381320	2532.985723
735.711831	2535.208872
736.042293	2535.062679
736.372707	2537.472350
736.703073	2532.141330
737.033391	2534.077133
737.363661	2535.075282
737.693883	2534.107380
738.024056	2533.915816
738.354182	2536.091074
738.684260	2536.108718
739.014290	2535.095446
739.344272	2535.723070
739.674207	2536.136444
740.004093	2534.321629
740.333931	2532.965559
740.663722	2536.917823
740.993464	2533.973789
741.323159	2533.973789
741.652806	2534.878677
741.982405	2534.893800
742.311956	2534.712318
742.641460	2536.156609
742.970915	2534.878677
743.300323	2532.048069
743.629683	2535.135775
743.958996	2530.147554
744.288260	2535.748276
744.617477	2534.467822
744.946647	2530.250897
745.275768	2532.428676
745.604842	2528.978006
745.933869	2532.882380
746.262847	2531.128058
746.591778	2533.502442
746.920662	2531.559077
747.249498	2534.724921
747.578286	2532.423635
747.907027	2537.096784
748.235720	2534.283820
748.564365	2532.897503
748.892963	2534.210724
749.221514	2535.728111
749.550017	2535.118131
749.878473	2531.639735
750.206881	2532.932791
750.535242	2536.091074
750.863555	2534.190559
751.191821	2532.370702
751.520039	2532.156453
751.848210	2538.162988
752.176334	2532.985723
752.504411	2534.916485
752.832440	2532.620240
753.160421	2533.608306
753.488356	2530.518078
753.816243	2536.811959
754.144082	2532.995806
754.471875	2535.521424
754.799620	2532.670651
755.127318	2530.475229
755.454969	2530.293747
755.782572	2533.628470
756.110129	2534.634181
756.437638	2532.784077
756.765100	2530.354241
757.092515	2530.447502
757.419882	2530.374406
757.747203	2534.939170
758.074477	2533.310878
758.401703	2535.425642
758.728882	2534.256094
759.056014	2534.525796
759.383099	2534.309026
759.710138	2533.439427
760.037129	2533.288193
760.364073	2532.335414
760.690970	2534.518234
761.017820	2533.021011
761.344623	2532.264838
761.671379	2536.257432
761.998088	2528.196627
762.324751	2530.679395
762.651366	2527.987419
762.977935	2533.683923
763.304456	2528.960362
763.630931	2534.364479
763.957359	2532.592513
764.283740	2534.538399
764.610074	2536.007895
764.936362	2538.798174
765.262602	2532.297606
765.588796	2535.090405
765.914943	2534.971938
766.241044	2532.176618
766.567097	2532.718542
766.893104	2531.813655
767.219064	2531.619571
767.544978	2533.610826
767.870845	2533.769623
768.196665	2534.223327
768.522438	2533.194931
768.848165	2532.443799
769.173846	2533.850281
769.499479	2533.091588
769.825066	2532.158974
770.150607	2532.995806
770.476101	2530.623943
770.801548	2536.184335
771.126949	2531.937163
771.452303	2533.222658
771.777611	2532.579910
772.102872	2533.078985
772.428087	2528.267203
772.753256	2531.047400
773.078378	2534.293903
773.403453	2533.421783
773.728482	2530.450023
774.053465	2532.098480
774.378401	2532.738707
774.703291	2533.835158
775.028135	2530.175280
775.352932	2533.489839
775.677683	2530.964221
776.002388	2535.271887
776.327046	2533.683923
776.651658	2533.197452
776.976224	2531.196114
777.300743	2534.296423
777.625216	2532.925229
777.949643	2529.522451
778.274024	2531.692667
778.598359	2524.980371
778.922647	2527.034641
779.246889	2529.643438
779.571086	2524.337624
779.895236	2531.612009
780.219339	2533.608306
780.543397	2534.099818
780.867409	2535.531506
781.191374	2534.911444
781.515294	2531.947246
781.839167	2531.513706
782.162995	2533.600744
782.486776	2533.704088
782.810511	2531.125538
783.134201	2531.410363
783.457844	2532.184180
783.781441	2532.806762
784.104993	2527.833664
784.428498	2531.458254
784.751958	2531.586803
785.075372	2530.402132
785.398739	2531.901875
785.722061	2532.731145
786.045337	2532.804242
786.368568	2533.046217
786.691752	2531.690147
787.014891	2530.417255
787.337983	2531.039838
787.661030	2531.170908
787.984031	2532.088398
788.306987	2530.349200
788.629897	2533.482277
788.952760	2534.253573
789.275579	2533.230219
789.598351	2533.988913
789.921078	2531.410363
790.243759	2531.180990
790.566395	2529.845084
790.888984	2532.274921
791.211529	2530.681916
791.534027	2534.903882
791.856480	2533.119314
792.178888	2531.634694
792.501249	2532.010260
792.823566	2534.727442
793.145836	2533.182328
793.468062	2533.023532
793.790241	2530.374406
794.112375	2531.508665
794.434464	2530.220650
794.756507	2534.082174
795.078505	2532.587472
795.400457	2530.432379
795.722364	2526.165042
796.044226	2531.649818
796.366042	2526.805269
796.687812	2531.846423
797.009538	2533.396577
797.331218	2533.736855
797.652852	2532.897503
797.974442	2530.581093
798.295986	2528.884745
798.617484	2531.115455
798.938938	2533.036135
799.260346	2533.179808
799.581709	2532.060672
799.903026	2536.406146
800.224299	2531.148223
800.545526	2532.121165
800.866708	2530.525640
801.187845	2534.606454
801.508936	2530.008922
801.829983	2533.061341
802.150984	2534.157792
802.471940	2535.276928
802.792851	2534.961856
803.113717	2533.048738
803.434538	2531.634694
803.755314	2535.750796
804.076045	2530.974303
804.396731	2534.858512
804.717372	2531.140661
805.037967	2532.375744
805.358518	2531.155784
805.679024	2532.224509
805.999485	2530.593696
806.319901	2530.064375
806.640272	2532.864736
806.960598	2531.049920
807.280879	2530.941535
807.601115	2531.213758
807.921306	2530.218130
808.241453	2532.186700
808.561554	2531.143182
808.881611	2533.386495
809.201623	2532.867256
809.521590	2532.665610
809.841513	2532.201824
810.161390	2534.424973
810.481223	2533.005888
810.801011	2532.461443
811.120755	2528.433561
811.440453	2533.273069
811.760107	2532.627801
812.079716	2530.376926
812.399281	2528.252080
812.718801	2530.941535
813.038276	2525.822244
813.357707	2531.019673
813.677093	2530.654190
813.996434	2531.533871
814.315731	2531.062523
814.634983	2530.076977
814.954191	2530.225692
815.273354	2533.794828
815.592473	2532.589993
815.911547	2531.886752
816.230577	2530.628984
816.549562	2533.532688
816.868502	2530.331556
817.187399	2529.661082
817.506250	2530.263500
817.825058	2532.017822
818.143821	2531.745599
818.462539	2531.924560
818.781213	2532.282482
819.099843	2530.344159
819.418429	2531.974972
819.736970	2532.607637
820.055466	2531.266690
820.373919	2529.761905
820.692327	2532.675692
821.010691	2531.375075
821.329011	2532.184180
821.647286	2539.292207
821.965517	2536.302803
822.283704	2537.011085
822.601847	2536.655683
822.919945	2536.307844
823.237999	2536.375899
823.556010	2533.951104
823.873976	2532.572349
824.191897	2531.743079
824.509775	2533.590662
824.827609	2530.016484
825.145398	2531.276772
825.463144	2533.106711
825.780845	2534.296423
826.098502	2533.865405
826.416116	2532.857174
826.733685	2534.266176
827.051210	2533.885569
827.368692	2533.638553
827.686129	2534.482946
828.003522	2532.537061
828.320872	2526.659075
828.638177	2531.160826
828.955439	2524.360309
829.272656	2529.038500
829.589830	2525.739065
829.906960	2531.899355
830.224046	2529.847605
830.541088	2530.676875
830.858086	2530.114786
831.175041	2530.865918
831.491952	2527.385001
831.808819	2530.664272
832.125642	2529.966072
832.442421	2529.252749
832.759157	2532.549663
833.075849	2531.438089
833.392497	2531.115455
833.709101	2530.568490
834.025662	2532.842050
834.342179	2533.996475
834.658653	2531.788449
834.975083	2532.617719
835.291469	2533.363810
835.607811	2532.302647
835.924110	2528.657893
836.240366	2530.578572
836.556578	2528.393232
836.872746	2531.876669
837.188871	2533.182328
837.504952	2530.208048
837.820990	2529.953469
838.136984	2529.328366
838.452935	2529.167049
838.768842	2531.627132
839.084706	2532.501773
839.400526	2535.062679
839.716303	2530.175280
840.032037	2530.523120
840.347727	2532.285003
840.663373	2531.491021
840.978977	2530.465146
841.294537	2530.404652
841.610054	2531.748120
841.925527	2532.501772
842.240957	2527.984899
842.556344	2532.418593
842.871687	2532.007739
843.186987	2528.620084
843.502244	2529.966072
843.817458	2531.352389
844.132629	2531.796011
844.447756	2530.114786
844.762840	2528.000022
845.077881	2524.365350
845.392879	2524.380474
845.707833	2528.794004
846.022745	2524.587161
846.337613	2531.387678
846.652438	2533.381454
846.967221	2530.802904
847.281960	2529.182173
847.596656	2529.585465
847.911309	2527.632018
848.225919	2529.277955
848.540485	2530.659231
848.855009	2533.401618
849.169490	2529.096473
849.483928	2531.687626
849.798323	2529.449354
850.112675	2533.033614
850.426984	2529.698891
850.741251	2529.656041
851.055474	2530.956659
851.369654	2532.219468
851.683792	2527.810979
851.997887	2528.148736
852.311938	2528.811648
852.625947	2529.346010
852.939914	2531.657379
853.253837	2531.788449
853.567718	2531.269210
853.881555	2529.792152
854.195350	2529.477080
854.509103	2527.987419
854.822812	2530.981865
855.136479	2528.476411
855.450103	2528.410876
855.763685	2530.444982
856.077224	2531.289375
856.390720	2530.639066
856.704173	2532.504293
857.017584	2531.440610
857.330953	2529.930784
857.644278	2531.516227
857.957561	2530.518078
858.270802	2529.575383
858.584000	2527.805938
858.897155	2529.262831
859.210268	2528.662934
859.523339	2533.343645
859.836367	2527.332069
860.149352	2532.864736
860.462295	2530.681916
860.775195	2527.175793
861.088054	2528.060516
861.400869	2525.920546
861.713642	2526.656555
862.026373	2525.015659
862.339062	2527.816020
862.651708	2530.107224
862.964312	2529.318284
863.276873	2528.541946
863.589392	2527.203520
863.901869	2527.548839
864.214303	2530.444982
864.526696	2530.533202
864.839045	2528.410876
865.151353	2529.860208
865.463619	2529.398942
865.775842	2530.719725
866.088023	2531.717873
866.400162	2530.162677
866.712258	2531.864067
867.024313	2527.798376
867.336325	2529.671165
867.648296	2528.441123
867.960224	2531.218799
868.272110	2532.456402
868.583954	2530.064375
868.895755	2525.597912
869.207515	2529.328366
869.519233	2529.416586
869.830909	2525.393746
870.142542	2530.865918
870.454134	2528.698222
870.765684	2528.506658
871.077191	2529.996319
871.388657	2530.964221
871.700081	2530.528161
872.011463	2530.709642
872.322803	2528.904909
872.634101	2529.792152
872.945357	2527.188396
873.256571	2529.633356
873.567744	2529.686288
873.878874	2530.460105
874.189963	2529.209899
874.501010	2529.540095
874.812015	2530.248377
875.122979	2525.267717
875.433900	2529.419107
875.744780	2530.079498
876.055618	2529.204858
876.366415	2529.114117
876.677169	2530.419776
876.987882	2526.202851
877.298554	2526.512882
877.609183	2524.551873
877.919771	2527.344672
878.230317	2526.790145
878.540822	2530.336597
878.851285	2527.430372
879.161707	2526.865763
879.472087	2530.966741
879.782425	2529.179652
880.092722	2530.399611
880.402977	2527.271575
880.713191	2530.634025
881.023363	2530.003881
881.333494	2534.268697
881.643583	2530.921371
881.953631	2533.411701
882.263637	2531.823737
882.573602	2532.239632
882.883526	2530.931453
883.193408	2530.263500
883.503248	2530.439941
883.813048	2531.967410
884.122806	2532.766433
884.432522	2530.371885
884.742197	2527.137985
885.051831	2530.996988
885.361424	2528.972965
885.670975	2530.926412
885.980485	2531.233922
886.289954	2528.809127
886.599382	2528.859539
886.908768	2528.602440
887.218113	2527.553880
887.527417	2529.608150
887.836680	2529.512368
888.145901	2529.388860
888.455082	2530.376926
888.764221	2528.143695
889.073319	2529.121679
889.382376	2528.463808
889.691392	2530.881042
890.000366	2525.671009
890.309300	2527.246370
890.618193	2528.514220
890.927044	2529.900537
891.235855	2527.420289
891.544625	2526.807789
891.853353	2529.726617
892.162041	2529.789632
892.470687	2532.910106
892.779293	2529.348531
893.087858	2525.933149
893.396381	2525.083715
893.704864	2523.899043
894.013306	2526.187727
894.321707	2529.875331
894.630068	2531.856505
894.938387	2529.892975
895.246665	2529.502286
895.554903	2526.936339
895.863100	2528.899868
896.171256	2528.907430
896.479371	2531.072605
896.787446	2529.683768
897.095480	2529.789632
897.403473	2528.468849
897.711425	2529.444313
898.019336	2528.206709
898.327207	2527.022038
898.635038	2529.104035
898.942827	2529.877852
899.250576	2528.443644
899.558284	2528.345341
899.865952	2527.251411
900.173579	2528.993129
900.481165	2530.578572
900.788711	2529.829961
901.096216	2527.717718
901.403681	2529.109076
901.711105	2528.995650
902.018489	2527.810979
902.325832	2531.939684
902.633135	2527.629497
902.940397	2530.926412
903.247619	2526.946421
903.554800	2528.574714
903.861941	2529.661082
904.169041	2527.294261
904.476101	2528.373067
904.783121	2528.486493
905.090100	2531.359951
905.397039	2529.169570
905.703938	2527.314425
906.010796	2529.262831
906.317614	2525.993643
906.624391	2530.452543
906.931129	2527.594209
907.237826	2528.819210
907.544483	2530.944056
907.851099	2531.632173
908.157675	2526.608664
908.464211	2529.714014
908.770707	2522.525329
909.077163	2524.914836
909.383578	2526.228057
909.689954	2527.831143
909.996289	2525.681091
910.302584	2528.841895
910.608839	2528.284847
910.915054	2527.301822
911.221229	2528.673016
911.527363	2529.298119
911.833458	2527.475742
912.139513	2528.541946
912.445527	2530.576052
912.751502	2529.368695
913.057436	2529.388860
913.363331	2528.509179
913.669186	2527.654703
913.975000	2528.801566
914.280775	2527.934487
914.586510	2529.126720
914.892205	2528.544467
915.197859	2528.073119
915.503475	2528.453726
915.809050	2529.046062
916.114585	2530.606299
916.420081	2530.172759
916.725536	2529.585465
917.030952	2530.218130
917.336328	2530.810465
917.641665	2529.411545
917.946961	2526.538088
918.252218	2526.994312
918.557435	2529.436751
918.862612	2527.059847
919.167750	2525.877696
919.472848	2530.984385
919.777906	2530.472708
920.082925	2527.453057
920.387904	2527.412728
920.692843	2529.971113
920.997743	2527.831143
921.302603	2526.953983
921.607423	2530.034128
921.912204	2529.507327
922.216946	2528.141174
922.521647	2526.638911
922.826310	2531.034797
923.130932	2529.424148
923.435516	2527.730320
923.740059	2524.871986
924.044564	2528.045392
924.349028	2527.349713
924.653454	2523.359640
924.957840	2525.960875
925.262186	2524.982892
925.566493	2529.270393
925.870761	2524.758560
926.174989	2529.444313
926.479178	2528.516740
926.783328	2525.519774
927.087438	2530.893644
927.391509	2528.892306
927.695541	2526.505320
927.999533	2528.405835
928.303486	2526.926256
928.607400	2527.516071
928.911275	2526.437264
929.215110	2529.981196
929.518906	2526.822913
929.822663	2525.857532
930.126381	2526.104548
930.430060	2529.466998
930.733699	2528.065557
931.037299	2525.343334
931.340861	2527.785773
931.644383	2527.566483
931.947866	2527.011956
932.251309	2527.813499
932.554714	2527.425331
932.858080	2529.913140
933.161407	2528.393232
933.464694	2528.244518
933.767943	2528.040351
934.071153	2526.154960
934.374323	2527.011956
934.677455	2528.544467
934.980548	2527.432892
935.283602	2523.432737
935.586617	2527.974816
935.889593	2528.007584
936.192530	2526.033972
936.495428	2529.172090
936.798287	2526.233098
937.101108	2526.780063
937.403890	2525.905423
937.706632	2526.863242
938.009336	2525.832326
938.312002	2527.730320
938.614628	2527.437933
938.917216	2527.879034
939.219765	2528.400794
939.522275	2528.307533
939.824747	2528.516740
940.127179	2523.876358
940.429573	2524.849301
940.731929	2524.539270
941.034246	2523.785617
941.336524	2523.289064
941.638763	2527.863911
941.940964	2526.822913
942.243126	2526.510361
942.545250	2529.328366
942.847335	2525.930628
943.149381	2526.154960
943.451389	2527.226205
943.753359	2527.800897
944.055290	2527.967255
944.357182	2528.204189
944.659036	2527.140505
944.960851	2527.684950
945.262628	2524.811492
945.564367	2526.333921
945.866067	2530.392050
946.167729	2526.623787
946.469352	2525.287881
946.770937	2528.065557
947.072484	2529.197296
947.373992	2526.651513
947.675462	2525.668488
947.976893	2527.511030
948.278286	2525.151770
948.579641	2530.117307
948.880958	2528.420958
949.182236	2529.693850
949.483476	2525.597912
949.784678	2525.822244
950.085841	2525.124044
950.386967	2529.212420
950.688054	2524.365350
950.989103	2526.565814
951.290114	2529.167049
951.591087	2526.061698
951.892021	2527.755526
952.192917	2527.427851
952.493776	2525.330731
952.794596	2525.534898
953.095378	2527.606812
953.396122	2526.154960
953.696828	2528.630166
953.997496	2526.966586
954.298126	2526.971627
954.598718	2528.196627
954.899272	2525.681091
955.199788	2527.258972
955.500266	2525.050947
955.800706	2524.871986
956.101108	2522.908457
956.401472	2523.513395
956.701798	2522.127078
957.002087	2525.411390
957.302337	2524.120854
957.602550	2526.480114
957.902724	2523.732685
958.202861	2526.054137
958.502960	2526.107069
958.803022	2528.723428
959.103045	2528.027748
959.403031	2525.978519
959.702979	2526.946421
960.002889	2526.412059
960.302762	2527.866432
960.602596	2525.481966
960.902393	2525.290402
961.202153	2525.174455
961.501875	2526.187727
961.801559	2529.570342
962.101205	2527.906761
962.400814	2525.086235
962.700385	2525.214785
962.999918	2523.324352
963.299414	2526.583458
963.598873	2526.633869
963.898293	2523.276461
964.197677	2530.354241
964.497022	2523.435257
964.796331	2526.512882
965.095601	2527.962213
965.394835	2525.345855
965.694030	2527.526154
965.993189	2528.519261
966.292309	2525.040865
966.591393	2527.768129
966.890439	2524.325021
967.189447	2526.704446
967.488419	2525.817202
967.787353	2525.497089
968.086249	2525.502130
968.385108	2525.754188
968.683930	2524.619928
968.982714	2527.178314
969.281462	2525.053468
969.580172	2527.226205
969.878844	2526.192768
970.177480	2524.153622
970.476078	2524.803931
970.774639	2526.802748
971.073162	2526.986750
971.371649	2524.604805
971.670098	2520.014834
971.968510	2525.870135
972.266885	2522.684125
972.565223	2524.435926
972.863524	2525.449198
973.161788	2527.584127
973.460014	2528.652852
973.758204	2525.723941
974.056356	2527.942049
974.354471	2527.016997
974.652550	2527.006915
974.950591	2528.352903
975.248595	2526.197810
975.546563	2526.079343
975.844493	2525.396266
976.142386	2525.391225
976.440243	2525.565145
976.738062	2526.785104
977.035845	2525.403828
977.333590	2525.396266
977.631299	2525.718900
977.928971	2524.914836
978.226606	2525.973478
978.524204	2527.057326
978.821765	2526.505320
979.119290	2525.799558
979.416777	2522.863086
979.714228	2525.915505
980.011642	2524.138498
980.309020	2527.712676
980.606360	2525.300484
980.903664	2529.421628
981.200931	2526.033972
981.498162	2524.667819
981.795356	2523.291584
982.092513	2525.103879
982.389633	2527.198479
982.686717	2523.984743
982.983764	2525.255114
983.280775	2524.849301
983.577749	2524.546832
983.874686	2528.458767
984.171587	2525.686132
984.468451	2523.520957
984.765279	2525.272758
985.062070	2523.281502
985.358824	2526.134795
985.655543	2525.882737
985.952224	2526.439785
986.248869	2524.584640
986.545478	2522.847963
986.842050	2524.695546
987.138586	2523.742768
987.435086	2522.139681
987.731549	2521.716224
988.027975	2525.550021
988.324366	2526.172604
988.620719	2526.336441
988.917037	2524.438447
989.213318	2527.924405
989.509563	2524.231760
989.805772	2528.899868
990.101944	2524.682943
990.398080	2524.854342
990.694180	2524.256965
990.990244	2526.033972
991.286271	2524.892151
991.582262	2526.086904
991.878217	2523.805782
992.174136	2524.367871
992.470019	2523.740247
992.765865	2526.623787
993.061676	2526.071781
993.357450	2527.826102
993.653188	2527.553880
993.948890	2523.659589
994.244556	2525.658406
994.540186	2524.899713
994.835780	2526.757378
995.131337	2525.726462
995.426859	2523.674712
995.722345	2525.877696
996.017795	2523.543642
996.313208	2524.413241
996.608586	2523.979702
996.903928	2525.272758
997.199234	2527.175793
997.494504	2523.702438
997.789738	2524.647655
998.084936	2524.750998
998.380099	2523.344517
998.675225	2524.256965
998.970316	2525.141688
999.265371	2526.162522
999.560390	2528.975485
999.855373	2526.417100
1000.150320	2526.543129
1000.445232	2526.149919
1000.740108	2525.960875
1001.034948	2526.139836
1001.329752	2524.133457
1001.624521	2526.558252
1001.919254	2520.350071
1002.213951	2525.010618
1002.508613	2521.625483
1002.803239	2522.863086
1003.097829	2519.495596
1003.392384	2525.713859
1003.686903	2526.243180
1003.981386	2525.275278
1004.275834	2525.169414
1004.570246	2527.750485
1004.864623	2524.917357
1005.158964	2525.691174
1005.453270	2524.587161
1005.747540	2524.040196
1006.041775	2526.414579
1006.335974	2522.275792
1006.630138	2524.834177
1006.924266	2524.667819
1007.218359	2525.368540
1007.512416	2527.634538
1007.806438	2525.043385
1008.100425	2525.066071
1008.394376	2524.158663
1008.688292	2526.061698
1008.982172	2527.067409
1009.276017	2525.711338
1009.569827	2525.159332
1009.863602	2525.986081
1010.157341	2525.277799
1010.451045	2526.487676
1010.744714	2526.913653
1011.038347	2524.781245
1011.331945	2525.048427
1011.625508	2526.028931
1011.919036	2524.622449
1012.212528	2525.915505
1012.505986	2524.163704
1012.799408	2524.446009
1013.092795	2523.901564
1013.386147	2524.950124
1013.679464	2522.116996
1013.972745	2522.837881
1014.265992	2523.946934
1014.559204	2526.863242
1014.852380	2525.706297
1015.145521	2526.243180
1015.438628	2524.871986
1015.731699	2523.843591
1016.024736	2525.355937
1016.317737	2524.158663
1016.610703	2525.875176
1016.903635	2518.583147
1017.196531	2522.154804
1017.489393	2523.261337
1017.782219	2521.653209
1018.075011	2523.528519
1018.367768	2522.842922
1018.660490	2525.613036
1018.953177	2525.613036
1019.245829	2525.613036
