Dividing Wavelength (nm)	Counts (n)	Blue Motor Position (mm): 0.000000	Red Motor Position (mm): 45.100000	
326.493990	2128.838940
326.888308	2128.838940
327.282561	2128.838940
327.676750	2094.864084
328.070874	2093.177818
328.464933	2096.401636
328.858929	2102.778695
329.252859	2112.127515
329.646726	2123.185286
330.040528	2138.303706
330.434265	2151.519091
330.827938	2171.371155
331.221547	2187.855728
331.615091	2211.004707
332.008571	2228.507593
332.401986	2250.363515
332.795338	2265.469333
333.188625	2287.536984
333.581847	2305.911989
333.975006	2322.603250
334.368100	2340.955570
334.761129	2356.555421
335.154095	2375.106867
335.546996	2397.711401
335.939833	2419.557241
336.332606	2434.531989
336.725315	2450.315841
337.117960	2457.181893
337.510540	2465.003243
337.903056	2477.313741
338.295508	2486.680205
338.687896	2492.119610
339.080220	2503.079078
339.472480	2507.850530
339.864676	2512.967301
340.256807	2518.066428
340.648875	2523.263858
341.040879	2524.501461
341.432818	2525.340813
341.824694	2526.815351
342.216506	2522.588343
342.608253	2526.734693
342.999937	2526.492717
343.391557	2526.505320
343.783113	2522.285874
344.174605	2523.089938
344.566033	2520.292098
344.957397	2524.841739
345.348697	2517.088445
345.739934	2518.648682
346.131106	2515.563496
346.522215	2512.347239
346.913260	2510.855058
347.304241	2510.161899
347.695159	2508.140397
348.086012	2507.351456
348.476802	2505.627381
348.867528	2506.436487
349.258191	2504.140241
349.648789	2502.196876
350.039324	2497.624550
350.429796	2502.022956
350.820203	2500.152688
351.210548	2498.554643
351.600828	2496.258397
351.991045	2492.885865
352.381198	2492.303612
352.771288	2494.252018
353.161314	2494.985506
353.551276	2495.769405
353.941175	2491.895278
354.331010	2495.436689
354.720782	2493.745382
355.110490	2494.708242
355.500135	2494.927532
355.889717	2496.447440
356.279235	2495.600526
356.668689	2496.656648
357.058080	2497.475836
357.447408	2495.648417
357.836672	2494.030207
358.225873	2497.637153
358.615010	2491.514671
359.004084	2498.597492
359.393095	2498.060609
359.782043	2500.591269
360.170927	2499.346104
360.559748	2499.961124
360.948505	2501.753255
361.337199	2503.678975
361.725830	2501.987668
362.114398	2502.925323
362.502903	2504.851044
362.891344	2502.779129
363.279722	2501.967504
363.668037	2505.282062
364.056289	2506.562515
364.444478	2507.374141
364.832603	2506.381034
365.220665	2507.338853
365.608665	2509.062928
365.996601	2509.670387
366.384474	2515.152642
366.772284	2512.017044
367.160031	2513.045439
367.547715	2514.346057
367.935336	2517.093486
368.322893	2522.116996
368.710388	2524.446009
369.097820	2532.469005
369.485189	2532.426155
369.872495	2541.464944
370.259738	2546.271684
370.646918	2551.254865
371.034035	2558.509085
371.421090	2571.129614
371.808081	2581.348033
372.195010	2594.215578
372.581875	2603.385437
372.968678	2617.465379
373.355418	2624.661627
373.742096	2647.820687
374.128710	2658.795279
374.515262	2672.797084
374.901751	2692.833150
375.288177	2703.096939
375.674540	2726.419837
376.060841	2743.340470
376.447079	2763.308481
376.833254	2782.603497
377.219367	2796.028090
377.605417	2833.743482
377.991404	2844.365193
378.377329	2865.956455
378.763191	2883.918087
379.148991	2921.736823
379.534727	2944.699278
379.920402	2974.563074
380.306013	2986.140084
380.691563	3037.592620
381.077049	3059.856876
381.462474	3075.222313
381.847835	3113.988786
382.233134	3138.478712
382.618371	3139.204638
383.003545	3205.213506
383.388657	3214.083417
383.773706	3244.158940
384.158693	3265.014194
384.543618	3287.598563
384.928480	3323.698266
385.313280	3371.211141
385.698017	3367.553784
386.082692	3421.582350
386.467305	3427.306580
386.851856	3458.334882
387.236344	3483.850682
387.620770	3513.885877
388.005133	3538.547202
388.389435	3568.017787
388.773674	3575.400557
389.157851	3619.745067
389.541965	3634.089670
389.926018	3601.496090
390.310008	3673.415711
390.693936	3690.376673
391.077802	3732.021645
391.461606	3719.207032
391.845348	3779.647946
392.229027	3783.322947
392.612645	3797.579330
392.996200	3873.718397
393.379694	3911.441352
393.763125	3977.057010
394.146494	3944.508800
394.529801	4006.613295
394.913047	4059.215215
395.296230	4021.071324
395.679351	4073.549736
396.062410	4101.127368
396.445408	4082.641457
396.828343	4114.635140
397.211217	4136.783449
397.594028	4058.426274
397.976778	4125.481182
398.359466	4151.639729
398.742092	4180.147454
399.124656	4105.427472
399.507158	4183.860264
399.889598	4208.529151
400.271977	4270.948718
400.654294	4242.113318
401.036549	4252.412395
401.418742	4218.682034
401.800874	4321.919824
402.182944	4340.002443
402.564952	4408.496600
402.946898	4398.245414
403.328783	4394.114188
403.710606	4301.427534
404.092367	4496.063963
404.474067	4462.419302
404.855705	4471.314418
405.237282	4398.497472
405.618797	4505.349768
406.000250	4542.258576
406.381642	4620.890494
406.762972	4584.642077
407.144240	4593.748922
407.525447	4595.732616
407.906593	4653.567253
408.287677	4696.984191
408.668700	4624.058859
409.049661	4678.611706
409.430560	4720.193663
409.811399	4647.893435
410.192176	4806.241118
410.572891	4751.353035
410.953545	4847.306357
411.334138	4731.826126
411.714669	4795.402637
412.095139	4688.570505
412.475547	4832.858410
412.855894	4812.681192
413.236180	4824.500177
413.616405	4779.149957
413.996568	4862.001321
414.376670	4805.212723
414.756711	4762.612452
415.136691	4792.982883
415.516609	4869.326117
415.896466	4910.948404
416.276262	4941.195327
416.655997	4926.938944
417.035670	5102.413948
417.415283	5197.994225
417.794834	5139.426099
418.174324	5094.181743
418.553753	5002.959544
418.933121	5181.862532
419.312428	5255.337350
419.691674	5191.060118
420.070859	5318.366896
420.449983	5226.920365
420.829045	5348.218089
421.208047	5253.560343
421.586988	5325.515252
421.965867	5336.439433
422.344686	5468.505061
422.723444	5320.438810
423.102141	5142.745699
423.480777	5441.250062
423.859352	5208.867993
424.237866	5469.062108
424.616319	5459.073062
424.994712	5566.953754
425.373044	5448.284993
425.751314	5592.567857
426.129524	5393.911107
426.507673	5585.301033
426.885762	5673.317059
427.263789	5600.545483
427.641756	5481.796063
428.019662	5606.141163
428.397508	5608.334065
428.775292	5559.626437
429.153016	5658.312065
429.530679	5584.436476
429.908282	5665.601573
430.285824	5537.735226
430.663305	5815.580941
431.040726	5549.972627
431.418086	5547.862904
431.795385	5653.782588
432.172624	5664.774824
432.549802	5662.685266
432.926920	5675.746895
433.303977	5677.975085
433.680974	5713.595878
434.057910	5731.746553
434.434786	5742.927832
434.811601	5711.740734
435.188355	5944.654644
435.565050	5824.092929
435.941683	5800.497809
436.318257	6018.873032
436.694770	6000.676987
437.071222	6031.770824
437.447614	5965.368745
437.823946	5881.884717
438.200218	6033.424322
438.576429	5899.654784
438.952580	5995.502243
439.328670	6040.905395
439.704700	5946.408966
440.080670	5934.020330
440.456580	6206.416558
440.832429	6089.950780
441.208218	5936.094765
441.583947	6088.128403
441.959616	6095.576708
442.335224	6020.587024
442.710773	6164.320402
443.086261	6187.567683
443.461689	5981.465150
443.837057	6130.842100
444.212365	6286.165091
444.587612	6174.886661
444.962800	6333.592266
445.337927	6314.650131
445.712995	5922.899545
446.088002	6501.215673
446.462949	6328.583880
446.837837	6260.087202
447.212664	6435.027843
447.587431	6578.620070
447.962139	7121.877493
448.336786	8045.953761
448.711374	7787.715614
449.085901	6862.285797
449.460369	6779.749505
449.834776	6717.950000
450.209124	7105.587005
450.583412	7262.293792
450.957640	7403.937613
451.331808	7175.749784
451.705917	6717.128292
452.079965	6647.033568
452.453954	6855.548294
452.827883	6736.874492
453.201752	6821.709549
453.575562	6626.160671
453.949311	6829.634243
454.323001	6719.278344
454.696632	6793.000178
455.070202	6927.820797
455.443713	7085.999601
455.817164	7188.997936
456.190556	7273.583457
456.563888	7342.128025
456.937160	7384.796352
457.310373	7041.027468
457.683526	7066.681900
458.056619	6958.120652
458.429653	6946.336955
458.802628	6883.942593
459.175542	6988.115517
459.548398	7349.795620
459.921194	7506.419229
460.293930	7513.552462
460.666607	8038.747431
461.039224	8352.309721
461.411782	8482.724371
461.784280	8498.392277
462.156719	8387.262561
462.529099	8266.468953
462.901419	7855.083073
463.273680	7747.164572
463.645882	7755.782425
464.018024	7621.801158
464.390106	7793.961603
464.762130	8177.893360
465.134094	8651.169486
465.505999	9673.074385
465.877845	10896.673329
466.249631	11544.375898
466.621358	11159.902218
466.993026	10532.031547
467.364634	10280.934195
467.736184	9909.340663
468.107674	9578.202390
468.479105	9612.081464
468.850477	9374.038180
469.221790	9143.367583
469.593043	8819.760794
469.964238	8687.201133
470.335373	8691.511319
470.706449	8745.156758
471.077467	8727.021207
471.448425	10038.406804
471.819324	11111.058478
472.190164	11137.267437
472.560945	9896.198375
472.931667	9101.142878
473.302330	8961.351682
473.672934	8607.918906
474.043479	8969.800656
474.413965	8906.859329
474.784393	8794.544942
475.154761	8944.680586
475.525070	9034.224081
475.895321	8861.680509
476.265513	9038.761120
476.635645	9208.259836
477.005719	9210.064569
477.375734	9323.840890
477.745691	9554.264471
478.115588	9696.442653
478.485427	9931.746071
478.855207	10472.145160
479.224928	11284.607761
479.594591	11920.882035
479.964194	11731.069990
480.333739	11676.769201
480.703226	11584.029614
481.072653	11673.757112
481.442022	11915.762743
481.811333	12108.934717
482.180584	11913.153946
482.549777	11616.882814
482.918912	11446.063316
483.287988	11457.973042
483.657005	11492.641057
484.025964	11163.310038
484.394864	11295.035388
484.763706	11256.745304
485.132489	11020.431135
485.501213	10983.885290
485.869879	11058.753987
486.238487	10897.358926
486.607036	11013.491987
486.975527	10778.387695
487.343959	10973.185441
487.712333	11022.031701
488.080648	10955.861516
488.448905	11000.332055
488.817104	10937.037848
489.185244	11202.694052
489.553326	11358.160716
489.921350	11902.980898
490.289315	12960.294861
490.657222	13306.029795
491.025070	13218.918657
491.392861	13082.510075
491.760593	12709.396634
492.128267	12368.743184
492.495883	12027.716688
492.863440	11684.199862
493.230939	11355.675427
493.598380	11291.710747
493.965763	11151.425518
494.333088	11056.034284
494.700354	10975.685853
495.067563	11037.034175
495.434713	10866.905315
495.801805	10998.194605
496.168839	10916.583366
496.535815	10845.906389
496.902733	10855.751762
497.269593	10787.895311
497.636395	10886.439786
498.003139	10869.491427
498.369825	10734.887578
498.736453	10894.581250
499.103023	10823.967287
499.469535	10852.129693
499.835989	10845.414876
500.202385	10804.664709
500.568723	10655.217183
500.935003	10880.103056
501.301226	10683.795484
501.667390	10944.448344
502.033497	11041.356965
502.399546	10903.118444
502.765537	10811.591255
503.131470	10880.622295
503.497345	11053.788450
503.863163	10669.869297
504.228923	10977.069650
504.594625	11045.321832
504.960269	10787.227358
505.325856	11013.285299
505.691385	10807.258383
506.056856	10958.482916
506.422270	10978.312295
506.787625	10870.930677
507.152924	10989.632206
507.518164	10968.678650
507.883347	10890.883563
508.248472	10814.827675
508.613540	11048.001205
508.978550	10930.718761
509.343503	10904.552652
509.708398	11020.985662
510.073236	11138.346244
510.438016	11135.986984
510.802738	11091.014851
511.167403	11136.002108
511.532010	11031.567044
511.896561	11269.544793
512.261053	11344.637821
512.625488	11208.498941
512.989866	11192.052177
513.354186	11176.913592
513.718449	11080.617471
514.082655	11274.558221
514.446803	11168.507467
514.810894	11291.446086
515.174927	11157.308544
515.538904	11183.809890
515.902822	11344.678150
516.266684	11214.129910
516.630488	11165.354226
516.994235	11219.375230
517.357925	11286.788060
517.721558	11370.347706
518.085133	11390.131714
518.448651	11397.343085
518.812112	11282.704726
519.175516	11286.714963
519.538863	11420.262691
519.902152	11331.780358
520.265385	11491.428659
520.628560	11401.156718
520.991678	11377.163346
521.354739	11445.420569
521.717743	11376.167718
522.080690	11353.235509
522.443580	11487.854481
522.806413	11445.065167
523.169189	11478.861063
523.531908	11528.481140
523.894569	11359.355470
524.257174	11358.937054
524.619722	11477.144550
524.982213	11422.548854
525.344647	11468.745988
525.707025	11423.965418
526.069345	11520.778257
526.431608	11438.854466
526.793815	11547.960159
527.155964	11335.117602
527.518057	11386.814635
527.880093	11343.987512
528.242072	11411.244066
528.603995	11317.602113
528.965860	11235.333003
529.327669	11284.161619
529.689421	11239.071018
530.051117	11207.848632
530.412755	11317.226547
530.774337	11198.504853
531.135862	11189.864316
531.497331	11205.391070
531.858743	11056.873636
532.220098	11221.568132
532.581396	11091.841600
532.942638	11070.885523
533.303824	11038.259176
533.664953	11051.640918
534.026025	10959.360077
534.387040	11068.077601
534.747999	11066.015769
535.108902	11126.859975
535.469748	10883.054652
535.830537	10988.659263
536.191270	10962.220932
536.551947	10990.640436
536.912567	10980.996709
537.273131	10911.385936
537.633638	10892.204346
537.994089	10876.233970
538.354483	10834.992291
538.714821	10972.630914
539.075103	10980.043931
539.435328	10944.196286
539.795497	10777.603795
540.155609	10931.666498
540.515665	11016.874601
540.875665	10750.600855
541.235609	10826.485344
541.595496	10819.760444
541.955328	10979.769188
542.315102	10857.354849
542.674821	10816.478653
543.034483	10806.461881
543.394090	10814.880608
543.753640	10742.663558
544.113134	10965.417023
544.472571	10813.756430
544.831953	10955.112905
545.191278	10765.636096
545.550548	10788.192739
545.909761	10928.125088
546.268918	10908.310832
546.628019	10984.704478
546.987064	10851.716319
547.346053	10776.905596
547.704986	10875.971830
548.063863	10861.768379
548.422684	10849.294044
548.781449	10770.029462
549.140158	10873.302539
549.498811	10745.597510
549.857408	10604.684657
550.215949	10831.763432
550.574434	10686.096771
550.932864	10780.378951
551.291237	10842.879176
551.649555	10789.533686
552.007817	10801.864348
552.366022	10761.522515
552.724173	10755.029508
553.082267	10745.325287
553.440305	10878.628518
553.798288	10677.388178
554.156215	10829.164717
554.514086	10811.709722
554.871902	10656.641309
555.229661	10693.812257
555.587365	10671.900882
555.945014	10565.623276
556.302606	10691.392503
556.660143	10589.006668
557.017625	10740.011911
557.375050	10639.597168
557.732421	10772.260172
558.089735	10686.288335
558.446994	10686.545433
558.804197	10721.944416
559.161345	10729.773328
559.518437	10575.345141
559.875474	10663.860241
560.232455	10690.222955
560.589381	10644.741665
560.946251	10639.947528
561.303065	10746.434341
561.659825	10686.774806
562.016528	10611.931315
562.373177	10487.457665
562.729770	10609.816551
563.086307	10516.403971
563.442789	10617.867274
563.799216	10494.220373
564.155587	10533.823678
564.511904	10489.761472
564.868164	10483.891049
565.224370	10500.433595
565.580520	10418.918137
565.936615	10427.107492
566.292654	10297.403645
566.648638	10434.281054
567.004567	10390.080217
567.360441	10371.934584
567.716260	10278.166602
568.072023	10372.993226
568.427732	10321.822994
568.783385	10237.159336
569.138982	10306.969234
569.494525	10322.427932
569.850013	10200.525271
570.205445	10278.058217
570.560823	10177.000726
570.916145	10094.812274
571.271412	10165.068315
571.626625	10110.293658
571.981782	10088.031923
572.336884	10062.435464
572.691931	10065.041740
573.046923	10005.493111
573.401860	9965.544487
573.756743	9902.605681
574.111570	9945.337022
574.466342	9930.142984
574.821059	9960.568868
575.175722	9851.541313
575.530330	9862.241162
575.884882	9848.259522
576.239380	9778.762175
576.593823	9751.156817
576.948211	9770.582903
577.302544	9655.947065
577.656823	9676.903141
578.011047	9666.624228
578.365216	9640.506010
578.719330	9563.920801
579.073389	9578.063758
579.427394	9522.505202
579.781344	9503.920988
580.135239	9453.206980
580.489080	9458.134708
580.842866	9358.478658
581.196597	9366.322694
581.550273	9404.247294
581.903895	9375.487512
582.257463	9438.791801
582.610975	9319.077000
582.964434	9347.957770
583.317837	9266.495245
583.671186	9244.535979
584.024481	9238.726049
584.377721	9160.565479
584.730906	9134.538002
585.084037	9172.412191
585.437113	9103.973486
585.790135	9129.015418
586.143103	9026.695118
586.496016	8993.146239
586.848874	9061.204337
587.201679	9048.551041
587.554428	8929.577289
587.907124	8978.035381
588.259765	8949.545300
588.612352	8948.607645
588.964884	8829.197834
589.317362	8837.029266
589.669786	8839.179318
590.022155	8898.370026
590.374470	8908.792612
590.726731	8846.267181
591.078937	8697.578348
591.431090	8815.806009
591.783188	8683.952109
592.135232	8673.501797
592.487222	8673.572373
592.839157	8732.359789
593.191038	8663.711877
593.542866	8600.155529
593.894639	8499.403029
594.246358	8556.761277
594.598022	8573.255933
594.949633	8465.874314
595.301190	8439.128473
595.652692	8469.919840
596.004141	8582.360256
596.355535	8356.120833
596.706876	8339.663987
597.058162	8272.067155
597.409395	8349.617745
597.760573	8412.286849
598.111698	8323.567583
598.462768	8306.122670
598.813785	8268.326619
599.164748	8242.430211
599.515657	8226.321204
599.866511	8139.890622
600.217312	8269.304603
600.568060	8129.488201
600.918753	8230.202893
601.269392	8200.674334
601.619978	8114.407589
601.970510	8174.782968
602.320988	8171.937237
602.671412	8226.658962
603.021783	8164.257039
603.372100	8137.019684
603.722363	8140.263667
604.072572	8111.362732
604.422728	8124.058878
604.772830	8053.167652
605.122878	8062.090494
605.472872	8059.353148
605.822813	8087.437416
606.172701	8028.627315
606.522534	8109.547917
606.872314	8106.820652
607.222041	8074.668173
607.571714	8132.865774
607.921333	8086.953465
608.270899	8091.498065
608.620411	8187.317797
608.969870	8088.485976
609.319276	8083.124709
609.668627	8103.707740
610.017926	8130.687995
610.367171	8186.228908
610.716362	8155.286305
611.065500	8147.903536
611.414585	8172.799274
611.763616	8164.872059
612.112594	8142.370869
612.461518	8162.893407
612.810389	8219.389618
613.159207	8161.247470
613.507971	8105.061290
613.856682	8222.469763
614.205340	8181.444853
614.553945	8259.633149
614.902496	8153.758836
615.250994	8207.530303
615.599439	8194.264507
615.947830	8206.617854
616.296169	8175.771034
616.644454	8188.956172
616.992686	8188.310904
617.340864	8250.944720
617.688990	8148.271540
618.037063	8240.413750
618.385082	8186.266716
618.733048	8275.845500
619.080961	8210.678504
619.428821	8233.451916
619.776628	8231.808500
620.124382	8187.327879
620.472083	8172.776589
620.819731	8196.475053
621.167326	8089.020338
621.514868	8096.501410
621.862357	7985.018814
622.209793	8005.412802
622.557176	7932.719363
622.904506	7909.537617
623.251783	7845.381373
623.599007	7795.713404
623.946179	7805.354611
624.293297	7759.812827
624.640363	7678.541866
624.987376	7660.678537
625.334336	7603.680731
625.681243	7556.268679
626.028097	7546.582102
626.374899	7516.347782
626.721647	7513.136567
627.068343	7442.678880
627.414987	7411.779127
627.761577	7368.417643
628.108115	7408.686380
628.454600	7301.818959
628.801032	7353.430292
629.147412	7311.893705
629.493739	7300.719988
629.840014	7233.718012
630.186236	7287.829757
630.532405	7175.754825
630.878521	7220.782411
631.224585	7181.595002
631.570597	7109.819053
631.916556	7141.157386
632.262462	7137.134545
632.608316	7096.981755
632.954117	7071.234062
633.299866	7057.842237
633.645562	7052.256638
633.991206	6972.979453
634.336797	6917.078098
634.682336	6868.592280
635.027823	6842.660585
635.373257	6831.562484
635.718639	6759.784015
636.063968	6775.686335
636.409245	6671.226066
636.754470	6666.121898
637.099642	6629.777699
637.444762	6563.668007
637.789829	6577.165697
638.134845	6524.972110
638.479808	6504.615931
638.824719	6512.109606
639.169577	6438.302073
639.514383	6459.729497
639.859137	6384.654114
640.203839	6396.858747
640.548489	6381.422734
640.893086	6360.252408
641.237632	6332.883984
641.582125	6350.021387
641.926566	6319.887890
642.270955	6333.292318
642.615292	6322.358055
642.959576	6342.247928
643.303809	6337.572257
643.647990	6340.604511
643.992118	6325.470967
644.336195	6274.600684
644.680219	6298.057173
645.024192	6292.988293
645.368112	6384.696963
645.711981	6406.131950
646.055797	6481.396377
646.399562	6442.362722
646.743274	6567.844603
647.086935	6622.210927
647.430544	6609.335820
647.774101	6636.840355
648.117606	6641.919318
648.461059	6631.680734
648.804460	6589.188849
649.147810	6502.488564
649.491108	6473.950592
649.834354	6449.148115
650.177548	6361.903386
650.520690	6276.551611
650.863781	6254.126038
651.206820	6278.205109
651.549807	6196.490526
651.892742	6137.380476
652.235626	6140.896681
652.578458	6131.754549
652.921238	6035.397934
653.263967	6075.197844
653.606644	6011.686867
653.949269	6014.293143
654.291843	5957.285255
654.634365	6002.769066
654.976836	5960.262057
655.319255	5956.655111
655.661622	5930.350370
656.003938	5926.947591
656.346203	5887.324122
656.688416	5922.486170
657.030577	5877.272061
657.372687	5840.053223
657.714746	5830.379248
658.056753	5871.459611
658.398708	5813.372916
658.740612	5804.157687
659.082465	5850.044789
659.424266	5847.398184
659.766016	5840.012893
660.107715	5818.285520
660.449362	5831.037119
660.790958	5824.808773
661.132503	5810.784283
661.473996	5845.890879
661.815438	5834.959137
662.156829	5828.133414
662.498168	5822.729297
662.839456	5793.309123
663.180693	5829.381100
663.521879	5832.400751
663.863013	5824.271890
664.204097	5836.567265
664.545129	5879.054109
664.886110	5874.265013
665.227040	5904.027985
665.567918	5868.926431
665.908746	5897.068673
666.249522	5899.705196
666.590248	5879.774994
666.930922	5909.469911
667.271545	5920.414256
667.612118	5927.111429
667.952639	5897.965998
668.293109	5911.695580
668.633528	5871.870465
668.973896	5874.882554
669.314213	5862.526686
669.654480	5847.947669
669.994695	5841.575651
670.334859	5829.640719
670.674973	5816.742927
671.015035	5825.736346
671.355047	5820.062527
671.695008	5806.958048
672.034918	5778.692298
672.374777	5784.905520
672.714585	5766.525473
673.054342	5768.350371
673.394049	5760.100523
673.733705	5790.120594
674.073310	5780.378564
674.412864	5739.867852
674.752368	5727.149020
675.091820	5729.316717
675.431223	5664.270708
675.770574	5665.871275
676.109875	5618.527278
676.449125	5621.007526
676.788324	5582.288944
677.127473	5532.063928
677.466571	5520.008009
677.805619	5509.489641
678.144616	5495.215614
678.483562	5477.501000
678.822458	5447.188542
679.161303	5439.425165
679.500098	5426.993679
679.838842	5404.615997
680.177535	5411.958438
680.516179	5427.379327
680.854771	5432.632210
681.193314	5510.034086
681.531805	5613.229026
681.870247	5753.869656
682.208638	5850.306929
682.546978	5859.534762
682.885268	5841.270661
683.223508	5752.932002
683.561697	5698.868147
683.899836	5667.118960
684.237925	5621.919975
684.575963	5585.061579
684.913951	5548.596392
685.251889	5599.960709
685.589776	5570.855607
685.927614	5540.893509
686.265401	5603.804589
686.603137	5584.857412
686.940824	5654.087578
687.278460	5680.785528
687.616046	5680.772926
687.953582	5741.649899
688.291068	5722.347321
688.628504	5777.540394
688.965889	5739.784673
689.303224	5683.729562
689.640510	5634.643847
689.977745	5557.519235
690.314930	5469.881296
690.652065	5415.575466
690.989150	5325.994162
691.326185	5251.566567
691.663170	5197.880799
692.000105	5122.601248
692.336990	5050.439652
692.673825	5023.303120
693.010610	4960.197957
693.347345	4895.046084
693.684030	4873.205285
694.020665	4834.348071
694.357251	4750.037294
694.693786	4761.896608
695.030272	4725.867482
695.366707	4689.979507
695.703093	4659.354498
696.039429	4678.833516
696.375716	4655.258560
696.711952	4631.638234
697.048139	4621.523159
697.384276	4601.930714
697.720363	4606.921457
698.056400	4610.745172
698.392388	4559.562337
698.728326	4546.488104
699.064214	4527.099827
699.400053	4513.710522
699.735842	4475.188545
700.071581	4461.816884
700.407270	4432.079118
700.742910	4414.987086
701.078501	4361.482799
701.414042	4357.071790
701.749533	4333.728727
702.084974	4267.987040
702.420366	4320.576357
702.755709	4265.716000
703.091002	4210.139799
703.426246	4250.786623
703.761440	4214.412177
704.096584	4182.983103
704.431679	4196.460628
704.766725	4177.883976
705.101721	4167.552132
705.436668	4190.806974
705.771565	4148.892301
706.106413	4169.135054
706.441212	4188.863609
706.775961	4193.849311
707.110661	4179.920603
707.445311	4209.328173
707.779913	4216.562229
708.114465	4233.041761
708.448967	4254.743928
708.783421	4302.982730
709.117825	4336.743337
709.452180	4337.612936
709.786485	4381.022312
710.120742	4454.149289
710.454949	4441.579172
710.789107	4497.682173
711.123216	4559.839600
711.457275	4553.830545
711.791286	4609.976396
712.125247	4616.330770
712.459159	4543.717990
712.793023	4615.945122
713.126837	4557.601328
713.460602	4548.527251
713.794318	4487.975432
714.127985	4489.475175
714.461602	4406.747320
714.795171	4386.330647
715.128691	4326.124146
715.462162	4267.939149
715.795584	4220.267477
716.128957	4199.855845
716.462281	4165.354188
716.795556	4137.695898
717.128782	4097.109568
717.461960	4035.753685
717.795088	4041.853481
718.128167	4006.363758
718.461198	3957.041109
718.794180	3954.724698
719.127113	3924.959206
719.459997	3903.935073
719.792833	3869.166235
720.125619	3862.380842
720.458357	3830.394721
720.791046	3827.692663
721.123686	3804.674754
721.456278	3769.285854
721.788821	3778.024694
722.121315	3755.614245
722.453761	3731.267993
722.786158	3738.076071
723.118506	3758.263371
723.450805	3722.551838
723.783056	3739.495156
724.115259	3739.157398
724.447412	3744.248964
724.779518	3743.891042
725.111574	3743.712081
725.443582	3761.638424
725.775542	3752.907145
726.107453	3789.715130
726.439315	3786.677835
726.771129	3805.352789
727.102895	3836.766740
727.434612	3865.176162
727.766281	3880.539078
728.097901	3883.215931
728.429473	3883.220972
728.760996	3886.648957
729.092471	3882.684089
729.423897	3864.377139
729.755276	3862.282540
730.086606	3866.683467
730.417887	3904.204775
730.749120	3958.661840
731.080305	3995.525277
731.411442	4023.022251
731.742530	4003.563397
732.073570	4002.227491
732.404562	4036.862739
732.735506	4031.095659
733.066401	3997.456039
733.397249	3947.483081
733.728048	3882.802557
734.058798	3800.467911
734.389501	3744.112853
734.720156	3699.130637
735.050762	3659.855007
735.381320	3641.689209
735.711831	3610.587811
736.042293	3580.348449
736.372707	3596.260851
736.703073	3570.876121
737.033391	3567.848908
737.363661	3580.045980
737.693883	3595.136674
738.024056	3603.257973
738.354182	3602.983230
738.684260	3652.147083
739.014290	3667.535205
739.344272	3667.830112
739.674207	3697.320863
740.004093	3704.413766
740.333931	3696.710883
740.663722	3690.744677
740.993464	3684.405426
741.323159	3668.956810
741.652806	3639.229126
741.982405	3618.779686
742.311956	3589.906477
742.641460	3576.086154
742.970915	3556.579409
743.300323	3523.799306
743.629683	3498.689319
743.958996	3486.847648
744.288260	3464.328814
744.617477	3434.162549
744.946647	3424.216353
745.275768	3399.577713
745.604842	3391.975653
745.933869	3361.885006
746.262847	3352.974767
746.591778	3374.223230
746.920662	3354.529963
747.249498	3336.475070
747.578286	3360.176055
747.907027	3375.816235
748.235720	3382.135321
748.564365	3396.636200
748.892963	3384.615569
749.221514	3377.774723
749.550017	3360.589430
749.878473	3360.768391
750.206881	3333.576407
750.535242	3325.006445
750.863555	3326.596929
751.191821	3320.570230
751.520039	3312.325423
751.848210	3296.229018
752.176334	3314.099909
752.504411	3313.099240
752.832440	3284.329375
753.160421	3278.698406
753.488356	3278.592542
753.816243	3279.318468
754.144082	3253.928697
754.471875	3247.733118
754.799620	3253.099427
755.127318	3248.406112
755.454969	3246.203128
755.782572	3245.325967
756.110129	3234.527816
756.437638	3227.195458
756.765100	3230.560428
757.092515	3234.502610
757.419882	3234.578227
757.747203	3225.322669
758.074477	3225.725961
758.401703	3235.709967
758.728882	3246.556009
759.056014	3249.391658
759.383099	3257.253337
759.710138	3258.785848
760.037129	3273.803446
760.364073	3284.697379
760.690970	3271.134155
761.017820	3260.225098
761.344623	3272.588527
761.671379	3302.457364
761.998088	3336.775019
762.324751	3430.532919
762.651366	3623.120119
762.977935	3993.985205
763.304456	4315.620902
763.630931	4364.547821
763.957359	4102.475877
764.283740	3846.632278
764.610074	3687.566230
764.936362	3533.153167
765.262602	3420.594284
765.588796	3335.713856
765.914943	3271.149278
766.241044	3213.148282
766.567097	3183.244158
766.893104	3151.109323
767.219064	3125.719551
767.544978	3105.335646
767.870845	3067.262331
768.196665	3055.370249
768.522438	3052.332954
768.848165	3045.928168
769.173846	3027.167514
769.499479	3015.209897
769.825066	3001.573576
770.150607	2986.455156
770.476101	2990.808192
770.801548	2991.647544
771.126949	2960.709983
771.452303	2949.064918
771.777611	2947.552572
772.102872	2949.856379
772.428087	2932.913061
772.753256	2924.645568
773.078378	2917.683735
773.403453	2898.318143
773.728482	2889.947307
774.053465	2896.878893
774.378401	2888.137532
774.703291	2871.952908
775.028135	2868.237577
775.352932	2866.546270
775.677683	2857.336082
776.002388	2856.433716
776.327046	2855.407841
776.651658	2847.773013
776.976224	2839.477795
777.300743	2837.272290
777.625216	2833.216682
777.949643	2828.546053
778.274024	2833.803976
778.598359	2821.143118
778.922647	2820.500371
779.246889	2820.112202
779.571086	2812.510142
779.895236	2810.745738
780.219339	2813.992242
780.543397	2821.158242
780.867409	2822.083293
781.191374	2818.131029
781.515294	2816.716985
781.839167	2818.677994
782.162995	2809.845892
782.486776	2817.934424
782.810511	2814.594659
783.134201	2806.286838
783.457844	2804.668627
783.781441	2799.539253
784.104993	2788.773869
784.428498	2788.219342
784.751958	2796.138995
785.075372	2792.826957
785.398739	2781.396141
785.722061	2789.240176
786.045337	2792.708490
786.368568	2791.680095
786.691752	2782.719444
787.014891	2812.111891
787.337983	2832.896568
787.661030	2860.635518
787.984031	2906.250398
788.306987	2933.906168
788.629897	2928.779315
788.952760	2917.202305
789.275579	2894.431413
789.598351	2859.828933
789.921078	2831.414469
790.243759	2820.344095
790.566395	2806.700212
790.888984	2792.549694
791.211529	2782.606018
791.534027	2775.084616
791.856480	2766.139089
792.178888	2760.702204
792.501249	2751.963364
792.823566	2752.764907
793.145836	2750.123343
793.468062	2746.420615
793.790241	2745.752662
794.112375	2747.277612
794.434464	2754.027717
794.756507	2761.876793
795.078505	2761.831423
795.400457	2773.703340
795.722364	2795.080353
796.044226	2814.851758
796.366042	2818.960299
796.687812	2808.504946
797.009538	2815.441573
797.331218	2806.790953
797.652852	2797.588327
797.974442	2788.088272
798.295986	2784.587191
798.617484	2777.269956
798.938938	2766.353338
799.260346	2759.971237
799.581709	2756.364291
799.903026	2753.296749
800.224299	2746.392889
800.545526	2740.908114
800.866708	2732.219685
801.187845	2727.745661
801.508936	2728.277503
801.829983	2728.758933
802.150984	2721.361040
802.471940	2715.387272
802.792851	2715.682180
803.113717	2715.324258
803.434538	2715.374669
803.755314	2709.529452
804.076045	2706.252702
804.396731	2707.633978
804.717372	2708.518700
805.037967	2707.956612
805.358518	2710.756972
805.679024	2714.931048
805.999485	2712.234031
806.319901	2716.249310
806.640272	2713.280070
806.960598	2714.621017
807.280879	2719.936914
807.601115	2722.994373
807.921306	2717.817108
808.241453	2714.610935
808.561554	2718.212839
808.881611	2716.181254
809.201623	2714.673949
809.521590	2709.942826
809.841513	2710.255378
810.161390	2712.092878
810.481223	2704.692464
810.801011	2704.077444
811.120755	2700.997299
811.440453	2698.461598
811.760107	2697.604602
812.079716	2694.330373
812.399281	2689.120340
812.718801	2684.081707
813.038276	2683.595236
813.357707	2685.571368
813.677093	2689.624456
813.996434	2682.420647
814.315731	2681.820749
814.634983	2677.991993
814.954191	2679.469051
815.273354	2688.626307
815.592473	2691.706452
815.911547	2692.351720
816.230577	2696.692153
816.549562	2703.744727
816.868502	2702.741538
817.187399	2705.178936
817.506250	2713.045656
817.825058	2709.219421
818.143821	2715.372149
818.462539	2724.657954
818.781213	2736.257649
819.099843	2756.339086
819.418429	2792.249745
819.736970	2830.549911
820.055466	2872.119266
820.373919	2925.532812
820.692327	2992.300374
821.010691	3097.930191
821.329011	3391.340468
821.647286	4022.268598
821.965517	4965.508812
822.283704	5471.255010
822.601847	5438.389208
822.919945	4957.538748
823.237999	4534.316238
823.556010	4121.788537
823.873976	3773.666617
824.191897	3525.795603
824.509775	3344.624095
824.827609	3194.972402
825.145398	3124.814664
825.463144	3118.757718
825.780845	3164.501148
826.098502	3239.206007
826.416116	3411.958787
826.733685	3619.293883
827.051210	3663.260307
827.368692	3569.257911
827.686129	3379.881925
828.003522	3190.866382
828.320872	3047.493447
828.638177	2942.899587
828.955439	2868.872763
829.272656	2822.602532
829.589830	2784.264557
829.906960	2757.319590
830.224046	2733.822772
830.541088	2722.039075
830.858086	2711.538351
831.175041	2700.951928
831.491952	2699.033769
831.808819	2701.559387
832.125642	2715.374669
832.442421	2738.710171
832.759157	2790.881072
833.075849	2892.036865
833.392497	3044.128476
833.709101	3150.751401
834.025662	3123.319962
834.342179	3030.353523
834.658653	2928.035744
834.975083	2847.679752
835.291469	2798.001702
835.607811	2748.860534
835.924110	2718.900957
836.240366	2695.177287
836.556578	2673.187773
836.872746	2661.217554
837.188871	2651.147849
837.504952	2642.141827
837.820990	2636.319295
838.136984	2630.955507
838.452935	2625.813530
838.768842	2627.729169
839.084706	2633.891979
839.400526	2678.488547
839.716303	2753.450504
840.032037	2799.267031
840.347727	2786.326389
840.663373	2746.297107
840.978977	2701.267000
841.294537	2666.178049
841.610054	2645.957981
841.925527	2631.562966
842.240957	2620.900926
842.556344	2610.619492
842.871687	2604.751589
843.186987	2599.546598
843.502244	2595.201123
843.817458	2591.649631
844.132629	2590.044023
844.447756	2585.328024
844.762840	2575.974163
845.077881	2579.863413
845.392879	2579.578588
845.707833	2576.417784
846.022745	2571.933678
846.337613	2575.011302
846.652438	2575.399471
846.967221	2575.676735
847.281960	2574.882753
847.596656	2573.967783
847.911309	2573.292269
848.225919	2571.974007
848.540485	2569.677762
848.855009	2567.010991
849.169490	2572.039542
849.483928	2569.224058
849.798323	2571.550550
850.112675	2567.671382
850.426984	2569.186249
850.741251	2570.181877
851.055474	2569.067782
851.369654	2570.118862
851.683792	2570.446537
851.997887	2568.188101
852.311938	2566.222051
852.625947	2566.632905
852.939914	2568.467885
853.253837	2571.159861
853.567718	2567.948646
853.881555	2567.225240
854.195350	2568.409911
854.509103	2568.195662
854.822812	2565.856567
855.136479	2569.476115
855.450103	2568.624160
855.763685	2567.883111
856.077224	2565.816238
856.390720	2567.399160
856.704173	2567.744479
857.017584	2569.418142
857.330953	2568.697257
857.644278	2571.600962
857.957561	2574.829821
858.270802	2568.442679
858.584000	2571.389233
858.897155	2570.703636
859.210268	2572.657083
859.523339	2568.364541
859.836367	2566.837071
860.149352	2566.958059
860.462295	2569.526527
860.775195	2564.326577
861.088054	2563.494786
861.400869	2564.560990
861.713642	2561.483366
862.026373	2561.937070
862.339062	2563.507389
862.651708	2566.748851
862.964312	2568.815724
863.276873	2564.939077
863.589392	2570.517114
863.901869	2571.177505
864.214303	2572.110118
864.526696	2572.394943
864.839045	2574.076168
865.151353	2576.586663
865.463619	2575.323854
865.775842	2575.961560
866.088023	2575.097002
866.400162	2575.626323
866.712258	2577.763772
867.024313	2574.373596
867.336325	2572.800756
867.648296	2573.877043
867.960224	2576.140521
868.272110	2572.954512
868.583954	2572.919223
868.895755	2573.594738
869.207515	2575.570870
869.519233	2575.724626
869.830909	2573.748493
870.142542	2576.231262
870.454134	2573.960222
870.765684	2577.080696
871.077191	2575.492732
871.388657	2578.734194
871.700081	2577.173957
872.011463	2583.077148
872.322803	2576.841241
872.634101	2579.563464
872.945357	2583.135122
873.256571	2587.432705
873.567744	2586.406831
873.878874	2585.706110
874.189963	2586.003538
874.501010	2589.439085
874.812015	2589.481934
875.122979	2589.144177
875.433900	2584.483630
875.744780	2584.977663
876.055618	2584.090420
876.366415	2587.601584
876.677169	2586.563106
876.987882	2583.919021
877.298554	2579.064390
877.609183	2587.634352
877.919771	2587.273909
878.230317	2590.689291
878.540822	2594.971751
878.851285	2601.101794
879.161707	2611.773917
879.472087	2624.903602
879.782425	2648.014772
880.092722	2693.886751
880.402977	2784.377983
880.713191	2935.791560
881.023363	3129.782721
881.333494	3263.111158
881.643583	3330.922239
881.953631	3296.037455
882.263637	3188.499561
882.573602	3070.196283
882.883526	2987.783500
883.193408	2918.951585
883.503248	2861.144674
883.813048	2809.177940
884.122806	2759.832605
884.432522	2721.308107
884.742197	2691.857687
885.051831	2673.515448
885.361424	2653.544917
885.670975	2640.566467
885.980485	2628.939046
886.289954	2623.076184
886.599382	2617.573764
886.908768	2613.145111
887.218113	2604.872577
887.527417	2599.392843
887.836680	2591.034610
888.145901	2591.652151
888.455082	2587.921697
888.764221	2582.867941
889.073319	2581.123701
889.382376	2579.868454
889.691392	2581.431212
890.000366	2577.670511
890.309300	2581.020358
890.618193	2582.081521
890.927044	2581.489185
891.235855	2583.495564
891.544625	2580.680080
891.853353	2581.461459
892.162041	2589.383632
892.470687	2593.368664
892.779293	2598.243460
893.087858	2603.090529
893.396381	2612.865327
893.704864	2635.409367
894.013306	2659.012049
894.321707	2703.069213
894.630068	2728.257338
894.938387	2732.948132
895.246665	2726.898747
895.554903	2702.492001
895.863100	2681.170441
896.171256	2657.139260
896.479371	2638.933133
896.787446	2624.611215
897.095480	2612.010851
897.403473	2608.333329
897.711425	2602.956939
898.019336	2595.377564
898.327207	2590.326328
898.635038	2590.671647
898.942827	2586.288363
899.250576	2587.099989
899.558284	2581.504308
899.865952	2577.244533
900.173579	2577.720922
900.481165	2575.507856
900.788711	2573.756055
901.096216	2570.139027
901.403681	2570.539799
901.711105	2569.150961
902.018489	2569.057700
902.325832	2571.467371
902.633135	2571.225396
902.940397	2580.062538
903.247619	2590.976637
903.554800	2623.413941
903.861941	2683.108764
904.169041	2742.286869
904.476101	2771.260901
904.783121	2765.660179
905.090100	2734.452916
905.397039	2700.657021
905.703938	2666.835920
906.010796	2637.259470
906.317614	2618.639968
906.624391	2601.840323
906.931129	2592.970413
907.237826	2582.741912
907.544483	2576.669842
907.851099	2568.709860
908.157675	2566.484191
908.464211	2563.661144
908.770707	2556.311142
909.077163	2557.921791
909.383578	2552.293342
909.689954	2551.998435
909.996289	2551.333003
910.302584	2554.955072
910.608839	2554.085473
910.915054	2554.413148
911.221229	2553.611604
911.527363	2556.991698
911.833458	2552.043805
912.139513	2556.734599
912.445527	2559.285423
912.751502	2555.809547
913.057436	2558.317521
913.363331	2563.265414
913.669186	2566.353121
913.975000	2575.656570
914.280775	2579.477765
914.586510	2589.587799
914.892205	2606.195880
915.197859	2633.496249
915.503475	2667.019922
915.809050	2697.155939
916.114585	2713.537169
916.420081	2716.337530
916.725536	2715.553630
917.030952	2697.496217
917.336328	2674.800943
917.641665	2655.483241
917.946961	2642.403967
918.252218	2624.154991
918.557435	2613.480347
918.862612	2602.483070
919.167750	2596.965527
919.472848	2585.844742
919.777906	2581.549679
920.082925	2576.077506
920.387904	2573.788822
920.692843	2566.660631
920.997743	2567.978893
921.302603	2566.063254
921.607423	2562.237018
921.912204	2561.765671
922.216946	2559.776935
922.521647	2557.208467
922.826310	2558.826678
923.130932	2556.061605
923.435516	2553.760318
923.740059	2554.418189
924.044564	2555.549928
924.349028	2552.472303
924.653454	2543.486447
924.957840	2543.864533
925.262186	2543.252033
925.566493	2545.228165
925.870761	2542.493339
926.174989	2546.332178
926.479178	2546.304452
926.783328	2545.074410
927.087438	2542.382434
927.391509	2545.432332
927.695541	2544.721529
927.999533	2544.535007
928.303486	2540.653318
928.607400	2541.147351
928.911275	2541.850592
929.215110	2541.258257
929.518906	2542.153062
929.822663	2543.337733
930.126381	2539.541744
930.430060	2542.165664
930.733699	2540.718853
931.037299	2539.367824
931.340861	2541.233051
931.644383	2542.369831
931.947866	2543.443597
932.251309	2541.686755
932.554714	2541.517876
932.858080	2542.914276
933.161407	2539.357742
933.464694	2540.282793
933.767943	2542.563916
934.071153	2541.306148
934.374323	2542.571477
934.677455	2537.888245
934.980548	2539.869419
935.283602	2542.349667
935.586617	2538.868750
935.889593	2542.904193
936.192530	2539.866898
936.495428	2540.867567
936.798287	2539.423277
937.101108	2542.432846
937.403890	2540.688606
937.706632	2544.504760
938.009336	2542.531148
938.312002	2547.811757
938.614628	2547.363094
938.917216	2547.466438
939.219765	2547.960471
939.522275	2549.402241
939.824747	2547.516849
940.127179	2543.670449
940.429573	2544.903011
940.731929	2547.640358
941.034246	2543.110881
941.336524	2547.584905
941.638763	2543.302445
941.940964	2546.685059
942.243126	2545.392003
942.545250	2542.001827
942.847335	2546.531304
943.149381	2546.299411
943.451389	2543.194060
943.753359	2540.973432
944.055290	2542.568957
944.357182	2543.151210
944.659036	2539.947557
944.960851	2540.761703
945.262628	2540.943185
945.564367	2542.556354
945.866067	2542.770603
946.167729	2541.812784
946.469352	2542.758000
946.770937	2541.981662
947.072484	2542.034594
947.373992	2541.686755
947.675462	2540.328164
947.976893	2539.012423
948.278286	2537.684079
948.579641	2538.962011
948.880958	2540.902855
949.182236	2539.778678
949.483476	2541.167516
949.784678	2541.114584
950.085841	2540.204656
950.386967	2540.234903
950.688054	2538.775488
950.989103	2542.513504
951.290114	2540.194573
951.591087	2544.192208
951.892021	2542.687424
952.192917	2541.233051
952.493776	2542.498381
952.794596	2544.131714
953.095378	2540.187012
953.396122	2542.634492
953.696828	2542.838658
953.997496	2542.523586
954.298126	2543.307486
954.598718	2542.019471
954.899272	2539.824048
955.199788	2540.726415
955.500266	2541.427135
955.800706	2537.512679
956.101108	2532.375744
956.401472	2535.317257
956.701798	2534.135106
957.002087	2533.804911
957.302337	2533.134437
957.602550	2534.712318
957.902724	2536.874973
958.202861	2538.596527
958.502960	2536.146527
958.803022	2539.451003
959.103045	2533.799870
959.403031	2534.805580
959.702979	2533.837678
960.002889	2535.327339
960.302762	2534.830786
960.602596	2536.191897
960.902393	2534.467823
961.202153	2534.225847
961.501875	2535.047555
961.801559	2531.889272
962.101205	2533.983872
962.400814	2534.185518
962.700385	2534.301464
962.999918	2535.554191
963.299414	2530.381967
963.598873	2535.808769
963.898293	2532.837009
964.197677	2533.434386
964.497022	2534.208203
964.796331	2533.056299
965.095601	2533.121834
965.394835	2532.574869
965.694030	2531.196114
965.993189	2534.147709
966.292309	2533.368851
966.591393	2533.109232
966.890439	2532.625281
967.189447	2532.796680
967.488419	2530.802904
967.787353	2536.880015
968.086249	2531.259128
968.385108	2532.138809
968.683930	2529.484642
968.982714	2532.963038
969.281462	2531.710311
969.580172	2530.218130
969.878844	2532.658048
970.177480	2531.445651
970.476078	2532.514375
970.774639	2533.550332
971.073162	2532.960517
971.371649	2529.461957
971.670098	2529.282996
971.968510	2528.728469
972.266885	2525.975999
972.565223	2534.140148
972.863524	2532.688295
973.161788	2533.933460
973.460014	2533.688964
973.758204	2534.689633
974.056356	2531.478418
974.354471	2533.573018
974.652550	2532.000178
974.950591	2536.512010
975.248595	2533.457071
975.546563	2530.649148
975.844493	2530.387008
976.142386	2531.428007
976.440243	2532.985723
976.738062	2531.589324
977.035845	2533.555374
977.333590	2530.886083
977.631299	2530.802904
977.928971	2532.037986
978.226606	2532.083357
978.524204	2531.785929
978.821765	2532.521937
979.119290	2530.046731
979.416777	2532.869777
979.714228	2531.710311
980.011642	2531.770805
980.309020	2534.399767
980.606360	2533.164684
980.903664	2533.643594
981.200931	2535.072761
981.498162	2529.759385
981.795356	2532.242153
982.092513	2535.508821
982.389633	2536.149047
982.686717	2535.198790
982.983764	2535.586959
983.280775	2540.134079
983.577749	2536.365817
983.874686	2538.893956
984.171587	2536.295241
984.468451	2534.263656
984.765279	2532.269879
985.062070	2533.250384
985.358824	2531.057482
985.655543	2534.011598
985.952224	2533.215096
986.248869	2530.966741
986.545478	2525.880217
986.842050	2529.981196
987.138586	2527.354754
987.435086	2528.660413
987.731549	2524.839219
988.027975	2534.044366
988.324366	2526.772501
988.620719	2530.061854
988.917037	2530.082019
989.213318	2530.807945
989.509563	2530.702081
989.805772	2531.075126
990.101944	2529.587986
990.398080	2532.216947
990.694180	2529.265352
990.990244	2530.215609
991.286271	2528.607481
991.582262	2529.812317
991.878217	2530.785260
992.174136	2530.056813
992.470019	2530.603778
992.765865	2528.788963
993.061676	2531.995137
993.357450	2529.976154
993.653188	2529.093953
993.948890	2529.759385
994.244556	2529.272913
994.540186	2529.348531
994.835780	2529.900537
995.131337	2531.944725
995.426859	2529.746782
995.722345	2534.215765
996.017795	2531.455733
996.313208	2531.793490
996.608586	2530.815507
996.903928	2530.298788
997.199234	2532.267359
997.494504	2531.992616
997.789738	2531.032276
998.084936	2531.659900
998.380099	2528.471370
998.675225	2533.772143
998.970316	2529.131761
999.265371	2530.276103
999.560390	2529.598068
999.855373	2528.751154
1000.150320	2528.569673
1000.445232	2529.129241
1000.740108	2528.398273
1001.034948	2528.594878
1001.329752	2528.995650
1001.624521	2531.128058
1001.919254	2522.900895
1002.213951	2524.579599
1002.508613	2526.192768
1002.803239	2527.558921
1003.097829	2523.110103
1003.392384	2530.399611
1003.686903	2526.863242
1003.981386	2530.364323
1004.275834	2529.033459
1004.570246	2530.283665
1004.864623	2532.390867
1005.158964	2528.075639
1005.453270	2527.838705
1005.747540	2528.572193
1006.041775	2529.348531
1006.335974	2527.016997
1006.630138	2528.247039
1006.924266	2529.651000
1007.218359	2526.429703
1007.512416	2530.507996
1007.806438	2529.502286
1008.100425	2528.625125
1008.394376	2527.682429
1008.688292	2527.296781
1008.982172	2525.577748
1009.276017	2526.177645
1009.569827	2529.996319
1009.863602	2528.403314
1010.157341	2527.054806
1010.451045	2529.177132
1010.744714	2526.928777
1011.038347	2527.939528
1011.331945	2526.354085
1011.625508	2528.894827
1011.919036	2528.501617
1012.212528	2527.672347
1012.505986	2526.553211
1012.799408	2528.622605
1013.092795	2527.319466
1013.386147	2528.844415
1013.679464	2529.386339
1013.972745	2529.431710
1014.265992	2528.544467
1014.559204	2527.586647
1014.852380	2527.626977
1015.145521	2529.865249
1015.438628	2526.361647
1015.731699	2527.415248
1016.024736	2528.514220
1016.317737	2529.749302
1016.610703	2526.984230
1016.903635	2525.187058
1017.196531	2523.790659
1017.489393	2523.810823
1017.782219	2522.033817
1018.075011	2524.791328
1018.367768	2526.447347
1018.660490	2530.268541
1018.953177	2530.268541
1019.245829	2530.268541
