Dividing Wavelength (nm)	Counts (n)	Blue Motor Position (mm): 0.000000	Red Motor Position (mm): 40.300000	
326.493990	2127.001439
326.888308	2127.001439
327.282561	2127.001439
327.676750	2094.705287
328.070874	2094.125555
328.464933	2096.051275
328.858929	2103.721391
329.252859	2111.593153
329.646726	2124.190996
330.040528	2136.607358
330.434265	2156.313228
330.827938	2173.816115
331.221547	2188.294308
331.615091	2207.163347
332.008571	2226.544063
332.401986	2246.796899
332.795338	2264.559404
333.188625	2286.362395
333.581847	2305.014664
333.975006	2325.968220
334.368100	2341.043791
334.761129	2356.777232
335.154095	2377.108205
335.546996	2395.543705
335.939833	2418.266706
336.332606	2430.897317
336.725315	2444.178237
337.117960	2453.096038
337.510540	2461.764302
337.903056	2474.818370
338.295508	2480.973618
338.687896	2490.418220
339.080220	2498.199241
339.472480	2506.355828
339.864676	2506.769203
340.256807	2511.860768
340.648875	2516.536438
341.040879	2519.316635
341.432818	2522.227901
341.824694	2524.529188
342.216506	2520.876872
342.608253	2522.157325
342.999937	2523.047088
343.391557	2523.031965
343.783113	2522.162366
344.174605	2521.156656
344.566033	2519.167921
344.957397	2517.703465
345.348697	2514.721623
345.739934	2514.910666
346.131106	2513.090810
346.522215	2510.378669
346.913260	2509.536796
347.304241	2508.861282
347.695159	2504.863647
348.086012	2504.984634
348.476802	2501.750734
348.867528	2501.607061
349.258191	2497.813593
349.648789	2499.520023
350.039324	2498.342914
350.429796	2496.603716
350.820203	2493.276554
351.210548	2495.492142
351.600828	2490.551811
351.991045	2492.636328
352.381198	2491.857470
352.771288	2492.376708
353.161314	2491.239928
353.551276	2491.804538
353.941175	2490.246821
354.331010	2490.897130
354.720782	2491.802017
355.110490	2490.614825
355.500135	2492.043992
355.889717	2488.580720
356.279235	2491.988540
356.668689	2493.395022
357.058080	2493.911740
357.447408	2488.933600
357.836672	2489.667088
358.225873	2489.974599
358.615010	2490.387973
359.004084	2492.956441
359.393095	2495.156905
359.782043	2495.913078
360.170927	2497.133037
360.559748	2495.860146
360.948505	2498.431134
361.337199	2495.794611
361.725830	2499.232678
362.114398	2499.925836
362.502903	2499.900631
362.891344	2502.474140
363.279722	2501.004643
363.668037	2502.418687
364.056289	2505.007319
364.444478	2502.932885
364.832603	2502.632936
365.220665	2503.840292
365.608665	2503.212669
365.996601	2505.801301
366.384474	2505.955056
366.772284	2506.063441
367.160031	2511.989317
367.547715	2513.738598
367.935336	2512.632065
368.322893	2517.340502
368.710388	2520.912160
369.097820	2525.403828
369.485189	2527.379960
369.872495	2537.946219
370.259738	2540.736497
370.646918	2551.350647
371.034035	2559.713921
371.421090	2566.214489
371.808081	2578.514904
372.195010	2587.198292
372.581875	2600.431321
372.968678	2613.568568
373.355418	2622.662809
373.742096	2642.640902
374.128710	2655.752943
374.515262	2669.600992
374.901751	2686.251924
375.288177	2699.918492
375.674540	2723.506051
376.060841	2740.058679
376.447079	2759.537698
376.833254	2779.321706
377.219367	2795.032462
377.605417	2831.351455
377.991404	2838.686334
378.377329	2863.239273
378.763191	2879.217211
379.148991	2917.582912
379.534727	2942.652570
379.920402	2967.923874
380.306013	2984.224445
380.691563	3031.215561
381.077049	3053.721792
381.462474	3071.043197
381.847835	3109.071141
382.233134	3133.198103
382.618371	3132.477218
383.003545	3202.357693
383.388657	3208.200390
383.773706	3241.507293
384.158693	3255.914911
384.543618	3280.815691
384.928480	3321.618790
385.313280	3364.491283
385.698017	3364.637476
386.082692	3415.283428
386.467305	3421.577309
386.851856	3455.423616
387.236344	3478.305413
387.620770	3509.784898
388.005133	3534.226933
388.389435	3558.825243
388.773674	3571.796132
389.157851	3614.411526
389.541965	3631.861480
389.926018	3594.715738
390.310008	3666.254752
390.693936	3683.124973
391.077802	3723.277764
391.461606	3714.412895
391.845348	3782.624747
392.229027	3776.842544
392.612645	3790.504071
392.996200	3868.730176
393.379694	3906.417842
393.763125	3972.933346
394.146494	3936.059826
394.529801	3999.701873
394.913047	4053.017116
395.296230	4018.147455
395.679351	4072.725507
396.062410	4095.617387
396.445408	4077.708688
396.828343	4109.601547
397.211217	4130.913025
397.594028	4051.499729
397.976778	4121.299545
398.359466	4145.756703
398.742092	4176.883307
399.124656	4098.327007
399.507158	4181.281714
399.889598	4201.776525
400.271977	4265.282461
400.654294	4235.781628
401.036549	4243.219851
401.418742	4215.062486
401.800874	4317.801201
402.182944	4340.025128
402.564952	4400.473604
402.946898	4387.106984
403.328783	4384.624216
403.710606	4296.058705
404.092367	4492.532635
404.474067	4453.579639
404.855705	4465.817040
405.237282	4392.987490
405.618797	4503.461856
406.000250	4538.959141
406.381642	4619.262201
406.762972	4576.019184
407.144240	4591.472841
407.525447	4588.271708
407.906593	4646.401253
408.287677	4692.694169
408.668700	4619.388230
409.049661	4666.868338
409.430560	4710.650759
409.811399	4641.965038
410.192176	4801.719203
410.572891	4739.622270
410.953545	4844.208568
411.334138	4724.100557
411.714669	4793.446670
412.095139	4686.586811
412.475547	4824.908511
412.855894	4808.149195
413.236180	4816.406605
413.616405	4771.293319
413.996568	4861.008213
414.376670	4803.342455
414.756711	4753.911421
415.136691	4789.176812
415.516609	4865.071383
415.896466	4900.966919
416.276262	4937.787507
416.655997	4919.440228
417.035670	5098.202064
417.415283	5191.556671
417.794834	5133.648937
418.174324	5090.055559
418.553753	4996.469058
418.933121	5180.072923
419.312428	5249.401391
419.691674	5186.797822
420.070859	5311.208458
420.449983	5223.341146
420.829045	5334.685111
421.208047	5249.451802
421.586988	5320.358152
421.965867	5328.562630
422.344686	5461.462569
422.723444	5318.646680
423.102141	5136.114061
423.480777	5435.785452
423.859352	5205.374474
424.237866	5461.586077
424.616319	5456.607937
424.994712	5568.292180
425.373044	5442.787614
425.751314	5587.486374
426.129524	5387.818873
426.507673	5579.241567
426.885762	5662.813815
427.263789	5597.228403
427.641756	5478.841947
428.019662	5602.642603
428.397508	5607.930773
428.775292	5550.176794
429.153016	5651.516589
429.530679	5574.828036
429.908282	5663.484288
430.285824	5533.455287
430.663305	5806.824457
431.040726	5540.633890
431.418086	5543.099014
431.795385	5648.479294
432.172624	5661.651829
432.549802	5652.499614
432.926920	5669.077449
433.303977	5675.144477
433.680974	5711.385332
434.057910	5734.650257
434.434786	5742.307770
434.811601	5707.533891
435.188355	5944.868893
435.565050	5811.855528
435.941683	5797.135359
436.318257	6010.396332
436.694770	5992.873281
437.071222	6028.541965
437.447614	5960.473785
437.823946	5874.932966
438.200218	6031.919538
438.576429	5896.509104
438.952580	5989.044524
439.328670	6035.624786
439.704700	5944.533657
440.080670	5931.585453
440.456580	6206.124171
440.832429	6082.557928
441.208218	5929.117808
441.583947	6085.254946
441.959616	6089.315595
442.335224	6017.496797
442.710773	6154.452344
443.086261	6179.774060
443.461689	5973.139684
443.837057	6123.701305
444.212365	6283.233660
444.587612	6173.757442
444.962800	6330.998593
445.337927	6307.670653
445.712995	5916.877887
446.088002	6496.356001
446.462949	6323.890566
446.837837	6258.388333
447.212664	6428.050887
447.587431	6569.727474
447.962139	7111.306194
448.336786	8040.680714
448.711374	7783.191178
449.085901	6852.357244
449.460369	6775.182220
449.834776	6711.094031
450.209124	7104.959381
450.583412	7247.850887
450.957640	7401.147334
451.331808	7164.805439
451.705917	6716.183076
452.079965	6641.972250
452.453954	6850.272727
452.827883	6726.950980
453.201752	6820.655948
453.575562	6622.697398
453.949311	6823.728531
454.323001	6713.397838
454.696632	6789.599920
455.070202	6925.494304
455.443713	7078.609270
455.817164	7177.065525
456.190556	7263.138186
456.563888	7338.095102
456.937160	7379.626648
457.310373	7036.099740
457.683526	7055.919036
458.056619	6954.664941
458.429653	6935.165758
458.802628	6878.402365
459.175542	6983.757440
459.548398	7340.472006
459.921194	7499.843044
460.293930	7502.766913
460.666607	8029.766616
461.039224	8342.892846
461.411782	8472.959656
461.784280	8490.273499
462.156719	8381.263588
462.529099	8260.038962
462.901419	7851.188782
463.273680	7736.457162
463.645882	7751.384018
464.018024	7623.084132
464.390106	7787.561859
464.762130	8170.245929
465.134094	8638.115418
465.505999	9660.665585
465.877845	10894.414892
466.249631	11539.985053
466.621358	11155.634881
466.993026	10528.205312
467.364634	10269.717628
467.736184	9897.970340
468.107674	9567.810051
468.479105	9602.972099
468.850477	9365.846305
469.221790	9143.082758
469.593043	8812.181419
469.964238	8675.793002
470.335373	8686.712141
470.706449	8742.139628
471.077467	8724.051967
471.448425	10028.758036
471.819324	11112.777512
472.190164	11142.565690
472.560945	9883.930727
472.931667	9094.854039
473.302330	8960.983678
473.672934	8605.126107
474.043479	8965.606416
474.413965	8901.437568
474.784393	8782.723437
475.154761	8942.558260
475.525070	9023.955251
475.895321	8849.753139
476.265513	9028.837608
476.635645	9200.229277
477.005719	9194.202578
477.375734	9316.047267
477.745691	9555.381087
478.115588	9680.880612
478.485427	9926.556203
478.855207	10461.049581
479.224928	11281.981320
479.594591	11908.778225
479.964194	11723.737632
480.333739	11661.343270
480.703226	11578.512072
481.072653	11674.732575
481.442022	11907.782597
481.811333	12100.044643
482.180584	11904.531052
482.549777	11609.278233
482.918912	11430.012282
483.287988	11458.880450
483.657005	11473.209929
484.025964	11152.426187
484.394864	11287.768565
484.763706	11249.692730
485.132489	11010.558035
485.501213	10970.891716
485.869879	11047.580269
486.238487	10892.915148
486.607036	11001.138639
486.975527	10780.068920
487.343959	10963.587084
487.712333	11021.661177
488.080648	10948.251894
488.448905	10993.213945
488.817104	10925.047463
489.185244	11197.310100
489.553326	11352.801970
489.921350	11889.470605
490.289315	12953.025518
490.657222	13299.458651
491.025070	13210.658726
491.392861	13080.828850
491.760593	12696.687886
492.128267	12347.842560
492.495883	12017.031962
492.863440	11676.817092
493.230939	11347.415497
493.598380	11281.411670
493.965763	11147.944601
494.333088	11045.372244
494.700354	10966.707558
495.067563	11023.050014
495.434713	10858.141269
495.801805	10986.695733
496.168839	10911.043138
496.535815	10843.461429
496.902733	10841.500420
497.269593	10780.840216
497.636395	10877.345545
498.003139	10861.690242
498.369825	10731.318441
498.736453	10887.354756
499.103023	10814.230299
499.469535	10837.144863
499.835989	10830.929121
500.202385	10795.366301
500.568723	10649.601338
500.935003	10866.519667
501.301226	10672.435244
501.667390	10933.657754
502.033497	11029.853052
502.399546	10884.388037
502.765537	10798.378390
503.131470	10874.822447
503.497345	11047.040866
503.863163	10652.305917
504.228923	10966.573968
504.594625	11034.732888
504.960269	10783.436410
505.325856	11006.996460
505.691385	10791.782041
506.056856	10947.475557
506.422270	10973.611419
506.787625	10861.697803
507.152924	10978.491256
507.518164	10959.007196
507.883347	10884.975331
508.248472	10793.624582
508.613540	11029.482527
508.978550	10918.690568
509.343503	10892.201825
509.708398	11007.603919
510.073236	11123.396702
510.438016	11127.623710
510.802738	11068.019627
511.167403	11128.478185
511.532010	11023.516321
511.896561	11260.107753
512.261053	11326.119143
512.625488	11196.385048
512.989866	11172.220277
513.354186	11169.203147
513.718449	11066.867724
514.082655	11259.689338
514.446803	11157.280818
514.810894	11276.768767
515.174927	11139.001594
515.538904	11175.804538
515.902822	11323.467496
516.266684	11205.938035
516.630488	11149.323357
516.994235	11210.643952
517.357925	11266.618404
517.721558	11359.973011
518.085133	11373.548838
518.448651	11371.623118
518.812112	11263.019020
519.175516	11285.530292
519.538863	11398.434494
519.902152	11318.968266
520.265385	11480.015487
520.628560	11387.601055
520.991678	11362.080213
521.354739	11429.193095
521.717743	11362.165913
522.080690	11333.809423
522.443580	11479.402987
522.806413	11429.488002
523.169189	11460.622168
523.531908	11518.343380
523.894569	11337.809578
524.257174	11334.721872
524.619722	11454.787033
524.982213	11404.761143
525.344647	11456.425408
525.707025	11402.394321
526.069345	11501.780669
526.431608	11416.592731
526.793815	11521.816735
527.155964	11314.471557
527.518057	11366.972653
527.880093	11313.233953
528.242072	11387.222968
528.603995	11290.052207
528.965860	11213.537574
529.327669	11270.308528
529.689421	11214.079498
530.051117	11183.477174
530.412755	11292.371138
530.774337	11181.206134
531.135862	11154.951805
531.497331	11180.581031
531.858743	11033.396983
532.220098	11205.101203
532.581396	11076.345093
532.942638	11053.924561
533.303824	11016.796463
533.664953	11024.459017
534.026025	10948.345156
534.387040	11042.418128
534.747999	11045.583972
535.108902	11105.132602
535.469748	10858.413492
535.830537	10963.466097
536.191270	10944.534043
536.551947	10968.933228
536.912567	10959.425612
537.273131	10890.364325
537.633638	10868.337003
537.994089	10846.602068
538.354483	10804.092538
538.714821	10947.445310
539.075103	10949.524786
539.435328	10923.724160
539.795497	10748.594476
540.155609	10901.459904
540.515665	10987.149437
540.875665	10731.583102
541.235609	10798.965685
541.595496	10792.250868
541.955328	10945.275093
542.315102	10834.450367
542.674821	10780.888107
543.034483	10782.662593
543.394090	10786.332553
543.753640	10715.025432
544.113134	10931.699266
544.472571	10795.507453
544.831953	10940.758219
545.191278	10736.233566
545.550548	10765.777248
545.909761	10898.498226
546.268918	10878.424352
546.628019	10964.905346
546.987064	10825.537607
547.346053	10742.598023
547.704986	10850.682882
548.063863	10837.399442
548.422684	10814.220216
548.781449	10738.839843
549.140158	10838.160656
549.498811	10716.013498
549.857408	10574.261293
550.215949	10798.867382
550.574434	10653.646863
550.932864	10751.697306
551.291237	10809.831892
551.649555	10758.220559
552.007817	10771.614905
552.366022	10736.644420
552.724173	10730.428678
553.082267	10714.806142
553.440305	10846.150885
553.798288	10646.906841
554.156215	10805.118413
554.514086	10776.623291
554.871902	10625.628130
555.229661	10663.101548
555.587365	10643.821655
555.945014	10534.045488
556.302606	10662.456280
556.660143	10555.500639
557.017625	10712.532582
557.375050	10606.562487
557.732421	10742.855122
558.089735	10652.111832
558.446994	10644.867694
558.804197	10688.992914
559.161345	10692.262102
559.518437	10537.281909
559.875474	10624.957657
560.232455	10657.871350
560.589381	10601.823802
560.946251	10598.894892
561.303065	10707.211644
561.659825	10639.602209
562.016528	10566.001363
562.373177	10453.412233
562.729770	10564.448687
563.086307	10477.274534
563.442789	10571.846581
563.799216	10443.758423
564.155587	10493.232307
564.511904	10451.521800
564.868164	10441.837743
565.224370	10448.534916
565.580520	10368.131033
565.936615	10377.903310
566.292654	10247.826417
566.648638	10372.731086
567.004567	10333.087452
567.360441	10314.596500
567.716260	10222.852541
568.072023	10316.262601
568.427732	10266.365260
568.783385	10174.444861
569.138982	10245.840203
569.494525	10261.172872
569.850013	10128.066246
570.205445	10215.568074
570.560823	10112.347928
570.916145	10022.340647
571.271412	10092.649619
571.626625	10038.263131
571.981782	10011.189614
572.336884	9986.417384
572.691931	9989.615997
573.046923	9933.999467
573.401860	9880.495180
573.756743	9821.501077
574.111570	9860.335606
574.466342	9844.634932
574.821059	9877.974603
575.175722	9758.156459
575.530330	9765.627449
575.884882	9759.691490
576.239380	9680.782309
576.593823	9655.001848
576.948211	9673.467595
577.302544	9546.967401
577.656823	9560.553310
578.011047	9557.180778
578.365216	9529.308239
578.719330	9446.625754
579.073389	9454.951220
579.427394	9401.071367
579.781344	9374.811997
580.135239	9319.762597
580.489080	9328.756015
580.842866	9229.893947
581.196597	9222.662412
581.550273	9261.927959
581.903895	9221.765087
582.257463	9281.754817
582.610975	9155.186568
582.964434	9182.582718
583.317837	9099.885110
583.671186	9077.749404
584.024481	9063.734996
584.377721	8982.713571
584.730906	8954.924211
585.084037	8978.216862
585.437113	8911.976101
585.790135	8930.366230
586.143103	8823.012338
586.496016	8790.358264
586.848874	8839.375923
587.201679	8829.696908
587.554428	8705.480357
587.907124	8745.998631
588.259765	8710.231644
588.612352	8706.052528
588.964884	8580.162313
589.317362	8582.400586
589.669786	8575.927744
590.022155	8615.553734
590.374470	8620.882233
590.726731	8557.285557
591.078937	8404.969614
591.431090	8507.612548
591.783188	8380.789720
592.135232	8352.289557
592.487222	8355.493210
592.839157	8394.584837
593.191038	8323.544897
593.542866	8261.626925
593.894639	8161.439034
594.246358	8197.390022
594.598022	8204.177936
594.949633	8097.232378
595.301190	8065.069816
595.652692	8081.907270
596.004141	8176.938061
596.355535	7960.080226
596.706876	7934.526617
597.058162	7854.493258
597.409395	7919.191427
597.760573	7966.069116
598.111698	7870.967749
598.462768	7847.796085
598.813785	7810.728481
599.164748	7766.789784
599.515657	7751.595747
599.866511	7649.527505
600.217312	7764.014629
600.568060	7613.884026
600.918753	7698.230092
601.269392	7658.924215
601.619978	7563.200266
601.970510	7610.851772
602.320988	7599.584793
602.671412	7631.674258
603.021783	7563.530461
603.372100	7531.718260
603.722363	7514.036413
604.072572	7476.285732
604.422728	7481.392421
604.772830	7400.819659
605.122878	7391.995119
605.472872	7382.104375
605.822813	7386.384315
606.172701	7327.082702
606.522534	7377.484158
606.872314	7363.409256
607.222041	7321.297978
607.571714	7356.641507
607.921333	7311.374466
608.270899	7293.599358
608.620411	7359.167125
608.969870	7259.117866
609.319276	7242.696307
609.668627	7236.147848
610.017926	7252.234170
610.367171	7265.925944
610.716362	7238.149186
611.065500	7204.007972
611.414585	7207.304886
611.763616	7192.574635
612.112594	7151.920250
612.461518	7148.514950
612.810389	7183.682039
613.159207	7108.599094
613.507971	7056.579427
613.856682	7129.167002
614.205340	7078.936945
614.553945	7119.911443
614.902496	7027.295365
615.250994	7048.831174
615.599439	7017.271030
615.947830	7001.288052
616.296169	6968.392003
616.644454	6957.190559
616.992686	6935.727846
617.340864	6956.862884
617.688990	6866.336364
618.037063	6918.202275
618.385082	6850.660896
618.733048	6897.571353
619.080961	6836.638926
619.428821	6822.140568
619.776628	6801.371014
620.124382	6747.594505
620.472083	6710.501695
620.819731	6721.050310
621.167326	6616.121213
621.514868	6607.420182
621.862357	6507.892681
622.209793	6508.427043
622.557176	6440.810047
622.904506	6403.833183
623.251783	6337.781465
623.599007	6288.577283
623.946179	6269.141114
624.293297	6216.151026
624.640363	6153.015615
624.987376	6118.241736
625.334336	6066.189302
625.681243	6010.948338
626.028097	5985.578731
626.374899	5960.362880
626.721647	5924.295944
627.068343	5869.629672
627.414987	5830.764897
627.761577	5780.774294
628.108115	5791.033043
628.454600	5702.734712
628.801032	5712.968255
629.147412	5684.672258
629.493739	5650.329397
629.840014	5594.808650
630.186236	5611.363799
630.532405	5519.105642
630.878521	5534.977715
631.224585	5489.811497
631.570597	5422.892701
631.916556	5424.954532
632.262462	5405.467952
632.608316	5361.209142
632.954117	5330.251416
633.299866	5310.248118
633.645562	5288.447648
633.991206	5219.724118
634.336797	5171.699566
634.682336	5127.279439
635.027823	5091.262915
635.373257	5073.790276
635.718639	5013.729969
636.063968	5010.150750
636.409245	4938.165594
636.754470	4913.736162
637.099642	4876.310636
637.444762	4834.199357
637.789829	4823.275177
638.134845	4774.953197
638.479808	4752.318416
638.824719	4742.803238
639.169577	4690.105536
639.514383	4682.092622
639.859137	4633.072442
640.203839	4624.890650
640.548489	4597.103810
640.893086	4573.644800
641.237632	4541.341086
641.582125	4540.446282
641.926566	4508.639121
642.270955	4505.392618
642.615292	4485.485102
642.959576	4477.366323
643.303809	4464.841577
643.647990	4450.471768
643.992118	4432.920991
644.336195	4396.755753
644.680219	4388.952047
645.024192	4380.377044
645.368112	4409.439296
645.711981	4402.222884
646.055797	4427.466462
646.399562	4395.739960
646.743274	4439.250159
647.086935	4452.833548
647.430544	4437.768060
647.774101	4429.740022
648.117606	4427.252213
648.461059	4408.093308
648.804460	4375.855129
649.147810	4321.897139
649.491108	4287.778610
649.834354	4268.465949
650.177548	4218.339236
650.520690	4166.808561
650.863781	4141.610354
651.206820	4135.936535
651.549807	4089.628496
651.892742	4050.945202
652.235626	4045.140313
652.578458	4025.321017
652.921238	3976.689006
653.263967	3981.662104
653.606644	3947.253708
653.949269	3930.993467
654.291843	3902.120258
654.634365	3906.218716
654.976836	3875.245867
655.319255	3870.665979
655.661622	3847.169161
656.003938	3835.811441
656.346203	3814.510045
656.688416	3811.576094
657.030577	3787.592804
657.372687	3764.595061
657.714746	3748.060076
658.056753	3755.838576
658.398708	3716.585632
658.740612	3710.465671
659.082465	3709.926268
659.424266	3702.349413
659.766016	3692.060418
660.107715	3674.549971
660.449362	3667.333559
660.790958	3658.456087
661.132503	3642.606699
661.473996	3641.968993
661.815438	3632.224443
662.156829	3618.247844
662.498168	3609.851802
662.839456	3594.249431
663.180693	3591.396138
663.521879	3583.718461
663.863013	3571.947366
664.204097	3567.632139
664.545129	3571.158426
664.886110	3561.517219
665.227040	3553.158986
665.567918	3542.368396
665.908746	3539.860422
666.249522	3532.016387
666.590248	3521.263606
666.930922	3517.581043
667.271545	3516.048532
667.612118	3506.140144
667.952639	3492.218998
668.293109	3482.771875
668.633528	3464.601036
668.973896	3458.168524
669.314213	3445.374076
669.654480	3431.286571
669.994695	3421.108482
670.334859	3409.055083
670.674973	3395.315418
671.015035	3388.436763
671.355047	3376.821945
671.695008	3367.909185
672.034918	3358.414172
672.374777	3351.338912
672.714585	3341.664938
673.054342	3337.153105
673.394049	3324.419151
673.733705	3325.134995
674.073310	3310.659321
674.412864	3300.415697
674.752368	3287.404479
675.091820	3280.823252
675.431223	3259.282402
675.770574	3247.808736
676.109875	3230.270562
676.449125	3220.301680
676.788324	3208.691902
677.127473	3188.638192
677.466571	3178.011440
677.805619	3169.547343
678.144616	3160.639624
678.483562	3150.257368
678.822458	3136.474853
679.161303	3128.865231
679.500098	3120.380969
679.838842	3113.845113
680.177535	3111.974845
680.516179	3106.416973
680.854771	3101.322887
681.193314	3114.757562
681.531805	3135.998464
681.870247	3161.446209
682.208638	3175.964732
682.546978	3171.301664
682.885268	3156.082421
683.223508	3134.496200
683.561697	3119.622276
683.899836	3106.563167
684.237925	3093.919953
684.575963	3087.850404
684.913951	3075.214752
685.251889	3078.804053
685.589776	3072.638722
685.927614	3065.109759
686.265401	3065.311405
686.603137	3066.145716
686.940824	3074.234247
687.278460	3077.906728
687.616046	3077.924372
687.953582	3086.043150
688.291068	3081.763210
688.628504	3084.167841
688.965889	3075.739032
689.303224	3060.653379
689.640510	3046.507901
689.977745	3027.938811
690.314930	3005.062055
690.652065	2990.230980
690.989150	2969.801704
691.326185	2947.809670
691.663170	2931.173863
692.000105	2919.526277
692.336990	2903.152609
692.673825	2890.433778
693.010610	2879.837273
693.347345	2867.234388
693.684030	2854.984384
694.020665	2846.870647
694.357251	2830.754078
694.693786	2830.781804
695.030272	2824.939107
695.366707	2816.217911
695.703093	2810.932261
696.039429	2809.135090
696.375716	2805.558391
696.711952	2799.945066
697.048139	2796.179324
697.384276	2791.478448
697.720363	2790.865948
698.056400	2791.304529
698.392388	2782.069135
698.728326	2776.405398
699.064214	2772.679986
699.400053	2767.119593
699.735842	2764.036927
700.071581	2755.451842
700.407270	2751.784403
700.742910	2745.377097
701.078501	2739.161354
701.414042	2731.864284
701.749533	2728.380846
702.084974	2718.522870
702.420366	2724.010166
702.755709	2713.206973
703.091002	2707.616334
703.426246	2708.344780
703.761440	2702.161805
704.096584	2701.582073
704.431679	2694.688295
704.766725	2696.513192
705.101721	2692.923891
705.436668	2691.391380
705.771565	2686.660257
706.106413	2689.780731
706.441212	2687.129084
706.775961	2688.570854
707.110661	2683.131449
707.445311	2686.710669
707.779913	2683.234793
708.114465	2686.322500
708.448967	2687.698735
708.783421	2691.141843
709.117825	2692.805424
709.452180	2691.845084
709.786485	2695.005887
710.120742	2702.134079
710.454949	2704.924357
710.789107	2709.123639
711.123216	2711.631613
711.457275	2713.012889
711.791286	2718.865668
712.125247	2720.093189
712.459159	2714.779813
712.793023	2719.147973
713.126837	2710.076417
713.460602	2709.688248
713.794318	2700.619212
714.127985	2698.247349
714.461602	2688.225535
714.795171	2682.907118
715.128691	2674.097702
715.462162	2670.263904
715.795584	2661.940959
716.128957	2660.269817
716.462281	2656.955258
716.795556	2654.215391
717.128782	2650.883188
717.461960	2643.487816
717.795088	2640.831127
718.128167	2638.754172
718.461198	2634.794346
718.794180	2635.714356
719.127113	2629.372585
719.459997	2625.455608
719.792833	2623.681122
720.125619	2626.763788
720.458357	2621.999897
720.791046	2620.779938
721.123686	2619.023096
721.456278	2615.005296
721.788821	2616.779782
722.121315	2616.578136
722.453761	2611.073196
722.786158	2614.407920
723.118506	2610.304420
723.450805	2610.344750
723.783056	2610.990017
724.115259	2609.001282
724.447412	2608.933227
724.779518	2611.693258
725.111574	2609.785182
725.443582	2609.714605
725.775542	2610.634616
726.107453	2611.665532
726.439315	2610.939606
726.771129	2618.312293
727.102895	2615.683332
727.434612	2617.903960
727.766281	2617.591408
728.097901	2617.591408
728.429473	2611.743670
728.760996	2612.706530
729.092471	2610.558999
729.423897	2613.394648
729.755276	2612.870368
730.086606	2614.365070
730.417887	2613.820625
730.749120	2617.803137
731.080305	2613.525718
731.411442	2617.344392
731.742530	2617.180554
732.073570	2615.867334
732.404562	2617.823301
732.735506	2617.609052
733.066401	2614.387755
733.397249	2612.381376
733.728048	2608.348453
734.058798	2600.448965
734.389501	2594.787749
734.720156	2594.457553
735.050762	2591.430340
735.381320	2592.410845
735.711831	2588.345154
736.042293	2588.209043
736.372707	2586.878178
736.703073	2586.926069
737.033391	2589.139136
737.363661	2590.936307
737.693883	2590.147367
738.024056	2592.148705
738.354182	2587.470514
738.684260	2593.018304
739.014290	2591.453026
739.344272	2594.356730
739.674207	2592.872110
740.004093	2593.683736
740.333931	2593.207347
740.663722	2591.639548
740.993464	2592.060485
741.323159	2592.584765
741.652806	2590.538056
741.982405	2587.833477
742.311956	2587.533528
742.641460	2584.581933
742.970915	2584.455904
743.300323	2583.056984
743.629683	2583.472879
743.958996	2582.131932
744.288260	2579.233269
744.617477	2577.133628
744.946647	2570.696075
745.275768	2574.265212
745.604842	2567.477298
745.933869	2572.699933
746.262847	2569.208934
746.591778	2575.212948
746.920662	2570.776733
747.249498	2573.264543
747.578286	2573.766137
747.907027	2575.951477
748.235720	2573.675397
748.564365	2577.872157
748.892963	2574.207238
749.221514	2571.837896
749.550017	2573.917372
749.878473	2570.436455
750.206881	2572.183215
750.535242	2569.939902
750.863555	2572.299162
751.191821	2568.180539
751.520039	2569.629871
751.848210	2568.989644
752.176334	2569.372772
752.504411	2570.774213
752.832440	2569.478636
753.160421	2569.508883
753.488356	2567.948646
753.816243	2566.519479
754.144082	2566.821948
754.471875	2569.040056
754.799620	2567.867987
755.127318	2567.507545
755.454969	2565.838923
755.782572	2566.141392
756.110129	2567.026115
756.437638	2567.880590
756.765100	2564.150136
757.092515	2569.713050
757.419882	2566.327915
757.747203	2568.634243
758.074477	2564.200548
758.401703	2567.101732
758.728882	2568.399829
759.056014	2567.134499
759.383099	2568.127607
759.710138	2566.758933
760.037129	2569.143399
760.364073	2568.392267
760.690970	2568.309088
761.017820	2571.553071
761.344623	2569.062741
761.671379	2567.129458
761.998088	2569.156002
762.324751	2573.887125
762.651366	2580.344843
762.977935	2596.393356
763.304456	2608.361056
763.630931	2610.657301
763.957359	2603.473657
764.283740	2590.916143
764.610074	2586.363981
764.936362	2579.838207
765.262602	2574.081209
765.588796	2570.144068
765.914943	2571.540468
766.241044	2567.943605
766.567097	2564.805486
766.893104	2562.239539
767.219064	2562.330280
767.544978	2559.124106
767.870845	2559.779456
768.196665	2561.395146
768.522438	2561.097718
768.848165	2558.365412
769.173846	2555.343241
769.499479	2558.632593
769.825066	2556.714434
770.150607	2556.222922
770.476101	2553.351985
770.801548	2556.606050
771.126949	2553.891388
771.452303	2556.129661
771.777611	2554.110678
772.102872	2554.314845
772.428087	2554.077911
772.753256	2554.904660
773.078378	2552.563044
773.403453	2551.708569
773.728482	2553.339382
774.053465	2551.030533
774.378401	2551.411141
774.703291	2552.346275
775.028135	2553.783003
775.352932	2552.167314
775.677683	2552.318548
776.002388	2551.592622
776.327046	2550.987684
776.651658	2552.663867
776.976224	2550.846531
777.300743	2551.360729
777.625216	2548.618341
777.949643	2550.357539
778.274024	2550.241593
778.598359	2547.910059
778.922647	2545.021478
779.246889	2548.197405
779.571086	2543.357897
779.895236	2550.292004
780.219339	2548.139432
780.543397	2548.615821
780.867409	2548.759494
781.191374	2550.823846
781.515294	2548.681356
781.839167	2550.022303
782.162995	2551.015410
782.486776	2551.338044
782.810511	2549.843342
783.134201	2548.351160
783.457844	2547.708413
783.781441	2549.964329
784.104993	2549.790410
784.428498	2545.656663
784.751958	2549.319062
785.075372	2547.103475
785.398739	2550.198743
785.722061	2548.023485
786.045337	2548.567930
786.368568	2546.485933
786.691752	2549.462735
787.014891	2551.436346
787.337983	2549.661860
787.661030	2553.586398
787.984031	2553.828374
788.306987	2553.442726
788.629897	2556.162428
788.952760	2555.751574
789.275579	2553.067160
789.598351	2554.710576
789.921078	2550.438198
790.243759	2552.182437
790.566395	2548.000800
790.888984	2551.322920
791.211529	2549.656819
791.534027	2550.899463
791.856480	2546.710265
792.178888	2551.892571
792.501249	2547.501726
792.823566	2551.363250
793.145836	2550.292004
793.468062	2546.480892
793.790241	2547.090872
794.112375	2550.067673
794.434464	2546.125491
794.756507	2547.864689
795.078505	2548.023485
795.400457	2548.590615
795.722364	2547.078269
796.044226	2548.633465
796.366042	2546.440563
796.687812	2546.221273
797.009538	2551.418702
797.331218	2551.133877
797.652852	2547.179092
797.974442	2548.013403
798.295986	2548.479710
798.617484	2551.973229
798.938938	2547.910059
799.260346	2549.782848
799.581709	2549.210677
799.903026	2553.112530
800.224299	2547.534493
800.545526	2550.065152
800.866708	2544.061138
801.187845	2546.087682
801.508936	2545.023999
801.829983	2545.961653
802.150984	2547.247147
802.471940	2547.163968
802.792851	2545.399565
803.113717	2547.390820
803.434538	2541.696837
803.755314	2545.777651
804.076045	2547.968032
804.396731	2547.330327
804.717372	2545.898639
805.037967	2546.521221
805.358518	2541.671631
805.679024	2544.865202
805.999485	2545.568443
806.319901	2545.825542
806.640272	2545.737322
806.960598	2546.140614
807.280879	2548.822508
807.601115	2548.033567
807.921306	2549.258568
808.241453	2547.179092
808.561554	2545.762528
808.881611	2548.988866
809.201623	2546.518701
809.521590	2547.736139
809.841513	2545.548279
810.161390	2545.860830
810.481223	2550.211346
810.801011	2546.503577
811.120755	2545.074410
811.440453	2550.912066
811.760107	2544.829914
812.079716	2542.344625
812.399281	2540.693647
812.718801	2543.388144
813.038276	2543.005017
813.357707	2545.621375
813.677093	2545.293700
813.996434	2545.971736
814.315731	2546.526262
814.634983	2544.035932
814.954191	2544.424101
815.273354	2546.690100
815.592473	2545.598690
815.911547	2546.188505
816.230577	2550.793599
816.549562	2545.956612
816.868502	2547.297559
817.187399	2548.628424
817.506250	2545.616334
817.825058	2550.140770
818.143821	2548.963660
818.462539	2550.067673
818.781213	2549.664381
819.099843	2551.547252
819.418429	2557.473128
819.736970	2560.023952
820.055466	2559.726524
820.373919	2564.487894
820.692327	2571.462330
821.010691	2576.047259
821.329011	2600.995930
821.647286	2637.725777
821.965517	2689.253931
822.283704	2719.084959
822.601847	2727.939745
822.919945	2703.646425
823.237999	2676.217507
823.556010	2648.803712
823.873976	2631.623460
824.191897	2613.003958
824.509775	2599.554160
824.827609	2589.902871
825.145398	2584.430698
825.463144	2581.363156
825.780845	2583.820719
826.098502	2588.322469
826.416116	2602.762854
826.733685	2613.999586
827.051210	2619.819598
827.368692	2614.193671
827.686129	2599.869232
828.003522	2586.527818
828.320872	2572.349573
828.638177	2569.075344
828.955439	2563.303222
829.272656	2558.093190
829.589830	2549.868548
829.906960	2554.060267
830.224046	2554.299722
830.541088	2551.685883
830.858086	2550.869217
831.175041	2552.928528
831.491952	2551.910215
831.808819	2548.378887
832.125642	2553.414999
832.442421	2553.523384
832.759157	2560.601164
833.075849	2566.950497
833.392497	2578.701427
833.709101	2583.649319
834.025662	2580.112950
834.342179	2579.213104
834.658653	2570.146589
834.975083	2564.878583
835.291469	2564.437482
835.607811	2554.667726
835.924110	2551.948023
836.240366	2550.360060
836.556578	2546.780841
836.872746	2548.799823
837.188871	2549.293856
837.504952	2546.208670
837.820990	2545.192877
838.136984	2543.781354
838.452935	2543.602393
838.768842	2545.717157
839.084706	2543.476364
839.400526	2549.987015
839.716303	2550.730585
840.032037	2562.337842
840.347727	2560.525547
840.663373	2555.063457
840.978977	2553.319217
841.294537	2548.083979
841.610054	2548.784699
841.925527	2548.348640
842.240957	2543.655325
842.556344	2544.948381
842.871687	2544.613145
843.186987	2542.795809
843.502244	2538.707433
843.817458	2541.545602
844.132629	2536.711136
844.447756	2543.788916
844.762840	2535.899510
845.077881	2539.125849
845.392879	2535.740714
845.707833	2537.394212
846.022745	2536.156609
846.337613	2541.449821
846.652438	2542.563916
846.967221	2540.426466
847.281960	2539.977804
847.596656	2539.493853
847.911309	2538.467978
848.225919	2540.086188
848.540485	2536.201979
848.855009	2540.156765
849.169490	2540.880170
849.483928	2539.410674
849.798323	2538.967052
850.112675	2540.441590
850.426984	2538.084850
850.741251	2541.197763
851.055474	2539.985365
851.369654	2538.881353
851.683792	2538.906558
851.997887	2539.879501
852.311938	2538.979655
852.625947	2537.185004
852.939914	2542.233720
853.253837	2539.201466
853.567718	2538.455375
853.881555	2542.173226
854.195350	2539.909748
854.509103	2541.200283
854.822812	2538.475540
855.136479	2541.142310
855.450103	2538.049562
855.763685	2537.273225
856.077224	2538.883873
856.390720	2537.598379
856.704173	2534.808100
857.017584	2541.205325
857.330953	2538.866229
857.644278	2539.206507
857.957561	2543.647764
858.270802	2540.756662
858.584000	2535.460930
858.897155	2541.769934
859.210268	2539.554347
859.523339	2539.181301
859.836367	2540.378575
860.149352	2541.437218
860.462295	2541.059131
860.775195	2534.314067
861.088054	2534.472864
861.400869	2535.682741
861.713642	2534.820703
862.026373	2538.415046
862.339062	2537.762217
862.651708	2539.786240
862.964312	2537.026208
863.276873	2540.139121
863.589392	2537.651311
863.901869	2540.996117
864.214303	2540.597866
864.526696	2540.870088
864.839045	2538.939326
865.151353	2541.623740
865.463619	2541.482588
865.775842	2542.074924
866.088023	2539.433359
866.400162	2540.560057
866.712258	2541.381765
867.024313	2539.680376
867.336325	2540.088709
867.648296	2540.776827
867.960224	2540.915458
868.272110	2540.018133
868.583954	2541.258257
868.895755	2540.413863
869.207515	2542.831097
869.519233	2540.519728
869.830909	2541.812784
870.142542	2539.544264
870.454134	2542.483257
870.765684	2539.524100
871.077191	2542.349667
871.388657	2540.416384
871.700081	2541.890922
872.011463	2541.399409
872.322803	2541.782537
872.634101	2543.791437
872.945357	2543.002496
873.256571	2545.349153
873.567744	2542.160623
873.878874	2543.700696
874.189963	2543.289842
874.501010	2542.974770
874.812015	2541.774975
875.122979	2542.415202
875.433900	2544.066179
875.744780	2545.603731
876.055618	2540.852444
876.366415	2544.681200
876.677169	2544.207332
876.987882	2538.977135
877.298554	2540.204656
877.609183	2542.712630
877.919771	2539.730787
878.230317	2537.555529
878.540822	2546.879143
878.851285	2545.633978
879.161707	2553.122612
879.472087	2555.255020
879.782425	2557.221070
880.092722	2567.179870
880.402977	2581.461459
880.713191	2599.266814
881.023363	2619.310442
881.333494	2638.209727
881.643583	2642.235089
881.953631	2639.490181
882.263637	2633.254273
882.573602	2623.983591
882.883526	2615.254833
883.193408	2603.670262
883.503248	2592.554518
883.813048	2584.937334
884.122806	2577.027764
884.432522	2571.726991
884.742197	2562.481514
885.051831	2561.982440
885.361424	2557.788200
885.670975	2556.953889
885.980485	2556.444733
886.289954	2549.939124
886.599382	2550.665050
886.908768	2547.821839
887.218113	2549.485420
887.527417	2550.423074
887.836680	2546.458207
888.145901	2546.664894
888.455082	2543.592311
888.764221	2545.510470
889.073319	2545.066848
889.382376	2542.362269
889.691392	2545.013916
890.000366	2545.008875
890.309300	2543.330171
890.618193	2546.579195
890.927044	2545.187836
891.235855	2545.659184
891.544625	2543.456200
891.853353	2543.990562
892.162041	2545.863351
892.470687	2547.090872
892.779293	2547.600028
893.087858	2547.274874
893.396381	2550.281922
893.704864	2552.172355
894.013306	2558.380536
894.321707	2567.550395
894.630068	2575.281004
894.938387	2575.548185
895.246665	2575.308730
895.554903	2571.724470
895.863100	2566.138872
896.171256	2561.102759
896.479371	2559.900444
896.787446	2554.934907
897.095480	2552.361398
897.403473	2551.179247
897.711425	2550.851573
898.019336	2548.520039
898.327207	2547.549617
898.635038	2546.571633
898.942827	2546.642209
899.250576	2543.640202
899.558284	2544.567774
899.865952	2547.879812
900.173579	2543.141128
900.481165	2544.855120
900.788711	2543.867054
901.096216	2545.160110
901.403681	2541.981662
901.711105	2542.579039
902.018489	2543.352856
902.325832	2550.720502
902.633135	2544.867723
902.940397	2546.478372
903.247619	2546.470810
903.554800	2555.247459
903.861941	2566.769016
904.169041	2582.487333
904.476101	2586.469845
904.783121	2589.040833
905.090100	2583.188054
905.397039	2575.510377
905.703938	2563.530074
906.010796	2560.570917
906.317614	2554.687891
906.624391	2551.779145
906.931129	2546.337219
907.237826	2545.107178
907.544483	2544.895449
907.851099	2542.488298
908.157675	2541.931251
908.464211	2541.061652
908.770707	2534.114942
909.077163	2536.953111
909.383578	2535.488656
909.689954	2538.200797
909.996289	2535.387833
910.302584	2540.751621
910.608839	2538.725077
910.915054	2537.477391
911.221229	2540.910417
911.527363	2538.841023
911.833458	2542.586601
912.139513	2538.049562
912.445527	2538.803215
912.751502	2540.895294
913.057436	2539.982845
913.363331	2543.367980
913.669186	2542.856302
913.975000	2545.397044
914.280775	2545.669266
914.586510	2550.942313
914.892205	2556.994218
915.197859	2561.644683
915.503475	2569.597103
915.809050	2575.381827
916.114585	2583.351891
916.420081	2584.823908
916.725536	2582.832652
917.030952	2579.397106
917.336328	2571.956363
917.641665	2569.276990
917.946961	2562.980589
918.252218	2561.022100
918.557435	2559.184600
918.862612	2553.674619
919.167750	2551.738816
919.472848	2551.214536
919.777906	2545.633978
920.082925	2546.753114
920.387904	2546.715306
920.692843	2546.009544
920.997743	2542.679862
921.302603	2540.081147
921.607423	2542.049718
921.912204	2540.993596
922.216946	2541.374203
922.521647	2540.870088
922.826310	2539.430838
923.130932	2539.539223
923.435516	2537.333718
923.740059	2540.199614
924.044564	2541.893442
924.349028	2538.442772
924.653454	2532.849612
924.957840	2535.614685
925.262186	2534.021680
925.566493	2535.463450
925.870761	2531.049920
926.174989	2537.434542
926.479178	2536.683410
926.783328	2535.387833
927.087438	2536.524613
927.391509	2536.217103
927.695541	2538.553678
927.999533	2535.569315
928.303486	2535.395395
928.607400	2534.941691
928.911275	2534.326670
929.215110	2536.350693
929.518906	2534.172915
929.822663	2535.362627
930.126381	2534.699716
930.430060	2537.195087
930.733699	2534.445137
931.037299	2537.253060
931.340861	2535.957483
931.644383	2535.556712
931.947866	2532.101001
932.251309	2536.252391
932.554714	2534.341794
932.858080	2536.648122
933.161407	2535.463450
933.464694	2536.237267
933.767943	2535.677699
934.071153	2533.378933
934.374323	2532.932791
934.677455	2534.165353
934.980548	2536.602751
935.283602	2536.121321
935.586617	2535.309695
935.889593	2535.239119
936.192530	2534.679551
936.495428	2534.603934
936.798287	2536.317926
937.101108	2536.207021
937.403890	2535.770961
937.706632	2538.006713
938.009336	2533.716691
938.312002	2537.694161
938.614628	2538.316743
938.917216	2538.324305
939.219765	2538.720036
939.522275	2537.656352
939.824747	2537.250539
940.127179	2536.416228
940.429573	2533.822555
940.731929	2531.745599
941.034246	2533.323481
941.336524	2536.970755
941.638763	2537.255581
941.940964	2538.924202
942.243126	2537.041332
942.545250	2536.020498
942.847335	2536.411187
943.149381	2536.542257
943.451389	2532.932791
943.753359	2537.580735
944.055290	2534.674510
944.357182	2535.609644
944.659036	2535.710467
944.960851	2537.421939
945.262628	2537.482433
945.564367	2537.036290
945.866067	2535.536547
946.167729	2534.833306
946.469352	2534.697195
946.770937	2535.725590
947.072484	2535.314736
947.373992	2537.041332
947.675462	2536.136444
947.976893	2535.602082
948.278286	2533.714170
948.579641	2531.889272
948.880958	2535.337422
949.182236	2534.339273
949.483476	2534.724921
949.784678	2533.875487
950.085841	2533.696526
950.386967	2536.759027
950.688054	2532.305168
950.989103	2531.758202
951.290114	2537.616023
951.591087	2536.587628
951.892021	2533.535209
952.192917	2532.952956
952.493776	2534.288862
952.794596	2536.610313
953.095378	2535.473533
953.396122	2534.810621
953.696828	2534.059489
953.997496	2534.671989
954.298126	2535.879346
954.598718	2535.851619
954.899272	2534.782895
955.199788	2533.938501
955.500266	2533.121834
955.800706	2531.843902
956.101108	2528.509179
956.401472	2530.502955
956.701798	2530.071936
957.002087	2529.966072
957.302337	2535.133255
957.602550	2532.330373
957.902724	2532.040507
958.202861	2533.227699
958.502960	2530.691998
958.803022	2532.282482
959.103045	2531.279293
959.403031	2531.843902
959.702979	2529.892975
960.002889	2530.823068
960.302762	2531.153264
960.602596	2534.919006
960.902393	2530.034128
961.202153	2529.567821
961.501875	2531.455733
961.801559	2527.689991
962.101205	2533.242822
962.400814	2531.894313
962.700385	2528.794004
962.999918	2533.056299
963.299414	2531.493542
963.598873	2533.673841
963.898293	2530.505476
964.197677	2531.364992
964.497022	2530.303829
964.796331	2530.286185
965.095601	2530.472708
965.394835	2529.887934
965.694030	2530.359282
965.993189	2529.164529
966.292309	2531.299457
966.591393	2530.838192
966.890439	2529.817358
967.189447	2527.019518
967.488419	2529.835002
967.787353	2529.421628
968.086249	2529.051103
968.385108	2532.418593
968.683930	2529.988757
968.982714	2532.569828
969.281462	2529.378778
969.580172	2527.448016
969.878844	2531.332225
970.177480	2534.707277
970.476078	2528.426000
970.774639	2534.382123
971.073162	2528.630166
971.371649	2527.163191
971.670098	2525.945752
971.968510	2529.789632
972.266885	2525.378622
972.565223	2530.490352
972.863524	2532.902544
973.161788	2528.461288
973.460014	2530.203006
973.758204	2531.783408
974.056356	2529.570342
974.354471	2531.014632
974.652550	2526.540608
974.950591	2530.939015
975.248595	2527.037162
975.546563	2530.220650
975.844493	2527.916843
976.142386	2531.707791
976.440243	2529.764426
976.738062	2526.550690
977.035845	2531.833820
977.333590	2529.444313
977.631299	2530.853315
977.928971	2531.508665
978.226606	2527.364837
978.524204	2528.426000
978.821765	2528.461288
979.119290	2530.313912
979.416777	2528.146216
979.714228	2530.016484
980.011642	2529.172090
980.309020	2533.310878
980.606360	2530.306350
980.903664	2530.492873
981.200931	2530.346679
981.498162	2527.853829
981.795356	2529.918181
982.092513	2535.236598
982.389633	2530.485311
982.686717	2532.053110
982.983764	2534.049407
983.280775	2530.840712
983.577749	2531.249046
983.874686	2535.057637
984.171587	2532.118645
984.468451	2529.905578
984.765279	2531.503624
985.062070	2530.903727
985.358824	2529.587986
985.655543	2529.373737
985.952224	2528.892306
986.248869	2531.130579
986.545478	2525.030783
986.842050	2527.763088
987.138586	2523.745288
987.435086	2528.683098
987.731549	2525.814682
988.027975	2528.514220
988.324366	2528.955321
988.620719	2532.761392
988.917037	2530.785260
989.213318	2531.417924
989.509563	2528.564631
989.805772	2528.085722
990.101944	2531.644776
990.398080	2528.703263
990.694180	2528.005063
990.990244	2528.680578
991.286271	2527.407687
991.582262	2527.125382
991.878217	2528.325177
992.174136	2527.929446
992.470019	2528.476411
992.765865	2530.578572
993.061676	2529.638397
993.357450	2530.286185
993.653188	2531.682585
993.948890	2530.122348
994.244556	2529.048582
994.540186	2526.661596
994.835780	2530.205527
995.131337	2529.535053
995.426859	2529.698891
995.722345	2528.660413
996.017795	2526.906092
996.313208	2528.499096
996.608586	2526.797707
996.903928	2528.368026
997.199234	2530.356762
997.494504	2529.056144
997.789738	2529.393901
998.084936	2526.094466
998.380099	2527.642100
998.675225	2527.828623
998.970316	2524.992974
999.265371	2528.849457
999.560390	2527.886596
999.855373	2529.842564
1000.150320	2527.276617
1000.445232	2527.125382
1000.740108	2527.687471
1001.034948	2528.930115
1001.329752	2527.773170
1001.624521	2529.053623
1001.919254	2523.997346
1002.213951	2526.679240
1002.508613	2526.356606
1002.803239	2526.273427
1003.097829	2522.278313
1003.392384	2526.192768
1003.686903	2527.747964
1003.981386	2528.375588
1004.275834	2529.542615
1004.570246	2528.700742
1004.864623	2526.820392
1005.158964	2527.677388
1005.453270	2526.175124
1005.747540	2526.921215
1006.041775	2529.502286
1006.335974	2526.328880
1006.630138	2527.110258
1006.924266	2527.700073
1007.218359	2525.383663
1007.512416	2525.991122
1007.806438	2527.465660
1008.100425	2530.518078
1008.394376	2529.235105
1008.688292	2524.529188
1008.982172	2527.407687
1009.276017	2525.802079
1009.569827	2529.056144
1009.863602	2527.758047
1010.157341	2523.442819
1010.451045	2525.897861
1010.744714	2527.022038
1011.038347	2524.866945
1011.331945	2527.828623
1011.625508	2527.175793
1011.919036	2527.629497
1012.212528	2529.308202
1012.505986	2525.164373
1012.799408	2526.573376
1013.092795	2526.507841
1013.386147	2525.227387
1013.679464	2527.032121
1013.972745	2525.098838
1014.265992	2527.203520
1014.559204	2528.337779
1014.852380	2525.973478
1015.145521	2526.749816
1015.438628	2526.843077
1015.731699	2526.807789
1016.024736	2526.737213
1016.317737	2527.405166
1016.610703	2527.810979
1016.903635	2523.009280
1017.196531	2519.609022
1017.489393	2526.286030
1017.782219	2523.430216
1018.075011	2525.086235
1018.367768	2526.419620
1018.660490	2528.549508
1018.953177	2528.549508
1019.245829	2528.549508
