Dividing Wavelength (nm)	Counts (n)	Blue Motor Position (mm): 0.000000	Red Motor Position (mm): 15.700000	
326.493990	2127.538322
326.888308	2127.538322
327.282561	2127.538322
327.676750	2096.779722
328.070874	2093.676892
328.464933	2098.692840
328.858929	2105.140476
329.252859	2114.549789
329.646726	2125.675616
330.040528	2138.008799
330.434265	2152.912970
330.827938	2172.064314
331.221547	2189.045440
331.615091	2210.611497
332.008571	2230.468602
332.401986	2252.619432
332.795338	2267.296751
333.188625	2285.339041
333.581847	2308.326702
333.975006	2323.946717
334.368100	2339.924654
334.761129	2362.083046
335.154095	2376.271374
335.546996	2394.805176
335.939833	2409.323699
336.332606	2423.663261
336.725315	2436.548450
337.117960	2445.783844
337.510540	2452.382714
337.903056	2465.736731
338.295508	2472.244861
338.687896	2481.109730
339.080220	2490.284630
339.472480	2496.560866
339.864676	2496.893582
340.256807	2506.035715
340.648875	2505.561846
341.040879	2510.096364
341.432818	2512.145593
341.824694	2511.081910
342.216506	2513.148783
342.608253	2513.204236
342.999937	2514.048629
343.391557	2514.530059
343.783113	2512.095182
344.174605	2512.881602
344.566033	2506.381034
344.957397	2506.335663
345.348697	2506.892711
345.739934	2506.640653
346.131106	2503.270642
346.522215	2502.358193
346.913260	2497.695126
347.304241	2499.915754
347.695159	2496.981802
348.086012	2493.407624
348.476802	2493.495845
348.867528	2494.965341
349.258191	2490.700525
349.648789	2486.891933
350.039324	2489.105000
350.429796	2486.614670
350.820203	2487.791779
351.210548	2481.790285
351.600828	2486.526449
351.991045	2483.408496
352.381198	2483.514360
352.771288	2483.043012
353.161314	2480.991263
353.551276	2483.431181
353.941175	2481.094606
354.331010	2484.328506
354.720782	2480.630820
355.110490	2483.496716
355.500135	2479.685604
355.889717	2481.399596
356.279235	2480.230048
356.668689	2484.247848
357.058080	2486.203816
357.447408	2483.030409
357.836672	2480.333392
358.225873	2482.974957
358.615010	2479.393217
359.004084	2483.663074
359.393095	2485.165338
359.782043	2487.083497
360.170927	2488.613487
360.559748	2489.657006
360.948505	2486.181130
361.337199	2491.010556
361.725830	2489.329331
362.114398	2491.406286
362.502903	2491.325628
362.891344	2491.151708
363.279722	2491.431492
363.668037	2492.394352
364.056289	2491.675988
364.444478	2495.681185
364.832603	2494.625063
365.220665	2493.848725
365.608665	2494.907368
365.996601	2498.831906
366.384474	2497.737976
366.772284	2498.635301
367.160031	2501.231495
367.547715	2503.605879
367.935336	2503.550426
368.322893	2509.614934
368.710388	2512.455624
369.097820	2517.476613
369.485189	2518.172293
369.872495	2526.255783
370.259738	2532.842050
370.646918	2540.819676
371.034035	2546.904349
371.421090	2558.776266
371.808081	2567.807493
372.195010	2577.879719
372.581875	2590.210381
372.968678	2604.159254
373.355418	2611.985645
373.742096	2629.662451
374.128710	2643.790285
374.515262	2659.826195
374.901751	2676.139369
375.288177	2689.649661
375.674540	2712.851572
376.060841	2729.063923
376.447079	2747.196953
376.833254	2769.872063
377.219367	2781.217180
377.605417	2817.150524
377.991404	2828.427586
378.377329	2851.097654
378.763191	2864.560056
379.148991	2904.876684
379.534727	2928.824685
379.920402	2959.668985
380.306013	2970.477219
380.691563	3015.751821
381.077049	3040.559339
381.462474	3057.192627
381.847835	3095.175200
382.233134	3119.077831
382.618371	3117.048767
383.003545	3188.529808
383.388657	3192.459387
383.773706	3225.390725
384.158693	3241.555184
384.543618	3268.384205
384.928480	3301.590286
385.313280	3348.863706
385.698017	3348.684745
386.082692	3401.541243
386.467305	3407.081471
386.851856	3437.472067
387.236344	3461.057105
387.620770	3493.449039
388.005133	3518.576671
388.389435	3543.318654
388.773674	3557.113771
389.157851	3596.956531
389.541965	3612.616875
389.926018	3578.521031
390.310008	3649.145076
390.693936	3665.501099
391.077802	3708.693706
391.461606	3695.279195
391.845348	3754.275819
392.229027	3756.534256
392.612645	3770.594034
392.996200	3849.611600
393.379694	3888.955285
393.763125	3949.852423
394.146494	3914.647525
394.529801	3979.244871
394.913047	4023.896891
395.296230	3984.762414
395.679351	4038.821227
396.062410	4057.778486
396.445408	4035.678067
396.828343	4061.667736
397.211217	4079.498297
397.594028	3993.012262
397.976778	4052.631468
398.359466	4066.837439
398.742092	4087.238989
399.124656	3998.040813
399.507158	4061.324938
399.889598	4072.544026
400.271977	4115.804687
400.654294	4068.720310
401.036549	4051.494688
401.418742	4014.263246
401.800874	4082.835541
402.182944	4078.031322
402.564952	4112.028863
402.946898	4073.905137
403.328783	4046.503945
403.710606	3950.351497
404.092367	4077.370930
404.474067	4020.365563
404.855705	3997.241790
405.237282	3914.859254
405.618797	3962.576296
406.000250	3949.423925
406.381642	3974.649859
406.762972	3913.092329
407.144240	3883.636867
407.525447	3849.566229
407.906593	3848.706713
408.287677	3832.512006
408.668700	3753.227259
409.049661	3745.476485
409.430560	3723.635686
409.811399	3644.171977
410.192176	3685.804347
410.572891	3614.446814
410.953545	3620.342443
411.334138	3523.910211
411.714669	3513.109539
412.095139	3429.529729
412.475547	3440.711008
412.855894	3397.263824
413.236180	3357.395859
413.616405	3304.909885
413.996568	3294.925880
414.376670	3238.288517
414.756711	3185.805064
415.136691	3158.887823
415.516609	3144.349135
415.896466	3119.513891
416.276262	3095.787700
416.655997	3053.368911
417.035670	3057.406876
417.415283	3042.747200
417.794834	3002.281858
418.174324	2962.408852
418.553753	2920.511822
418.933121	2919.042326
419.312428	2897.267062
419.691674	2858.089735
420.070859	2849.300483
420.449983	2815.343271
420.829045	2803.017650
421.208047	2774.293155
421.586988	2760.888727
421.965867	2738.599265
422.344686	2729.000908
422.723444	2703.374203
423.102141	2678.720440
423.480777	2679.960564
423.859352	2649.890081
424.237866	2651.833446
424.616319	2638.076137
424.994712	2632.513224
425.373044	2614.397837
425.751314	2614.193671
426.129524	2597.101638
426.507673	2595.405290
426.885762	2587.591502
427.263789	2580.848958
427.641756	2573.272104
428.019662	2571.752196
428.397508	2565.203737
428.775292	2561.092677
429.153016	2558.720814
429.530679	2554.352654
429.908282	2553.354505
430.285824	2548.774617
430.663305	2551.693445
431.040726	2546.236396
431.418086	2544.804708
431.795385	2543.362938
432.172624	2543.113401
432.549802	2541.364121
432.926920	2541.026364
433.303977	2541.210366
433.680974	2541.104502
434.057910	2538.299099
434.434786	2537.653832
434.811601	2539.876981
435.188355	2539.214069
435.565050	2539.456044
435.941683	2537.174922
436.318257	2539.299768
436.694770	2533.232740
437.071222	2536.325488
437.447614	2534.556043
437.823946	2533.479756
438.200218	2537.253060
438.576429	2536.779192
438.952580	2536.454037
439.328670	2535.508821
439.704700	2535.350024
440.080670	2536.706095
440.456580	2536.252391
440.832429	2538.248688
441.208218	2537.058976
441.583947	2538.193235
441.959616	2535.818852
442.335224	2535.866743
442.710773	2539.085519
443.086261	2535.859181
443.461689	2537.527803
443.837057	2535.334901
444.212365	2536.446475
444.587612	2538.271373
444.962800	2537.668955
445.337927	2538.611651
445.712995	2534.651825
446.088002	2539.743390
446.462949	2539.259439
446.837837	2536.365817
447.212664	2539.289686
447.587431	2536.396064
447.962139	2537.058976
448.336786	2541.406971
448.711374	2542.841179
449.085901	2542.495860
449.460369	2540.176929
449.834776	2540.877650
450.209124	2541.578370
450.583412	2540.688606
450.957640	2539.198945
451.331808	2542.087527
451.705917	2542.362269
452.079965	2537.575694
452.453954	2539.609799
452.827883	2540.537372
453.201752	2542.289173
453.575562	2542.579039
453.949311	2540.812115
454.323001	2541.374203
454.696632	2539.781199
455.070202	2544.471992
455.443713	2541.124666
455.817164	2540.413863
456.190556	2537.910931
456.563888	2537.737011
456.937160	2539.861857
457.310373	2543.078113
457.683526	2540.983514
458.056619	2544.182126
458.429653	2537.953780
458.802628	2542.453010
459.175542	2541.865716
459.548398	2544.784544
459.921194	2545.016437
460.293930	2546.115408
460.666607	2547.000131
461.039224	2548.928372
461.411782	2548.182282
461.784280	2550.168496
462.156719	2550.775955
462.529099	2547.499205
462.901419	2547.153886
463.273680	2548.106664
463.645882	2547.736139
464.018024	2548.588094
464.390106	2546.420398
464.762130	2548.353681
465.134094	2548.280584
465.505999	2557.831050
465.877845	2555.930535
466.249631	2561.979920
466.621358	2559.814744
466.993026	2560.374312
467.364634	2560.550752
467.736184	2555.678477
468.107674	2555.766697
468.479105	2554.125802
468.850477	2553.447767
469.221790	2557.165618
469.593043	2554.140925
469.964238	2551.340564
470.335373	2553.740154
470.706449	2553.110009
471.077467	2551.781665
471.448425	2561.170814
471.819324	2562.095866
472.190164	2563.615774
472.560945	2559.940773
472.931667	2556.265772
473.302330	2556.686708
473.672934	2554.314845
474.043479	2557.367264
474.413965	2557.647048
474.784393	2548.572971
475.154761	2556.422047
475.525070	2552.666388
475.895321	2550.992725
476.265513	2554.897098
476.635645	2558.292316
477.005719	2559.285423
477.375734	2558.080587
477.745691	2557.064795
478.115588	2560.104610
478.485427	2558.761143
478.855207	2561.891699
479.224928	2565.521330
479.594591	2566.683316
479.964194	2565.733059
480.333739	2566.368244
480.703226	2565.564180
481.072653	2566.630384
481.442022	2566.211968
481.811333	2566.809345
482.180584	2567.028635
482.549777	2564.941598
482.918912	2566.244736
483.287988	2567.119376
483.657005	2561.284240
484.025964	2561.208623
484.394864	2563.666186
484.763706	2564.414797
485.132489	2562.766340
485.501213	2563.172153
485.869879	2559.885320
486.238487	2561.443037
486.607036	2564.606361
486.975527	2561.806000
487.343959	2560.066802
487.712333	2561.206102
488.080648	2562.877245
488.448905	2561.884138
488.817104	2561.551422
489.185244	2560.008828
489.553326	2562.418500
489.921350	2567.626012
490.289315	2567.837740
490.657222	2566.733728
491.025070	2565.816238
491.392861	2565.246587
491.760593	2566.574931
492.128267	2564.137533
492.495883	2562.317677
492.863440	2564.223233
493.230939	2562.932698
493.598380	2561.909343
493.965763	2555.953220
494.333088	2561.543860
494.700354	2556.900957
495.067563	2557.826009
495.434713	2555.214691
495.801805	2560.797769
496.168839	2561.201061
496.535815	2560.545711
496.902733	2562.577296
497.269593	2561.763150
497.636395	2562.242060
498.003139	2560.759960
498.369825	2560.563355
498.736453	2564.127451
499.103023	2560.674261
499.469535	2558.990515
499.835989	2559.124106
500.202385	2561.006977
500.568723	2563.013356
500.935003	2563.686350
501.301226	2561.188458
501.667390	2562.988150
502.033497	2562.098387
502.399546	2562.022769
502.765537	2562.501679
503.131470	2563.116700
503.497345	2564.225754
503.863163	2560.644014
504.228923	2565.924623
504.594625	2563.585527
504.960269	2563.527554
505.325856	2563.081412
505.691385	2562.597461
506.056856	2563.333469
506.422270	2562.136195
506.787625	2564.903789
507.152924	2561.324570
507.518164	2563.482183
507.883347	2562.743654
508.248472	2561.702656
508.613540	2562.080743
508.978550	2563.562842
509.343503	2560.754919
509.708398	2560.941442
510.073236	2563.910682
510.438016	2564.124931
510.802738	2563.646021
511.167403	2562.841957
511.532010	2563.109138
511.896561	2562.350444
512.261053	2565.468398
512.625488	2560.069322
512.989866	2560.644014
513.354186	2562.025290
513.718449	2559.277861
514.082655	2560.409600
514.446803	2563.772050
514.810894	2562.521844
515.174927	2563.358675
515.538904	2561.753068
515.902822	2563.489745
516.266684	2563.124262
516.630488	2565.276834
516.994235	2565.198696
517.357925	2561.682492
517.721558	2564.732390
518.085133	2564.248439
518.448651	2564.165260
518.812112	2565.143244
519.175516	2564.071998
519.538863	2564.734910
519.902152	2565.523851
520.265385	2564.167780
520.628560	2562.584858
520.991678	2566.791701
521.354739	2564.132492
521.717743	2565.024777
522.080690	2564.992009
522.443580	2564.301371
522.806413	2564.014025
523.169189	2566.406053
523.531908	2564.654252
523.894569	2566.794222
524.257174	2567.003429
524.619722	2563.346072
524.982213	2564.359344
525.344647	2562.786504
525.707025	2562.559652
526.069345	2565.491083
526.431608	2566.262380
526.793815	2563.429251
527.155964	2563.633418
527.518057	2565.347410
527.880093	2566.832030
528.242072	2567.515107
528.603995	2563.434293
528.965860	2564.871021
529.327669	2562.317677
529.689421	2563.729200
530.051117	2565.150805
530.412755	2560.923798
530.774337	2563.333469
531.135862	2564.059396
531.497331	2565.549057
531.858743	2557.737789
532.220098	2559.734086
532.581396	2557.889023
532.942638	2560.326421
533.303824	2564.588717
533.664953	2564.918912
534.026025	2562.380691
534.387040	2563.812379
534.747999	2562.209292
535.108902	2563.565363
535.469748	2565.687688
535.830537	2563.714077
536.191270	2563.063768
536.551947	2565.128120
536.912567	2561.546380
537.273131	2562.070660
537.633638	2563.615774
537.994089	2562.930177
538.354483	2564.170301
538.714821	2561.574107
539.075103	2564.029149
539.435328	2564.331618
539.795497	2563.073850
540.155609	2565.423028
540.515665	2565.254149
540.875665	2562.738613
541.235609	2562.463870
541.595496	2563.242729
541.955328	2564.059396
542.315102	2564.344221
542.674821	2562.587379
543.034483	2564.248439
543.394090	2562.171483
543.753640	2564.170301
544.113134	2562.088304
544.472571	2563.598130
544.831953	2561.929508
545.191278	2562.110990
545.550548	2564.329097
545.909761	2564.160219
546.268918	2562.405897
546.628019	2564.520661
546.987064	2562.418500
547.346053	2562.252142
547.704986	2560.530588
548.063863	2562.889848
548.422684	2565.463357
548.781449	2564.321536
549.140158	2563.824982
549.498811	2567.656259
549.857408	2563.013356
550.215949	2562.756257
550.574434	2557.553787
550.932864	2561.891699
551.291237	2558.496482
551.649555	2563.951011
552.007817	2559.300546
552.366022	2565.589386
552.724173	2562.345403
553.082267	2565.077709
553.440305	2563.593089
553.798288	2561.372461
554.156215	2561.962276
554.514086	2564.187945
554.871902	2567.794891
555.229661	2564.775239
555.587365	2562.758778
555.945014	2563.686350
556.302606	2562.337842
556.660143	2566.189283
557.017625	2562.874724
557.375050	2564.157698
557.732421	2563.484704
558.089735	2563.154508
558.446994	2561.158212
558.804197	2563.877914
559.161345	2562.615105
559.518437	2562.650393
559.875474	2563.038562
560.232455	2564.445044
560.589381	2562.713407
560.946251	2566.123748
561.303065	2562.468912
561.659825	2565.917061
562.016528	2560.850701
562.373177	2562.408418
562.729770	2561.541339
563.086307	2566.995868
563.442789	2562.421021
563.799216	2561.667368
564.155587	2561.992522
564.511904	2563.535116
564.868164	2562.055537
565.224370	2563.220043
565.580520	2562.335321
565.936615	2561.619477
566.292654	2559.368602
566.648638	2562.801628
567.004567	2562.292471
567.360441	2563.477142
567.716260	2561.700136
568.072023	2562.433623
568.427732	2558.105793
568.783385	2559.812223
569.138982	2558.844322
569.494525	2559.618139
569.850013	2555.053374
570.205445	2561.380022
570.560823	2560.336503
570.916145	2561.813562
571.271412	2562.642831
571.626625	2561.627039
571.981782	2560.908674
572.336884	2563.976217
572.691931	2561.702656
573.046923	2563.046124
573.401860	2562.116031
573.756743	2560.384394
574.111570	2560.366750
574.466342	2561.301884
574.821059	2558.791390
575.175722	2560.477656
575.530330	2561.170814
575.884882	2561.218705
576.239380	2558.030176
576.593823	2562.572255
576.948211	2561.793397
577.302544	2558.592264
577.656823	2558.819116
578.011047	2559.192162
578.365216	2561.100238
578.719330	2559.958417
579.073389	2565.047462
579.427394	2562.589899
579.781344	2559.068653
580.135239	2561.090156
580.489080	2558.874569
580.842866	2559.035886
581.196597	2562.746175
581.550273	2562.395815
581.903895	2558.680484
582.257463	2561.412790
582.610975	2560.674261
582.964434	2561.712738
583.317837	2561.057388
583.671186	2561.735424
584.024481	2561.644683
584.377721	2559.686195
584.730906	2555.325597
585.084037	2557.747871
585.437113	2560.545711
585.790135	2558.688046
586.143103	2557.122768
586.496016	2560.074363
586.848874	2555.297870
587.201679	2556.709393
587.554428	2554.435833
587.907124	2558.219219
588.259765	2553.329300
588.612352	2556.719476
588.964884	2559.925649
589.317362	2559.759291
589.669786	2557.868859
590.022155	2559.093859
590.374470	2560.908674
590.726731	2558.877089
591.078937	2558.488921
591.431090	2560.782646
591.783188	2556.462377
592.135232	2558.955227
592.487222	2560.651576
592.839157	2559.434137
593.191038	2557.904147
593.542866	2555.910370
593.894639	2555.880123
594.246358	2556.704352
594.598022	2556.890875
594.949633	2557.770556
595.301190	2558.176369
595.652692	2556.855587
596.004141	2555.680998
596.355535	2558.662840
596.706876	2555.383570
597.058162	2558.080587
597.409395	2557.543704
597.760573	2555.491955
598.111698	2554.796275
598.462768	2558.466235
598.813785	2558.945145
599.164748	2555.849877
599.515657	2556.948848
599.866511	2556.306101
600.217312	2554.700493
600.568060	2556.492624
600.918753	2557.964641
601.269392	2555.302911
601.619978	2556.963972
601.970510	2554.927345
602.320988	2554.844166
602.671412	2556.984136
603.021783	2556.868190
603.372100	2557.241235
603.722363	2555.907850
604.072572	2557.400031
604.422728	2558.355330
604.772830	2552.880637
605.122878	2552.003476
605.472872	2552.782334
605.822813	2552.011038
606.172701	2554.503888
606.522534	2554.332489
606.872314	2557.977243
607.222041	2558.047820
607.571714	2555.403734
607.921333	2556.343910
608.270899	2558.065464
608.620411	2558.914898
608.969870	2557.919270
609.319276	2559.910526
609.668627	2564.422359
610.017926	2562.292471
610.367171	2561.480845
610.716362	2564.918912
611.065500	2559.562686
611.414585	2559.224929
611.763616	2560.586041
612.112594	2557.780638
612.461518	2557.576472
612.810389	2558.347768
613.159207	2557.551266
613.507971	2557.268961
613.856682	2556.984136
614.205340	2557.510937
614.553945	2559.280382
614.902496	2556.878272
615.250994	2557.465566
615.599439	2559.797100
615.947830	2556.820299
616.296169	2557.092521
616.644454	2554.864331
616.992686	2557.352140
617.340864	2554.526574
617.688990	2553.866183
618.037063	2556.699311
618.385082	2555.192006
618.733048	2555.943138
619.080961	2557.263920
619.428821	2558.554456
619.776628	2557.127809
620.124382	2555.381049
620.472083	2557.352140
620.819731	2557.490772
621.167326	2556.187634
621.514868	2556.638817
621.862357	2555.935576
622.209793	2556.550597
622.557176	2556.858107
622.904506	2556.928683
623.251783	2553.593960
623.599007	2552.353836
623.946179	2553.213353
624.293297	2552.575647
624.640363	2552.782334
624.987376	2556.681667
625.334336	2554.024979
625.681243	2554.128322
626.028097	2554.720658
626.374899	2553.868703
626.721647	2555.617983
627.068343	2554.211502
627.414987	2556.676626
627.761577	2555.761656
628.108115	2553.407437
628.454600	2553.319217
628.801032	2554.962633
629.147412	2553.246121
629.493739	2553.362067
629.840014	2555.925494
630.186236	2553.276367
630.532405	2554.372818
630.878521	2555.212171
631.224585	2553.689742
631.570597	2554.967675
631.916556	2554.312325
632.262462	2552.895760
632.608316	2550.128167
632.954117	2552.439536
633.299866	2553.450287
633.645562	2548.751932
633.991206	2554.433312
634.336797	2553.155380
634.682336	2553.712427
635.027823	2549.291335
635.373257	2551.365770
635.718639	2552.142108
636.063968	2553.924156
636.409245	2551.269988
636.754470	2551.736295
637.099642	2550.518856
637.444762	2554.816440
637.789829	2549.881150
638.134845	2550.246634
638.479808	2549.162786
638.824719	2549.543393
639.169577	2550.032385
639.514383	2552.202602
639.859137	2548.809905
640.203839	2552.063970
640.548489	2550.302087
640.893086	2546.806047
641.237632	2544.255223
641.582125	2547.025337
641.926566	2543.768751
642.270955	2547.703372
642.615292	2549.235883
642.959576	2551.484237
643.303809	2548.527601
643.647990	2549.649257
643.992118	2548.827549
644.336195	2549.596325
644.680219	2548.925852
645.024192	2549.586243
645.368112	2551.035575
645.711981	2547.617672
646.055797	2549.021634
646.399562	2548.706562
646.743274	2550.271840
647.086935	2550.833928
647.430544	2549.550955
647.774101	2549.140101
648.117606	2550.506253
648.461059	2550.060111
648.804460	2550.072714
649.147810	2548.514998
649.491108	2548.724206
649.834354	2551.292673
650.177548	2551.143959
650.520690	2549.767724
650.863781	2549.803012
651.206820	2549.800492
651.549807	2550.395348
651.892742	2549.558517
652.235626	2549.349309
652.578458	2548.557847
652.921238	2547.600028
653.263967	2550.846531
653.606644	2545.389482
653.949269	2547.970553
654.291843	2546.828732
654.634365	2548.139432
654.976836	2549.561037
655.319255	2549.334185
655.661622	2547.194215
656.003938	2547.879812
656.346203	2548.489792
656.688416	2550.097920
657.030577	2549.669422
657.372687	2549.624052
657.714746	2547.146324
658.056753	2547.552137
658.398708	2545.644061
658.740612	2546.506098
659.082465	2543.975439
659.424266	2544.222455
659.766016	2542.085006
660.107715	2547.327806
660.449362	2546.576674
660.790958	2548.212528
661.132503	2546.047353
661.473996	2547.721016
661.815438	2545.661705
662.156829	2548.169679
662.498168	2547.116077
662.839456	2549.230842
663.180693	2546.944678
663.521879	2547.655481
663.863013	2546.506098
664.204097	2550.586912
664.545129	2548.177240
664.886110	2547.985677
665.227040	2547.554658
665.567918	2548.378887
665.908746	2547.852086
666.249522	2549.382076
666.590248	2547.791592
666.930922	2547.673125
667.271545	2547.980635
667.612118	2549.140101
667.952639	2550.763352
668.293109	2550.120605
668.633528	2543.332692
668.973896	2545.495347
669.314213	2547.244627
669.654480	2547.461397
669.994695	2547.027857
670.334859	2548.837632
670.674973	2548.061294
671.015035	2550.460883
671.355047	2546.798485
671.695008	2547.630275
672.034918	2546.087682
672.374777	2547.146324
672.714585	2546.233876
673.054342	2547.637837
673.394049	2548.189843
673.733705	2547.438711
674.073310	2549.692107
674.412864	2547.030378
674.752368	2548.953578
675.091820	2548.406613
675.431223	2548.762014
675.770574	2546.737991
676.109875	2544.386293
676.449125	2543.912424
676.788324	2542.730274
677.127473	2546.498536
677.466571	2540.454193
677.805619	2545.258412
678.144616	2547.950388
678.483562	2545.802857
678.822458	2545.633978
679.161303	2549.303938
679.500098	2545.558361
679.838842	2545.717157
680.177535	2545.208001
680.516179	2546.551468
680.854771	2549.492982
681.193314	2548.514998
681.531805	2544.247661
681.870247	2548.111705
682.208638	2549.586243
682.546978	2549.220759
682.885268	2548.366284
683.223508	2549.011551
683.561697	2547.912580
683.899836	2548.852755
684.237925	2547.950388
684.575963	2547.975594
684.913951	2545.122301
685.251889	2549.631613
685.589776	2546.024668
685.927614	2549.427447
686.265401	2546.808567
686.603137	2549.319062
686.940824	2547.408464
687.278460	2545.749925
687.616046	2547.988197
687.953582	2551.282591
688.291068	2547.894936
688.628504	2546.841335
688.965889	2548.152035
689.303224	2547.037940
689.640510	2544.096426
689.977745	2546.314534
690.314930	2545.613814
690.652065	2550.092879
690.989150	2546.400234
691.326185	2546.828732
691.663170	2544.212373
692.000105	2544.167003
692.336990	2544.431663
692.673825	2546.783361
693.010610	2548.298228
693.347345	2543.972918
693.684030	2542.077444
694.020665	2541.374203
694.357251	2540.471837
694.693786	2542.828576
695.030272	2542.979811
695.366707	2546.551468
695.703093	2544.025850
696.039429	2546.879143
696.375716	2544.260264
696.711952	2544.043494
697.048139	2544.968546
697.384276	2543.703216
697.720363	2543.899821
698.056400	2544.756817
698.392388	2543.453679
698.728326	2544.391334
699.064214	2545.336550
699.400053	2541.079296
699.735842	2543.153731
700.071581	2543.917465
700.407270	2543.688093
700.742910	2544.668597
701.078501	2541.525438
701.414042	2543.582229
701.749533	2544.797147
702.084974	2544.411498
702.420366	2543.617517
702.755709	2543.635161
703.091002	2543.441076
703.426246	2543.516694
703.761440	2541.651467
704.096584	2545.008875
704.431679	2541.391847
704.766725	2544.842517
705.101721	2543.834286
705.436668	2543.292362
705.771565	2541.843031
706.106413	2544.287990
706.441212	2537.787422
706.775961	2541.180119
707.110661	2544.056097
707.445311	2544.847558
707.779913	2542.226158
708.114465	2545.679349
708.448967	2545.518032
708.783421	2542.631971
709.117825	2542.301776
709.452180	2544.348484
709.786485	2545.278577
710.120742	2544.797147
710.454949	2543.461241
710.789107	2540.484440
711.123216	2539.473688
711.457275	2545.671787
711.791286	2539.544264
712.125247	2543.478885
712.459159	2545.117260
712.793023	2544.688762
713.126837	2545.752445
713.460602	2541.412012
713.794318	2544.124153
714.127985	2544.217414
714.461602	2542.440407
714.795171	2543.481406
715.128691	2542.463092
715.462162	2541.008720
715.795584	2542.379913
716.128957	2541.384286
716.462281	2542.495860
716.795556	2539.849254
717.128782	2539.093081
717.461960	2541.291024
717.795088	2541.180119
718.128167	2541.981662
718.461198	2544.794626
718.794180	2543.310006
719.127113	2543.103319
719.459997	2543.239430
719.792833	2540.434028
720.125619	2544.096426
720.458357	2541.200283
720.791046	2541.331353
721.123686	2541.033925
721.456278	2542.780685
721.788821	2541.568288
722.121315	2542.815973
722.453761	2542.379913
722.786158	2541.533000
723.118506	2541.711961
723.450805	2540.897814
723.783056	2540.534851
724.115259	2545.500388
724.447412	2543.350336
724.779518	2543.085675
725.111574	2543.196580
725.443582	2540.156765
725.775542	2538.422608
726.107453	2540.607948
726.439315	2541.217927
726.771129	2546.889226
727.102895	2539.750952
727.434612	2542.153062
727.766281	2543.158772
728.097901	2538.609130
728.429473	2537.991589
728.760996	2538.813297
729.092471	2536.305323
729.423897	2543.809081
729.755276	2542.447969
730.086606	2543.080634
730.417887	2541.860675
730.749120	2539.198945
731.080305	2542.359749
731.411442	2543.814122
731.742530	2543.582229
732.073570	2540.650798
732.404562	2542.016950
732.735506	2543.451159
733.066401	2542.959646
733.397249	2543.123484
733.728048	2542.528628
734.058798	2542.357228
734.389501	2540.640715
734.720156	2540.008051
735.050762	2539.677855
735.381320	2538.778009
735.711831	2540.804553
736.042293	2538.578883
736.372707	2541.285983
736.703073	2542.289173
737.033391	2538.795653
737.363661	2541.306148
737.693883	2539.670293
738.024056	2543.214224
738.354182	2541.885880
738.684260	2543.708257
739.014290	2542.432846
739.344272	2541.800181
739.674207	2539.539223
740.004093	2543.438556
740.333931	2540.071065
740.663722	2542.301776
740.993464	2539.617361
741.323159	2541.732125
741.652806	2541.288504
741.982405	2541.588452
742.311956	2538.278935
742.641460	2539.246836
742.970915	2539.259439
743.300323	2541.472506
743.629683	2540.189532
743.958996	2542.846220
744.288260	2539.198945
744.617477	2541.598535
744.946647	2535.289531
745.275768	2538.404964
745.604842	2535.907072
745.933869	2536.300282
746.262847	2536.789274
746.591778	2540.701209
746.920662	2537.827752
747.249498	2541.505273
747.578286	2536.663245
747.907027	2540.620551
748.235720	2539.733308
748.564365	2540.371014
748.892963	2539.652649
749.221514	2537.923533
749.550017	2541.164995
749.878473	2543.045346
750.206881	2541.159954
750.535242	2538.944367
750.863555	2540.766744
751.191821	2537.865560
751.520039	2539.012423
751.848210	2540.986034
752.176334	2540.434028
752.504411	2540.159285
752.832440	2538.074768
753.160421	2540.376055
753.488356	2539.781199
753.816243	2540.464275
754.144082	2542.611807
754.471875	2538.374717
754.799620	2541.396888
755.127318	2536.829603
755.454969	2540.043339
755.782572	2541.167516
756.110129	2540.418905
756.437638	2539.521579
756.765100	2537.119469
757.092515	2539.914789
757.419882	2536.915303
757.747203	2538.909079
758.074477	2539.733308
758.401703	2538.208359
758.728882	2537.744573
759.056014	2540.945705
759.383099	2538.893956
759.710138	2536.469161
760.037129	2542.014430
760.364073	2539.629964
760.690970	2539.440921
761.017820	2536.083512
761.344623	2539.387989
761.671379	2539.718184
761.998088	2535.750796
762.324751	2537.777340
762.651366	2539.869419
762.977935	2542.604245
763.304456	2543.100798
763.630931	2546.112888
763.957359	2545.545758
764.283740	2542.858823
764.610074	2543.640202
764.936362	2540.076106
765.262602	2538.488143
765.588796	2540.829759
765.914943	2538.624254
766.241044	2539.352701
766.567097	2536.612833
766.893104	2537.701723
767.219064	2539.022505
767.544978	2538.236085
767.870845	2537.885725
768.196665	2537.779861
768.522438	2537.162319
768.848165	2538.362114
769.173846	2535.392874
769.499479	2538.893956
769.825066	2537.444624
770.150607	2536.887576
770.476101	2535.302133
770.801548	2538.914120
771.126949	2536.877494
771.452303	2539.052752
771.777611	2538.924203
772.102872	2535.463450
772.428087	2536.622916
772.753256	2534.871115
773.078378	2537.439583
773.403453	2536.690971
773.728482	2535.662576
774.053465	2538.654501
774.378401	2536.136444
774.703291	2534.969417
775.028135	2539.912269
775.352932	2536.585107
775.677683	2534.646783
776.002388	2537.774819
776.327046	2537.361445
776.651658	2535.743234
776.976224	2536.154088
777.300743	2536.559901
777.625216	2535.592000
777.949643	2537.265663
778.274024	2536.859850
778.598359	2534.646783
778.922647	2531.717873
779.246889	2532.869777
779.571086	2531.485980
779.895236	2535.352545
780.219339	2537.913451
780.543397	2537.023688
780.867409	2536.264994
781.191374	2534.782895
781.515294	2536.547298
781.839167	2538.969573
782.162995	2538.732639
782.486776	2535.690302
782.810511	2535.297092
783.134201	2536.885056
783.457844	2535.352545
783.781441	2536.822041
784.104993	2534.926568
784.428498	2539.934954
784.751958	2535.050076
785.075372	2537.517721
785.398739	2535.657535
785.722061	2534.881197
786.045337	2538.339429
786.368568	2537.351363
786.691752	2535.342463
787.014891	2538.735159
787.337983	2535.803728
787.661030	2539.569470
787.984031	2536.219623
788.306987	2535.039993
788.629897	2539.604758
788.952760	2537.931095
789.275579	2535.057638
789.598351	2537.197607
789.921078	2537.311033
790.243759	2537.341280
790.566395	2537.837834
790.888984	2534.361958
791.211529	2538.384799
791.534027	2535.871784
791.856480	2535.788605
792.178888	2535.135775
792.501249	2536.867412
792.823566	2536.680889
793.145836	2535.271887
793.468062	2536.028060
793.790241	2534.608975
794.112375	2537.442103
794.434464	2534.969417
794.756507	2535.738193
795.078505	2537.787422
795.400457	2533.368851
795.722364	2533.164684
796.044226	2535.576876
796.366042	2533.162164
796.687812	2531.307019
797.009538	2535.831455
797.331218	2535.549150
797.652852	2536.073430
797.974442	2540.373534
798.295986	2535.675179
798.617484	2534.878677
798.938938	2533.366330
799.260346	2536.534696
799.581709	2536.882535
799.903026	2538.594007
800.224299	2536.295241
800.545526	2535.319778
800.866708	2533.547812
801.187845	2538.152906
801.508936	2533.729293
801.829983	2536.385982
802.150984	2535.103008
802.471940	2535.586959
802.792851	2536.711136
803.113717	2534.840868
803.434538	2535.579397
803.755314	2535.294572
804.076045	2535.163502
804.396731	2536.338091
804.717372	2534.735004
805.037967	2536.748945
805.358518	2535.962525
805.679024	2539.002340
805.999485	2536.728780
806.319901	2535.662576
806.640272	2535.909592
806.960598	2538.820859
807.280879	2534.256094
807.601115	2536.527134
807.921306	2534.263656
808.241453	2534.815662
808.561554	2534.220806
808.881611	2533.754499
809.201623	2535.634850
809.521590	2536.070909
809.841513	2535.042514
810.161390	2534.994623
810.481223	2534.951773
810.801011	2534.772812
811.120755	2535.019829
811.440453	2537.421939
811.760107	2534.198121
812.079716	2533.782226
812.399281	2532.663089
812.718801	2531.362472
813.038276	2530.376926
813.357707	2532.451361
813.677093	2534.629139
813.996434	2533.048738
814.315731	2537.121990
814.634983	2533.313398
814.954191	2535.115611
815.273354	2537.928575
815.592473	2535.627288
815.911547	2532.932791
816.230577	2536.348173
816.549562	2535.191228
816.868502	2539.211548
817.187399	2533.653676
817.506250	2533.653676
817.825058	2535.924716
818.143821	2534.808100
818.462539	2535.140817
818.781213	2538.967052
819.099843	2533.499921
819.418429	2534.944212
819.736970	2539.060314
820.055466	2540.723894
820.373919	2540.222300
820.692327	2540.539892
821.010691	2542.894111
821.329011	2549.994576
821.647286	2561.143088
821.965517	2572.344532
822.283704	2577.264698
822.601847	2580.531366
822.919945	2571.124573
823.237999	2568.858574
823.556010	2562.708366
823.873976	2555.207129
824.191897	2551.088507
824.509775	2543.322609
824.827609	2545.218083
825.145398	2543.947712
825.463144	2543.120963
825.780845	2542.266487
826.098502	2545.805377
826.416116	2549.553475
826.733685	2552.731923
827.051210	2554.468600
827.368692	2552.018600
827.686129	2547.171530
828.003522	2543.748587
828.320872	2537.079140
828.638177	2539.929913
828.955439	2536.088553
829.272656	2537.033770
829.589830	2532.126207
829.906960	2537.026208
830.224046	2534.951773
830.541088	2537.169881
830.858086	2536.116280
831.175041	2536.451517
831.491952	2535.995292
831.808819	2536.796836
832.125642	2535.329860
832.442421	2533.154602
832.759157	2538.752803
833.075849	2540.003009
833.392497	2543.640202
833.709101	2545.959133
834.025662	2543.864533
834.342179	2542.289173
834.658653	2543.685572
834.975083	2538.883873
835.291469	2541.515356
835.607811	2539.035108
835.924110	2537.195087
836.240366	2535.060158
836.556578	2535.070240
836.872746	2538.130221
837.188871	2533.799870
837.504952	2537.638708
837.820990	2534.624098
838.136984	2533.741896
838.452935	2533.063861
838.768842	2532.947915
839.084706	2535.778523
839.400526	2535.571835
839.716303	2533.890610
840.032037	2537.535365
840.347727	2538.019315
840.663373	2534.220806
840.978977	2534.571166
841.294537	2536.209541
841.610054	2535.513862
841.925527	2536.144006
842.240957	2537.134593
842.556344	2533.046217
842.871687	2533.809952
843.186987	2532.773995
843.502244	2533.348686
843.817458	2533.993954
844.132629	2534.853471
844.447756	2533.555374
844.762840	2529.013294
845.077881	2529.517409
845.392879	2528.151257
845.707833	2530.349200
846.022745	2528.390712
846.337613	2534.447658
846.652438	2530.356762
846.967221	2533.015970
847.281960	2533.525127
847.596656	2534.145189
847.911309	2533.169725
848.225919	2535.649973
848.540485	2532.597554
848.855009	2533.104190
849.169490	2532.073274
849.483928	2533.081505
849.798323	2531.475898
850.112675	2530.986906
850.426984	2529.358613
850.741251	2534.059489
851.055474	2531.382636
851.369654	2532.030425
851.683792	2534.747607
851.997887	2533.419263
852.311938	2531.107893
852.625947	2534.142668
852.939914	2532.305167
853.253837	2531.380116
853.567718	2530.601258
853.881555	2532.920188
854.195350	2530.971782
854.509103	2532.940353
854.822812	2531.811134
855.136479	2531.301978
855.450103	2536.073430
855.763685	2533.835158
856.077224	2531.559077
856.390720	2532.201824
856.704173	2532.181659
857.017584	2533.268028
857.330953	2531.831299
857.644278	2532.113604
857.957561	2534.099818
858.270802	2533.235260
858.584000	2530.994468
858.897155	2529.378778
859.210268	2532.292565
859.523339	2533.860363
859.836367	2532.826927
860.149352	2534.803059
860.462295	2532.103521
860.775195	2529.403983
861.088054	2531.087729
861.400869	2530.976823
861.713642	2530.044210
862.026373	2531.846423
862.339062	2530.369364
862.651708	2533.504962
862.964312	2533.104190
863.276873	2533.099149
863.589392	2533.225178
863.901869	2532.615198
864.214303	2533.237781
864.526696	2532.027904
864.839045	2534.772812
865.151353	2530.762574
865.463619	2532.579910
865.775842	2535.138296
866.088023	2531.934643
866.400162	2533.625950
866.712258	2531.410363
867.024313	2533.199972
867.336325	2534.765251
867.648296	2533.280631
867.960224	2531.798532
868.272110	2531.004550
868.583954	2530.593696
868.895755	2531.715353
869.207515	2533.106711
869.519233	2532.189221
869.830909	2531.004550
870.142542	2532.002698
870.454134	2534.326670
870.765684	2532.282482
871.077191	2533.494880
871.388657	2534.679551
871.700081	2531.627132
872.011463	2530.417255
872.322803	2534.351876
872.634101	2532.037986
872.945357	2530.364323
873.256571	2534.593851
873.567744	2533.141999
873.878874	2533.477236
874.189963	2534.379602
874.501010	2532.337935
874.812015	2533.124355
875.122979	2537.757175
875.433900	2531.803573
875.744780	2532.254756
876.055618	2533.613347
876.366415	2533.651156
876.677169	2534.687113
876.987882	2530.906247
877.298554	2529.615712
877.609183	2531.614529
877.919771	2528.894827
878.230317	2529.298119
878.540822	2534.898841
878.851285	2535.768440
879.161707	2535.922195
879.472087	2534.654345
879.782425	2536.454037
880.092722	2538.543595
880.402977	2540.736497
880.713191	2546.208670
881.023363	2555.292829
881.333494	2558.398180
881.643583	2559.298026
881.953631	2559.146791
882.263637	2557.064795
882.573602	2556.371636
882.883526	2554.251831
883.193408	2548.578012
883.503248	2543.773792
883.813048	2542.773123
884.122806	2541.858154
884.432522	2539.882022
884.742197	2536.789274
885.051831	2538.896476
885.361424	2536.393543
885.670975	2535.027391
885.980485	2535.402957
886.289954	2534.482946
886.599382	2535.196269
886.908768	2534.193080
887.218113	2533.726773
887.527417	2535.523944
887.836680	2533.157123
888.145901	2531.397760
888.455082	2536.030580
888.764221	2532.849612
889.073319	2531.478418
889.382376	2532.532019
889.691392	2532.232071
890.000366	2531.120496
890.309300	2530.442461
890.618193	2534.399767
890.927044	2532.358100
891.235855	2530.291227
891.544625	2535.085364
891.853353	2535.067720
892.162041	2533.835158
892.470687	2532.869777
892.779293	2533.809952
893.087858	2531.264169
893.396381	2530.923891
893.704864	2533.386495
894.013306	2531.284334
894.321707	2540.544933
894.630068	2540.179450
894.938387	2541.154913
895.246665	2541.202804
895.554903	2540.791950
895.863100	2538.760365
896.171256	2538.190715
896.479371	2537.371527
896.787446	2536.769109
897.095480	2534.790456
897.403473	2534.571166
897.711425	2537.028729
898.019336	2534.818183
898.327207	2533.562935
898.635038	2534.215765
898.942827	2533.840199
899.250576	2533.535209
899.558284	2531.780888
899.865952	2532.232071
900.173579	2535.065199
900.481165	2532.605116
900.788711	2530.644107
901.096216	2531.927081
901.403681	2531.317101
901.711105	2533.774664
902.018489	2534.785415
902.325832	2534.392205
902.633135	2533.653676
902.940397	2530.182842
903.247619	2533.394057
903.554800	2534.172915
903.861941	2539.529141
904.169041	2542.332022
904.476101	2544.434184
904.783121	2543.209183
905.090100	2542.440407
905.397039	2541.593493
905.703938	2539.728267
906.010796	2539.539223
906.317614	2536.572504
906.624391	2537.172402
906.931129	2532.128727
907.237826	2533.131917
907.544483	2533.386495
907.851099	2532.970600
908.157675	2531.836340
908.464211	2532.705939
908.770707	2527.836185
909.077163	2527.659744
909.383578	2529.343490
909.689954	2530.109745
909.996289	2527.327028
910.302584	2530.487832
910.608839	2529.736700
910.915054	2531.102852
911.221229	2532.965559
911.527363	2532.514375
911.833458	2533.096629
912.139513	2533.767102
912.445527	2531.105373
912.751502	2531.584283
913.057436	2528.410876
913.363331	2531.627132
913.669186	2531.516227
913.975000	2532.204344
914.280775	2534.924047
914.586510	2533.633512
914.892205	2535.957483
915.197859	2539.249357
915.503475	2540.461754
915.809050	2541.177598
916.114585	2540.933102
916.420081	2541.643905
916.725536	2542.909235
917.030952	2542.344625
917.336328	2540.529810
917.641665	2538.377237
917.946961	2538.848585
918.252218	2535.055117
918.557435	2533.373892
918.862612	2534.843388
919.167750	2534.306506
919.472848	2533.462112
919.777906	2531.952287
920.082925	2533.666279
920.387904	2531.634694
920.692843	2530.545805
920.997743	2534.092257
921.302603	2530.689478
921.607423	2531.987575
921.912204	2530.835671
922.216946	2531.090249
922.521647	2531.760723
922.826310	2530.371885
923.130932	2532.078316
923.435516	2532.073274
923.740059	2530.830630
924.044564	2532.403470
924.349028	2532.070754
924.653454	2525.766791
924.957840	2525.592871
925.262186	2526.195289
925.566493	2527.974816
925.870761	2522.943745
926.174989	2529.018335
926.479178	2531.559077
926.783328	2529.227543
927.087438	2528.236956
927.391509	2534.097298
927.695541	2527.768129
927.999533	2533.474715
928.303486	2530.891124
928.607400	2529.721576
928.911275	2528.499096
929.215110	2531.097811
929.518906	2529.867770
929.822663	2530.417255
930.126381	2528.839374
930.430060	2530.402132
930.733699	2527.395084
931.037299	2528.937677
931.340861	2531.201155
931.644383	2529.393901
931.947866	2530.429858
932.251309	2528.264683
932.554714	2529.991278
932.858080	2531.647297
933.161407	2530.220650
933.464694	2529.532533
933.767943	2527.518592
934.071153	2531.024714
934.374323	2527.082532
934.677455	2530.704601
934.980548	2527.301822
935.283602	2529.124199
935.586617	2528.234436
935.889593	2528.173942
936.192530	2530.099663
936.495428	2528.312574
936.798287	2530.069416
937.101108	2529.267872
937.403890	2528.846936
937.706632	2529.225022
938.009336	2531.473377
938.312002	2530.823068
938.614628	2529.131761
938.917216	2528.020187
939.219765	2529.305681
939.522275	2531.675023
939.824747	2532.761392
940.127179	2528.204189
940.429573	2526.676719
940.731929	2527.137985
941.034246	2524.110772
941.336524	2528.012625
941.638763	2531.639735
941.940964	2531.344828
942.243126	2529.020856
942.545250	2529.388860
942.847335	2526.795186
943.149381	2528.690660
943.451389	2529.262831
943.753359	2529.852646
944.055290	2530.755013
944.357182	2529.552698
944.659036	2530.581093
944.960851	2526.888448
945.262628	2527.475742
945.564367	2530.704601
945.866067	2528.274765
946.167729	2529.421627
946.469352	2529.134282
946.770937	2530.818027
947.072484	2529.945908
947.373992	2528.247039
947.675462	2529.640918
947.976893	2530.654190
948.278286	2527.281658
948.579641	2529.333407
948.880958	2529.943387
949.182236	2530.243336
949.483476	2531.740558
949.784678	2528.584796
950.085841	2527.947090
950.386967	2529.346010
950.688054	2527.490866
950.989103	2530.702081
951.290114	2529.114117
951.591087	2528.718387
951.892021	2529.131761
952.192917	2531.070085
952.493776	2528.849457
952.794596	2531.672503
953.095378	2528.357944
953.396122	2528.151257
953.696828	2528.773839
953.997496	2528.930115
954.298126	2528.917512
954.598718	2527.858870
954.899272	2527.465660
955.199788	2531.853984
955.500266	2525.708818
955.800706	2526.311236
956.101108	2526.144878
956.401472	2525.645803
956.701798	2526.008766
957.002087	2525.885258
957.302337	2526.959024
957.602550	2529.255269
957.902724	2528.920033
958.202861	2528.841895
958.502960	2527.435413
958.803022	2530.079498
959.103045	2528.415917
959.403031	2529.807276
959.702979	2528.884745
960.002889	2531.523789
960.302762	2527.962213
960.602596	2528.650331
960.902393	2530.482790
961.202153	2529.033459
961.501875	2528.408356
961.801559	2528.463808
962.101205	2527.632018
962.400814	2526.248221
962.700385	2527.632018
962.999918	2527.435413
963.299414	2528.007584
963.598873	2527.677388
963.898293	2527.309384
964.197677	2528.985568
964.497022	2527.644621
964.796331	2528.700743
965.095601	2526.938859
965.394835	2529.701412
965.694030	2525.897861
965.993189	2525.741585
966.292309	2528.728469
966.591393	2526.724610
966.890439	2528.461288
967.189447	2529.633356
967.488419	2528.473891
967.787353	2526.830474
968.086249	2526.858201
968.385108	2530.288706
968.683930	2527.357275
968.982714	2529.078829
969.281462	2526.943900
969.580172	2528.859539
969.878844	2530.704601
970.177480	2526.893489
970.476078	2527.266534
970.774639	2531.803573
971.073162	2528.267203
971.371649	2522.366533
971.670098	2525.517254
971.968510	2525.376102
972.266885	2523.586492
972.565223	2527.571524
972.863524	2528.471370
973.161788	2527.725279
973.460014	2526.921215
973.758204	2529.613191
974.056356	2526.641431
974.354471	2528.529343
974.652550	2526.764939
974.950591	2530.286185
975.248595	2528.277286
975.546563	2530.016484
975.844493	2528.761236
976.142386	2529.403983
976.440243	2528.141174
976.738062	2529.550177
977.035845	2528.557070
977.333590	2529.933305
977.631299	2529.300640
977.928971	2525.935670
978.226606	2524.952645
978.524204	2526.573376
978.821765	2529.651000
979.119290	2528.857018
979.416777	2527.861390
979.714228	2526.979188
980.011642	2527.997502
980.309020	2531.574200
980.606360	2524.670340
980.903664	2528.027748
981.200931	2528.471370
981.498162	2528.667975
981.795356	2526.636390
982.092513	2527.755526
982.389633	2527.672347
982.686717	2529.386339
982.983764	2529.414066
983.280775	2527.198479
983.577749	2527.775691
983.874686	2530.752492
984.171587	2529.098994
984.468451	2526.429703
984.765279	2530.074457
985.062070	2528.824251
985.358824	2527.639580
985.655543	2528.438602
985.952224	2528.186545
986.248869	2527.190917
986.545478	2520.650020
986.842050	2528.252080
987.138586	2522.653878
987.435086	2527.185876
987.731549	2523.215967
988.027975	2528.511699
988.324366	2526.454908
988.620719	2528.763757
988.917037	2529.225022
989.213318	2528.236956
989.509563	2527.755526
989.805772	2524.549352
990.101944	2526.850639
990.398080	2528.040351
990.694180	2527.402645
990.990244	2527.332069
991.286271	2526.331400
991.582262	2528.226874
991.878217	2525.355937
992.174136	2526.553211
992.470019	2526.578417
992.765865	2528.854498
993.061676	2523.798220
993.357450	2531.425486
993.653188	2526.303674
993.948890	2525.575227
994.244556	2526.656555
994.540186	2528.864580
994.835780	2527.700073
995.131337	2527.319466
995.426859	2526.991791
995.722345	2525.716379
996.017795	2527.039682
996.313208	2527.465660
996.608586	2528.325177
996.903928	2525.605474
997.199234	2527.085053
997.494504	2525.449198
997.789738	2525.547501
998.084936	2529.366175
998.380099	2526.273427
998.675225	2529.736700
998.970316	2528.859539
999.265371	2528.602440
999.560390	2526.805269
999.855373	2528.136133
1000.150320	2528.032790
1000.445232	2531.458254
1000.740108	2526.868283
1001.034948	2529.257790
1001.329752	2525.247552
1001.624521	2528.312574
1001.919254	2524.143539
1002.213951	2520.907119
1002.508613	2524.249404
1002.803239	2524.630011
1003.097829	2521.849814
1003.392384	2528.186545
1003.686903	2523.538601
1003.981386	2527.637059
1004.275834	2526.724610
1004.570246	2527.022038
1004.864623	2525.993643
1005.158964	2527.952131
1005.453270	2526.860721
1005.747540	2526.520443
1006.041775	2525.277799
1006.335974	2529.315763
1006.630138	2530.195445
1006.924266	2526.717048
1007.218359	2525.151770
1007.512416	2527.064888
1007.806438	2524.045237
1008.100425	2524.345186
1008.394376	2524.380474
1008.688292	2525.542460
1008.982172	2524.927439
1009.276017	2529.048582
1009.569827	2525.013138
1009.863602	2527.725279
1010.157341	2528.761236
1010.451045	2526.545649
1010.744714	2526.686802
1011.038347	2527.952131
1011.331945	2525.391225
1011.625508	2527.566483
1011.919036	2528.733510
1012.212528	2528.226874
1012.505986	2526.775022
1012.799408	2528.057995
1013.092795	2524.882068
1013.386147	2528.005063
1013.679464	2526.152439
1013.972745	2526.570855
1014.265992	2526.278468
1014.559204	2526.888448
1014.852380	2526.175124
1015.145521	2528.234436
1015.438628	2525.423993
1015.731699	2527.327028
1016.024736	2527.110258
1016.317737	2526.651513
1016.610703	2528.083201
1016.903635	2522.427027
1017.196531	2523.258817
1017.489393	2524.299815
1017.782219	2520.395442
1018.075011	2526.134795
1018.367768	2528.688140
1018.660490	2525.534898
1018.953177	2525.534898
1019.245829	2525.534898
