Dividing Wavelength (nm)	Counts (n)	Blue Motor Position (mm): 0.000000	Red Motor Position (mm): 33.400000	
326.493990	2129.698457
326.888308	2129.698457
327.282561	2129.698457
327.676750	2094.692684
328.070874	2094.498600
328.464933	2096.061358
328.858929	2103.061000
329.252859	2111.792278
329.646726	2124.589247
330.040528	2134.898407
330.434265	2153.129740
330.827938	2168.427121
331.221547	2187.754905
331.615091	2206.999510
332.008571	2224.149515
332.401986	2245.720613
332.795338	2266.351535
333.188625	2286.206119
333.581847	2304.298820
333.975006	2322.890596
334.368100	2340.343070
334.761129	2358.047603
335.154095	2373.372710
335.546996	2395.578993
335.939833	2412.325706
336.332606	2426.761050
336.725315	2441.488781
337.117960	2451.810543
337.510540	2457.532253
337.903056	2468.600106
338.295508	2478.019502
338.687896	2483.723568
339.080220	2491.595330
339.472480	2501.733090
339.864676	2503.346259
340.256807	2508.619306
340.648875	2512.911849
341.040879	2511.591066
341.432818	2514.197343
341.824694	2517.758918
342.216506	2515.934020
342.608253	2516.949813
342.999937	2520.042561
343.391557	2517.632889
343.783113	2515.480317
344.174605	2515.475275
344.566033	2513.680625
344.957397	2512.437980
345.348697	2509.627537
345.739934	2510.214831
346.131106	2505.508914
346.522215	2506.517145
346.913260	2501.334839
347.304241	2500.495487
347.695159	2500.011536
348.086012	2498.864673
348.476802	2496.160094
348.867528	2495.986175
349.258191	2492.288488
349.648789	2495.419045
350.039324	2489.742706
350.429796	2491.250011
350.820203	2489.319249
351.210548	2487.874958
351.600828	2489.099958
351.991045	2488.006028
352.381198	2485.583754
352.771288	2487.627942
353.161314	2487.194402
353.551276	2487.937973
353.941175	2487.396048
354.331010	2488.623569
354.720782	2485.508136
355.110490	2487.164155
355.500135	2485.210708
355.889717	2483.269864
356.279235	2486.198774
356.668689	2485.424957
357.058080	2486.967550
357.447408	2487.201964
357.836672	2487.781697
358.225873	2486.634834
358.615010	2482.614514
359.004084	2489.155411
359.393095	2488.686584
359.782043	2491.078611
360.170927	2490.019969
360.559748	2491.164311
360.948505	2492.555669
361.337199	2491.670947
361.725830	2494.352841
362.114398	2494.393170
362.502903	2495.865187
362.891344	2496.381905
363.279722	2496.550784
363.668037	2499.600682
364.056289	2498.612616
364.444478	2498.965497
364.832603	2496.155053
365.220665	2497.712770
365.608665	2498.705877
365.996601	2502.655621
366.384474	2498.463902
366.772284	2504.137720
367.160031	2504.551095
367.547715	2507.870695
367.935336	2506.970849
368.322893	2513.226921
368.710388	2516.112981
369.097820	2524.365350
369.485189	2522.830319
369.872495	2534.024201
370.259738	2538.767927
370.646918	2544.625747
371.034035	2551.539690
371.421090	2560.999415
371.808081	2568.578790
372.195010	2579.991962
372.581875	2593.489652
372.968678	2609.719647
373.355418	2617.596449
373.742096	2638.149234
374.128710	2653.660864
374.515262	2665.063954
374.901751	2681.813188
375.288177	2691.681246
375.674540	2719.203426
376.060841	2734.352093
376.447079	2754.930083
376.833254	2774.454472
377.219367	2785.192130
377.605417	2824.132522
377.991404	2837.110973
378.377329	2858.742564
378.763191	2872.837630
379.148991	2910.704258
379.534727	2934.690068
379.920402	2964.349696
380.306013	2978.583394
380.691563	3028.160622
381.077049	3049.772048
381.462474	3065.001374
381.847835	3105.378496
382.233134	3126.226187
382.618371	3124.429016
383.003545	3195.184131
383.388657	3205.455482
383.773706	3232.866756
384.158693	3251.340064
384.543618	3276.311420
384.928480	3312.237203
385.313280	3357.962988
385.698017	3357.342927
386.082692	3410.892583
386.467305	3414.575146
386.851856	3449.313737
387.236344	3471.502376
387.620770	3504.980679
388.005133	3527.933052
388.389435	3556.261816
388.773674	3568.138775
389.157851	3608.490691
389.541965	3620.239100
389.926018	3588.487392
390.310008	3660.722086
390.693936	3677.471319
391.077802	3719.728791
391.461606	3708.159343
391.845348	3772.247532
392.229027	3772.383643
392.612645	3785.737660
392.996200	3865.413096
393.379694	3903.599837
393.763125	3965.021255
394.146494	3935.538067
394.529801	3994.378415
394.913047	4044.275755
395.296230	4008.029859
395.679351	4064.752922
396.062410	4089.411726
396.445408	4066.892892
396.828343	4104.822534
397.211217	4126.449084
397.594028	4045.510838
397.976778	4112.689254
398.359466	4139.883759
398.742092	4166.463242
399.124656	4090.654371
399.507158	4170.849046
399.889598	4194.920556
400.271977	4257.438425
400.654294	4228.045978
401.036549	4236.711721
401.418742	4203.893810
401.800874	4311.507321
402.182944	4328.783355
402.564952	4395.908839
402.946898	4383.018609
403.328783	4378.310171
403.710606	4291.357829
404.092367	4482.604082
404.474067	4448.442703
404.855705	4457.925114
405.237282	4384.893918
405.618797	4495.378366
406.000250	4529.040671
406.381642	4611.302219
406.762972	4569.362340
407.144240	4580.659566
407.525447	4581.274587
407.906593	4639.144512
408.287677	4681.885935
408.668700	4612.426397
409.049661	4663.515970
409.430560	4704.303946
409.811399	4630.549345
410.192176	4788.445845
410.572891	4730.079366
410.953545	4832.840766
411.334138	4715.739804
411.714669	4778.950832
412.095139	4678.697405
412.475547	4820.575639
412.855894	4800.211898
413.236180	4812.469464
413.616405	4762.395682
413.996568	4847.727294
414.376670	4789.443993
414.756711	4748.101491
415.136691	4779.896048
415.516609	4853.050752
415.896466	4891.958377
416.276262	4926.807874
416.655997	4907.185183
417.035670	5090.484057
417.415283	5182.530485
417.794834	5127.705417
418.174324	5078.105504
418.553753	4987.541175
418.933121	5170.308208
419.312428	5239.054423
419.691674	5177.020504
420.070859	5302.514988
420.449983	5215.779415
420.829045	5331.065563
421.208047	5232.558896
421.586988	5309.055885
421.965867	5317.278007
422.344686	5452.912772
422.723444	5308.771060
423.102141	5130.470489
423.480777	5422.872536
423.859352	5195.955078
424.237866	5451.884376
424.616319	5443.344662
424.994712	5551.416918
425.373044	5429.579791
425.751314	5569.643210
426.129524	5375.281523
426.507673	5568.803857
426.885762	5654.937012
427.263789	5586.752886
427.641756	5465.407272
428.019662	5588.943267
428.397508	5594.639771
428.775292	5544.931473
429.153016	5640.423530
429.530679	5568.372839
429.908282	5649.167412
430.285824	5520.128997
430.663305	5796.822808
431.040726	5532.719278
431.418086	5532.699114
431.795385	5640.204240
432.172624	5652.116487
432.549802	5641.691380
432.926920	5655.055479
433.303977	5667.053425
433.680974	5702.364187
434.057910	5720.340942
434.434786	5726.355039
434.811601	5693.970666
435.188355	5931.272901
435.565050	5801.173323
435.941683	5786.637156
436.318257	5998.721019
436.694770	5982.455736
437.071222	6019.147775
437.447614	5950.144461
437.823946	5862.335123
438.200218	6015.881107
438.576429	5880.725252
438.952580	5980.416590
439.328670	6021.731366
439.704700	5930.970432
440.080670	5920.270583
440.456580	6191.114135
440.832429	6075.767494
441.208218	5918.249080
441.583947	6075.533080
441.959616	6081.670685
442.335224	6006.053377
442.710773	6139.361650
443.086261	6173.775087
443.461689	5966.593746
443.837057	6114.362568
444.212365	6265.876967
444.587612	6156.335215
444.962800	6312.726931
445.337927	6293.555422
445.712995	5903.397841
446.088002	6477.333207
446.462949	6311.872455
446.837837	6241.878554
447.212664	6418.092087
447.587431	6557.530403
447.962139	7099.774554
448.336786	8029.998509
448.711374	7772.657687
449.085901	6842.998342
449.460369	6763.272494
449.834776	6697.790426
450.209124	7088.416835
450.583412	7241.236893
450.957640	7388.181486
451.331808	7148.872872
451.705917	6698.914603
452.079965	6624.106401
452.453954	6840.185378
452.827883	6711.925821
453.201752	6803.228679
453.575562	6608.289781
453.949311	6810.863507
454.323001	6696.010899
454.696632	6771.340861
455.070202	6912.029382
455.443713	7065.386323
455.817164	7165.685120
456.190556	7248.017245
456.563888	7321.628173
456.937160	7365.067796
457.310373	7026.037597
457.683526	7051.893675
458.056619	6937.270439
458.429653	6927.815755
458.802628	6857.710949
459.175542	6965.195911
459.548398	7323.926939
459.921194	7488.755026
460.293930	7490.128741
460.666607	8018.542487
461.039224	8328.223088
461.411782	8448.777241
461.784280	8470.718863
462.156719	8364.947894
462.529099	8235.594407
462.901419	7830.898138
463.273680	7725.346458
463.645882	7734.778457
464.018024	7599.751152
464.390106	7767.117459
464.762130	8157.504413
465.134094	8626.432544
465.505999	9645.857195
465.877845	10869.304904
466.249631	11514.529747
466.621358	11127.167485
466.993026	10500.514254
467.364634	10247.433207
467.736184	9878.763544
468.107674	9551.270026
468.479105	9581.900076
468.850477	9346.964663
469.221790	9122.159448
469.593043	8792.349520
469.964238	8651.910535
470.335373	8670.895521
470.706449	8719.373777
471.077467	8702.354841
471.448425	10013.027115
471.819324	11086.876063
472.190164	11111.983530
472.560945	9862.024393
472.931667	9075.594310
473.302330	8936.256818
473.672934	8583.625586
474.043479	8942.464999
474.413965	8878.550730
474.784393	8761.855580
475.154761	8922.494468
475.525070	9010.697016
475.895321	8830.843771
476.265513	9010.210545
476.635645	9178.660701
477.005719	9180.049539
477.375734	9289.276219
477.745691	9532.368219
478.115588	9658.775152
478.485427	9906.855374
478.855207	10439.670047
479.224928	11255.527865
479.594591	11884.000953
479.964194	11693.984742
480.333739	11633.064918
480.703226	11548.885210
481.072653	11633.518622
481.442022	11874.589119
481.811333	12067.526680
482.180584	11867.166020
482.549777	11575.074005
482.918912	11395.533310
483.287988	11429.417426
483.657005	11430.163517
484.025964	11114.983017
484.394864	11239.292829
484.763706	11217.371372
485.132489	10972.968672
485.501213	10937.637745
485.869879	11007.475370
486.238487	10847.809424
486.607036	10954.167688
486.975527	10736.992260
487.343959	10922.186608
487.712333	10968.265275
488.080648	10896.131405
488.448905	10936.763105
488.817104	10876.259176
489.185244	11133.214349
489.553326	11287.670262
489.921350	11820.147178
490.289315	12867.711550
490.657222	13210.706617
491.025070	13108.429167
491.392861	12970.722488
491.760593	12596.474788
492.128267	12249.232550
492.495883	11913.746282
492.863440	11577.524005
493.230939	11236.983981
493.598380	11168.220122
493.965763	11030.662157
494.333088	10930.086096
494.700354	10837.785090
495.067563	10892.708461
495.434713	10714.922088
495.801805	10828.834521
496.168839	10746.782181
496.535815	10671.550521
496.902733	10661.697586
497.269593	10589.898952
497.636395	10677.141161
498.003139	10651.476647
498.369825	10515.425987
498.736453	10653.629219
499.103023	10573.704246
499.469535	10587.643036
499.835989	10568.342979
500.202385	10515.209217
500.568723	10350.842396
500.935003	10557.842255
501.301226	10346.378454
501.667390	10582.627088
502.033497	10662.037864
502.399546	10509.321149
502.765537	10399.560107
503.131470	10448.776892
503.497345	10598.534449
503.863163	10212.800480
504.228923	10487.666873
504.594625	10526.123315
504.960269	10268.893399
505.325856	10447.723291
505.691385	10237.378626
506.056856	10357.678201
506.422270	10354.398930
506.787625	10224.700124
507.152924	10308.365634
507.518164	10263.978274
507.883347	10165.471607
508.248472	10061.288601
508.613540	10243.662424
508.978550	10104.700498
509.343503	10049.215038
509.708398	10124.308066
510.073236	10194.720382
510.438016	10167.425054
510.802738	10080.777702
511.167403	10093.735988
511.532010	9962.222367
511.896561	10134.675198
512.261053	10148.596345
512.625488	10000.767029
512.989866	9943.474315
513.354186	9892.167972
513.718449	9768.876473
514.082655	9891.177385
514.446803	9757.901881
514.810894	9815.963370
515.174927	9649.968256
515.538904	9638.008119
515.902822	9706.187204
516.266684	9570.146626
516.630488	9469.137027
516.994235	9477.802770
517.357925	9462.946490
517.721558	9493.087548
518.085133	9448.775806
518.448651	9406.697295
518.812112	9262.858052
519.175516	9214.402482
519.538863	9253.821784
519.902152	9146.117532
520.265385	9187.278553
520.628560	9085.298532
520.991678	8990.756732
521.354739	8992.223708
521.717743	8882.117346
522.080690	8813.045977
522.443580	8832.766971
522.806413	8747.553827
523.169189	8714.541831
523.531908	8688.050567
523.894569	8503.559460
524.257174	8443.347918
524.619722	8459.557749
524.982213	8375.418370
525.344647	8335.946136
525.707025	8248.053618
526.069345	8244.176971
526.431608	8118.894216
526.793815	8127.590206
527.155964	7927.093435
527.518057	7906.976711
527.880093	7805.921741
528.242072	7789.240563
528.603995	7664.381264
528.965860	7554.494193
529.327669	7519.826178
529.689421	7432.578928
530.051117	7354.851898
530.412755	7333.986562
530.774337	7223.968420
531.135862	7138.288970
531.497331	7102.814370
531.858743	6953.961700
532.220098	6980.233673
532.581396	6851.631318
532.942638	6783.784949
533.303824	6712.805503
533.664953	6646.426109
534.026025	6545.776952
534.387040	6529.262132
534.747999	6476.380428
535.108902	6437.124963
535.469748	6277.080932
535.830537	6255.464464
536.191270	6186.718249
536.551947	6137.171268
536.912567	6080.322177
537.273131	5996.119784
537.633638	5928.573363
537.994089	5860.822776
538.354483	5790.745697
538.714821	5793.805677
539.075103	5742.907667
539.435328	5666.675339
539.795497	5563.556016
540.155609	5552.326846
540.515665	5540.109610
540.875665	5395.660387
541.235609	5356.140262
541.595496	5311.752902
541.955328	5294.844872
542.315102	5214.125917
542.674821	5148.754754
543.034483	5098.471765
543.394090	5051.667173
543.753640	4977.673116
544.113134	4989.489581
544.472571	4907.772477
544.831953	4891.061052
545.191278	4791.422646
545.550548	4758.229169
545.909761	4742.004215
546.268918	4689.283828
546.628019	4666.281043
546.987064	4585.128549
547.346053	4534.651475
547.704986	4500.434643
548.063863	4458.971153
548.422684	4421.139814
548.781449	4356.484495
549.140158	4337.146629
549.498811	4269.506948
549.857408	4206.674006
550.215949	4202.809962
550.574434	4138.986433
550.932864	4114.413329
551.291237	4094.941872
551.649555	4045.283986
552.007817	4016.713247
552.366022	3976.321002
552.724173	3940.932102
553.082267	3904.731576
553.440305	3885.108884
553.798288	3832.017973
554.156215	3817.716219
554.514086	3785.808236
554.871902	3731.280595
555.229661	3708.287893
555.587365	3677.176412
555.945014	3636.645535
556.302606	3618.268008
556.660143	3582.763162
557.017625	3564.977971
557.375050	3531.615615
557.732421	3517.628934
558.089735	3484.228769
558.446994	3457.732464
558.804197	3437.358641
559.161345	3411.638674
559.518437	3377.807491
559.875474	3356.458204
560.232455	3339.706450
560.589381	3316.534786
560.946251	3287.187709
561.303065	3284.369704
561.659825	3252.164293
562.016528	3224.619428
562.373177	3198.662527
562.729770	3187.027544
563.086307	3166.076508
563.442789	3153.866834
563.799216	3120.002883
564.155587	3112.499125
564.511904	3092.962134
564.868164	3076.785071
565.224370	3062.788307
565.580520	3037.539688
565.936615	3029.304963
566.292654	2999.723473
566.648638	2999.547032
567.004567	2980.599856
567.360441	2968.112918
567.716260	2951.479630
568.072023	2946.357818
568.427732	2927.294695
568.783385	2915.702562
569.138982	2901.420973
569.494525	2894.484345
569.850013	2881.319372
570.205445	2874.256715
570.560823	2860.945548
570.916145	2849.366018
571.271412	2839.137517
571.626625	2830.585199
571.981782	2823.822492
572.336884	2814.735812
572.691931	2808.875470
573.046923	2796.963224
573.401860	2789.522481
573.756743	2783.888991
574.111570	2773.214348
574.466342	2770.555139
574.821059	2761.420569
575.175722	2754.488982
575.530330	2747.549834
575.884882	2743.685789
576.239380	2735.965262
576.593823	2729.749520
576.948211	2726.059395
577.302544	2720.642675
577.656823	2714.865513
578.011047	2712.430636
578.365216	2705.950232
578.719330	2702.504604
579.073389	2697.357586
579.427394	2690.546987
579.781344	2689.566482
580.135239	2684.805112
580.489080	2682.224042
580.842866	2680.613393
581.196597	2678.372600
581.550273	2675.529389
581.903895	2673.389420
582.257463	2670.432783
582.610975	2664.174190
582.964434	2667.322391
583.317837	2662.135044
583.671186	2657.928201
584.024481	2657.703869
584.377721	2653.365957
584.730906	2650.192550
585.084037	2650.943682
585.437113	2647.918990
585.790135	2646.850265
586.143103	2646.068886
586.496016	2645.481592
586.848874	2639.064203
587.201679	2638.905407
587.554428	2634.418780
587.907124	2638.272742
588.259765	2631.789818
588.612352	2637.486322
588.964884	2632.354427
589.317362	2632.334263
589.669786	2630.211937
590.022155	2632.213275
590.374470	2629.412914
590.726731	2630.184211
591.078937	2625.468211
591.431090	2627.111627
591.783188	2623.648355
592.135232	2623.751698
592.487222	2623.282871
592.839157	2625.306894
593.191038	2623.509723
593.542866	2620.245576
593.894639	2619.711213
594.246358	2620.238014
594.598022	2616.074021
594.949633	2614.745677
595.301190	2614.294494
595.652692	2614.009668
596.004141	2616.391614
596.355535	2615.650564
596.706876	2614.443208
597.058162	2611.660491
597.409395	2610.359873
597.760573	2609.492795
598.111698	2612.681324
598.462768	2609.984307
598.813785	2610.435490
599.164748	2607.499018
599.515657	2604.328132
599.866511	2608.224944
600.217312	2608.003134
600.568060	2606.266456
600.918753	2609.286107
601.269392	2606.954574
601.619978	2605.842999
601.970510	2605.520365
602.320988	2607.882146
602.671412	2603.685385
603.021783	2604.431476
603.372100	2605.921137
603.722363	2604.444079
604.072572	2602.722525
604.422728	2604.547423
604.772830	2597.451999
605.122878	2599.453337
605.472872	2599.884355
605.822813	2597.678851
606.172701	2598.228336
606.522534	2603.120776
606.872314	2601.119438
607.222041	2601.169850
607.571714	2603.153544
607.921333	2599.823862
608.270899	2598.979468
608.620411	2598.586258
608.969870	2602.167998
609.319276	2600.569952
609.668627	2605.570777
610.017926	2608.030860
610.367171	2606.417691
610.716362	2611.116046
611.065500	2607.572115
611.414585	2603.012391
611.763616	2603.801332
612.112594	2601.535333
612.461518	2603.554315
612.810389	2602.992227
613.159207	2599.420569
613.507971	2603.206476
613.856682	2602.505755
614.205340	2600.373347
614.553945	2601.716815
614.902496	2601.187494
615.250994	2600.764037
615.599439	2600.393512
615.947830	2601.454675
616.296169	2600.242277
616.644454	2600.751434
616.992686	2600.375868
617.340864	2601.913420
617.688990	2598.245980
618.037063	2600.816969
618.385082	2597.484766
618.733048	2601.825200
619.080961	2599.302102
619.428821	2600.408635
619.776628	2601.948708
620.124382	2598.994592
620.472083	2598.732452
620.819731	2599.140785
621.167326	2597.212544
621.514868	2598.908892
621.862357	2594.540732
622.209793	2594.598706
622.557176	2596.806731
622.904506	2593.928232
623.251783	2593.333376
623.599007	2593.950917
623.946179	2591.321956
624.293297	2590.936307
624.640363	2593.305650
624.987376	2592.052923
625.334336	2589.857500
625.681243	2592.632656
626.028097	2588.206523
626.374899	2589.429002
626.721647	2592.738520
627.068343	2589.534867
627.414987	2590.278437
627.761577	2588.813982
628.108115	2589.860021
628.454600	2590.452357
628.801032	2589.718869
629.147412	2590.855649
629.493739	2586.608477
629.840014	2593.535022
630.186236	2589.469332
630.532405	2587.062181
630.878521	2586.963878
631.224585	2589.739033
631.570597	2586.646285
631.916556	2586.674012
632.262462	2588.022520
632.608316	2586.328693
632.954117	2583.898857
633.299866	2586.648806
633.645562	2586.686615
633.991206	2586.076635
634.336797	2585.839701
634.682336	2584.576892
635.027823	2582.827611
635.373257	2583.689649
635.718639	2582.434401
636.063968	2585.060842
636.409245	2578.986252
636.754470	2582.711665
637.099642	2583.901377
637.444762	2585.012952
637.789829	2580.818712
638.134845	2578.731674
638.479808	2580.231417
638.824719	2579.006417
639.169577	2581.466500
639.514383	2578.320820
639.859137	2580.412899
640.203839	2579.467682
640.548489	2579.752507
640.893086	2575.522979
641.237632	2574.315623
641.582125	2576.563978
641.926566	2573.178843
642.270955	2578.416602
642.615292	2579.157651
642.959576	2579.651684
643.303809	2578.817373
643.647990	2579.452559
643.992118	2576.256467
644.336195	2579.013978
644.680219	2578.172106
645.024192	2577.821746
645.368112	2578.164544
645.711981	2579.197981
646.055797	2578.840059
646.399562	2577.166396
646.743274	2578.860223
647.086935	2582.724268
647.430544	2579.997003
647.774101	2582.217632
648.117606	2577.743608
648.461059	2583.238465
648.804460	2582.895667
649.147810	2581.844586
649.491108	2577.274780
649.834354	2579.893660
650.177548	2577.831828
650.520690	2576.916858
650.863781	2579.933989
651.206820	2580.402816
651.549807	2578.346026
651.892742	2576.745459
652.235626	2576.155644
652.578458	2576.067424
652.921238	2576.299317
653.263967	2574.711354
653.606644	2575.631364
653.949269	2574.497105
654.291843	2573.468709
654.634365	2574.882753
654.976836	2572.558781
655.319255	2573.877043
655.661622	2573.599779
656.003938	2572.621795
656.346203	2574.625654
656.688416	2571.832855
657.030577	2574.179512
657.372687	2574.182032
657.714746	2573.695561
658.056753	2572.737742
658.398708	2570.363358
658.740612	2572.863771
659.082465	2569.876887
659.424266	2572.578946
659.766016	2570.441496
660.107715	2573.398133
660.449362	2573.899728
660.790958	2572.422670
661.132503	2573.183884
661.473996	2574.096333
661.815438	2574.257650
662.156829	2574.045921
662.498168	2570.668348
662.839456	2572.253791
663.180693	2571.021229
663.521879	2576.017012
663.863013	2572.619275
664.204097	2571.943760
664.545129	2574.325705
664.886110	2572.924265
665.227040	2574.368555
665.567918	2573.181363
665.908746	2573.723287
666.249522	2575.969122
666.590248	2576.379976
666.930922	2573.642629
667.271545	2573.471230
667.612118	2574.217321
667.952639	2572.460478
668.293109	2577.254616
668.633528	2575.533062
668.973896	2571.447207
669.314213	2572.833524
669.654480	2573.645150
669.994695	2572.652042
670.334859	2573.072979
670.674973	2571.900910
671.015035	2572.142886
671.355047	2572.936867
671.695008	2576.080027
672.034918	2574.857547
672.374777	2575.830490
672.714585	2573.277145
673.054342	2575.520459
673.394049	2574.187074
673.733705	2574.424008
674.073310	2573.193966
674.412864	2571.784964
674.752368	2574.534913
675.091820	2572.394943
675.431223	2572.195818
675.770574	2572.649522
676.109875	2568.069633
676.449125	2569.622309
676.788324	2569.773543
677.127473	2569.513924
677.466571	2567.333625
677.805619	2571.651373
678.144616	2570.287741
678.483562	2571.537947
678.822458	2569.007288
679.161303	2572.263873
679.500098	2570.774212
679.838842	2570.832186
680.177535	2570.171795
680.516179	2570.804459
680.854771	2568.795560
681.193314	2572.316806
681.531805	2572.589028
681.870247	2573.824111
682.208638	2573.493915
682.546978	2576.062383
682.885268	2575.669173
683.223508	2572.989800
683.561697	2572.899059
683.899836	2573.446024
684.237925	2572.987279
684.575963	2570.512072
684.913951	2571.411918
685.251889	2573.022567
685.589776	2571.585838
685.927614	2570.595252
686.265401	2572.639439
686.603137	2573.710685
686.940824	2571.525344
687.278460	2573.786302
687.616046	2573.055335
687.953582	2575.777558
688.291068	2571.507700
688.628504	2574.958370
688.965889	2573.463668
689.303224	2575.517938
689.640510	2572.457958
689.977745	2571.048955
690.314930	2570.580128
690.652065	2572.515931
690.989150	2568.767833
691.326185	2569.929819
691.663170	2569.690364
692.000105	2569.483677
692.336990	2569.246743
692.673825	2566.320353
693.010610	2565.327246
693.347345	2563.114179
693.684030	2561.284240
694.020665	2564.734910
694.357251	2557.541184
694.693786	2562.794066
695.030272	2561.102759
695.366707	2563.454457
695.703093	2562.252142
696.039429	2564.170301
696.375716	2565.574262
696.711952	2563.832544
697.048139	2566.426217
697.384276	2563.925805
697.720363	2564.760116
698.056400	2563.383881
698.392388	2562.098387
698.728326	2561.057388
699.064214	2561.165773
699.400053	2563.023438
699.735842	2560.570917
700.071581	2562.184086
700.407270	2559.950855
700.742910	2561.997564
701.078501	2560.674261
701.414042	2562.047975
701.749533	2558.861966
702.084974	2559.411452
702.420366	2560.243242
702.755709	2559.499672
703.091002	2559.103941
703.426246	2560.747357
703.761440	2558.877089
704.096584	2557.863818
704.431679	2559.083777
704.766725	2559.222408
705.101721	2559.333314
705.436668	2558.241904
705.771565	2558.544373
706.106413	2557.500854
706.441212	2558.788869
706.775961	2558.372974
707.110661	2559.305587
707.445311	2557.982285
707.779913	2557.989846
708.114465	2559.958417
708.448967	2560.671740
708.783421	2557.720145
709.117825	2558.062943
709.452180	2560.908674
709.786485	2562.161401
710.120742	2560.893551
710.454949	2563.381360
710.789107	2561.092677
711.123216	2559.290464
711.457275	2564.737431
711.791286	2560.941442
712.125247	2560.686864
712.459159	2565.440672
712.793023	2568.447720
713.126837	2562.536967
713.460602	2565.642318
713.794318	2566.055692
714.127985	2562.544529
714.461602	2563.335990
714.795171	2560.694425
715.128691	2559.106462
715.462162	2561.508572
715.795584	2559.093859
716.128957	2558.977913
716.462281	2557.987326
716.795556	2559.701318
717.128782	2555.870041
717.461960	2557.621842
717.795088	2556.724517
718.128167	2557.210988
718.461198	2557.795762
718.794180	2558.849363
719.127113	2555.184444
719.459997	2558.067984
719.792833	2557.626883
720.125619	2555.517160
720.458357	2557.538663
720.791046	2553.581357
721.123686	2553.306614
721.456278	2555.428940
721.788821	2555.428940
722.121315	2557.279044
722.453761	2556.535473
722.786158	2555.731409
723.118506	2550.972560
723.450805	2555.610422
723.783056	2554.516491
724.115259	2554.758467
724.447412	2555.136553
724.779518	2554.304763
725.111574	2554.728220
725.443582	2554.014897
725.775542	2556.885834
726.107453	2557.274002
726.439315	2555.653272
726.771129	2562.070660
727.102895	2557.117727
727.434612	2556.893395
727.766281	2558.491441
728.097901	2555.776780
728.429473	2554.662685
728.760996	2555.081101
729.092471	2550.624721
729.423897	2557.775597
729.755276	2557.762994
730.086606	2556.721996
730.417887	2558.214178
730.749120	2556.986657
731.080305	2558.667882
731.411442	2559.953376
731.742530	2559.948335
732.073570	2560.407080
732.404562	2558.078067
732.735506	2558.383056
733.066401	2562.710887
733.397249	2558.345248
733.728048	2556.631255
734.058798	2556.417006
734.389501	2555.184444
734.720156	2556.762325
735.050762	2555.204609
735.381320	2557.397511
735.711831	2556.240566
736.042293	2553.498178
736.372707	2555.950700
736.703073	2553.029351
737.033391	2552.074052
737.363661	2556.154866
737.693883	2554.322407
738.024056	2556.918601
738.354182	2554.564382
738.684260	2555.789383
739.014290	2556.154866
739.344272	2556.066646
739.674207	2558.214178
740.004093	2556.361554
740.333931	2560.427244
740.663722	2556.399362
740.993464	2556.573282
741.323159	2557.642007
741.652806	2554.045143
741.982405	2554.312325
742.311956	2554.818961
742.641460	2556.646379
742.970915	2556.603529
743.300323	2554.450956
743.629683	2553.404917
743.958996	2554.458518
744.288260	2551.925338
744.617477	2549.298897
744.946647	2547.605069
745.275768	2549.165307
745.604842	2547.247148
745.933869	2547.058104
746.262847	2543.551982
746.591778	2552.295863
746.920662	2552.310987
747.249498	2550.133208
747.578286	2550.954916
747.907027	2549.664381
748.235720	2555.280226
748.564365	2553.528425
748.892963	2550.642365
749.221514	2550.024823
749.550017	2554.755946
749.878473	2551.887530
750.206881	2550.085317
750.535242	2551.786707
750.863555	2549.482899
751.191821	2550.165976
751.520039	2549.921480
751.848210	2550.110523
752.176334	2549.334185
752.504411	2551.789227
752.832440	2550.783517
753.160421	2551.547252
753.488356	2550.362581
753.816243	2549.137580
754.144082	2551.010369
754.471875	2552.237890
754.799620	2550.102961
755.127318	2548.474668
755.454969	2547.980635
755.782572	2548.991387
756.110129	2551.191850
756.437638	2551.345606
756.765100	2549.702189
757.092515	2546.231355
757.419882	2548.898125
757.747203	2549.467776
758.074477	2550.642365
758.401703	2548.560368
758.728882	2549.810574
759.056014	2549.303938
759.383099	2551.650595
759.710138	2550.029864
760.037129	2552.434495
760.364073	2550.813764
760.690970	2548.832590
761.017820	2551.310318
761.344623	2552.227807
761.671379	2553.541028
761.998088	2549.142621
762.324751	2551.408620
762.651366	2557.384908
762.977935	2566.030487
763.304456	2571.074161
763.630931	2574.897876
763.957359	2572.389902
764.283740	2566.264900
764.610074	2562.103428
764.936362	2561.069991
765.262602	2553.500699
765.588796	2554.836605
765.914943	2551.746377
766.241044	2552.454659
766.567097	2551.630431
766.893104	2550.171017
767.219064	2550.455842
767.544978	2546.518701
767.870845	2547.040460
768.196665	2549.724875
768.522438	2545.855789
768.848165	2546.871582
769.173846	2545.732281
769.499479	2547.796633
769.825066	2545.084493
770.150607	2543.115922
770.476101	2544.194729
770.801548	2546.261602
771.126949	2545.447456
771.452303	2545.923845
771.777611	2541.966539
772.102872	2546.465769
772.428087	2542.213555
772.753256	2542.881508
773.078378	2543.214224
773.403453	2543.284801
773.728482	2542.586601
774.053465	2543.481406
774.378401	2543.602393
774.703291	2543.196580
775.028135	2543.267157
775.352932	2546.236396
775.677683	2542.528627
776.002388	2542.573998
776.327046	2541.265818
776.651658	2543.201622
776.976224	2541.661549
777.300743	2540.791950
777.625216	2541.288504
777.949643	2542.321940
778.274024	2544.272867
778.598359	2540.923020
778.922647	2538.609130
779.246889	2539.375386
779.571086	2537.379089
779.895236	2540.113915
780.219339	2543.514173
780.543397	2541.742207
780.867409	2543.133566
781.191374	2540.015612
781.515294	2541.643905
781.839167	2543.085675
782.162995	2542.387475
782.486776	2544.212373
782.810511	2543.703216
783.134201	2544.161961
783.457844	2540.923020
783.781441	2543.914945
784.104993	2540.701209
784.428498	2540.338246
784.751958	2542.967208
785.075372	2540.983514
785.398739	2540.870088
785.722061	2542.463093
786.045337	2542.437887
786.368568	2540.325643
786.691752	2541.164995
787.014891	2542.740356
787.337983	2544.008206
787.661030	2541.863195
787.984031	2543.710778
788.306987	2547.037940
788.629897	2546.475851
788.952760	2549.944165
789.275579	2542.407640
789.598351	2545.598690
789.921078	2542.982331
790.243759	2544.230017
790.566395	2539.781199
790.888984	2544.451828
791.211529	2540.300438
791.534027	2544.290511
791.856480	2539.037628
792.178888	2543.584749
792.501249	2541.908566
792.823566	2542.001827
793.145836	2540.960829
793.468062	2540.015612
793.790241	2540.310520
794.112375	2541.013761
794.434464	2540.718853
794.756507	2540.411343
795.078505	2541.550644
795.400457	2541.638864
795.722364	2539.390509
796.044226	2543.834286
796.366042	2539.740869
796.687812	2541.694317
797.009538	2542.137938
797.331218	2544.172044
797.652852	2543.045346
797.974442	2540.567619
798.295986	2542.674821
798.617484	2541.535520
798.938938	2541.517876
799.260346	2541.288504
799.581709	2542.231199
799.903026	2541.114584
800.224299	2540.860006
800.545526	2539.302289
800.866708	2539.140972
801.187845	2543.274718
801.508936	2539.811446
801.829983	2542.389996
802.150984	2540.219779
802.471940	2540.839841
802.792851	2541.127187
803.113717	2539.642567
803.434538	2541.732125
803.755314	2539.067875
804.076045	2540.492001
804.396731	2539.415715
804.717372	2539.834131
805.037967	2542.634492
805.358518	2540.081147
805.679024	2541.964018
805.999485	2539.176260
806.319901	2539.995448
806.640272	2540.781868
806.960598	2539.803884
807.280879	2537.570653
807.601115	2539.612320
807.921306	2541.464944
808.241453	2540.902855
808.561554	2538.644418
808.881611	2541.122146
809.201623	2537.999151
809.521590	2543.972918
809.841513	2538.248688
810.161390	2540.844882
810.481223	2539.425797
810.801011	2538.198276
811.120755	2539.897145
811.440453	2543.068031
811.760107	2540.499563
812.079716	2538.150385
812.399281	2534.737524
812.718801	2536.343132
813.038276	2534.888759
813.357707	2537.757175
813.677093	2536.660724
813.996434	2540.391178
814.315731	2539.193904
814.634983	2540.887732
814.954191	2539.892104
815.273354	2541.361600
815.592473	2542.137938
815.911547	2539.577032
816.230577	2540.363452
816.549562	2542.833617
816.868502	2537.999151
817.187399	2541.192722
817.506250	2542.803370
817.825058	2542.808412
818.143821	2539.617361
818.462539	2542.972249
818.781213	2545.714637
819.099843	2546.223793
819.418429	2546.001983
819.736970	2549.213198
820.055466	2550.415513
820.373919	2556.374157
820.692327	2555.744012
821.010691	2566.332956
821.329011	2578.252764
821.647286	2615.448918
821.965517	2651.747746
822.283704	2673.379337
822.601847	2678.586849
822.919945	2663.475991
823.237999	2644.720378
823.556010	2622.327572
823.873976	2603.897114
824.191897	2592.531832
824.509775	2582.502457
824.827609	2573.872002
825.145398	2570.305385
825.463144	2569.332442
825.780845	2567.668862
826.098502	2573.083061
826.416116	2581.685790
826.733685	2593.905547
827.051210	2598.051896
827.368692	2596.040476
827.686129	2582.751994
828.003522	2573.360324
828.320872	2560.644014
828.638177	2557.823488
828.955439	2550.402910
829.272656	2550.017262
829.589830	2543.224307
829.906960	2547.544576
830.224046	2543.872095
830.541088	2544.587939
830.858086	2542.629451
831.175041	2543.385624
831.491952	2545.162630
831.808819	2543.947712
832.125642	2546.463248
832.442421	2546.717826
832.759157	2547.836962
833.075849	2558.718293
833.392497	2567.068964
833.709101	2568.611558
834.025662	2568.462843
834.342179	2568.651887
834.658653	2559.829868
834.975083	2554.236707
835.291469	2556.769887
835.607811	2546.422919
835.924110	2543.352856
836.240366	2542.389996
836.556578	2542.516025
836.872746	2540.847403
837.188871	2538.634336
837.504952	2541.313709
837.820990	2540.161806
838.136984	2536.368337
838.452935	2537.525282
838.768842	2541.278421
839.084706	2538.561239
839.400526	2542.024512
839.716303	2545.250851
840.032037	2551.070863
840.347727	2549.477858
840.663373	2547.269833
840.978977	2543.907383
841.294537	2540.877650
841.610054	2541.104502
841.925527	2539.985365
842.240957	2538.851106
842.556344	2540.527289
842.871687	2537.429500
843.186987	2537.835313
843.502244	2536.093595
843.817458	2536.239788
844.132629	2534.001516
844.447756	2537.270704
844.762840	2532.176618
845.077881	2531.987575
845.392879	2532.869777
845.707833	2530.838192
846.022745	2529.620753
846.337613	2533.913296
846.652438	2532.514375
846.967221	2531.669982
847.281960	2533.348686
847.596656	2536.146527
847.911309	2534.182997
848.225919	2531.717873
848.540485	2533.537730
848.855009	2534.651825
849.169490	2535.201310
849.483928	2535.123173
849.798323	2533.719211
850.112675	2532.693336
850.426984	2531.493542
850.741251	2535.140817
851.055474	2534.155271
851.369654	2533.676361
851.683792	2530.034128
851.997887	2534.881197
852.311938	2535.070240
852.625947	2534.503111
852.939914	2532.602596
853.253837	2533.885569
853.567718	2533.207534
853.881555	2532.547143
854.195350	2531.637215
854.509103	2535.647453
854.822812	2536.585107
855.136479	2532.970600
855.450103	2532.975641
855.763685	2533.850281
856.077224	2531.138140
856.390720	2535.733152
856.704173	2532.771474
857.017584	2533.646114
857.330953	2532.332894
857.644278	2534.293903
857.957561	2537.812628
858.270802	2533.588141
858.584000	2532.640404
858.897155	2535.266845
859.210268	2533.762061
859.523339	2532.002698
859.836367	2534.601413
860.149352	2534.359438
860.462295	2535.327339
860.775195	2530.513037
861.088054	2531.183511
861.400869	2530.250897
861.713642	2528.244518
862.026373	2532.340456
862.339062	2533.527647
862.651708	2532.693336
862.964312	2535.627288
863.276873	2529.111597
863.589392	2534.329191
863.901869	2534.140147
864.214303	2533.504962
864.526696	2534.465302
864.839045	2535.370189
865.151353	2535.085364
865.463619	2536.310364
865.775842	2534.122503
866.088023	2533.086546
866.400162	2533.641073
866.712258	2533.396577
867.024313	2534.447658
867.336325	2534.588810
867.648296	2534.490508
867.960224	2533.300795
868.272110	2535.045035
868.583954	2534.606454
868.895755	2533.520086
869.207515	2533.517565
869.519233	2535.985210
869.830909	2534.762730
870.142542	2537.575694
870.454134	2532.642925
870.765684	2535.997813
871.077191	2534.356917
871.388657	2537.610982
871.700081	2539.193904
872.011463	2536.509490
872.322803	2534.208203
872.634101	2535.561753
872.945357	2536.282638
873.256571	2536.443955
873.567744	2535.307175
873.878874	2538.689789
874.189963	2537.757175
874.501010	2537.726928
874.812015	2534.881197
875.122979	2538.299099
875.433900	2536.441434
875.744780	2536.927906
876.055618	2535.559232
876.366415	2536.645601
876.677169	2538.878832
876.987882	2536.375899
877.298554	2534.394726
877.609183	2535.024870
877.919771	2534.286341
878.230317	2537.497556
878.540822	2542.586601
878.851285	2542.389996
879.161707	2541.175078
879.472087	2545.422250
879.782425	2548.646068
880.092722	2554.738302
880.402977	2564.805486
880.713191	2582.494895
881.023363	2604.353338
881.333494	2620.195164
881.643583	2623.081225
881.953631	2616.492437
882.263637	2612.678804
882.573602	2605.948863
882.883526	2596.710949
883.193408	2586.905905
883.503248	2579.079513
883.813048	2571.225396
884.122806	2563.716597
884.432522	2562.194169
884.742197	2558.040258
885.051831	2553.074721
885.361424	2547.451314
885.670975	2548.850234
885.980485	2546.783361
886.289954	2545.896118
886.599382	2543.020140
886.908768	2543.914945
887.218113	2540.459234
887.527417	2540.154244
887.836680	2541.114584
888.145901	2540.502084
888.455082	2538.220962
888.764221	2539.385468
889.073319	2538.977135
889.382376	2538.626774
889.691392	2536.748945
890.000366	2538.767927
890.309300	2536.688451
890.618193	2539.251878
890.927044	2537.172402
891.235855	2539.554347
891.544625	2537.507638
891.853353	2540.086188
892.162041	2539.403112
892.470687	2540.812115
892.779293	2538.316743
893.087858	2540.018133
893.396381	2540.794471
893.704864	2542.521066
894.013306	2548.739329
894.321707	2557.344579
894.630068	2561.977399
894.938387	2565.849005
895.246665	2563.172153
895.554903	2559.706359
895.863100	2553.094886
896.171256	2554.839125
896.479371	2550.183620
896.787446	2550.075235
897.095480	2546.969884
897.403473	2542.321940
897.711425	2539.972762
898.019336	2541.041487
898.327207	2540.696168
898.635038	2540.751621
898.942827	2537.525282
899.250576	2538.949408
899.558284	2538.538554
899.865952	2536.673327
900.173579	2537.835313
900.481165	2537.424459
900.788711	2539.229192
901.096216	2535.352545
901.403681	2536.091074
901.711105	2536.133924
902.018489	2535.372710
902.325832	2540.607948
902.633135	2536.617875
902.940397	2538.891435
903.247619	2539.960160
903.554800	2545.485264
903.861941	2556.893395
904.169041	2570.108780
904.476101	2577.047928
904.783121	2574.618092
905.090100	2572.155489
905.397039	2563.570404
905.703938	2555.040771
906.010796	2550.654968
906.317614	2545.505429
906.624391	2542.994934
906.931129	2541.780016
907.237826	2539.461085
907.544483	2536.779192
907.851099	2537.805066
908.157675	2534.114942
908.464211	2534.561084
908.770707	2527.674868
909.077163	2532.242153
909.383578	2531.753161
909.689954	2528.708304
909.996289	2531.629653
910.302584	2531.682585
910.608839	2533.104190
910.915054	2535.143337
911.221229	2533.013450
911.527363	2534.964376
911.833458	2535.276928
912.139513	2535.163502
912.445527	2535.954963
912.751502	2535.564273
913.057436	2534.281300
913.363331	2536.600231
913.669186	2537.361445
913.975000	2535.387833
914.280775	2540.091230
914.586510	2543.854451
914.892205	2547.605069
915.197859	2552.401727
915.503475	2558.841801
915.809050	2561.644683
916.114585	2568.624160
916.420081	2575.969122
916.725536	2571.308575
917.030952	2567.570559
917.336328	2563.048644
917.641665	2559.590413
917.946961	2555.693601
918.252218	2549.099772
918.557435	2548.512477
918.862612	2547.317724
919.167750	2543.970398
919.472848	2541.205325
919.777906	2542.364790
920.082925	2541.356559
920.387904	2538.883873
920.692843	2537.734490
920.997743	2535.279448
921.302603	2538.679707
921.607423	2537.275745
921.912204	2533.683923
922.216946	2537.595858
922.521647	2535.039993
922.826310	2536.239788
923.130932	2534.155271
923.435516	2532.035466
923.740059	2533.658717
924.044564	2534.883718
924.349028	2533.247863
924.653454	2530.810465
924.957840	2529.257790
925.262186	2528.937677
925.566493	2530.187883
925.870761	2528.010104
926.174989	2530.465146
926.479178	2529.512368
926.783328	2533.056299
927.087438	2530.581093
927.391509	2529.411545
927.695541	2529.633356
927.999533	2529.174611
928.303486	2531.183511
928.607400	2529.739220
928.911275	2529.656041
929.215110	2528.408356
929.518906	2528.743592
929.822663	2530.016484
930.126381	2531.475898
930.430060	2529.288037
930.733699	2530.495393
931.037299	2533.222657
931.340861	2528.436082
931.644383	2527.876514
931.947866	2527.916843
932.251309	2528.090763
932.554714	2529.577903
932.858080	2531.919519
933.161407	2530.427338
933.464694	2532.262318
933.767943	2528.294930
934.071153	2531.949766
934.374323	2531.465815
934.677455	2527.684950
934.980548	2527.924405
935.283602	2530.029087
935.586617	2527.379960
935.889593	2530.606299
936.192530	2530.399611
936.495428	2527.460619
936.798287	2530.379447
937.101108	2526.737213
937.403890	2531.818696
937.706632	2532.824406
938.009336	2530.568490
938.312002	2532.189221
938.614628	2531.972451
938.917216	2533.076464
939.219765	2531.806093
939.522275	2531.269210
939.824747	2534.200641
940.127179	2526.548170
940.429573	2527.327028
940.731929	2531.743079
941.034246	2529.842564
941.336524	2531.949766
941.638763	2529.996319
941.940964	2530.916330
942.243126	2533.152081
942.545250	2531.773326
942.847335	2531.614529
943.149381	2530.155115
943.451389	2529.156967
943.753359	2530.505476
944.055290	2529.441792
944.357182	2530.548325
944.659036	2529.262831
944.960851	2531.942204
945.262628	2527.362316
945.564367	2533.353727
945.866067	2530.024045
946.167729	2531.967410
946.469352	2527.664785
946.770937	2531.117976
947.072484	2530.336597
947.373992	2528.110927
947.675462	2530.772657
947.976893	2528.350382
948.278286	2529.532533
948.579641	2531.354910
948.880958	2529.824920
949.182236	2527.793335
949.483476	2530.339117
949.784678	2529.522451
950.085841	2528.995650
950.386967	2530.114786
950.688054	2529.754344
950.989103	2531.314581
951.290114	2528.121010
951.591087	2528.541946
951.892021	2529.035979
952.192917	2531.312060
952.493776	2531.740558
952.794596	2528.529343
953.095378	2530.656710
953.396122	2530.755013
953.696828	2526.628828
953.997496	2530.228212
954.298126	2529.673685
954.598718	2530.886083
954.899272	2529.721576
955.199788	2529.250228
955.500266	2528.564631
955.800706	2528.526823
956.101108	2523.568848
956.401472	2525.718900
956.701798	2524.279651
957.002087	2526.840557
957.302337	2524.463653
957.602550	2529.096473
957.902724	2527.989940
958.202861	2527.788294
958.502960	2526.096987
958.803022	2530.044210
959.103045	2528.050434
959.403031	2527.193438
959.702979	2527.629497
960.002889	2527.773170
960.302762	2526.520443
960.602596	2526.470032
960.902393	2527.909281
961.202153	2526.709487
961.501875	2525.938190
961.801559	2529.514889
962.101205	2528.368026
962.400814	2530.644107
962.700385	2525.804600
962.999918	2529.325846
963.299414	2527.853829
963.598873	2528.965403
963.898293	2525.008097
964.197677	2526.341483
964.497022	2526.102028
964.796331	2526.255783
965.095601	2528.143695
965.394835	2523.558766
965.694030	2525.900382
965.993189	2528.040351
966.292309	2523.042047
966.591393	2527.276617
966.890439	2525.968437
967.189447	2528.184024
967.488419	2526.429703
967.787353	2524.078004
968.086249	2527.460619
968.385108	2526.633869
968.683930	2526.454908
968.982714	2525.822244
969.281462	2525.527336
969.580172	2525.759229
969.878844	2526.104548
970.177480	2527.629497
970.476078	2525.781914
970.774639	2529.444313
971.073162	2525.819723
971.371649	2524.743437
971.670098	2526.260824
971.968510	2520.927283
972.266885	2520.846625
972.565223	2525.963396
972.863524	2524.017511
973.161788	2527.080012
973.460014	2523.924249
973.758204	2527.387522
974.056356	2525.572707
974.354471	2528.834333
974.652550	2524.511544
974.950591	2527.904240
975.248595	2527.143026
975.546563	2526.212933
975.844493	2524.884589
976.142386	2527.574045
976.440243	2526.948942
976.738062	2526.838036
977.035845	2526.684281
977.333590	2526.432223
977.631299	2525.577748
977.928971	2529.151926
978.226606	2525.222346
978.524204	2526.321318
978.821765	2526.349044
979.119290	2526.459950
979.416777	2524.761081
979.714228	2525.907943
980.011642	2527.042203
980.309020	2530.631504
980.606360	2524.458612
980.903664	2528.975485
981.200931	2526.961544
981.498162	2525.076153
981.795356	2526.573376
982.092513	2529.325846
982.389633	2526.646472
982.686717	2525.812161
982.983764	2528.567152
983.280775	2527.692512
983.577749	2529.623274
983.874686	2530.863398
984.171587	2528.723428
984.468451	2528.055475
984.765279	2525.618077
985.062070	2527.218643
985.358824	2527.705115
985.655543	2524.814013
985.952224	2525.308046
986.248869	2526.220495
986.545478	2521.698580
986.842050	2523.084897
987.138586	2520.680267
987.435086	2524.143539
987.731549	2522.542973
988.027975	2527.213602
988.324366	2527.258973
988.620719	2527.473222
988.917037	2523.402490
989.213318	2525.008097
989.509563	2524.647655
989.805772	2526.245701
990.101944	2527.402645
990.398080	2524.239321
990.694180	2522.232942
990.990244	2525.124044
991.286271	2522.918539
991.582262	2526.094466
991.878217	2524.415762
992.174136	2527.274096
992.470019	2523.520957
992.765865	2527.768129
993.061676	2527.437933
993.357450	2525.849970
993.653188	2525.043385
993.948890	2522.699249
994.244556	2528.141174
994.540186	2526.802748
994.835780	2526.500279
995.131337	2526.722090
995.426859	2525.391225
995.722345	2525.313087
996.017795	2525.681091
996.313208	2527.180835
996.608586	2521.353261
996.903928	2527.382481
997.199234	2523.410052
997.494504	2526.318797
997.789738	2523.062212
998.084936	2525.734023
998.380099	2525.625639
998.675225	2522.941224
998.970316	2522.757222
999.265371	2526.424662
999.560390	2524.965247
999.855373	2525.119003
1000.150320	2523.276461
1000.445232	2527.281658
1000.740108	2523.291584
1001.034948	2524.912315
1001.329752	2524.902233
1001.624521	2525.449198
1001.919254	2522.507685
1002.213951	2519.036851
1002.508613	2523.009280
1002.803239	2522.588343
1003.097829	2520.508868
1003.392384	2525.877696
1003.686903	2527.800897
1003.981386	2525.204702
1004.275834	2525.068591
1004.570246	2527.286699
1004.864623	2525.106400
1005.158964	2527.967255
1005.453270	2526.124713
1005.747540	2526.452388
1006.041775	2523.407531
1006.335974	2521.955679
1006.630138	2524.219157
1006.924266	2521.673374
1007.218359	2522.878210
1007.512416	2525.242511
1007.806438	2525.466842
1008.100425	2523.974661
1008.394376	2523.450381
1008.688292	2524.788807
1008.982172	2522.633714
1009.276017	2525.643283
1009.569827	2523.934332
1009.863602	2524.871986
1010.157341	2523.349558
1010.451045	2524.894671
1010.744714	2526.018849
1011.038347	2524.766122
1011.331945	2525.555062
1011.625508	2525.502130
1011.919036	2525.726462
1012.212528	2523.405010
1012.505986	2524.556914
1012.799408	2523.198323
1013.092795	2522.643796
1013.386147	2523.273940
1013.679464	2524.539270
1013.972745	2525.290402
1014.265992	2524.879548
1014.559204	2523.573889
1014.852380	2523.846111
1015.145521	2525.933149
1015.438628	2524.398118
1015.731699	2526.681760
1016.024736	2524.133457
1016.317737	2523.757891
1016.610703	2526.344003
1016.903635	2520.655061
1017.196531	2520.342509
1017.489393	2521.615401
1017.782219	2520.092972
1018.075011	2524.093128
1018.367768	2522.152284
1018.660490	2526.795186
1018.953177	2526.795186
1019.245829	2526.795186
