Dividing Wavelength (nm)	Counts (n)	Blue Motor Position (mm): 0.000000	Red Motor Position (mm): 17.300000	
326.493990	2128.924640
326.888308	2128.924640
327.282561	2128.924640
327.676750	2094.702767
328.070874	2096.338621
328.464933	2097.233426
328.858929	2105.183326
329.252859	2114.128853
329.646726	2126.973713
330.040528	2139.445528
330.434265	2157.117293
330.827938	2171.280414
331.221547	2189.978054
331.615091	2208.017823
332.008571	2227.832078
332.401986	2247.853021
332.795338	2267.899169
333.188625	2287.867179
333.581847	2306.254788
333.975006	2326.086687
334.368100	2343.130828
334.761129	2359.915350
335.154095	2376.110057
335.546996	2395.248797
335.939833	2411.078020
336.332606	2423.476738
336.725315	2438.338060
337.117960	2447.263423
337.510540	2454.482355
337.903056	2465.940898
338.295508	2473.096816
338.687896	2482.448156
339.080220	2489.455360
339.472480	2496.192862
339.864676	2501.465909
340.256807	2507.737104
340.648875	2508.820952
341.040879	2509.599811
341.432818	2513.294976
341.824694	2515.102230
342.216506	2513.610048
342.608253	2514.898063
342.999937	2513.572240
343.391557	2514.278001
343.783113	2514.134328
344.174605	2513.421005
344.566033	2512.586694
344.957397	2507.464882
345.348697	2506.902793
345.739934	2504.969511
346.131106	2502.874911
346.522215	2501.896928
346.913260	2500.228306
347.304241	2498.252173
347.695159	2496.966679
348.086012	2496.971720
348.476802	2493.810917
348.867528	2493.503406
349.258191	2488.207674
349.648789	2490.161121
350.039324	2487.544763
350.429796	2488.555514
350.820203	2485.230873
351.210548	2485.283805
351.600828	2484.762046
351.991045	2482.564102
352.381198	2483.466469
352.771288	2483.272385
353.161314	2483.668115
353.551276	2480.535038
353.941175	2481.760038
354.331010	2482.954792
354.720782	2483.652992
355.110490	2484.078969
355.500135	2484.948568
355.889717	2481.739874
356.279235	2485.258599
356.668689	2484.693990
357.058080	2485.283805
357.447408	2484.386480
357.836672	2482.201139
358.225873	2483.836994
358.615010	2481.618886
359.004084	2486.967550
359.393095	2488.137098
359.782043	2486.143322
360.170927	2489.369660
360.559748	2488.338744
360.948505	2488.673981
361.337199	2488.684063
361.725830	2490.158601
362.114398	2490.488796
362.502903	2492.275885
362.891344	2493.926863
363.279722	2493.296719
363.668037	2491.307984
364.056289	2493.135402
364.444478	2494.804024
364.832603	2492.991729
365.220665	2496.981803
365.608665	2495.416524
365.996601	2499.615805
366.384474	2497.722852
366.772284	2499.469612
367.160031	2500.387102
367.547715	2503.489932
367.935336	2504.505725
368.322893	2508.878926
368.710388	2510.184584
369.097820	2517.819412
369.485189	2522.149763
369.872495	2529.691329
370.259738	2534.167874
370.646918	2540.933102
371.034035	2547.761345
371.421090	2559.038406
371.808081	2570.217165
372.195010	2578.333423
372.581875	2591.833633
372.968678	2603.992896
373.355418	2612.225100
373.742096	2632.354427
374.128710	2645.897487
374.515262	2661.577996
374.901751	2678.541479
375.288177	2691.608150
375.674540	2713.219576
376.060841	2728.363202
376.447079	2749.258785
376.833254	2771.548247
377.219367	2784.839249
377.605417	2819.608087
377.991404	2828.346927
378.377329	2849.892819
378.763191	2869.651621
379.148991	2905.927764
379.534727	2931.236877
379.920402	2960.253759
380.306013	2970.580562
380.691563	3019.361288
381.077049	3042.101933
381.462474	3061.633883
381.847835	3101.519492
382.233134	3122.631845
382.618371	3120.078500
383.003545	3186.599046
383.388657	3196.792259
383.773706	3228.483472
384.158693	3246.472830
384.543618	3268.749689
384.928480	3305.736635
385.313280	3352.087524
385.698017	3350.849920
386.082692	3405.934608
386.467305	3410.466606
386.851856	3439.596913
387.236344	3459.648103
387.620770	3494.142198
388.005133	3518.543903
388.389435	3546.650856
388.773674	3558.106878
389.157851	3599.373764
389.541965	3616.110395
389.926018	3581.638985
390.310008	3651.980725
390.693936	3671.217768
391.077802	3710.306875
391.461606	3699.843960
391.845348	3761.567848
392.229027	3763.997684
392.612645	3772.522275
392.996200	3854.002445
393.379694	3894.581213
393.763125	3957.358701
394.146494	3922.274791
394.529801	3982.914831
394.913047	4034.604302
395.296230	3996.619207
395.679351	4052.316396
396.062410	4076.143409
396.445408	4056.402251
396.828343	4088.504319
397.211217	4112.016260
397.594028	4032.156822
397.976778	4099.579734
398.359466	4120.417343
398.742092	4147.833658
399.124656	4070.245259
399.507158	4152.037981
399.889598	4173.775436
400.271977	4235.121237
400.654294	4203.538408
401.036549	4206.837843
401.418742	4174.261907
401.800874	4269.396042
402.182944	4286.198208
402.564952	4341.451775
402.946898	4321.183816
403.328783	4311.492197
403.710606	4216.847054
404.092367	4394.399013
404.474067	4350.480481
404.855705	4345.010829
405.237282	4262.645937
405.618797	4346.210624
406.000250	4366.866752
406.381642	4419.110750
406.762972	4367.648131
407.144240	4357.389383
407.525447	4336.526567
407.906593	4368.111917
408.287677	4380.631622
408.668700	4297.810506
409.049661	4317.178619
409.430560	4321.824042
409.811399	4232.000763
410.192176	4329.095907
410.572891	4259.389352
410.953545	4303.607833
411.334138	4180.039070
411.714669	4196.546328
412.095139	4086.472734
412.475547	4151.901869
412.855894	4101.054271
413.236180	4074.379006
413.616405	4004.795959
413.996568	4023.874206
414.376670	3946.389151
414.756711	3880.390364
415.136691	3859.681304
415.516609	3864.583827
415.896466	3846.395343
416.276262	3822.036488
416.655997	3767.574383
417.035670	3815.916527
417.415283	3820.098164
417.794834	3742.771906
418.174324	3678.940816
418.553753	3593.324379
418.933121	3630.966675
419.312428	3606.474229
419.691674	3535.951007
420.070859	3537.165925
420.449983	3464.681695
420.829045	3458.213894
421.208047	3390.087741
421.586988	3361.627907
421.965867	3323.849500
422.344686	3313.021102
422.723444	3236.980337
423.102141	3158.171979
423.480777	3191.688091
423.859352	3103.220882
424.237866	3117.719240
424.616319	3086.096082
424.994712	3069.056982
425.373044	3014.121008
425.751314	3003.012826
426.129524	2939.758948
426.507673	2937.225768
426.885762	2924.426278
427.263789	2883.552603
427.641756	2849.643282
428.019662	2834.711384
428.397508	2812.142138
428.775292	2784.446039
429.153016	2768.755447
429.530679	2745.787951
429.908282	2734.092474
430.285824	2711.251006
430.663305	2706.356045
431.040726	2679.958043
431.418086	2664.648059
431.795385	2659.785866
432.172624	2647.077117
432.549802	2633.778553
432.926920	2624.051647
433.303977	2615.209463
433.680974	2608.482043
434.057910	2599.823862
434.434786	2594.311360
434.811601	2589.265165
435.188355	2585.028075
435.565050	2578.144379
435.941683	2573.143555
436.318257	2572.841086
436.694770	2565.259190
437.071222	2561.662327
437.447614	2556.371636
437.823946	2554.526574
438.200218	2558.181410
438.576429	2554.080432
438.952580	2552.028682
439.328670	2551.244783
439.704700	2548.174720
440.080670	2550.047508
440.456580	2548.154555
440.832429	2548.845193
441.208218	2547.347971
441.583947	2547.942827
441.959616	2546.191026
442.335224	2546.115408
442.710773	2544.887887
443.086261	2544.305634
443.461689	2546.266643
443.837057	2543.095757
444.212365	2544.396375
444.587612	2543.073072
444.962800	2543.786395
445.337927	2543.930068
445.712995	2542.127856
446.088002	2543.302445
446.462949	2541.722043
446.837837	2540.920499
447.212664	2542.004348
447.587431	2543.282280
447.962139	2547.287477
448.336786	2550.239072
448.711374	2546.992569
449.085901	2543.625078
449.460369	2543.249512
449.834776	2540.408822
450.209124	2546.763197
450.583412	2546.128011
450.957640	2546.831252
451.331808	2543.599873
451.705917	2544.471992
452.079965	2543.798998
452.453954	2544.799667
452.827883	2541.853113
453.201752	2543.625078
453.575562	2542.508463
453.949311	2540.870088
454.323001	2543.897301
454.696632	2545.197918
455.070202	2545.916283
455.443713	2544.691282
455.817164	2543.960315
456.190556	2544.608103
456.563888	2543.864533
456.937160	2539.748431
457.310373	2543.491488
457.683526	2543.541899
458.056619	2544.230017
458.429653	2545.497867
458.802628	2545.273536
459.175542	2544.703885
459.548398	2547.342929
459.921194	2547.201777
460.293930	2549.389638
460.666607	2547.652960
461.039224	2551.713610
461.411782	2548.688917
461.784280	2551.043136
462.156719	2549.593805
462.529099	2551.217056
462.901419	2551.078424
463.273680	2550.264278
463.645882	2551.849721
464.018024	2547.685728
464.390106	2552.742005
464.762130	2555.663354
465.134094	2552.711758
465.505999	2558.564538
465.877845	2564.767678
466.249631	2566.194324
466.621358	2563.472101
466.993026	2564.074519
467.364634	2566.219530
467.736184	2561.823644
468.107674	2560.898592
468.479105	2560.923798
468.850477	2558.841801
469.221790	2558.551935
469.593043	2557.856256
469.964238	2557.611760
470.335373	2557.999929
470.706449	2558.201575
471.077467	2558.597305
471.448425	2566.254818
471.819324	2566.514437
472.190164	2570.912844
472.560945	2564.079560
472.931667	2562.728531
473.302330	2559.469425
473.672934	2563.094015
474.043479	2558.143602
474.413965	2560.888510
474.784393	2553.094886
475.154761	2558.781307
475.525070	2556.666543
475.895321	2557.846173
476.265513	2557.831050
476.635645	2561.044786
477.005719	2559.643345
477.375734	2561.422872
477.745691	2561.982440
478.115588	2566.421176
478.485427	2562.799107
478.855207	2569.347566
479.224928	2568.782957
479.594591	2574.282856
479.964194	2571.059038
480.333739	2572.147927
480.703226	2574.182033
481.072653	2573.851837
481.442022	2575.127249
481.811333	2577.181519
482.180584	2572.911662
482.549777	2572.654563
482.918912	2571.726991
483.287988	2574.444172
483.657005	2571.878225
484.025964	2572.523493
484.394864	2571.691703
484.763706	2572.589028
485.132489	2568.475446
485.501213	2568.939232
485.869879	2570.615416
486.238487	2565.133161
486.607036	2566.012843
486.975527	2568.775395
487.343959	2569.740776
487.712333	2567.585683
488.080648	2566.690878
488.448905	2569.029973
488.817104	2569.249263
489.185244	2568.609037
489.553326	2568.730025
489.921350	2572.798236
490.289315	2573.541806
490.657222	2577.640264
491.025070	2574.406364
491.392861	2574.355952
491.760593	2574.113977
492.128267	2572.662125
492.495883	2569.667679
492.863440	2571.195149
493.230939	2567.787329
493.598380	2567.121897
493.965763	2559.683674
494.333088	2565.533933
494.700354	2565.395301
495.067563	2567.384037
495.434713	2557.135371
495.801805	2567.873028
496.168839	2565.450754
496.535815	2566.441341
496.902733	2566.007802
497.269593	2566.433779
497.636395	2566.413614
498.003139	2565.806155
498.369825	2567.356310
498.736453	2566.534602
499.103023	2567.822617
499.469535	2566.852195
499.835989	2566.383367
500.202385	2569.929819
500.568723	2565.554098
500.935003	2568.014181
501.301226	2563.840105
501.667390	2567.378995
502.033497	2568.107442
502.399546	2567.096691
502.765537	2567.895714
503.131470	2566.947977
503.497345	2570.781774
503.863163	2565.748182
504.228923	2569.080385
504.594625	2570.806980
504.960269	2568.382185
505.325856	2568.941753
505.691385	2567.779767
506.056856	2569.445868
506.422270	2569.304716
506.787625	2567.439489
507.152924	2567.792370
507.518164	2568.573749
507.883347	2567.313460
508.248472	2566.365723
508.613540	2568.026784
508.978550	2569.171126
509.343503	2564.515620
509.708398	2566.411094
510.073236	2569.019891
510.438016	2570.570046
510.802738	2568.767833
511.167403	2570.217165
511.532010	2568.170457
511.896561	2571.043914
512.261053	2570.297823
512.625488	2567.051320
512.989866	2566.201886
513.354186	2568.752710
513.718449	2567.326063
514.082655	2569.672720
514.446803	2571.008626
514.810894	2568.646846
515.174927	2572.460478
515.538904	2569.440827
515.902822	2570.731363
516.266684	2572.541137
516.630488	2570.365879
516.994235	2570.693554
517.357925	2570.076013
517.721558	2571.530386
518.085133	2571.295972
518.448651	2571.366548
518.812112	2571.001064
519.175516	2571.404357
519.538863	2571.623647
519.902152	2571.580797
520.265385	2572.813359
520.628560	2571.432083
520.991678	2571.817731
521.354739	2569.095508
521.717743	2568.646846
522.080690	2573.556929
522.443580	2570.396126
522.806413	2569.052658
523.169189	2572.858730
523.531908	2570.030642
523.894569	2573.340160
524.257174	2573.937537
524.619722	2571.827814
524.982213	2573.849316
525.344647	2572.924265
525.707025	2572.495767
526.069345	2572.094995
526.431608	2569.627350
526.793815	2570.136507
527.155964	2571.626167
527.518057	2572.500808
527.880093	2571.275807
528.242072	2570.703636
528.603995	2570.484346
528.965860	2572.707495
529.327669	2570.103739
529.689421	2569.312278
530.051117	2571.926116
530.412755	2574.240006
530.774337	2571.994172
531.135862	2573.062896
531.497331	2569.922257
531.858743	2565.128120
532.220098	2567.348748
532.581396	2564.850857
532.942638	2568.795560
533.303824	2567.978893
533.664953	2572.069789
534.026025	2568.009140
534.387040	2570.176836
534.747999	2565.614592
535.108902	2571.190108
535.469748	2569.410580
535.830537	2572.909141
536.191270	2571.074161
536.551947	2570.680951
536.912567	2568.810683
537.273131	2570.287741
537.633638	2569.009809
537.994089	2571.200190
538.354483	2568.934191
538.714821	2569.813873
539.075103	2571.984089
539.435328	2568.606516
539.795497	2568.099880
540.155609	2571.802608
540.515665	2571.301013
540.875665	2570.315467
541.235609	2567.787329
541.595496	2569.708008
541.955328	2570.292782
542.315102	2572.647001
542.674821	2570.416291
543.034483	2571.013667
543.394090	2570.756568
543.753640	2569.460992
544.113134	2566.234653
544.472571	2569.899572
544.831953	2568.382185
545.191278	2570.630540
545.550548	2569.231619
545.909761	2569.834037
546.268918	2568.818245
546.628019	2571.479974
546.987064	2569.670200
547.346053	2571.033832
547.704986	2568.936712
548.063863	2569.466033
548.422684	2571.454768
548.781449	2568.364541
549.140158	2568.893862
549.498811	2570.570046
549.857408	2570.537278
550.215949	2566.310271
550.574434	2567.305899
550.932864	2566.360682
551.291237	2566.194324
551.649555	2566.958059
552.007817	2567.968810
552.366022	2569.380333
552.724173	2567.999057
553.082267	2568.150292
553.440305	2567.900755
553.798288	2571.447207
554.156215	2568.273800
554.514086	2571.048955
554.871902	2569.831517
555.229661	2569.725652
555.587365	2567.744479
555.945014	2568.485529
556.302606	2567.789849
556.660143	2568.772874
557.017625	2570.663307
557.375050	2571.212793
557.732421	2568.498132
558.089735	2568.223389
558.446994	2566.857236
558.804197	2568.092319
559.161345	2570.136507
559.518437	2569.758420
559.875474	2571.366548
560.232455	2570.020560
560.589381	2568.989644
560.946251	2572.364697
561.303065	2568.485529
561.659825	2568.911506
562.016528	2568.137689
562.373177	2568.278841
562.729770	2569.584500
563.086307	2571.164902
563.442789	2568.389747
563.799216	2565.982596
564.155587	2571.053997
564.511904	2568.730025
564.868164	2570.943091
565.224370	2569.768502
565.580520	2566.902606
565.936615	2568.064592
566.292654	2568.931671
566.648638	2568.782957
567.004567	2569.539130
567.360441	2567.472257
567.716260	2566.857236
568.072023	2569.677762
568.427732	2560.344065
568.783385	2567.328584
569.138982	2564.583676
569.494525	2565.838923
569.850013	2562.239539
570.205445	2567.091650
570.560823	2568.349417
570.916145	2568.606516
571.271412	2567.026115
571.626625	2570.547361
571.981782	2567.560477
572.336884	2567.936043
572.691931	2566.698440
573.046923	2566.194324
573.401860	2562.965465
573.756743	2567.656259
574.111570	2567.928481
574.466342	2566.017884
574.821059	2567.013512
575.175722	2567.699109
575.530330	2567.938563
575.884882	2567.754561
576.239380	2565.760785
576.593823	2570.663307
576.948211	2563.862791
577.302544	2565.125600
577.656823	2564.034190
578.011047	2569.589541
578.365216	2566.229612
578.719330	2566.189283
579.073389	2562.645352
579.427394	2564.001422
579.781344	2563.903120
580.135239	2567.477298
580.489080	2566.595096
580.842866	2564.001422
581.196597	2568.155333
581.550273	2563.784653
581.903895	2562.988150
582.257463	2565.329766
582.610975	2564.881104
582.964434	2566.085939
583.317837	2562.993192
583.671186	2563.593089
584.024481	2560.328942
584.377721	2565.339849
584.730906	2563.184755
585.084037	2563.976217
585.437113	2564.157698
585.790135	2564.440003
586.143103	2561.168294
586.496016	2565.667524
586.848874	2558.630073
587.201679	2562.660475
587.554428	2558.650237
587.907124	2563.333469
588.259765	2557.818447
588.612352	2562.567214
588.964884	2560.979251
589.317362	2560.480176
589.669786	2561.450598
590.022155	2564.392112
590.374470	2563.822461
590.726731	2565.082750
591.078937	2560.112172
591.431090	2562.728531
591.783188	2562.786504
592.135232	2561.967317
592.487222	2561.485887
592.839157	2562.582337
593.191038	2560.656617
593.542866	2561.722821
593.894639	2563.033521
594.246358	2560.797769
594.598022	2562.985630
594.949633	2560.437327
595.301190	2558.466235
595.652692	2563.225085
596.004141	2562.607543
596.355535	2563.124262
596.706876	2562.791545
597.058162	2561.001936
597.409395	2559.482028
597.760573	2562.957903
598.111698	2558.743499
598.462768	2561.261555
598.813785	2561.662327
599.164748	2559.746688
599.515657	2563.086453
599.866511	2560.901113
600.217312	2561.150650
600.568060	2560.046637
600.918753	2559.111503
601.269392	2561.238870
601.619978	2560.757440
601.970510	2561.632080
602.320988	2559.678633
602.671412	2561.969837
603.021783	2557.364743
603.372100	2561.206102
603.722363	2559.371122
604.072572	2561.324570
604.422728	2562.801628
604.772830	2558.161246
605.122878	2556.417006
605.472872	2557.916750
605.822813	2555.890206
606.172701	2558.466235
606.522534	2560.654096
606.872314	2561.344734
607.222041	2558.582182
607.571714	2564.016546
607.921333	2559.219888
608.270899	2559.802141
608.620411	2558.536812
608.969870	2562.587379
609.319276	2563.411607
609.668627	2566.552246
610.017926	2566.030487
610.367171	2569.907134
610.716362	2567.058882
611.065500	2566.033007
611.414585	2563.106618
611.763616	2563.847667
612.112594	2564.558470
612.461518	2562.065619
612.810389	2559.043448
613.159207	2561.949673
613.507971	2559.396328
613.856682	2562.471432
614.205340	2562.181566
614.553945	2561.349775
614.902496	2560.613767
615.250994	2561.243911
615.599439	2561.110321
615.947830	2561.309446
616.296169	2560.442368
616.644454	2559.660989
616.992686	2560.402038
617.340864	2562.458829
617.688990	2562.322718
618.037063	2558.443550
618.385082	2561.589230
618.733048	2559.880279
619.080961	2560.407080
619.428821	2560.442368
619.776628	2558.478838
620.124382	2563.237688
620.472083	2558.511606
620.819731	2558.917419
621.167326	2560.631411
621.514868	2559.822306
621.862357	2559.035886
622.209793	2560.626370
622.557176	2559.366081
622.904506	2556.394321
623.251783	2555.887685
623.599007	2556.772408
623.946179	2556.878272
624.293297	2556.139743
624.640363	2556.585885
624.987376	2560.734755
625.334336	2558.234342
625.681243	2559.164435
626.028097	2556.205278
626.374899	2554.955072
626.721647	2555.025648
627.068343	2558.892213
627.414987	2557.427758
627.761577	2556.835422
628.108115	2557.125288
628.454600	2555.123950
628.801032	2555.461708
629.147412	2555.965823
629.493739	2557.344579
629.840014	2559.051009
630.186236	2557.591595
630.532405	2555.612942
630.878521	2555.381049
631.224585	2556.164949
631.570597	2557.936914
631.916556	2554.826522
632.262462	2555.865000
632.608316	2555.749053
632.954117	2554.450956
633.299866	2555.484393
633.645562	2557.067315
633.991206	2555.721327
634.336797	2556.016235
634.682336	2554.367777
635.027823	2551.658157
635.373257	2555.683518
635.718639	2553.699824
636.063968	2555.975905
636.409245	2553.115051
636.754470	2552.547921
637.099642	2553.432643
637.444762	2555.229815
637.789829	2555.398693
638.134845	2555.000442
638.479808	2551.842159
638.824719	2550.239072
639.169577	2553.409958
639.514383	2550.844011
639.859137	2550.251675
640.203839	2554.372818
640.548489	2553.331820
640.893086	2549.737478
641.237632	2548.890564
641.582125	2549.573640
641.926566	2547.443752
642.270955	2551.809392
642.615292	2551.096068
642.959576	2553.067160
643.303809	2553.563713
643.647990	2552.903322
643.992118	2551.567416
644.336195	2551.088507
644.680219	2552.187478
645.024192	2553.326779
645.368112	2551.748898
645.711981	2552.169834
646.055797	2551.206974
646.399562	2551.128836
646.743274	2554.274516
647.086935	2553.803168
647.430544	2552.363919
647.774101	2554.473642
648.117606	2554.224104
648.461059	2552.411810
648.804460	2554.869372
649.147810	2551.814433
649.491108	2555.799465
649.834354	2554.740823
650.177548	2551.161603
650.520690	2553.548590
650.863781	2552.558003
651.206820	2553.069680
651.549807	2551.849721
651.892742	2551.146480
652.235626	2555.028168
652.578458	2548.383928
652.921238	2550.344937
653.263967	2554.450956
653.606644	2550.604556
653.949269	2551.045657
654.291843	2550.831408
654.634365	2551.716130
654.976836	2549.951727
655.319255	2551.718651
655.661622	2552.827705
656.003938	2551.033054
656.346203	2549.253527
656.688416	2549.987015
657.030577	2548.746891
657.372687	2551.022972
657.714746	2549.808054
658.056753	2551.451470
658.398708	2544.023330
658.740612	2548.124308
659.082465	2544.734132
659.424266	2545.006355
659.766016	2544.923176
660.107715	2548.583053
660.449362	2548.797302
660.790958	2550.523898
661.132503	2551.643034
661.473996	2551.640513
661.815438	2551.242262
662.156829	2549.631613
662.498168	2548.570450
662.839456	2549.140101
663.180693	2549.082127
663.521879	2549.969371
663.863013	2549.074566
664.204097	2550.826367
664.545129	2548.462066
664.886110	2548.973743
665.227040	2548.946016
665.567918	2549.808054
665.908746	2549.314021
666.249522	2551.252344
666.590248	2549.828218
666.930922	2548.026006
667.271545	2551.786707
667.612118	2554.380380
667.952639	2551.312838
668.293109	2551.277550
668.633528	2548.167158
668.973896	2551.166645
669.314213	2550.639844
669.654480	2550.546583
669.994695	2552.593291
670.334859	2550.561706
670.674973	2548.197405
671.015035	2550.176058
671.355047	2549.724875
671.695008	2549.336706
672.034918	2549.351829
672.374777	2549.634134
672.714585	2551.252344
673.054342	2552.028682
673.394049	2547.307641
673.733705	2552.126984
674.073310	2551.685883
674.412864	2552.313507
674.752368	2547.607590
675.091820	2549.619010
675.431223	2550.712941
675.770574	2550.360060
676.109875	2545.059287
676.449125	2548.404092
676.788324	2548.300749
677.127473	2545.087013
677.466571	2545.923845
677.805619	2549.485420
678.144616	2548.318393
678.483562	2549.177909
678.822458	2548.015923
679.161303	2547.012734
679.500098	2548.643547
679.838842	2549.624052
680.177535	2547.920142
680.516179	2549.956768
680.854771	2546.778320
681.193314	2547.751263
681.531805	2547.416026
681.870247	2550.254196
682.208638	2553.306614
682.546978	2552.976419
682.885268	2547.947868
683.223508	2550.037426
683.561697	2549.611449
683.899836	2550.042467
684.237925	2545.996941
684.575963	2549.631613
684.913951	2548.404092
685.251889	2550.032385
685.589776	2551.307797
685.927614	2550.660009
686.265401	2549.324103
686.603137	2550.228990
686.940824	2550.249155
687.278460	2550.980122
687.616046	2549.961809
687.953582	2550.780996
688.291068	2550.922149
688.628504	2548.441901
688.965889	2551.327962
689.303224	2551.401058
689.640510	2549.896274
689.977745	2545.460058
690.314930	2548.436860
690.652065	2551.678322
690.989150	2548.104144
691.326185	2551.592622
691.663170	2548.336037
692.000105	2551.338044
692.336990	2546.473330
692.673825	2546.768238
693.010610	2549.515667
693.347345	2545.886036
693.684030	2542.377393
694.020665	2545.132383
694.357251	2541.621220
694.693786	2544.177085
695.030272	2548.328475
695.366707	2546.339740
695.703093	2544.968546
696.039429	2544.666077
696.375716	2543.647764
696.711952	2543.272198
697.048139	2544.015768
697.384276	2544.764379
697.720363	2543.312527
698.056400	2545.623896
698.392388	2545.381921
698.728326	2546.584236
699.064214	2545.152548
699.400053	2545.886036
699.735842	2543.436035
700.071581	2547.078269
700.407270	2543.204142
700.742910	2546.692621
701.078501	2544.371169
701.414042	2545.981818
701.749533	2543.443597
702.084974	2546.054915
702.420366	2542.954605
702.755709	2547.289997
703.091002	2542.546272
703.426246	2545.205480
703.761440	2545.681869
704.096584	2543.975439
704.431679	2542.722712
704.766725	2547.242106
705.101721	2545.092054
705.436668	2545.848227
705.771565	2545.336550
706.106413	2543.932589
706.441212	2545.422250
706.775961	2543.650284
707.110661	2543.683052
707.445311	2546.337219
707.779913	2542.425284
708.114465	2544.608103
708.448967	2544.240099
708.783421	2544.335881
709.117825	2548.275543
709.452180	2543.962836
709.786485	2544.051056
710.120742	2547.123639
710.454949	2548.046170
710.789107	2544.479554
711.123216	2542.631971
711.457275	2542.584080
711.791286	2544.484595
712.125247	2542.765562
712.459159	2547.393341
712.793023	2545.268495
713.126837	2546.725388
713.460602	2545.192877
713.794318	2546.551468
714.127985	2548.729247
714.461602	2544.600542
714.795171	2545.936447
715.128691	2544.724050
715.462162	2542.085006
715.795584	2543.574667
716.128957	2544.794626
716.462281	2544.676159
716.795556	2545.208001
717.128782	2546.128011
717.461960	2543.189019
717.795088	2543.075593
718.128167	2543.720860
718.461198	2544.739173
718.794180	2544.504760
719.127113	2539.899666
719.459997	2544.595501
719.792833	2540.736497
720.125619	2544.040974
720.458357	2542.493339
720.791046	2540.693647
721.123686	2540.123997
721.456278	2541.722043
721.788821	2541.444779
722.121315	2546.170861
722.453761	2541.540561
722.786158	2542.717671
723.118506	2540.885211
723.450805	2543.922507
723.783056	2539.924872
724.115259	2541.966539
724.447412	2541.152393
724.779518	2540.600386
725.111574	2545.404606
725.443582	2542.211035
725.775542	2543.481406
726.107453	2543.385624
726.439315	2540.227341
726.771129	2549.460214
727.102895	2542.397557
727.434612	2545.462579
727.766281	2543.514173
728.097901	2540.779347
728.429473	2540.892773
728.760996	2537.338760
729.092471	2537.621064
729.423897	2543.254554
729.755276	2542.294214
730.086606	2542.095088
730.417887	2545.709596
730.749120	2545.926365
731.080305	2544.411498
731.411442	2544.378731
731.742530	2543.874616
732.073570	2547.335368
732.404562	2544.507280
732.735506	2546.347302
733.066401	2544.676159
733.397249	2543.037784
733.728048	2543.768751
734.058798	2539.965201
734.389501	2544.300593
734.720156	2542.054759
735.050762	2545.628937
735.381320	2542.384955
735.711831	2541.964018
736.042293	2543.050387
736.372707	2541.817825
736.703073	2539.120807
737.033391	2543.690613
737.363661	2541.812784
737.693883	2543.146169
738.024056	2546.339740
738.354182	2541.943854
738.684260	2542.233720
739.014290	2543.620037
739.344272	2544.149358
739.674207	2542.866385
740.004093	2543.667928
740.333931	2541.081816
740.663722	2542.090047
740.993464	2542.508463
741.323159	2544.242620
741.652806	2541.747249
741.982405	2545.606252
742.311956	2539.100643
742.641460	2544.018288
742.970915	2543.161292
743.300323	2542.135417
743.629683	2542.619368
743.958996	2541.038967
744.288260	2539.708102
744.617477	2542.924358
744.946647	2535.168543
745.275768	2537.684079
745.604842	2536.209541
745.933869	2540.353370
746.262847	2533.872966
746.591778	2544.787064
746.920662	2542.180788
747.249498	2540.698689
747.578286	2541.495191
747.907027	2541.991745
748.235720	2542.047197
748.564365	2538.962011
748.892963	2539.587114
749.221514	2538.778009
749.550017	2538.765406
749.878473	2543.551982
750.206881	2540.444110
750.535242	2540.776827
750.863555	2541.797660
751.191821	2541.033925
751.520039	2538.510828
751.848210	2540.960829
752.176334	2539.902186
752.504411	2540.250026
752.832440	2540.277752
753.160421	2541.717002
753.488356	2540.544933
753.816243	2540.804553
754.144082	2539.468647
754.471875	2542.112732
754.799620	2540.101312
755.127318	2540.048380
755.454969	2539.095602
755.782572	2541.475026
756.110129	2540.650798
756.437638	2539.826569
756.765100	2540.333205
757.092515	2542.069882
757.419882	2538.909079
757.747203	2540.701209
758.074477	2539.445962
758.401703	2541.527958
758.728882	2540.865047
759.056014	2542.652136
759.383099	2541.722043
759.710138	2538.155427
760.037129	2540.456713
760.364073	2540.005530
760.690970	2543.042825
761.017820	2541.454862
761.344623	2539.793802
761.671379	2542.556354
761.998088	2538.636857
762.324751	2540.187012
762.651366	2540.436549
762.977935	2544.046015
763.304456	2543.441076
763.630931	2549.089689
763.957359	2548.764535
764.283740	2545.603731
764.610074	2545.565923
764.936362	2545.313865
765.262602	2539.327495
765.588796	2542.251364
765.914943	2543.113401
766.241044	2541.437218
766.567097	2542.694986
766.893104	2540.834800
767.219064	2537.462268
767.544978	2539.231713
767.870845	2541.283463
768.196665	2537.600900
768.522438	2541.361600
768.848165	2538.132741
769.173846	2540.434028
769.499479	2539.299768
769.825066	2540.970911
770.150607	2537.187525
770.476101	2536.191897
770.801548	2539.045190
771.126949	2537.389171
771.452303	2539.813966
771.777611	2536.486805
772.102872	2536.060827
772.428087	2538.926723
772.753256	2534.891279
773.078378	2537.149716
773.403453	2537.956301
773.728482	2537.600900
774.053465	2538.921682
774.378401	2535.844058
774.703291	2540.731456
775.028135	2536.164171
775.352932	2537.119469
775.677683	2536.378420
776.002388	2537.469830
776.327046	2536.315405
776.651658	2537.696682
776.976224	2536.401105
777.300743	2538.291538
777.625216	2536.882535
777.949643	2538.609130
778.274024	2535.891948
778.598359	2532.431196
778.922647	2533.000847
779.246889	2534.800539
779.571086	2531.228881
779.895236	2536.363296
780.219339	2536.234747
780.543397	2538.939326
780.867409	2535.975128
781.191374	2537.487474
781.515294	2536.668286
781.839167	2538.029398
782.162995	2538.795653
782.486776	2538.851106
782.810511	2535.632329
783.134201	2539.597197
783.457844	2539.710622
783.781441	2537.724408
784.104993	2536.007895
784.428498	2536.890097
784.751958	2535.818852
785.075372	2537.278266
785.398739	2537.283307
785.722061	2534.959335
786.045337	2536.408667
786.368568	2534.750127
786.691752	2536.106198
787.014891	2537.363965
787.337983	2535.859181
787.661030	2535.420601
787.984031	2537.434542
788.306987	2540.376055
788.629897	2537.174922
788.952760	2537.381609
789.275579	2538.057124
789.598351	2537.333718
789.921078	2536.978317
790.243759	2537.031249
790.566395	2534.987061
790.888984	2538.236085
791.211529	2540.812115
791.534027	2537.179963
791.856480	2536.259953
792.178888	2538.105015
792.501249	2537.444624
792.823566	2535.556712
793.145836	2536.529654
793.468062	2536.973276
793.790241	2537.729449
794.112375	2536.524613
794.434464	2535.443286
794.756507	2538.508307
795.078505	2537.651311
795.400457	2534.656866
795.722364	2531.516227
796.044226	2534.356917
796.366042	2532.963038
796.687812	2531.160826
797.009538	2539.264480
797.331218	2538.636857
797.652852	2536.413708
797.974442	2539.786240
798.295986	2537.893287
798.617484	2538.795653
798.938938	2535.594520
799.260346	2535.120652
799.581709	2537.583256
799.903026	2537.926054
800.224299	2535.602082
800.545526	2537.341280
800.866708	2535.176105
801.187845	2536.118800
801.508936	2537.517721
801.829983	2537.250539
802.150984	2537.421939
802.471940	2536.138965
802.792851	2533.991433
803.113717	2537.764737
803.434538	2537.812628
803.755314	2537.794984
804.076045	2537.794984
804.396731	2536.227185
804.717372	2534.903882
805.037967	2536.544778
805.358518	2533.086546
805.679024	2537.174922
805.999485	2536.348173
806.319901	2537.651311
806.640272	2537.411856
806.960598	2534.961856
807.280879	2534.835827
807.601115	2533.033614
807.921306	2536.333049
808.241453	2534.886238
808.561554	2535.065199
808.881611	2539.917310
809.201623	2536.811959
809.521590	2536.907741
809.841513	2534.054448
810.161390	2537.066537
810.481223	2536.839685
810.801011	2537.936136
811.120755	2537.857998
811.440453	2536.645601
811.760107	2535.314736
812.079716	2533.709129
812.399281	2530.427338
812.718801	2533.404139
813.038276	2530.573531
813.357707	2531.024714
813.677093	2538.478060
813.996434	2536.950591
814.315731	2535.581918
814.634983	2535.128214
814.954191	2533.366330
815.273354	2536.300282
815.592473	2534.107380
815.911547	2536.169212
816.230577	2536.154088
816.549562	2537.477391
816.868502	2534.994623
817.187399	2535.662576
817.506250	2534.452699
817.825058	2535.806249
818.143821	2537.046373
818.462539	2538.893956
818.781213	2538.382278
819.099843	2536.905220
819.418429	2541.913607
819.736970	2539.022505
820.055466	2542.037115
820.373919	2540.597866
820.692327	2540.915458
821.010691	2545.661705
821.329011	2551.252344
821.647286	2562.799107
821.965517	2575.893504
822.283704	2585.196954
822.601847	2587.525967
822.919945	2581.479103
823.237999	2574.103895
823.556010	2563.988819
823.873976	2561.279199
824.191897	2556.280895
824.509775	2552.164793
824.827609	2548.499874
825.145398	2546.556509
825.463144	2548.666232
825.780845	2545.908721
826.098502	2549.059442
826.416116	2551.091027
826.733685	2555.028168
827.051210	2557.609239
827.368692	2557.926832
827.686129	2551.063301
828.003522	2545.480223
828.320872	2537.396733
828.638177	2541.820345
828.955439	2538.311702
829.272656	2535.748276
829.589830	2532.776515
829.906960	2539.551826
830.224046	2536.796836
830.541088	2538.069727
830.858086	2535.796167
831.175041	2536.504449
831.491952	2534.750127
831.808819	2537.731970
832.125642	2537.021167
832.442421	2538.110056
832.759157	2537.298430
833.075849	2543.546941
833.392497	2546.281767
833.709101	2542.289173
834.025662	2548.978784
834.342179	2543.730943
834.658653	2540.769265
834.975083	2539.143493
835.291469	2538.697351
835.607811	2539.287166
835.924110	2535.579397
836.240366	2536.194418
836.556578	2535.922195
836.872746	2536.290200
837.188871	2535.513862
837.504952	2535.972607
837.820990	2535.695343
838.136984	2535.554191
838.452935	2535.309695
838.768842	2533.361289
839.084706	2533.651156
839.400526	2538.042001
839.716303	2538.120138
840.032037	2541.016281
840.347727	2537.631147
840.663373	2538.407484
840.978977	2536.161650
841.294537	2536.113759
841.610054	2533.464633
841.925527	2534.485467
842.240957	2535.813811
842.556344	2533.910775
842.871687	2533.820034
843.186987	2533.494880
843.502244	2531.649818
843.817458	2535.644932
844.132629	2535.407998
844.447756	2532.867256
844.762840	2531.007070
845.077881	2529.731658
845.392879	2531.513706
845.707833	2531.007070
846.022745	2529.003212
846.337613	2534.863553
846.652438	2535.649973
846.967221	2535.695343
847.281960	2532.794159
847.596656	2536.219623
847.911309	2534.404808
848.225919	2535.251722
848.540485	2533.852802
848.855009	2533.550332
849.169490	2534.699716
849.483928	2536.328008
849.798323	2530.366844
850.112675	2535.569315
850.426984	2531.675023
850.741251	2530.956659
851.055474	2535.259284
851.369654	2533.822555
851.683792	2533.583100
851.997887	2532.307688
852.311938	2533.736855
852.625947	2531.874149
852.939914	2532.960517
853.253837	2532.995806
853.567718	2535.216434
853.881555	2530.777698
854.195350	2533.469674
854.509103	2534.440096
854.822812	2534.913965
855.136479	2534.845909
855.450103	2533.439427
855.763685	2533.026053
856.077224	2531.669982
856.390720	2533.421783
856.704173	2534.009077
857.017584	2530.858356
857.330953	2533.265507
857.644278	2533.724252
857.957561	2533.973789
858.270802	2533.820034
858.584000	2530.145033
858.897155	2532.400949
859.210268	2532.282482
859.523339	2533.724252
859.836367	2530.818027
860.149352	2530.649148
860.462295	2531.702750
860.775195	2532.201824
861.088054	2527.826102
861.400869	2531.843902
861.713642	2527.137985
862.026373	2531.612009
862.339062	2533.131917
862.651708	2530.485311
862.964312	2535.024870
863.276873	2533.187369
863.589392	2531.909437
863.901869	2532.816845
864.214303	2532.161495
864.526696	2530.021525
864.839045	2533.865405
865.151353	2532.927750
865.463619	2532.358100
865.775842	2532.453882
866.088023	2531.052441
866.400162	2534.500590
866.712258	2533.366330
867.024313	2530.966741
867.336325	2532.438758
867.648296	2533.101670
867.960224	2533.003367
868.272110	2532.574869
868.583954	2532.491690
868.895755	2534.419932
869.207515	2532.073274
869.519233	2534.798018
869.830909	2531.566638
870.142542	2536.063348
870.454134	2532.733666
870.765684	2533.794828
871.077191	2534.593851
871.388657	2536.469161
871.700081	2532.398429
872.011463	2533.870446
872.322803	2533.394057
872.634101	2535.327339
872.945357	2529.615712
873.256571	2530.739889
873.567744	2531.289375
873.878874	2532.867256
874.189963	2533.099149
874.501010	2533.383974
874.812015	2531.939684
875.122979	2534.601413
875.433900	2534.389685
875.744780	2532.373223
876.055618	2535.289531
876.366415	2532.456402
876.677169	2533.779705
876.987882	2533.071423
877.298554	2531.574200
877.609183	2535.312216
877.919771	2529.698891
878.230317	2532.005219
878.540822	2534.329191
878.851285	2533.938501
879.161707	2535.544109
879.472087	2536.078471
879.782425	2537.731970
880.092722	2539.836651
880.402977	2545.485264
880.713191	2548.812426
881.023363	2556.495144
881.333494	2566.519479
881.643583	2569.173646
881.953631	2564.434962
882.263637	2561.654765
882.573602	2557.619322
882.883526	2553.982129
883.193408	2552.152190
883.503248	2548.262940
883.813048	2546.165820
884.122806	2544.275387
884.432522	2542.752959
884.742197	2541.916127
885.051831	2538.783050
885.361424	2537.479912
885.670975	2537.333718
885.980485	2537.535365
886.289954	2536.678368
886.599382	2533.479756
886.908768	2536.635519
887.218113	2535.155940
887.527417	2535.095446
887.836680	2531.881711
888.145901	2534.644263
888.455082	2534.112421
888.764221	2533.547812
889.073319	2533.532688
889.382376	2533.951104
889.691392	2530.056813
890.000366	2532.448840
890.309300	2531.269210
890.618193	2534.906403
890.927044	2533.268028
891.235855	2533.356248
891.544625	2532.620240
891.853353	2533.666279
892.162041	2530.578572
892.470687	2536.118800
892.779293	2532.607637
893.087858	2532.595034
893.396381	2530.460105
893.704864	2535.223996
894.013306	2535.332380
894.321707	2541.580891
894.630068	2540.363452
894.938387	2544.313196
895.246665	2542.894111
895.554903	2541.772454
895.863100	2537.991589
896.171256	2540.539892
896.479371	2538.561239
896.787446	2536.607792
897.095480	2539.829090
897.403473	2534.399767
897.711425	2535.052596
898.019336	2535.468492
898.327207	2533.288192
898.635038	2537.222813
898.942827	2535.004705
899.250576	2533.613347
899.558284	2532.403470
899.865952	2533.315919
900.173579	2534.674510
900.481165	2534.621578
900.788711	2534.944212
901.096216	2532.872297
901.403681	2533.469674
901.711105	2534.160312
902.018489	2531.745599
902.325832	2537.754655
902.633135	2529.872811
902.940397	2536.229706
903.247619	2533.976310
903.554800	2535.672658
903.861941	2540.998637
904.169041	2542.795809
904.476101	2546.077600
904.783121	2546.725388
905.090100	2543.173895
905.397039	2540.098791
905.703938	2540.827238
906.010796	2539.085519
906.317614	2535.609644
906.624391	2534.576207
906.931129	2533.540250
907.237826	2532.862215
907.544483	2535.191228
907.851099	2536.756506
908.157675	2531.942204
908.464211	2534.114942
908.770707	2528.312574
909.077163	2529.908099
909.383578	2525.227388
909.689954	2530.434899
909.996289	2528.181504
910.302584	2532.940353
910.608839	2532.947915
910.915054	2532.532019
911.221229	2532.332894
911.527363	2531.440610
911.833458	2530.013963
912.139513	2533.300795
912.445527	2531.859025
912.751502	2533.199972
913.057436	2532.360620
913.363331	2533.159643
913.669186	2534.031763
913.975000	2533.406660
914.280775	2532.806762
914.586510	2534.082174
914.892205	2535.531506
915.197859	2538.344470
915.503475	2541.966539
915.809050	2544.005686
916.114585	2547.053063
916.420081	2547.461397
916.725536	2544.439225
917.030952	2541.911086
917.336328	2542.856303
917.641665	2540.363452
917.946961	2538.848585
918.252218	2539.486291
918.557435	2536.020498
918.862612	2536.108718
919.167750	2532.388347
919.472848	2536.491846
919.777906	2534.765251
920.082925	2534.677030
920.387904	2534.666948
920.692843	2531.705270
920.997743	2533.215096
921.302603	2535.513862
921.607423	2530.515558
921.912204	2532.799201
922.216946	2533.583100
922.521647	2531.586803
922.826310	2535.153419
923.130932	2531.163346
923.435516	2532.484128
923.740059	2532.272400
924.044564	2531.377595
924.349028	2533.560415
924.653454	2526.205371
924.957840	2527.994981
925.262186	2528.519261
925.566493	2530.596216
925.870761	2524.277130
926.174989	2530.465146
926.479178	2530.470187
926.783328	2532.458923
927.087438	2531.002029
927.391509	2534.062010
927.695541	2526.394415
927.999533	2530.190403
928.303486	2529.968593
928.607400	2530.545805
928.911275	2529.020856
929.215110	2531.669982
929.518906	2530.608819
929.822663	2532.080836
930.126381	2530.150074
930.430060	2532.244674
930.733699	2529.935825
931.037299	2531.428007
931.340861	2530.308871
931.644383	2530.381967
931.947866	2529.998840
932.251309	2529.323325
932.554714	2529.739220
932.858080	2533.890610
933.161407	2529.933305
933.464694	2529.479601
933.767943	2530.505476
934.071153	2531.831299
934.374323	2529.167049
934.677455	2531.017153
934.980548	2527.821061
935.283602	2531.720394
935.586617	2530.210568
935.889593	2530.419776
936.192530	2529.512368
936.495428	2529.777029
936.798287	2527.763088
937.101108	2531.090249
937.403890	2527.934487
937.706632	2529.835002
938.009336	2530.951618
938.312002	2531.060003
938.614628	2530.167718
938.917216	2531.629653
939.219765	2530.384488
939.522275	2534.092257
939.824747	2530.487832
940.127179	2527.153108
940.429573	2528.408356
940.731929	2529.038500
941.034246	2525.224867
941.336524	2527.430372
941.638763	2529.139323
941.940964	2529.724097
942.243126	2530.790301
942.545250	2530.510517
942.847335	2529.514889
943.149381	2529.156967
943.451389	2529.686288
943.753359	2528.431041
944.055290	2530.228212
944.357182	2532.912627
944.659036	2529.910619
944.960851	2530.502955
945.262628	2530.412214
945.564367	2528.715866
945.866067	2529.882893
946.167729	2530.308871
946.469352	2530.203006
946.770937	2530.437420
947.072484	2528.978006
947.373992	2530.646628
947.675462	2528.045392
947.976893	2528.758716
948.278286	2528.804086
948.579641	2529.144364
948.880958	2528.720907
949.182236	2531.944725
949.483476	2529.346010
949.784678	2530.427338
950.085841	2533.550333
950.386967	2529.353572
950.688054	2527.742923
950.989103	2528.360465
951.290114	2532.169056
951.591087	2527.879034
951.892021	2530.845753
952.192917	2529.933305
952.493776	2527.271575
952.794596	2530.833151
953.095378	2530.013963
953.396122	2530.392050
953.696828	2530.427338
953.997496	2529.696370
954.298126	2527.788294
954.598718	2531.589324
954.899272	2528.584796
955.199788	2529.509848
955.500266	2528.171421
955.800706	2529.081350
956.101108	2526.318797
956.401472	2527.848787
956.701798	2524.178827
957.002087	2527.274096
957.302337	2528.857018
957.602550	2526.744775
957.902724	2527.097656
958.202861	2530.734848
958.502960	2527.800897
958.803022	2532.239633
959.103045	2529.164529
959.403031	2529.144364
959.702979	2529.348531
960.002889	2527.972296
960.302762	2528.650331
960.602596	2530.664272
960.902393	2525.963396
961.202153	2528.907430
961.501875	2528.166380
961.801559	2528.408356
962.101205	2527.755526
962.400814	2528.831812
962.700385	2529.041020
962.999918	2528.506658
963.299414	2525.842408
963.598873	2528.650331
963.898293	2527.664785
964.197677	2529.530012
964.497022	2529.005732
964.796331	2529.446833
965.095601	2528.887265
965.394835	2527.987419
965.694030	2527.238808
965.993189	2526.749816
966.292309	2528.857018
966.591393	2529.078829
966.890439	2528.864580
967.189447	2530.351720
967.488419	2527.027079
967.787353	2525.970958
968.086249	2529.068747
968.385108	2527.851308
968.683930	2528.821730
968.982714	2528.788963
969.281462	2532.471526
969.580172	2528.673016
969.878844	2525.880217
970.177480	2526.079342
970.476078	2526.948942
970.774639	2530.737369
971.073162	2527.112779
971.371649	2525.802079
971.670098	2525.570186
971.968510	2524.574558
972.266885	2525.149250
972.565223	2526.686802
972.863524	2527.430372
973.161788	2528.713345
973.460014	2530.258459
973.758204	2529.048582
974.056356	2528.088242
974.354471	2527.276617
974.652550	2530.011442
974.950591	2526.366688
975.248595	2528.478932
975.546563	2526.185207
975.844493	2528.040351
976.142386	2527.561442
976.440243	2530.044210
976.738062	2529.298119
977.035845	2526.505320
977.333590	2527.808458
977.631299	2527.942049
977.928971	2530.828109
978.226606	2527.508510
978.524204	2527.949611
978.821765	2527.536236
979.119290	2529.961031
979.416777	2531.448171
979.714228	2528.365506
980.011642	2528.161339
980.309020	2531.768285
980.606360	2529.701412
980.903664	2528.700743
981.200931	2525.078673
981.498162	2528.388191
981.795356	2527.450536
982.092513	2527.236287
982.389633	2525.587830
982.686717	2529.605630
982.983764	2527.364837
983.280775	2528.146216
983.577749	2529.280475
983.874686	2528.892306
984.171587	2529.313243
984.468451	2529.734179
984.765279	2525.983561
985.062070	2529.250228
985.358824	2528.274765
985.655543	2527.324508
985.952224	2529.086391
986.248869	2529.119158
986.545478	2524.357788
986.842050	2524.259486
987.138586	2526.278468
987.435086	2523.994825
987.731549	2522.401821
988.027975	2528.489014
988.324366	2528.002543
988.620719	2529.177132
988.917037	2529.593027
989.213318	2527.551359
989.509563	2527.556401
989.805772	2527.143026
990.101944	2526.039013
990.398080	2531.173428
990.694180	2528.831813
990.990244	2526.530526
991.286271	2529.761905
991.582262	2525.963396
991.878217	2526.558252
992.174136	2527.624456
992.470019	2526.608664
992.765865	2526.386853
993.061676	2526.785104
993.357450	2528.136133
993.653188	2526.669158
993.948890	2529.368695
994.244556	2528.569672
994.540186	2530.127389
994.835780	2528.466329
995.131337	2528.914992
995.426859	2530.351720
995.722345	2528.201668
996.017795	2528.867101
996.313208	2527.523633
996.608586	2526.061698
996.903928	2527.117820
997.199234	2526.071781
997.494504	2526.528005
997.789738	2529.030938
998.084936	2525.905423
998.380099	2523.483148
998.675225	2527.770650
998.970316	2527.669827
999.265371	2523.934332
999.560390	2525.358457
999.855373	2525.537418
1000.150320	2525.678571
1000.445232	2527.127902
1000.740108	2524.922398
1001.034948	2524.715710
1001.329752	2529.721576
1001.624521	2528.882224
1001.919254	2525.938190
1002.213951	2524.577079
1002.508613	2524.647655
1002.803239	2526.162522
1003.097829	2523.442819
1003.392384	2526.056657
1003.686903	2527.563962
1003.981386	2526.739734
1004.275834	2527.611853
1004.570246	2525.915505
1004.864623	2529.106555
1005.158964	2528.330218
1005.453270	2526.162522
1005.747540	2528.020187
1006.041775	2524.446009
1006.335974	2526.812830
1006.630138	2526.812830
1006.924266	2529.671165
1007.218359	2528.799045
1007.512416	2527.337110
1007.806438	2527.722759
1008.100425	2527.324507
1008.394376	2526.230577
1008.688292	2526.013807
1008.982172	2524.645134
1009.276017	2524.834177
1009.569827	2525.885258
1009.863602	2530.071936
1010.157341	2527.004394
1010.451045	2525.476925
1010.744714	2526.684281
1011.038347	2530.074457
1011.331945	2526.548170
1011.625508	2524.451050
1011.919036	2526.596061
1012.212528	2525.318128
1012.505986	2527.505989
1012.799408	2526.147398
1013.092795	2527.828623
1013.386147	2526.185207
1013.679464	2525.325690
1013.972745	2525.905423
1014.265992	2527.813499
1014.559204	2525.741585
1014.852380	2527.848787
1015.145521	2527.901720
1015.438628	2525.076153
1015.731699	2526.787625
1016.024736	2526.331400
1016.317737	2527.984899
1016.610703	2526.260824
1016.903635	2521.544825
1017.196531	2522.416944
1017.489393	2523.813344
1017.782219	2521.658251
1018.075011	2525.935670
1018.367768	2525.119003
1018.660490	2527.473222
1018.953177	2527.473222
1019.245829	2527.473222
