Dividing Wavelength (nm)	Counts (n)	Blue Motor Position (mm): 0.000000	Red Motor Position (mm): 42.200000	
326.493990	2127.681995
326.888308	2127.681995
327.282561	2127.681995
327.676750	2094.906933
328.070874	2093.921388
328.464933	2096.232757
328.858929	2103.923037
329.252859	2112.581219
329.646726	2123.986829
330.040528	2136.728346
330.434265	2155.100831
330.827938	2172.749911
331.221547	2187.364216
331.615091	2209.966229
332.008571	2227.222098
332.401986	2249.037692
332.795338	2267.082502
333.188625	2284.628238
333.581847	2304.137503
333.975006	2323.190544
334.368100	2339.975066
334.761129	2359.764115
335.154095	2375.144676
335.546996	2394.520351
335.939833	2418.866603
336.332606	2430.831782
336.725315	2444.228648
337.117960	2454.464711
337.510540	2463.155660
337.903056	2475.622434
338.295508	2482.962354
338.687896	2490.327479
339.080220	2500.878614
339.472480	2507.570746
339.864676	2506.756600
340.256807	2514.484689
340.648875	2518.119361
341.040879	2518.716737
341.432818	2520.592047
341.824694	2521.693539
342.216506	2522.714372
342.608253	2524.771163
342.999937	2522.396780
343.391557	2523.704959
343.783113	2522.532891
344.174605	2520.466018
344.566033	2520.138343
344.957397	2517.222035
345.348697	2518.875534
345.739934	2514.454442
346.131106	2514.431757
346.522215	2514.514936
346.913260	2510.504698
347.304241	2507.081754
347.695159	2509.451097
348.086012	2503.242916
348.476802	2506.723832
348.867528	2499.837616
349.258191	2499.920795
349.648789	2500.253511
350.039324	2495.792090
350.429796	2498.748727
350.820203	2495.159425
351.210548	2493.238746
351.600828	2492.107007
351.991045	2493.528612
352.381198	2493.833602
352.771288	2493.168170
353.161314	2492.323776
353.551276	2489.949393
353.941175	2492.565752
354.331010	2490.030051
354.720782	2493.281596
355.110490	2493.566421
355.500135	2491.925525
355.889717	2494.746051
356.279235	2492.686739
356.668689	2495.948366
357.058080	2492.704383
357.447408	2493.132882
357.836672	2489.352016
358.225873	2491.703714
358.615010	2490.226656
359.004084	2495.812255
359.393095	2496.694457
359.782043	2498.398367
360.170927	2497.022132
360.559748	2498.050527
360.948505	2500.175373
361.337199	2501.695281
361.725830	2502.383399
362.114398	2498.927688
362.502903	2501.382730
362.891344	2502.237205
363.279722	2504.213338
363.668037	2502.113697
364.056289	2505.231651
364.444478	2504.402381
364.832603	2504.639315
365.220665	2504.480519
365.608665	2506.194511
365.996601	2506.353308
366.384474	2508.137876
366.772284	2510.366066
367.160031	2513.612569
367.547715	2513.713392
367.935336	2514.547703
368.322893	2518.303363
368.710388	2521.817047
369.097820	2531.859025
369.485189	2527.279137
369.872495	2538.765406
370.259738	2543.693134
370.646918	2551.315359
371.034035	2557.962120
371.421090	2567.399160
371.808081	2577.715881
372.195010	2587.069742
372.581875	2600.564911
372.968678	2616.230297
373.355418	2626.194137
373.742096	2639.699388
374.128710	2656.660351
374.515262	2673.858247
374.901751	2686.826615
375.288177	2698.950590
375.674540	2722.520505
376.060841	2741.066910
376.447079	2762.549787
376.833254	2779.972015
377.219367	2791.536422
377.605417	2830.083605
377.991404	2841.257322
378.377329	2861.787421
378.763191	2879.444063
379.148991	2917.270360
379.534727	2941.619133
379.920402	2971.379585
380.306013	2981.262767
380.691563	3033.065664
381.077049	3053.351267
381.462474	3070.118145
381.847835	3111.853858
382.233134	3132.336066
382.618371	3133.949235
383.003545	3200.356355
383.388657	3208.525544
383.773706	3239.248857
384.158693	3257.240735
384.543618	3284.294087
384.928480	3320.708862
385.313280	3365.179400
385.698017	3359.377032
386.082692	3417.022626
386.467305	3420.115374
386.851856	3453.172741
387.236344	3477.455979
387.620770	3510.465454
388.005133	3534.373126
388.389435	3562.825398
388.773674	3571.551636
389.157851	3610.650825
389.541965	3629.824854
389.926018	3595.890327
390.310008	3664.152591
390.693936	3684.145807
391.077802	3728.518043
391.461606	3713.626475
391.845348	3780.111732
392.229027	3775.738531
392.612645	3793.841315
392.996200	3872.589179
393.379694	3909.379520
393.763125	3972.028459
394.146494	3942.010908
394.529801	4002.809744
394.913047	4050.609965
395.296230	4016.090664
395.679351	4072.259200
396.062410	4097.810289
396.445408	4075.619129
396.828343	4110.166157
397.211217	4134.656082
397.594028	4053.178433
397.976778	4119.502374
398.359466	4146.091940
398.742092	4173.036907
399.124656	4096.353395
399.507158	4179.424049
399.889598	4201.847101
400.271977	4263.810444
400.654294	4236.137030
401.036549	4243.839913
401.418742	4211.231209
401.800874	4313.543947
402.182944	4339.578986
402.564952	4406.452412
402.946898	4386.688569
403.328783	4383.560533
403.710606	4297.094662
404.092367	4490.536338
404.474067	4456.309424
404.855705	4462.063901
405.237282	4393.746184
405.618797	4500.303573
406.000250	4538.971744
406.381642	4615.650215
406.762972	4579.764761
407.144240	4589.602573
407.525447	4585.983024
407.906593	4649.118435
408.287677	4692.109395
408.668700	4618.589207
409.049661	4669.353627
409.430560	4709.002302
409.811399	4639.555366
410.192176	4797.081342
410.572891	4735.884254
410.953545	4839.994164
411.334138	4722.227769
411.714669	4787.611534
412.095139	4683.060524
412.475547	4826.960260
412.855894	4802.218277
413.236180	4813.084484
413.616405	4771.038741
413.996568	4856.597204
414.376670	4799.208708
414.756711	4748.582921
415.136691	4783.790339
415.516609	4863.158266
415.896466	4898.151435
416.276262	4936.552424
416.655997	4916.082819
417.035670	5093.828863
417.415283	5188.612637
417.794834	5131.435870
418.174324	5089.201083
418.553753	4991.548892
418.933121	5176.718035
419.312428	5244.904682
419.691674	5184.783881
420.070859	5311.334487
420.449983	5221.377617
420.829045	5337.167879
421.208047	5245.096246
421.586988	5314.583510
421.965867	5325.595911
422.344686	5461.076920
422.723444	5315.541329
423.102141	5133.873268
423.480777	5431.886119
423.859352	5199.791396
424.237866	5458.175736
424.616319	5450.949242
424.994712	5558.434204
425.373044	5437.746460
425.751314	5580.579993
426.129524	5382.843254
426.507673	5575.974899
426.885762	5662.350029
427.263789	5593.268577
427.641756	5472.976564
428.019662	5595.627837
428.397508	5604.026399
428.775292	5550.869953
429.153016	5651.803935
429.530679	5574.243262
429.908282	5659.300131
430.285824	5531.509401
430.663305	5806.030475
431.040726	5540.394435
431.418086	5537.352099
431.795385	5646.437627
432.172624	5656.431714
432.549802	5647.468543
432.926920	5665.931769
433.303977	5672.810423
433.680974	5714.019335
434.057910	5728.966356
434.434786	5736.775104
434.811601	5706.792841
435.188355	5939.232883
435.565050	5814.529861
435.941683	5797.551254
436.318257	6011.885993
436.694770	5991.905379
437.071222	6027.826121
437.447614	5957.305420
437.823946	5868.891143
438.200218	6023.674731
438.576429	5890.414349
438.952580	5986.072764
439.328670	6032.148910
439.704700	5943.510302
440.080670	5923.743938
440.456580	6198.224683
440.832429	6081.458957
441.208218	5926.677890
441.583947	6084.748310
441.959616	6087.215954
442.335224	6017.947980
442.710773	6150.104349
443.086261	6173.676784
443.461689	5973.495085
443.837057	6121.493280
444.212365	6276.657475
444.587612	6168.789385
444.962800	6321.997612
445.337927	6300.857534
445.712995	5911.846815
446.088002	6491.312326
446.462949	6318.055430
446.837837	6252.336428
447.212664	6425.923520
447.587431	6566.622123
447.962139	7113.690659
448.336786	8029.549846
448.711374	7776.494005
449.085901	6848.566296
449.460369	6771.650892
449.834776	6705.994904
450.209124	7095.348421
450.583412	7242.439208
450.957640	7392.204327
451.331808	7161.866446
451.705917	6709.901798
452.079965	6633.374562
452.453954	6843.593198
452.827883	6721.244394
453.201752	6817.437171
453.575562	6613.310770
453.949311	6819.032697
454.323001	6708.008845
454.696632	6782.144053
455.070202	6920.122955
455.443713	7074.316727
455.817164	7173.851789
456.190556	7256.652741
456.563888	7328.894997
456.937160	7372.667335
457.310373	7031.925665
457.683526	7050.386370
458.056619	6948.282840
458.429653	6934.820439
458.802628	6873.426747
459.175542	6981.758622
459.548398	7336.355904
459.921194	7495.429514
460.293930	7500.284145
460.666607	8024.987602
461.039224	8333.849016
461.411782	8470.020663
461.784280	8482.051377
462.156719	8372.766723
462.529099	8249.001355
462.901419	7840.486412
463.273680	7735.559836
463.645882	7743.280363
464.018024	7610.352698
464.390106	7777.308152
464.762130	8165.459354
465.134094	8634.662227
465.505999	9656.191561
465.877845	10879.364527
466.249631	11530.490040
466.621358	11145.177008
466.993026	10518.115442
467.364634	10259.219425
467.736184	9899.467563
468.107674	9562.156397
468.479105	9593.484648
468.850477	9362.839257
469.221790	9130.114389
469.593043	8803.916447
469.964238	8664.445364
470.335373	8677.373403
470.706449	8728.168070
471.077467	8716.994352
471.448425	10027.172593
471.819324	11096.847466
472.190164	11130.630758
472.560945	9878.859326
472.931667	9088.108975
473.302330	8951.660064
473.672934	8598.302905
474.043479	8955.267009
474.413965	8891.020024
474.784393	8771.012836
475.154761	8935.374616
475.525070	9023.451136
475.895321	8843.670987
476.265513	9021.482565
476.635645	9192.604532
477.005719	9194.023617
477.375734	9305.017222
477.745691	9542.891628
478.115588	9676.351135
478.485427	9918.026571
478.855207	10452.242685
479.224928	11274.767429
479.594591	11906.907957
479.964194	11708.914119
480.333739	11650.159471
480.703226	11560.028681
481.072653	11658.928558
481.442022	11896.349260
481.811333	12084.016294
482.180584	11898.133828
482.549777	11599.634506
482.918912	11418.178173
483.287988	11452.679830
483.657005	11460.332302
484.025964	11140.521502
484.394864	11268.239135
484.763706	11240.918601
485.132489	10999.664102
485.501213	10960.436363
485.869879	11038.042406
486.238487	10881.184383
486.607036	10985.974848
486.975527	10767.332444
487.343959	10955.362442
487.712333	11009.416214
488.080648	10934.935686
488.448905	10980.406894
488.817104	10916.318705
489.185244	11185.970024
489.553326	11344.300064
489.921350	11878.768236
490.289315	12944.969754
490.657222	13282.308646
491.025070	13194.017877
491.392861	13070.282756
491.760593	12688.876618
492.128267	12335.975684
492.495883	12007.403358
492.863440	11674.664519
493.230939	11338.112048
493.598380	11268.798703
493.965763	11134.880451
494.333088	11034.911849
494.700354	10958.550972
495.067563	11015.954590
495.434713	10843.892448
495.801805	10973.588733
496.168839	10901.878320
496.535815	10834.205871
496.902733	10837.752323
497.269593	10766.740109
497.636395	10874.492252
498.003139	10857.700168
498.369825	10726.602442
498.736453	10888.299972
499.103023	10803.149843
499.469535	10838.168218
499.835989	10830.402320
500.202385	10786.907245
500.568723	10637.079111
500.935003	10856.207987
501.301226	10667.683956
501.667390	10929.035016
502.033497	11017.741679
502.399546	10880.045083
502.765537	10788.018819
503.131470	10860.369459
503.497345	11042.995340
503.863163	10652.205093
504.228923	10961.762187
504.594625	11023.251661
504.960269	10776.804773
505.325856	10995.033802
505.691385	10784.905907
506.056856	10936.586664
506.422270	10962.503236
506.787625	10855.519869
507.152924	10977.238529
507.518164	10952.834303
507.883347	10870.633248
508.248472	10794.622731
508.613540	11024.002792
508.978550	10906.828733
509.343503	10888.100847
509.708398	11004.846408
510.073236	11112.774991
510.438016	11121.619696
510.802738	11067.636500
511.167403	11119.260436
511.532010	11018.233192
511.896561	11249.445713
512.261053	11322.814666
512.625488	11185.788543
512.989866	11173.740185
513.354186	11162.611838
513.718449	11062.771786
514.082655	11252.800601
514.446803	11146.943932
514.810894	11274.719538
515.174927	11145.623150
515.538904	11163.872127
515.902822	11322.910448
516.266684	11202.436953
516.630488	11145.328242
516.994235	11205.567510
517.357925	11263.344174
517.721558	11353.600993
518.085133	11363.486695
518.448651	11380.240970
518.812112	11262.550192
519.175516	11273.640731
519.538863	11394.628423
519.902152	11314.204375
520.265385	11472.630197
520.628560	11387.258256
520.991678	11362.072652
521.354739	11422.054821
521.717743	11353.008657
522.080690	11334.016110
522.443580	11471.770680
522.806413	11428.323496
523.169189	11453.151178
523.531908	11505.521205
523.894569	11329.305152
524.257174	11332.347488
524.619722	11450.494490
524.982213	11402.540514
525.344647	11457.327774
525.707025	11404.070504
526.069345	11498.176244
526.431608	11412.963100
526.793815	11527.614062
527.155964	11309.362347
527.518057	11368.341327
527.880093	11313.581793
528.242072	11384.820858
528.603995	11284.879983
528.965860	11205.711183
529.327669	11266.567992
529.689421	11208.914836
530.051117	11187.341218
530.412755	11291.171343
530.774337	11174.387973
531.135862	11152.960549
531.497331	11181.490959
531.858743	11035.161387
532.220098	11201.416120
532.581396	11067.180275
532.942638	11052.167719
533.303824	11012.345124
533.664953	11027.650067
534.026025	10942.232757
534.387040	11037.694566
534.747999	11038.685153
535.108902	11099.121026
535.469748	10852.124652
535.830537	10959.649943
536.191270	10935.404514
536.551947	10967.125974
536.912567	10957.341095
537.273131	10878.883097
537.633638	10863.888185
537.994089	10850.398057
538.354483	10803.452312
538.714821	10944.576893
539.075103	10958.808070
539.435328	10918.277193
539.795497	10746.031049
540.155609	10898.510829
540.515665	10990.282514
540.875665	10727.870292
541.235609	10798.678339
541.595496	10788.913624
541.955328	10943.752664
542.315102	10827.876702
542.674821	10780.719228
543.034483	10777.843250
543.394090	10783.068406
543.753640	10709.659124
544.113134	10937.050450
544.472571	10788.132245
544.831953	10931.842938
545.191278	10739.003680
545.550548	10767.476117
545.909761	10909.208158
546.268918	10886.790147
546.628019	10964.358381
546.987064	10818.774899
547.346053	10743.689433
547.704986	10848.900834
548.063863	10828.897536
548.422684	10817.759106
548.781449	10745.413508
549.140158	10833.542959
549.498811	10722.972811
549.857408	10575.801366
550.215949	10799.825202
550.574434	10656.406895
550.932864	10749.161605
551.291237	10810.187293
551.649555	10759.919428
552.007817	10766.717424
552.366022	10733.304656
552.724173	10729.072607
553.082267	10716.252953
553.440305	10852.638850
553.798288	10650.138220
554.156215	10803.923660
554.514086	10784.137131
554.871902	10634.500561
555.229661	10671.444657
555.587365	10645.137396
555.945014	10542.610409
556.302606	10658.995528
556.660143	10562.464993
557.017625	10715.499301
557.375050	10610.366037
557.732421	10748.473488
558.089735	10662.123564
558.446994	10661.805971
558.804197	10702.167969
559.161345	10699.775942
559.518437	10547.875894
559.875474	10632.516867
560.232455	10671.164873
560.589381	10609.022570
560.946251	10609.806469
561.303065	10720.880732
561.659825	10651.035546
562.016528	10590.198901
562.373177	10462.236772
562.729770	10580.867725
563.086307	10496.193985
563.442789	10590.249313
563.799216	10462.415733
564.155587	10513.631336
564.511904	10465.765580
564.868164	10450.788312
565.224370	10472.223298
565.580520	10394.803778
565.936615	10399.174458
566.292654	10270.110838
566.648638	10399.368543
567.004567	10354.081337
567.360441	10345.682775
567.716260	10253.366645
568.072023	10349.592190
568.427732	10297.774169
568.783385	10203.320590
569.138982	10279.225244
569.494525	10292.483478
569.850013	10169.854891
570.205445	10256.461914
570.560823	10152.646912
570.916145	10072.853008
571.271412	10136.119489
571.626625	10086.597714
571.981782	10057.021265
572.336884	10035.891268
572.691931	10042.001147
573.046923	9982.613834
573.401860	9939.181773
573.756743	9870.672492
574.111570	9927.133415
574.466342	9906.247915
574.821059	9929.817830
575.175722	9820.878495
575.530330	9839.193007
575.884882	9822.821860
576.239380	9754.957847
576.593823	9741.034180
576.948211	9747.380992
577.302544	9628.702149
577.656823	9641.249581
578.011047	9642.726639
578.365216	9619.101271
578.719330	9538.629332
579.073389	9546.906907
579.427394	9493.758022
579.781344	9478.148089
580.135239	9415.877236
580.489080	9433.806100
580.842866	9334.200462
581.196597	9337.477212
581.550273	9379.843068
581.903895	9340.423766
582.257463	9414.621989
582.610975	9289.074573
582.964434	9319.089603
583.317837	9239.691430
583.671186	9219.783913
584.024481	9217.737205
584.377721	9136.892221
584.730906	9114.849775
585.084037	9143.433118
585.437113	9078.503056
585.790135	9098.360161
586.143103	8995.744954
586.496016	8972.106984
586.848874	9021.227987
587.201679	9018.362091
587.554428	8903.345645
587.907124	8945.083878
588.259765	8919.734436
588.612352	8926.171990
588.964884	8799.606261
589.317362	8812.730905
589.669786	8809.867529
590.022155	8853.269343
590.374470	8875.301706
590.726731	8815.465731
591.078937	8663.840426
591.431090	8777.440307
591.783188	8651.794589
592.135232	8640.991396
592.487222	8642.823856
592.839157	8692.741361
593.191038	8625.643603
593.542866	8569.296106
593.894639	8471.369172
594.246358	8519.829784
594.598022	8534.277731
594.949633	8429.189838
595.301190	8403.180005
595.652692	8438.626878
596.004141	8547.173003
596.355535	8315.242117
596.706876	8293.454250
597.058162	8233.323367
597.409395	8307.196435
597.760573	8365.714149
598.111698	8280.196015
598.462768	8265.745548
598.813785	8225.718786
599.164748	8202.025363
599.515657	8187.378291
599.866511	8096.483766
600.217312	8216.851397
600.568060	8082.257630
600.918753	8182.349740
601.269392	8150.953434
601.619978	8057.175369
601.970510	8115.289791
602.320988	8121.724824
602.671412	8172.436311
603.021783	8111.788709
603.372100	8082.118998
603.722363	8083.701921
604.072572	8066.400681
604.422728	8071.378820
604.772830	7994.914599
605.122878	8005.135538
605.472872	8000.941298
605.822813	8025.320318
606.172701	7968.090619
606.522534	8043.213894
606.872314	8040.133749
607.222041	8005.228799
607.571714	8057.160246
607.921333	8016.311776
608.270899	8020.952158
608.620411	8107.859130
608.969870	8009.924634
609.319276	8005.995055
609.668627	8025.106069
610.017926	8050.541211
610.367171	8092.952438
610.716362	8072.019047
611.065500	8058.901964
611.414585	8080.389883
611.763616	8066.902276
612.112594	8046.651961
612.461518	8053.109679
612.810389	8115.254503
613.159207	8049.026344
613.507971	8001.160588
613.856682	8111.087989
614.205340	8065.909168
614.553945	8141.057649
614.902496	8030.608488
615.250994	8087.313907
615.599439	8061.583858
615.947830	8074.900066
616.296169	8038.891104
616.644454	8048.948206
616.992686	8047.012403
617.340864	8088.927077
617.688990	7985.681725
618.037063	8078.254954
618.385082	8025.884927
618.733048	8095.662058
619.080961	8034.787605
619.428821	8047.173720
619.776628	8044.133904
620.124382	7990.322107
620.472083	7970.918706
620.819731	7993.737489
621.167326	7880.775314
621.514868	7889.867035
621.862357	7774.875795
622.209793	7793.023949
622.557176	7720.489307
622.904506	7685.627207
623.251783	7622.451467
623.599007	7570.320895
623.946179	7571.054383
624.293297	7519.639655
624.640363	7442.668798
624.987376	7419.955879
625.334336	7366.764144
625.681243	7308.647202
626.028097	7297.783516
626.374899	7267.723115
626.721647	7254.495127
627.068343	7186.492483
627.414987	7147.516802
627.761577	7101.717919
628.108115	7132.302599
628.454600	7023.184304
628.801032	7056.065230
629.147412	7020.381422
629.493739	6996.249419
629.840014	6930.916065
630.186236	6976.039433
630.532405	6860.460899
630.878521	6901.016982
631.224585	6851.873293
631.570597	6771.330778
631.916556	6793.269880
632.262462	6783.089270
632.608316	6742.845738
632.954117	6712.087138
633.299866	6693.606268
633.645562	6680.562283
633.991206	6599.003975
634.336797	6541.406272
634.682336	6490.523386
635.027823	6456.215813
635.373257	6442.302228
635.718639	6372.308328
636.063968	6379.174379
636.409245	6279.185613
636.754470	6263.852944
637.099642	6229.691565
637.444762	6164.491802
637.789829	6168.996073
638.134845	6108.083811
638.479808	6086.265697
638.824719	6085.764102
639.169577	6015.752558
639.514383	6027.180853
639.859137	5954.855419
640.203839	5952.395336
640.548489	5933.261637
640.893086	5909.122071
641.237632	5874.239807
641.582125	5888.521396
641.926566	5850.710222
642.270955	5854.813721
642.615292	5842.553635
642.959576	5841.759653
643.303809	5828.970246
643.647990	5825.070913
643.992118	5812.248738
644.336195	5759.553557
644.680219	5769.078818
645.024192	5758.724287
645.368112	5829.335729
645.711981	5839.783521
646.055797	5892.879474
646.399562	5844.706208
646.743274	5934.690804
647.086935	5970.230938
647.430544	5954.031190
647.774101	5956.405574
648.117606	5957.824659
648.461059	5942.940652
648.804460	5904.590074
649.147810	5825.653167
649.491108	5790.687723
649.834354	5759.777889
650.177548	5681.201424
650.520690	5604.061687
650.863781	5579.334828
651.206820	5585.416980
651.549807	5516.968193
651.892742	5456.363442
652.235626	5450.445127
652.578458	5433.595070
652.921238	5351.424263
653.263967	5378.762440
653.606644	5318.961752
653.949269	5310.800124
654.291843	5257.694089
654.634365	5289.314727
654.976836	5235.381942
655.319255	5231.989246
655.661622	5203.892375
656.003938	5185.789591
656.346203	5156.613913
656.688416	5167.780069
657.030577	5130.346981
657.372687	5093.244089
657.714746	5077.311522
658.056753	5098.524698
658.398708	5045.680802
658.740612	5035.958937
659.082465	5049.842275
659.424266	5043.298857
659.766016	5033.118247
660.107715	5002.152959
660.449362	5009.119834
660.790958	4992.922607
661.132503	4972.213547
661.473996	4991.707689
661.815438	4973.506603
662.156829	4968.329338
662.498168	4947.093477
662.839456	4928.045477
663.180693	4942.130461
663.521879	4932.751394
663.863013	4919.339405
664.204097	4915.208179
664.545129	4939.408238
664.886110	4923.924334
665.227040	4933.379018
665.567918	4911.074433
665.908746	4912.281789
666.249522	4912.659876
666.590248	4898.564810
666.930922	4904.369698
667.271545	4902.075973
667.612118	4897.541455
667.952639	4872.799472
668.293109	4873.225450
668.633528	4834.572403
668.973896	4833.614583
669.314213	4818.105474
669.654480	4791.513387
669.994695	4778.650883
670.334859	4772.677116
670.674973	4747.678034
671.015035	4749.291203
671.355047	4729.958378
671.695008	4714.358527
672.034918	4694.027554
672.374777	4688.300803
672.714585	4670.500489
673.054342	4667.374974
673.394049	4651.964166
673.733705	4662.558151
674.073310	4639.900685
674.412864	4614.483187
674.752368	4589.554682
675.091820	4585.856995
675.431223	4543.085326
675.770574	4530.550497
676.109875	4493.271164
676.449125	4487.115915
676.788324	4455.003765
677.127473	4415.589504
677.466571	4398.436978
677.805619	4381.234040
678.144616	4364.653685
678.483562	4338.961445
678.822458	4318.897652
679.161303	4304.699243
679.500098	4288.945637
679.838842	4278.066827
680.177535	4268.234056
680.516179	4273.199593
680.854771	4271.097432
681.193314	4306.856856
681.531805	4363.763922
681.870247	4438.413328
682.208638	4484.244978
682.546978	4491.100947
682.885268	4464.103048
683.223508	4408.531888
683.561697	4371.144171
683.899836	4338.636290
684.237925	4310.267197
684.575963	4285.391623
684.913951	4255.903394
685.251889	4273.459212
685.589776	4259.744753
685.927614	4240.366558
686.265401	4258.587808
686.603137	4252.646808
686.940824	4274.190179
687.278460	4287.150986
687.616046	4283.360038
687.953582	4316.777847
688.291068	4303.706135
688.628504	4317.221469
688.965889	4300.694046
689.303224	4264.065022
689.640510	4227.355340
689.977745	4181.967311
690.314930	4119.464565
690.652065	4086.298814
690.989150	4035.501627
691.326185	3983.809636
691.663170	3940.516206
692.000105	3898.856111
692.336990	3855.587887
692.673825	3828.627797
693.010610	3794.751243
693.347345	3760.771345
693.684030	3731.704052
694.020665	3712.386351
694.357251	3667.295750
694.693786	3663.119154
695.030272	3645.497801
695.366707	3618.202473
695.703093	3601.521295
696.039429	3601.874176
696.375716	3582.024633
696.711952	3572.275041
697.048139	3564.289854
697.384276	3550.966084
697.720363	3549.199160
698.056400	3546.492060
698.392388	3519.562216
698.728326	3506.175432
699.064214	3492.367712
699.400053	3486.275477
699.735842	3457.737505
700.071581	3445.653860
700.407270	3429.960748
700.742910	3414.502049
701.078501	3390.536404
701.414042	3379.047614
701.749533	3356.927031
702.084974	3335.605471
702.420366	3344.949250
702.755709	3318.715085
703.091002	3299.692291
703.426246	3303.430307
703.761440	3290.323307
704.096584	3276.576080
704.431679	3269.800769
704.766725	3262.518823
705.101721	3250.755290
705.436668	3257.691918
705.771565	3235.722569
706.106413	3245.083992
706.441212	3248.259919
706.775961	3247.173550
707.110661	3243.354876
707.445311	3246.707244
707.779913	3244.461410
708.114465	3253.381731
708.448967	3262.964965
708.783421	3281.012296
709.117825	3293.869758
709.452180	3295.626601
709.786485	3313.449600
710.120742	3344.961853
710.454949	3337.485822
710.789107	3359.172865
711.123216	3381.782440
711.457275	3384.688666
711.791286	3402.501583
712.125247	3404.323960
712.459159	3378.581308
712.793023	3407.578025
713.126837	3367.372302
713.460602	3360.876775
713.794318	3337.566480
714.127985	3325.218174
714.461602	3283.076648
714.795171	3272.313785
715.128691	3235.906572
715.462162	3211.456975
715.795584	3187.138449
716.128957	3171.296623
716.462281	3156.455466
716.795556	3141.521048
717.128782	3118.616566
717.461960	3094.335848
717.795088	3090.310487
718.128167	3076.480081
718.461198	3056.018038
718.794180	3050.480330
719.127113	3036.407949
719.459997	3027.371681
719.792833	3007.398629
720.125619	3007.481808
720.458357	2990.669560
720.791046	2987.014724
721.123686	2976.750935
721.456278	2963.941363
721.788821	2963.018832
722.121315	2955.623459
722.453761	2949.042233
722.786158	2944.462344
723.118506	2949.427881
723.450805	2936.640994
723.783056	2942.811366
724.115259	2939.859771
724.447412	2937.258535
724.779518	2939.610234
725.111574	2937.603854
725.443582	2942.392951
725.775542	2936.935902
726.107453	2948.893518
726.439315	2942.511418
726.771129	2957.410548
727.102895	2964.914305
727.434612	2975.576346
727.766281	2977.670945
728.097901	2977.726398
728.429473	2973.171715
728.760996	2972.052579
729.092471	2965.736013
729.423897	2960.967082
729.755276	2956.810651
730.086606	2954.433747
730.417887	2966.194758
730.749120	2980.491471
731.080305	2989.810044
731.411442	2991.995384
731.742530	2987.163438
732.073570	2982.795278
732.404562	2991.665188
732.735506	2986.679487
733.066401	2980.574650
733.397249	2955.091617
733.728048	2928.686053
734.058798	2901.060530
734.389501	2880.984135
734.720156	2863.657689
735.050762	2847.228569
735.381320	2843.742611
735.711831	2830.663337
736.042293	2823.709066
736.372707	2826.718634
736.703073	2817.153045
737.033391	2819.459373
737.363661	2817.808395
737.693883	2819.517346
738.024056	2827.157215
738.354182	2826.527071
738.684260	2840.392764
739.014290	2843.601459
739.344272	2849.297962
739.674207	2854.223170
740.004093	2858.404807
740.333931	2853.628314
740.663722	2851.125381
740.993464	2849.688652
741.323159	2842.852847
741.652806	2830.847339
741.982405	2820.926349
742.311956	2810.758341
742.641460	2806.357414
742.970915	2795.213943
743.300323	2783.399999
743.629683	2776.748197
743.958996	2772.574122
744.288260	2763.661362
744.617477	2753.097624
744.946647	2748.295925
745.275768	2737.805283
745.604842	2734.848647
745.933869	2729.487380
746.262847	2724.990670
746.591778	2729.174828
746.920662	2723.183417
747.249498	2719.694938
747.578286	2725.157028
747.907027	2729.847822
748.235720	2730.606516
748.564365	2736.214799
748.892963	2729.000908
749.221514	2728.476628
749.550017	2722.240721
749.878473	2722.102089
750.206881	2714.250492
750.535242	2713.451469
750.863555	2713.433825
751.191821	2707.507949
751.520039	2707.449976
751.848210	2703.674151
752.176334	2700.505786
752.504411	2703.832948
752.832440	2697.491176
753.160421	2698.605271
753.488356	2694.279961
753.816243	2694.721062
754.144082	2690.995649
754.471875	2688.384332
754.799620	2691.981195
755.127318	2686.133457
755.454969	2682.178671
755.782572	2685.561286
756.110129	2681.273784
756.437638	2680.252951
756.765100	2680.068948
757.092515	2679.945440
757.419882	2679.564833
757.747203	2681.588856
758.074477	2675.877229
758.401703	2681.387210
758.728882	2684.321162
759.056014	2683.915349
759.383099	2680.568023
759.710138	2684.427026
760.037129	2684.648837
760.364073	2688.079342
760.690970	2684.001048
761.017820	2684.416944
761.344623	2683.378466
761.671379	2685.178158
761.998088	2689.785772
762.324751	2705.499049
762.651366	2743.476582
762.977935	2824.324086
763.304456	2883.207284
763.630931	2890.280023
763.957359	2831.537977
764.283740	2780.183743
764.610074	2747.431367
764.936362	2720.249465
765.262602	2699.568132
765.588796	2683.746470
765.914943	2675.400840
766.241044	2658.555824
766.567097	2654.134732
766.893104	2648.707930
767.219064	2642.514873
767.544978	2636.513379
767.870845	2632.619088
768.196665	2628.240846
768.522438	2627.013325
768.848165	2625.006946
769.173846	2620.734568
769.499479	2620.285905
769.825066	2617.147787
770.150607	2611.297528
770.476101	2611.400871
770.801548	2615.567385
771.126949	2606.916765
771.452303	2605.432145
771.777611	2606.077413
772.102872	2604.189501
772.428087	2601.222782
772.753256	2601.613471
773.078378	2597.925867
773.403453	2595.269179
773.728482	2591.566452
774.053465	2594.732296
774.378401	2593.824888
774.703291	2588.876996
775.028135	2590.192737
775.352932	2588.740885
775.677683	2589.935638
776.002388	2587.815833
776.327046	2588.813982
776.651658	2586.658888
776.976224	2583.777869
777.300743	2582.578074
777.625216	2583.548496
777.949643	2583.372056
778.274024	2584.009762
778.598359	2577.920048
778.922647	2576.465675
779.246889	2578.378793
779.571086	2574.350911
779.895236	2576.132959
780.219339	2580.438104
780.543397	2580.959864
780.867409	2580.546489
781.191374	2579.949112
781.515294	2582.071438
781.839167	2579.596232
782.162995	2578.956005
782.486776	2580.377611
782.810511	2578.535069
783.134201	2576.067424
783.457844	2575.936354
783.781441	2576.745459
784.104993	2574.749162
784.428498	2574.285376
784.751958	2576.558937
785.075372	2574.106415
785.398739	2574.386199
785.722061	2572.836044
786.045337	2571.497618
786.368568	2571.744635
786.691752	2570.877556
787.014891	2577.204204
787.337983	2580.911973
787.661030	2586.202664
787.984031	2593.908067
788.306987	2594.485280
788.629897	2591.498396
788.952760	2589.456729
789.275579	2587.362129
789.598351	2581.983218
789.921078	2579.157651
790.243759	2572.485684
790.566395	2575.454924
790.888984	2574.734039
791.211529	2572.573904
791.534027	2571.157340
791.856480	2566.527040
792.178888	2567.245405
792.501249	2566.224571
792.823566	2563.570404
793.145836	2569.181208
793.468062	2566.567370
793.790241	2563.887996
794.112375	2566.758933
794.434464	2567.200034
794.756507	2567.943605
795.078505	2567.789849
795.400457	2568.677093
795.722364	2568.596434
796.044226	2570.978379
796.366042	2575.505335
796.687812	2573.940057
797.009538	2576.453072
797.331218	2572.581466
797.652852	2569.607185
797.974442	2566.539643
798.295986	2572.276476
798.617484	2570.386044
798.938938	2568.004098
799.260346	2565.160888
799.581709	2563.272976
799.903026	2566.529561
800.224299	2563.164591
800.545526	2563.139385
800.866708	2562.267265
801.187845	2562.219374
801.508936	2562.698284
801.829983	2560.510423
802.150984	2564.094684
802.471940	2561.047306
802.792851	2560.661658
803.113717	2564.543346
803.434538	2559.693756
803.755314	2562.116031
804.076045	2560.412121
804.396731	2559.837429
804.717372	2559.834909
805.037967	2559.653427
805.358518	2561.226267
805.679024	2563.116700
805.999485	2561.760629
806.319901	2561.891699
806.640272	2559.020762
806.960598	2560.097049
807.280879	2557.442881
807.601115	2560.439847
807.921306	2559.512275
808.241453	2560.278530
808.561554	2560.671740
808.881611	2558.927501
809.201623	2560.502862
809.521590	2557.596636
809.841513	2558.935063
810.161390	2557.160577
810.481223	2558.171328
810.801011	2558.821637
811.120755	2559.603016
811.440453	2558.962789
811.760107	2556.265772
812.079716	2555.847356
812.399281	2553.967006
812.718801	2552.094217
813.038276	2553.949362
813.357707	2557.820968
813.677093	2555.186965
813.996434	2557.170659
814.315731	2551.224618
814.634983	2558.095711
814.954191	2556.953889
815.273354	2555.065977
815.592473	2556.177552
815.911547	2557.019424
816.230577	2558.897254
816.549562	2557.412634
816.868502	2557.107644
817.187399	2561.879097
817.506250	2563.094015
817.825058	2558.806513
818.143821	2558.735937
818.462539	2563.577965
818.781213	2562.993192
819.099843	2565.070147
819.418429	2570.277659
819.736970	2576.994996
820.055466	2581.647981
820.373919	2588.882037
820.692327	2598.238419
821.010691	2612.341047
821.329011	2652.370329
821.647286	2744.540265
821.965517	2879.315513
822.283704	2952.780248
822.601847	2948.432253
822.919945	2880.041439
823.237999	2809.924030
823.556010	2754.935124
823.873976	2707.631457
824.191897	2675.342867
824.509775	2650.401758
824.827609	2633.574387
825.145398	2619.537294
825.463144	2616.505040
825.780845	2623.459311
826.098502	2630.330404
826.416116	2655.841163
826.733685	2679.678259
827.051210	2687.391224
827.368692	2676.794719
827.686129	2652.458549
828.003522	2626.887296
828.320872	2605.278390
828.638177	2593.308170
828.955439	2581.927765
829.272656	2575.497774
829.589830	2568.813204
829.906960	2570.055848
830.224046	2565.831361
830.541088	2563.202399
830.858086	2562.032852
831.175041	2558.282233
831.491952	2563.628377
831.808819	2560.601164
832.125642	2563.053685
832.442421	2566.879921
832.759157	2576.072465
833.075849	2588.219125
833.392497	2606.291662
833.709101	2620.074177
834.025662	2614.846500
834.342179	2605.810232
834.658653	2593.293047
834.975083	2584.110585
835.291469	2580.357446
835.607811	2568.304047
835.924110	2565.410425
836.240366	2561.876576
836.556578	2553.500699
836.872746	2555.955741
837.188871	2552.883158
837.504952	2552.305945
837.820990	2551.406099
838.136984	2548.976263
838.452935	2550.498692
838.768842	2553.036913
839.084706	2550.105482
839.400526	2556.253169
839.716303	2566.572411
840.032037	2575.323854
840.347727	2572.964594
840.663373	2567.028635
840.978977	2563.436813
841.294537	2555.933056
841.610054	2553.825853
841.925527	2552.305945
842.240957	2547.663043
842.556344	2545.949050
842.871687	2548.255378
843.186987	2546.775800
843.502244	2543.627599
843.817458	2549.152704
844.132629	2543.589790
844.447756	2544.315717
844.762840	2539.297248
845.077881	2543.700696
845.392879	2538.515869
845.707833	2544.555171
846.022745	2536.335570
846.337613	2542.821014
846.652438	2541.180119
846.967221	2544.509801
847.281960	2543.070552
847.596656	2544.343443
847.911309	2543.494008
848.225919	2541.727084
848.540485	2545.172713
848.855009	2542.939482
849.169490	2540.350849
849.483928	2543.869574
849.798323	2543.899821
850.112675	2541.497712
850.426984	2543.340253
850.741251	2542.425284
851.055474	2540.136600
851.369654	2541.550644
851.683792	2542.218597
851.997887	2541.895963
852.311938	2541.837989
852.625947	2543.005017
852.939914	2544.119112
853.253837	2542.304296
853.567718	2541.011240
853.881555	2543.899821
854.195350	2541.958977
854.509103	2540.623071
854.822812	2540.653318
855.136479	2544.303114
855.450103	2541.132228
855.763685	2541.810263
856.077224	2540.534851
856.390720	2540.779347
856.704173	2539.584594
857.017584	2539.443441
857.330953	2542.445448
857.644278	2539.645087
857.957561	2544.850079
858.270802	2544.330840
858.584000	2540.192053
858.897155	2541.291024
859.210268	2541.830428
859.523339	2542.107691
859.836367	2544.890408
860.149352	2541.958977
860.462295	2544.862682
860.775195	2539.297248
861.088054	2538.359593
861.400869	2538.992258
861.713642	2538.281455
862.026373	2541.371683
862.339062	2539.375386
862.651708	2542.382434
862.964312	2543.874616
863.276873	2542.828576
863.589392	2543.194060
863.901869	2542.573998
864.214303	2540.250026
864.526696	2540.676003
864.839045	2543.098278
865.151353	2545.863351
865.463619	2541.606096
865.775842	2546.064997
866.088023	2543.756148
866.400162	2543.463762
866.712258	2543.388144
867.024313	2542.579039
867.336325	2542.604245
867.648296	2545.235727
867.960224	2544.532486
868.272110	2543.788916
868.583954	2546.122970
868.895755	2542.563916
869.207515	2541.401930
869.519233	2544.242620
869.830909	2541.202804
870.142542	2546.458207
870.454134	2546.150697
870.765684	2545.147507
871.077191	2546.208670
871.388657	2544.847558
871.700081	2544.204811
872.011463	2547.388300
872.322803	2545.392003
872.634101	2545.714637
872.945357	2546.775800
873.256571	2548.341078
873.567744	2544.930737
873.878874	2545.971736
874.189963	2544.892929
874.501010	2547.504246
874.812015	2546.400234
875.122979	2548.726726
875.433900	2546.528783
875.744780	2547.181613
876.055618	2548.215049
876.366415	2548.625903
876.677169	2546.009544
876.987882	2543.231868
877.298554	2541.903524
877.609183	2545.361756
877.919771	2545.306303
878.230317	2545.442414
878.540822	2549.916438
878.851285	2554.014897
879.161707	2555.733930
879.472087	2558.650238
879.782425	2563.847667
880.092722	2577.904925
880.402977	2594.024014
880.713191	2617.682149
881.023363	2652.145997
881.333494	2675.892352
881.643583	2684.560617
881.953631	2678.175995
882.263637	2664.166629
882.573602	2654.853097
882.883526	2636.147896
883.193408	2622.761112
883.503248	2608.537496
883.813048	2597.325970
884.122806	2589.426482
884.432522	2583.755184
884.742197	2576.400140
885.051831	2568.936712
885.361424	2568.309088
885.670975	2562.733572
885.980485	2561.644683
886.289954	2557.455484
886.599382	2556.230484
886.908768	2556.878272
887.218113	2552.835267
887.527417	2554.050185
887.836680	2550.849052
888.145901	2551.509443
888.455082	2550.075235
888.764221	2549.193033
889.073319	2547.199257
889.382376	2548.751932
889.691392	2546.382590
890.000366	2549.601366
890.309300	2547.857127
890.618193	2550.138249
890.927044	2548.547765
891.235855	2548.646068
891.544625	2548.358722
891.853353	2550.347457
892.162041	2550.183620
892.470687	2551.292673
892.779293	2550.907025
893.087858	2552.467262
893.396381	2552.895760
893.704864	2557.954558
894.013306	2562.385732
894.321707	2576.405181
894.630068	2585.285174
894.938387	2586.666450
895.246665	2586.084197
895.554903	2582.464648
895.863100	2574.204718
896.171256	2569.680282
896.479371	2564.850857
896.787446	2563.222564
897.095480	2559.240053
897.403473	2558.098231
897.711425	2552.517674
898.019336	2553.921635
898.327207	2550.975081
898.635038	2551.413661
898.942827	2549.296377
899.250576	2548.146993
899.558284	2549.503064
899.865952	2548.061294
900.173579	2548.086500
900.481165	2545.404606
900.788711	2547.539534
901.096216	2547.257230
901.403681	2544.040974
901.711105	2546.122970
902.018489	2546.105326
902.325832	2548.875440
902.633135	2548.404092
902.940397	2551.554813
903.247619	2554.256872
903.554800	2562.158881
903.861941	2571.784964
904.169041	2593.318252
904.476101	2601.731938
904.783121	2601.033738
905.090100	2594.162646
905.397039	2585.391038
905.703938	2572.992320
906.010796	2564.661813
906.317614	2560.265927
906.624391	2557.639486
906.931129	2552.336192
907.237826	2551.680842
907.544483	2550.891902
907.851099	2545.492826
908.157675	2546.284287
908.464211	2545.823022
908.770707	2539.645087
909.077163	2543.095757
909.383578	2540.703730
909.689954	2538.246167
909.996289	2537.195087
910.302584	2540.421425
910.608839	2542.889070
910.915054	2542.231199
911.221229	2543.418391
911.527363	2541.285983
911.833458	2541.611138
912.139513	2545.054246
912.445527	2544.071221
912.751502	2541.265818
913.057436	2545.545758
913.363331	2548.194884
913.669186	2548.146993
913.975000	2545.354194
914.280775	2550.942313
914.586510	2555.433981
914.892205	2562.088304
915.197859	2566.519479
915.503475	2574.890315
915.809050	2589.340782
916.114585	2592.068046
916.420081	2596.655496
916.725536	2595.561566
917.030952	2589.595360
917.336328	2581.211922
917.641665	2577.783937
917.946961	2570.703636
918.252218	2564.450085
918.557435	2565.009653
918.862612	2558.408262
919.167750	2554.995401
919.472848	2555.761656
919.777906	2552.873075
920.082925	2546.891746
920.387904	2550.057591
920.692843	2547.300080
920.997743	2546.785882
921.302603	2549.072045
921.607423	2546.758156
921.912204	2545.823022
922.216946	2544.469472
922.521647	2543.211704
922.826310	2543.383103
923.130932	2544.272867
923.435516	2541.795140
923.740059	2543.168854
924.044564	2539.156096
924.349028	2541.722043
924.653454	2537.376568
924.957840	2538.402443
925.262186	2533.119314
925.566493	2533.875487
925.870761	2535.743234
926.174989	2538.898997
926.479178	2538.805735
926.783328	2538.571322
927.087438	2538.495704
927.391509	2536.489325
927.695541	2538.110056
927.999533	2538.551157
928.303486	2537.673996
928.607400	2537.358924
928.911275	2536.103677
929.215110	2535.370189
929.518906	2535.019829
929.822663	2538.946888
930.126381	2539.773637
930.430060	2538.394881
930.733699	2535.649973
931.037299	2537.996630
931.340861	2536.844727
931.644383	2539.735828
931.947866	2537.976466
932.251309	2537.013605
932.554714	2535.612164
932.858080	2538.510828
933.161407	2539.294727
933.464694	2537.797505
933.767943	2537.157278
934.071153	2535.889428
934.374323	2533.212575
934.677455	2538.745242
934.980548	2535.962525
935.283602	2535.932278
935.586617	2537.351363
935.889593	2538.936805
936.192530	2539.188863
936.495428	2535.902031
936.798287	2537.230375
937.101108	2535.970086
937.403890	2537.550488
937.706632	2540.189532
938.009336	2539.629964
938.312002	2542.518545
938.614628	2538.130221
938.917216	2540.633154
939.219765	2541.774975
939.522275	2539.072917
939.824747	2542.785726
940.127179	2537.023687
940.429573	2535.128214
940.731929	2536.469161
941.034246	2534.810621
941.336524	2540.141641
941.638763	2538.117618
941.940964	2538.304141
942.243126	2539.761034
942.545250	2537.288348
942.847335	2538.220962
943.149381	2535.697864
943.451389	2538.515869
943.753359	2539.065355
944.055290	2537.671476
944.357182	2536.401105
944.659036	2536.622916
944.960851	2540.628113
945.262628	2536.922864
945.564367	2537.197607
945.866067	2536.504449
946.167729	2539.783719
946.469352	2537.978986
946.770937	2537.452186
947.072484	2535.617206
947.373992	2537.651311
947.675462	2535.211393
947.976893	2536.811959
948.278286	2536.779192
948.579641	2538.220962
948.880958	2536.605272
949.182236	2535.234078
949.483476	2535.133255
949.784678	2537.389171
950.085841	2535.339942
950.386967	2536.781712
950.688054	2537.240457
950.989103	2537.426980
951.290114	2534.785415
951.591087	2537.411856
951.892021	2535.153419
952.192917	2540.071065
952.493776	2535.992772
952.794596	2538.783050
953.095378	2538.967052
953.396122	2539.022505
953.696828	2534.926568
953.997496	2538.145344
954.298126	2535.914634
954.598718	2536.522093
954.899272	2536.496887
955.199788	2533.391536
955.500266	2537.147196
955.800706	2534.855991
956.101108	2530.283665
956.401472	2532.879859
956.701798	2530.311391
957.002087	2532.605116
957.302337	2534.190559
957.602550	2535.584438
957.902724	2533.275590
958.202861	2533.119314
958.502960	2532.353058
958.803022	2532.194262
959.103045	2533.066382
959.403031	2534.067051
959.702979	2533.658717
960.002889	2535.488656
960.302762	2531.556556
960.602596	2533.139478
960.902393	2532.441279
961.202153	2534.724921
961.501875	2533.320960
961.801559	2532.158974
962.101205	2533.361289
962.400814	2531.312060
962.700385	2532.300126
962.999918	2533.847761
963.299414	2532.017822
963.598873	2530.933974
963.898293	2532.796680
964.197677	2532.443799
964.497022	2531.909437
964.796331	2532.022863
965.095601	2531.601927
965.394835	2531.725435
965.694030	2530.147554
965.993189	2532.247194
966.292309	2530.218130
966.591393	2529.789632
966.890439	2529.978675
967.189447	2533.683923
967.488419	2532.279962
967.787353	2530.132430
968.086249	2529.333407
968.385108	2532.080836
968.683930	2531.911958
968.982714	2532.209386
969.281462	2532.680733
969.580172	2532.053110
969.878844	2533.446989
970.177480	2531.138140
970.476078	2530.802904
970.774639	2532.789118
971.073162	2534.669469
971.371649	2531.745599
971.670098	2529.615712
971.968510	2532.078316
972.266885	2525.260155
972.565223	2529.777029
972.863524	2525.930628
973.161788	2532.322812
973.460014	2528.925074
973.758204	2531.841381
974.056356	2532.040507
974.354471	2531.543953
974.652550	2531.314581
974.950591	2532.693336
975.248595	2531.496062
975.546563	2532.547143
975.844493	2532.151412
976.142386	2532.287523
976.440243	2534.432534
976.738062	2529.545136
977.035845	2532.277441
977.333590	2532.285003
977.631299	2528.831812
977.928971	2535.982689
978.226606	2530.666793
978.524204	2531.223840
978.821765	2529.789632
979.119290	2529.978675
979.416777	2527.621936
979.714228	2531.344828
980.011642	2529.424148
980.309020	2532.975641
980.606360	2532.181659
980.903664	2532.239632
981.200931	2532.279962
981.498162	2529.421627
981.795356	2532.597554
982.092513	2531.644776
982.389633	2530.969262
982.686717	2533.497400
982.983764	2534.243491
983.280775	2535.211393
983.577749	2529.242667
983.874686	2532.736186
984.171587	2533.867925
984.468451	2535.095446
984.765279	2530.502955
985.062070	2533.958666
985.358824	2529.875331
985.655543	2534.064530
985.952224	2528.473891
986.248869	2531.528830
986.545478	2525.668488
986.842050	2527.145547
987.138586	2526.404497
987.435086	2527.768129
987.731549	2524.050278
988.027975	2530.465146
988.324366	2526.464991
988.620719	2532.564787
988.917037	2529.308202
989.213318	2529.945908
989.509563	2527.818541
989.805772	2528.398273
990.101944	2529.832482
990.398080	2530.104704
990.694180	2530.611340
990.990244	2529.308202
991.286271	2529.308202
991.582262	2528.209230
991.878217	2529.633356
992.174136	2529.466998
992.470019	2529.474560
992.765865	2531.627132
993.061676	2529.366175
993.357450	2529.421627
993.653188	2527.188396
993.948890	2530.465146
994.244556	2528.647810
994.540186	2532.905065
994.835780	2530.586134
995.131337	2533.497400
995.426859	2529.794673
995.722345	2527.228726
996.017795	2528.347862
996.313208	2530.112266
996.608586	2529.840043
996.903928	2531.221319
997.199234	2530.291227
997.494504	2532.030425
997.789738	2528.960362
998.084936	2530.697039
998.380099	2528.141174
998.675225	2531.155784
998.970316	2531.223840
999.265371	2531.029756
999.560390	2529.288037
999.855373	2531.513706
1000.150320	2526.603623
1000.445232	2530.684437
1000.740108	2530.666792
1001.034948	2528.980527
1001.329752	2529.212420
1001.624521	2529.398942
1001.919254	2524.478776
1002.213951	2525.900382
1002.508613	2521.849814
1002.803239	2525.088756
1003.097829	2521.741430
1003.392384	2528.098325
1003.686903	2527.208561
1003.981386	2531.014632
1004.275834	2530.071936
1004.570246	2528.599919
1004.864623	2528.186545
1005.158964	2526.477594
1005.453270	2528.494055
1005.747540	2524.892151
1006.041775	2528.494055
1006.335974	2529.340969
1006.630138	2527.735362
1006.924266	2527.337110
1007.218359	2529.681247
1007.512416	2526.094466
1007.806438	2526.480114
1008.100425	2530.747451
1008.394376	2527.957172
1008.688292	2525.199661
1008.982172	2529.779549
1009.276017	2526.308715
1009.569827	2530.876000
1009.863602	2529.552698
1010.157341	2527.889117
1010.451045	2529.219981
1010.744714	2526.603623
1011.038347	2530.432379
1011.331945	2529.686288
1011.625508	2528.975485
1011.919036	2527.417769
1012.212528	2525.978519
1012.505986	2530.986906
1012.799408	2526.575896
1013.092795	2528.647810
1013.386147	2527.647141
1013.679464	2529.996319
1013.972745	2528.453726
1014.265992	2528.153777
1014.559204	2527.485824
1014.852380	2528.453726
1015.145521	2530.810465
1015.438628	2527.735362
1015.731699	2528.088242
1016.024736	2526.797707
1016.317737	2528.108407
1016.610703	2530.777698
1016.903635	2522.202695
1017.196531	2521.771677
1017.489393	2524.662778
1017.782219	2524.597243
1018.075011	2523.654548
1018.367768	2527.044723
1018.660490	2526.659075
1018.953177	2526.659075
1019.245829	2526.659075
