Dividing Wavelength (nm)	Counts (n)	Blue Motor Position (mm): 0.000000	Red Motor Position (mm): 0.200000	
326.493990	2117.284615
326.888308	2117.284615
327.282561	2117.284615
327.676750	2099.640577
328.070874	2079.475962
328.464933	2021.502692
328.858929	2102.161154
329.252859	2059.311346
329.646726	2071.914231
330.040528	2036.626154
330.434265	2034.105577
330.827938	2150.052115
331.221547	2102.161154
331.615091	2200.463654
332.008571	2167.696154
332.401986	2195.422500
332.795338	2182.819615
333.188625	2225.669423
333.581847	2202.984231
333.975006	2293.725000
334.368100	2271.039808
334.761129	2296.245577
335.154095	2316.410192
335.546996	2301.286731
335.939833	2386.986346
336.332606	2374.383462
336.725315	2386.986346
337.117960	2336.574808
337.510540	2399.589231
337.903056	2477.727115
338.295508	2467.644808
338.687896	2412.192115
339.080220	2462.603654
339.472480	2460.083077
339.864676	2482.768269
340.256807	2452.521346
340.648875	2485.288846
341.040879	2525.618077
341.432818	2500.412308
341.824694	2510.494615
342.216506	2535.700385
342.608253	2548.303269
342.999937	2492.850577
343.391557	2475.206538
343.783113	2444.959615
344.174605	2507.974038
344.566033	2507.974038
344.957397	2495.371154
345.348697	2492.850577
345.739934	2477.727115
346.131106	2472.685962
346.522215	2447.480192
346.913260	2538.220962
347.304241	2505.453462
347.695159	2462.603654
348.086012	2318.930769
348.476802	2407.150962
348.867528	2407.150962
349.258191	2442.439038
349.648789	2399.589231
350.039324	2394.548077
350.429796	2533.179808
350.820203	2487.809423
351.210548	2480.247692
351.600828	2424.795000
351.991045	2366.821731
352.381198	2434.877308
352.771288	2472.685962
353.161314	2434.877308
353.551276	2457.562500
353.941175	2351.698269
354.331010	2386.986346
354.720782	2439.918462
355.110490	2381.945192
355.500135	2518.056346
355.889717	2389.506923
356.279235	2452.521346
356.668689	2450.000769
357.058080	2414.712692
357.447408	2442.439038
357.836672	2384.465769
358.225873	2500.412308
358.615010	2384.465769
359.004084	2457.562500
359.393095	2560.906154
359.782043	2422.274423
360.170927	2480.247692
360.559748	2366.821731
360.948505	2452.521346
361.337199	2389.506923
361.725830	2424.795000
362.114398	2444.959615
362.502903	2417.233269
362.891344	2364.301154
363.279722	2450.000769
363.668037	2467.644808
364.056289	2397.068654
364.444478	2467.644808
364.832603	2326.492500
365.220665	2439.918462
365.608665	2432.356731
365.996601	2487.809423
366.384474	2513.015192
366.772284	2392.027500
367.160031	2450.000769
367.547715	2485.288846
367.935336	2427.315577
368.322893	2490.330000
368.710388	2470.165385
369.097820	2520.576923
369.485189	2427.315577
369.872495	2417.233269
370.259738	2374.383462
370.646918	2480.247692
371.034035	2500.412308
371.421090	2477.727115
371.808081	2442.439038
372.195010	2437.397885
372.581875	2434.877308
372.968678	2409.671538
373.355418	2477.727115
373.742096	2419.753846
374.128710	2513.015192
374.515262	2518.056346
374.901751	2414.712692
375.288177	2356.739423
375.674540	2460.083077
376.060841	2429.836154
376.447079	2502.932885
376.833254	2376.904038
377.219367	2513.015192
377.605417	2389.506923
377.991404	2439.918462
378.377329	2470.165385
378.763191	2492.850577
379.148991	2470.165385
379.534727	2480.247692
379.920402	2505.453462
380.306013	2465.124231
380.691563	2460.083077
381.077049	2455.041923
381.462474	2505.453462
381.847835	2477.727115
382.233134	2472.685962
382.618371	2455.041923
383.003545	2397.068654
383.388657	2442.439038
383.773706	2472.685962
384.158693	2450.000769
384.543618	2412.192115
384.928480	2452.521346
385.313280	2490.330000
385.698017	2394.548077
386.082692	2565.947308
386.467305	2490.330000
386.851856	2455.041923
387.236344	2444.959615
387.620770	2507.974038
388.005133	2507.974038
388.389435	2520.576923
388.773674	2392.027500
389.157851	2507.974038
389.541965	2467.644808
389.926018	2518.056346
390.310008	2480.247692
390.693936	2409.671538
391.077802	2477.727115
391.461606	2447.480192
391.845348	2457.562500
392.229027	2450.000769
392.612645	2450.000769
392.996200	2538.220962
393.379694	2457.562500
393.763125	2477.727115
394.146494	2490.330000
394.529801	2510.494615
394.913047	2447.480192
395.296230	2457.562500
395.679351	2477.727115
396.062410	2470.165385
396.445408	2485.288846
396.828343	2563.426731
397.211217	2472.685962
397.594028	2407.150962
397.976778	2510.494615
398.359466	2482.768269
398.742092	2429.836154
399.124656	2530.659231
399.507158	2497.891731
399.889598	2429.836154
400.271977	2480.247692
400.654294	2450.000769
401.036549	2490.330000
401.418742	2477.727115
401.800874	2470.165385
402.182944	2520.576923
402.564952	2460.083077
402.946898	2500.412308
403.328783	2528.138654
403.710606	2429.836154
404.092367	2419.753846
404.474067	2480.247692
404.855705	2404.630385
405.237282	2502.932885
405.618797	2485.288846
406.000250	2525.618077
406.381642	2455.041923
406.762972	2397.068654
407.144240	2480.247692
407.525447	2467.644808
407.906593	2513.015192
408.287677	2477.727115
408.668700	2457.562500
409.049661	2560.906154
409.430560	2427.315577
409.811399	2500.412308
410.192176	2528.138654
410.572891	2447.480192
410.953545	2429.836154
411.334138	2518.056346
411.714669	2409.671538
412.095139	2457.562500
412.475547	2477.727115
412.855894	2550.823846
413.236180	2452.521346
413.616405	2414.712692
413.996568	2502.932885
414.376670	2528.138654
414.756711	2480.247692
415.136691	2545.782692
415.516609	2452.521346
415.896466	2495.371154
416.276262	2482.768269
416.655997	2439.918462
417.035670	2467.644808
417.415283	2515.535769
417.794834	2538.220962
418.174324	2460.083077
418.553753	2520.576923
418.933121	2518.056346
419.312428	2437.397885
419.691674	2477.727115
420.070859	2460.083077
420.449983	2399.589231
420.829045	2487.809423
421.208047	2548.303269
421.586988	2482.768269
421.965867	2404.630385
422.344686	2586.111923
422.723444	2502.932885
423.102141	2442.439038
423.480777	2460.083077
423.859352	2442.439038
424.237866	2422.274423
424.616319	2510.494615
424.994712	2465.124231
425.373044	2505.453462
425.751314	2480.247692
426.129524	2460.083077
426.507673	2439.918462
426.885762	2472.685962
427.263789	2477.727115
427.641756	2520.576923
428.019662	2450.000769
428.397508	2490.330000
428.775292	2470.165385
429.153016	2548.303269
429.530679	2490.330000
429.908282	2535.700385
430.285824	2444.959615
430.663305	2434.877308
431.040726	2477.727115
431.418086	2530.659231
431.795385	2533.179808
432.172624	2497.891731
432.549802	2507.974038
432.926920	2477.727115
433.303977	2540.741538
433.680974	2530.659231
434.057910	2457.562500
434.434786	2543.262115
434.811601	2452.521346
435.188355	2495.371154
435.565050	2450.000769
435.941683	2538.220962
436.318257	2444.959615
436.694770	2510.494615
437.071222	2558.385577
437.447614	2470.165385
437.823946	2457.562500
438.200218	2462.603654
438.576429	2525.618077
438.952580	2442.439038
439.328670	2444.959615
439.704700	2482.768269
440.080670	2490.330000
440.456580	2518.056346
440.832429	2480.247692
441.208218	2472.685962
441.583947	2470.165385
441.959616	2429.836154
442.335224	2558.385577
442.710773	2465.124231
443.086261	2515.535769
443.461689	2495.371154
443.837057	2505.453462
444.212365	2553.344423
444.587612	2457.562500
444.962800	2518.056346
445.337927	2528.138654
445.712995	2513.015192
446.088002	2450.000769
446.462949	2482.768269
446.837837	2523.097500
447.212664	2482.768269
447.587431	2450.000769
447.962139	2450.000769
448.336786	2525.618077
448.711374	2495.371154
449.085901	2455.041923
449.460369	2475.206538
449.834776	2460.083077
450.209124	2528.138654
450.583412	2452.521346
450.957640	2492.850577
451.331808	2402.109808
451.705917	2535.700385
452.079965	2457.562500
452.453954	2560.906154
452.827883	2485.288846
453.201752	2505.453462
453.575562	2472.685962
453.949311	2533.179808
454.323001	2500.412308
454.696632	2392.027500
455.070202	2497.891731
455.443713	2444.959615
455.817164	2495.371154
456.190556	2455.041923
456.563888	2480.247692
456.937160	2422.274423
457.310373	2533.179808
457.683526	2457.562500
458.056619	2442.439038
458.429653	2424.795000
458.802628	2520.576923
459.175542	2485.288846
459.548398	2523.097500
459.921194	2550.823846
460.293930	2492.850577
460.666607	2505.453462
461.039224	2507.974038
461.411782	2475.206538
461.784280	2515.535769
462.156719	2520.576923
462.529099	2412.192115
462.901419	2457.562500
463.273680	2523.097500
463.645882	2533.179808
464.018024	2490.330000
464.390106	2535.700385
464.762130	2482.768269
465.134094	2510.494615
465.505999	2560.906154
465.877845	2429.836154
466.249631	2457.562500
466.621358	2450.000769
466.993026	2510.494615
467.364634	2540.741538
467.736184	2540.741538
468.107674	2477.727115
468.479105	2480.247692
468.850477	2500.412308
469.221790	2510.494615
469.593043	2490.330000
469.964238	2437.397885
470.335373	2530.659231
470.706449	2510.494615
471.077467	2535.700385
471.448425	2424.795000
471.819324	2558.385577
472.190164	2510.494615
472.560945	2520.576923
472.931667	2487.809423
473.302330	2497.891731
473.672934	2482.768269
474.043479	2505.453462
474.413965	2480.247692
474.784393	2477.727115
475.154761	2477.727115
475.525070	2500.412308
475.895321	2507.974038
476.265513	2480.247692
476.635645	2518.056346
477.005719	2437.397885
477.375734	2450.000769
477.745691	2538.220962
478.115588	2490.330000
478.485427	2447.480192
478.855207	2548.303269
479.224928	2525.618077
479.594591	2452.521346
479.964194	2500.412308
480.333739	2502.932885
480.703226	2563.426731
481.072653	2467.644808
481.442022	2510.494615
481.811333	2495.371154
482.180584	2525.618077
482.549777	2500.412308
482.918912	2492.850577
483.287988	2515.535769
483.657005	2548.303269
484.025964	2538.220962
484.394864	2460.083077
484.763706	2480.247692
485.132489	2497.891731
485.501213	2447.480192
485.869879	2447.480192
486.238487	2450.000769
486.607036	2490.330000
486.975527	2447.480192
487.343959	2502.932885
487.712333	2432.356731
488.080648	2490.330000
488.448905	2480.247692
488.817104	2437.397885
489.185244	2540.741538
489.553326	2515.535769
489.921350	2540.741538
490.289315	2404.630385
490.657222	2507.974038
491.025070	2439.918462
491.392861	2538.220962
491.760593	2500.412308
492.128267	2513.015192
492.495883	2432.356731
492.863440	2480.247692
493.230939	2447.480192
493.598380	2490.330000
493.965763	2550.823846
494.333088	2450.000769
494.700354	2500.412308
495.067563	2518.056346
495.434713	2525.618077
495.801805	2505.453462
496.168839	2550.823846
496.535815	2465.124231
496.902733	2513.015192
497.269593	2487.809423
497.636395	2513.015192
498.003139	2450.000769
498.369825	2502.932885
498.736453	2404.630385
499.103023	2558.385577
499.469535	2495.371154
499.835989	2530.659231
500.202385	2485.288846
500.568723	2573.509038
500.935003	2518.056346
501.301226	2502.932885
501.667390	2465.124231
502.033497	2548.303269
502.399546	2530.659231
502.765537	2487.809423
503.131470	2530.659231
503.497345	2472.685962
503.863163	2583.591346
504.228923	2450.000769
504.594625	2518.056346
504.960269	2470.165385
505.325856	2500.412308
505.691385	2570.988462
506.056856	2465.124231
506.422270	2502.932885
506.787625	2480.247692
507.152924	2520.576923
507.518164	2520.576923
507.883347	2513.015192
508.248472	2505.453462
508.613540	2450.000769
508.978550	2460.083077
509.343503	2570.988462
509.708398	2500.412308
510.073236	2447.480192
510.438016	2434.877308
510.802738	2444.959615
511.167403	2500.412308
511.532010	2535.700385
511.896561	2513.015192
512.261053	2518.056346
512.625488	2502.932885
512.989866	2515.535769
513.354186	2497.891731
513.718449	2530.659231
514.082655	2513.015192
514.446803	2475.206538
514.810894	2467.644808
515.174927	2442.439038
515.538904	2495.371154
515.902822	2525.618077
516.266684	2452.521346
516.630488	2457.562500
516.994235	2525.618077
517.357925	2573.509038
517.721558	2437.397885
518.085133	2439.918462
518.448651	2523.097500
518.812112	2472.685962
519.175516	2540.741538
519.538863	2487.809423
519.902152	2550.823846
520.265385	2540.741538
520.628560	2510.494615
520.991678	2500.412308
521.354739	2558.385577
521.717743	2555.865000
522.080690	2510.494615
522.443580	2485.288846
522.806413	2450.000769
523.169189	2528.138654
523.531908	2457.562500
523.894569	2515.535769
524.257174	2477.727115
524.619722	2485.288846
524.982213	2487.809423
525.344647	2507.974038
525.707025	2437.397885
526.069345	2583.591346
526.431608	2588.632500
526.793815	2523.097500
527.155964	2528.138654
527.518057	2513.015192
527.880093	2555.865000
528.242072	2578.550192
528.603995	2470.165385
528.965860	2518.056346
529.327669	2450.000769
529.689421	2472.685962
530.051117	2467.644808
530.412755	2505.453462
530.774337	2583.591346
531.135862	2530.659231
531.497331	2545.782692
531.858743	2553.344423
532.220098	2538.220962
532.581396	2586.111923
532.942638	2475.206538
533.303824	2548.303269
533.664953	2555.865000
534.026025	2502.932885
534.387040	2487.809423
534.747999	2462.603654
535.108902	2482.768269
535.469748	2492.850577
535.830537	2560.906154
536.191270	2397.068654
536.551947	2515.535769
536.912567	2485.288846
537.273131	2460.083077
537.633638	2475.206538
537.994089	2528.138654
538.354483	2472.685962
538.714821	2467.644808
539.075103	2570.988462
539.435328	2427.315577
539.795497	2558.385577
540.155609	2470.165385
540.515665	2487.809423
540.875665	2460.083077
541.235609	2518.056346
541.595496	2528.138654
541.955328	2460.083077
542.315102	2588.632500
542.674821	2490.330000
543.034483	2518.056346
543.394090	2513.015192
543.753640	2555.865000
544.113134	2492.850577
544.472571	2520.576923
544.831953	2533.179808
545.191278	2490.330000
545.550548	2518.056346
545.909761	2505.453462
546.268918	2545.782692
546.628019	2444.959615
546.987064	2520.576923
547.346053	2583.591346
547.704986	2507.974038
548.063863	2497.891731
548.422684	2598.714808
548.781449	2419.753846
549.140158	2460.083077
549.498811	2608.797115
549.857408	2487.809423
550.215949	2386.986346
550.574434	2500.412308
550.932864	2450.000769
551.291237	2543.262115
551.649555	2432.356731
552.007817	2432.356731
552.366022	2545.782692
552.724173	2460.083077
553.082267	2505.453462
553.440305	2419.753846
553.798288	2470.165385
554.156215	2432.356731
554.514086	2555.865000
554.871902	2502.932885
555.229661	2500.412308
555.587365	2465.124231
555.945014	2439.918462
556.302606	2613.838269
556.660143	2419.753846
557.017625	2570.988462
557.375050	2568.467885
557.732421	2510.494615
558.089735	2560.906154
558.446994	2399.589231
558.804197	2429.836154
559.161345	2502.932885
559.518437	2535.700385
559.875474	2515.535769
560.232455	2480.247692
560.589381	2485.288846
560.946251	2530.659231
561.303065	2533.179808
561.659825	2477.727115
562.016528	2500.412308
562.373177	2573.509038
562.729770	2565.947308
563.086307	2455.041923
563.442789	2528.138654
563.799216	2455.041923
564.155587	2525.618077
564.511904	2482.768269
564.868164	2507.974038
565.224370	2533.179808
565.580520	2457.562500
565.936615	2548.303269
566.292654	2520.576923
566.648638	2477.727115
567.004567	2505.453462
567.360441	2613.838269
567.716260	2523.097500
568.072023	2434.877308
568.427732	2477.727115
568.783385	2492.850577
569.138982	2495.371154
569.494525	2586.111923
569.850013	2437.397885
570.205445	2467.644808
570.560823	2545.782692
570.916145	2482.768269
571.271412	2513.015192
571.626625	2457.562500
571.981782	2538.220962
572.336884	2482.768269
572.691931	2495.371154
573.046923	2601.235385
573.401860	2442.439038
573.756743	2528.138654
574.111570	2485.288846
574.466342	2497.891731
574.821059	2535.700385
575.175722	2515.535769
575.530330	2462.603654
575.884882	2507.974038
576.239380	2502.932885
576.593823	2528.138654
576.948211	2497.891731
577.302544	2515.535769
577.656823	2513.015192
578.011047	2475.206538
578.365216	2528.138654
578.719330	2482.768269
579.073389	2402.109808
579.427394	2515.535769
579.781344	2613.838269
580.135239	2447.480192
580.489080	2505.453462
580.842866	2460.083077
581.196597	2588.632500
581.550273	2475.206538
581.903895	2502.932885
582.257463	2513.015192
582.610975	2555.865000
582.964434	2528.138654
583.317837	2533.179808
583.671186	2535.700385
584.024481	2510.494615
584.377721	2513.015192
584.730906	2528.138654
585.084037	2540.741538
585.437113	2462.603654
585.790135	2434.877308
586.143103	2485.288846
586.496016	2467.644808
586.848874	2490.330000
587.201679	2475.206538
587.554428	2487.809423
587.907124	2472.685962
588.259765	2548.303269
588.612352	2555.865000
588.964884	2497.891731
589.317362	2457.562500
589.669786	2565.947308
590.022155	2452.521346
590.374470	2548.303269
590.726731	2482.768269
591.078937	2528.138654
591.431090	2538.220962
591.783188	2540.741538
592.135232	2528.138654
592.487222	2485.288846
592.839157	2467.644808
593.191038	2477.727115
593.542866	2485.288846
593.894639	2502.932885
594.246358	2402.109808
594.598022	2502.932885
594.949633	2518.056346
595.301190	2477.727115
595.652692	2515.535769
596.004141	2384.465769
596.355535	2485.288846
596.706876	2462.603654
597.058162	2588.632500
597.409395	2507.974038
597.760573	2482.768269
598.111698	2477.727115
598.462768	2450.000769
598.813785	2573.509038
599.164748	2528.138654
599.515657	2535.700385
599.866511	2467.644808
600.217312	2505.453462
600.568060	2429.836154
600.918753	2487.809423
601.269392	2437.397885
601.619978	2442.439038
601.970510	2553.344423
602.320988	2439.918462
602.671412	2553.344423
603.021783	2472.685962
603.372100	2520.576923
603.722363	2465.124231
604.072572	2535.700385
604.422728	2490.330000
604.772830	2565.947308
605.122878	2444.959615
605.472872	2477.727115
605.822813	2487.809423
606.172701	2460.083077
606.522534	2477.727115
606.872314	2507.974038
607.222041	2452.521346
607.571714	2563.426731
607.921333	2475.206538
608.270899	2502.932885
608.620411	2467.644808
608.969870	2515.535769
609.319276	2555.865000
609.668627	2502.932885
610.017926	2560.906154
610.367171	2507.974038
610.716362	2447.480192
611.065500	2487.809423
611.414585	2510.494615
611.763616	2520.576923
612.112594	2528.138654
612.461518	2507.974038
612.810389	2447.480192
613.159207	2550.823846
613.507971	2485.288846
613.856682	2533.179808
614.205340	2457.562500
614.553945	2417.233269
614.902496	2545.782692
615.250994	2462.603654
615.599439	2414.712692
615.947830	2507.974038
616.296169	2422.274423
616.644454	2477.727115
616.992686	2460.083077
617.340864	2553.344423
617.688990	2563.426731
618.037063	2545.782692
618.385082	2432.356731
618.733048	2500.412308
619.080961	2470.165385
619.428821	2510.494615
619.776628	2588.632500
620.124382	2480.247692
620.472083	2540.741538
620.819731	2540.741538
621.167326	2485.288846
621.514868	2472.685962
621.862357	2530.659231
622.209793	2505.453462
622.557176	2470.165385
622.904506	2513.015192
623.251783	2485.288846
623.599007	2434.877308
623.946179	2437.397885
624.293297	2485.288846
624.640363	2510.494615
624.987376	2507.974038
625.334336	2452.521346
625.681243	2563.426731
626.028097	2518.056346
626.374899	2475.206538
626.721647	2543.262115
627.068343	2485.288846
627.414987	2520.576923
627.761577	2568.467885
628.108115	2417.233269
628.454600	2470.165385
628.801032	2502.932885
629.147412	2535.700385
629.493739	2487.809423
629.840014	2548.303269
630.186236	2414.712692
630.532405	2475.206538
630.878521	2518.056346
631.224585	2371.862885
631.570597	2482.768269
631.916556	2528.138654
632.262462	2523.097500
632.608316	2487.809423
632.954117	2490.330000
633.299866	2444.959615
633.645562	2497.891731
633.991206	2520.576923
634.336797	2386.986346
634.682336	2515.535769
635.027823	2513.015192
635.373257	2492.850577
635.718639	2485.288846
636.063968	2487.809423
636.409245	2482.768269
636.754470	2555.865000
637.099642	2591.153077
637.444762	2462.603654
637.789829	2538.220962
638.134845	2485.288846
638.479808	2518.056346
638.824719	2419.753846
639.169577	2490.330000
639.514383	2497.891731
639.859137	2518.056346
640.203839	2472.685962
640.548489	2480.247692
640.893086	2450.000769
641.237632	2467.644808
641.582125	2447.480192
641.926566	2525.618077
642.270955	2465.124231
642.615292	2525.618077
642.959576	2583.591346
643.303809	2477.727115
643.647990	2462.603654
643.992118	2417.233269
644.336195	2467.644808
644.680219	2550.823846
645.024192	2548.303269
645.368112	2525.618077
645.711981	2492.850577
646.055797	2533.179808
646.399562	2500.412308
646.743274	2502.932885
647.086935	2518.056346
647.430544	2540.741538
647.774101	2465.124231
648.117606	2480.247692
648.461059	2480.247692
648.804460	2502.932885
649.147810	2480.247692
649.491108	2533.179808
649.834354	2495.371154
650.177548	2535.700385
650.520690	2419.753846
650.863781	2555.865000
651.206820	2490.330000
651.549807	2583.591346
651.892742	2487.809423
652.235626	2515.535769
652.578458	2467.644808
652.921238	2505.453462
653.263967	2465.124231
653.606644	2472.685962
653.949269	2432.356731
654.291843	2487.809423
654.634365	2462.603654
654.976836	2457.562500
655.319255	2570.988462
655.661622	2450.000769
656.003938	2487.809423
656.346203	2480.247692
656.688416	2477.727115
657.030577	2414.712692
657.372687	2520.576923
657.714746	2492.850577
658.056753	2444.959615
658.398708	2518.056346
658.740612	2543.262115
659.082465	2444.959615
659.424266	2515.535769
659.766016	2523.097500
660.107715	2513.015192
660.449362	2505.453462
660.790958	2487.809423
661.132503	2492.850577
661.473996	2470.165385
661.815438	2555.865000
662.156829	2497.891731
662.498168	2482.768269
662.839456	2510.494615
663.180693	2505.453462
663.521879	2467.644808
663.863013	2518.056346
664.204097	2540.741538
664.545129	2465.124231
664.886110	2538.220962
665.227040	2563.426731
665.567918	2507.974038
665.908746	2490.330000
666.249522	2568.467885
666.590248	2457.562500
666.930922	2485.288846
667.271545	2477.727115
667.612118	2510.494615
667.952639	2477.727115
668.293109	2502.932885
668.633528	2528.138654
668.973896	2513.015192
669.314213	2535.700385
669.654480	2533.179808
669.994695	2434.877308
670.334859	2422.274423
670.674973	2465.124231
671.015035	2593.673654
671.355047	2450.000769
671.695008	2563.426731
672.034918	2525.618077
672.374777	2548.303269
672.714585	2455.041923
673.054342	2606.276538
673.394049	2510.494615
673.733705	2462.603654
674.073310	2477.727115
674.412864	2442.439038
674.752368	2507.974038
675.091820	2520.576923
675.431223	2495.371154
675.770574	2563.426731
676.109875	2460.083077
676.449125	2492.850577
676.788324	2500.412308
677.127473	2492.850577
677.466571	2530.659231
677.805619	2480.247692
678.144616	2560.906154
678.483562	2540.741538
678.822458	2525.618077
679.161303	2520.576923
679.500098	2520.576923
679.838842	2500.412308
680.177535	2570.988462
680.516179	2528.138654
680.854771	2429.836154
681.193314	2520.576923
681.531805	2475.206538
681.870247	2586.111923
682.208638	2472.685962
682.546978	2540.741538
682.885268	2510.494615
683.223508	2573.509038
683.561697	2417.233269
683.899836	2560.906154
684.237925	2465.124231
684.575963	2495.371154
684.913951	2545.782692
685.251889	2487.809423
685.589776	2505.453462
685.927614	2417.233269
686.265401	2513.015192
686.603137	2507.974038
686.940824	2497.891731
687.278460	2462.603654
687.616046	2447.480192
687.953582	2490.330000
688.291068	2497.891731
688.628504	2467.644808
688.965889	2515.535769
689.303224	2402.109808
689.640510	2444.959615
689.977745	2553.344423
690.314930	2513.015192
690.652065	2608.797115
690.989150	2540.741538
691.326185	2507.974038
691.663170	2490.330000
692.000105	2485.288846
692.336990	2502.932885
692.673825	2535.700385
693.010610	2558.385577
693.347345	2535.700385
693.684030	2442.439038
694.020665	2465.124231
694.357251	2437.397885
694.693786	2497.891731
695.030272	2518.056346
695.366707	2560.906154
695.703093	2543.262115
696.039429	2457.562500
696.375716	2492.850577
696.711952	2513.015192
697.048139	2545.782692
697.384276	2439.918462
697.720363	2558.385577
698.056400	2485.288846
698.392388	2515.535769
698.728326	2492.850577
699.064214	2540.741538
699.400053	2452.521346
699.735842	2543.262115
700.071581	2452.521346
700.407270	2475.206538
700.742910	2460.083077
701.078501	2510.494615
701.414042	2545.782692
701.749533	2485.288846
702.084974	2472.685962
702.420366	2495.371154
702.755709	2480.247692
703.091002	2462.603654
703.426246	2558.385577
703.761440	2515.535769
704.096584	2497.891731
704.431679	2505.453462
704.766725	2475.206538
705.101721	2523.097500
705.436668	2548.303269
705.771565	2492.850577
706.106413	2462.603654
706.441212	2502.932885
706.775961	2470.165385
707.110661	2457.562500
707.445311	2555.865000
707.779913	2419.753846
708.114465	2485.288846
708.448967	2465.124231
708.783421	2477.727115
709.117825	2462.603654
709.452180	2525.618077
709.786485	2507.974038
710.120742	2513.015192
710.454949	2477.727115
710.789107	2545.782692
711.123216	2472.685962
711.457275	2583.591346
711.791286	2414.712692
712.125247	2548.303269
712.459159	2452.521346
712.793023	2545.782692
713.126837	2480.247692
713.460602	2497.891731
713.794318	2432.356731
714.127985	2434.877308
714.461602	2533.179808
714.795171	2540.741538
715.128691	2598.714808
715.462162	2505.453462
715.795584	2417.233269
716.128957	2470.165385
716.462281	2540.741538
716.795556	2457.562500
717.128782	2538.220962
717.461960	2477.727115
717.795088	2434.877308
718.128167	2515.535769
718.461198	2487.809423
718.794180	2583.591346
719.127113	2467.644808
719.459997	2583.591346
719.792833	2548.303269
720.125619	2518.056346
720.458357	2520.576923
720.791046	2442.439038
721.123686	2439.918462
721.456278	2502.932885
721.788821	2543.262115
722.121315	2485.288846
722.453761	2444.959615
722.786158	2419.753846
723.118506	2520.576923
723.450805	2560.906154
723.783056	2593.673654
724.115259	2477.727115
724.447412	2480.247692
724.779518	2530.659231
725.111574	2434.877308
725.443582	2505.453462
725.775542	2467.644808
726.107453	2520.576923
726.439315	2495.371154
726.771129	2553.344423
727.102895	2523.097500
727.434612	2518.056346
727.766281	2545.782692
728.097901	2502.932885
728.429473	2460.083077
728.760996	2495.371154
729.092471	2467.644808
729.423897	2472.685962
729.755276	2470.165385
730.086606	2485.288846
730.417887	2452.521346
730.749120	2432.356731
731.080305	2424.795000
731.411442	2520.576923
731.742530	2447.480192
732.073570	2525.618077
732.404562	2485.288846
732.735506	2543.262115
733.066401	2510.494615
733.397249	2492.850577
733.728048	2497.891731
734.058798	2563.426731
734.389501	2545.782692
734.720156	2475.206538
735.050762	2490.330000
735.381320	2427.315577
735.711831	2450.000769
736.042293	2427.315577
736.372707	2523.097500
736.703073	2465.124231
737.033391	2482.768269
737.363661	2555.865000
737.693883	2518.056346
738.024056	2515.535769
738.354182	2507.974038
738.684260	2576.029615
739.014290	2442.439038
739.344272	2528.138654
739.674207	2523.097500
740.004093	2492.850577
740.333931	2543.262115
740.663722	2550.823846
740.993464	2543.262115
741.323159	2565.947308
741.652806	2560.906154
741.982405	2555.865000
742.311956	2485.288846
742.641460	2485.288846
742.970915	2462.603654
743.300323	2470.165385
743.629683	2412.192115
743.958996	2432.356731
744.288260	2492.850577
744.617477	2500.412308
744.946647	2525.618077
745.275768	2490.330000
745.604842	2555.865000
745.933869	2475.206538
746.262847	2450.000769
746.591778	2427.315577
746.920662	2419.753846
747.249498	2427.315577
747.578286	2553.344423
747.907027	2434.877308
748.235720	2528.138654
748.564365	2460.083077
748.892963	2487.809423
749.221514	2429.836154
749.550017	2477.727115
749.878473	2492.850577
750.206881	2429.836154
750.535242	2361.780577
750.863555	2530.659231
751.191821	2427.315577
751.520039	2465.124231
751.848210	2424.795000
752.176334	2470.165385
752.504411	2525.618077
752.832440	2452.521346
753.160421	2507.974038
753.488356	2477.727115
753.816243	2495.371154
754.144082	2492.850577
754.471875	2500.412308
754.799620	2442.439038
755.127318	2482.768269
755.454969	2427.315577
755.782572	2505.453462
756.110129	2414.712692
756.437638	2520.576923
756.765100	2490.330000
757.092515	2492.850577
757.419882	2538.220962
757.747203	2502.932885
758.074477	2535.700385
758.401703	2540.741538
758.728882	2530.659231
759.056014	2502.932885
759.383099	2450.000769
759.710138	2457.562500
760.037129	2611.317692
760.364073	2530.659231
760.690970	2475.206538
761.017820	2540.741538
761.344623	2492.850577
761.671379	2480.247692
761.998088	2470.165385
762.324751	2477.727115
762.651366	2460.083077
762.977935	2560.906154
763.304456	2409.671538
763.630931	2470.165385
763.957359	2492.850577
764.283740	2460.083077
764.610074	2439.918462
764.936362	2455.041923
765.262602	2530.659231
765.588796	2500.412308
765.914943	2535.700385
766.241044	2540.741538
766.567097	2437.397885
766.893104	2460.083077
767.219064	2424.795000
767.544978	2558.385577
767.870845	2606.276538
768.196665	2487.809423
768.522438	2545.782692
768.848165	2432.356731
769.173846	2487.809423
769.499479	2513.015192
769.825066	2417.233269
770.150607	2477.727115
770.476101	2429.836154
770.801548	2497.891731
771.126949	2545.782692
771.452303	2487.809423
771.777611	2457.562500
772.102872	2490.330000
772.428087	2538.220962
772.753256	2477.727115
773.078378	2558.385577
773.403453	2376.904038
773.728482	2530.659231
774.053465	2482.768269
774.378401	2613.838269
774.703291	2497.891731
775.028135	2492.850577
775.352932	2636.523462
775.677683	2515.535769
776.002388	2460.083077
776.327046	2528.138654
776.651658	2540.741538
776.976224	2442.439038
777.300743	2457.562500
777.625216	2485.288846
777.949643	2467.644808
778.274024	2515.535769
778.598359	2500.412308
778.922647	2518.056346
779.246889	2442.439038
779.571086	2447.480192
779.895236	2376.904038
780.219339	2490.330000
780.543397	2477.727115
780.867409	2460.083077
781.191374	2402.109808
781.515294	2533.179808
781.839167	2480.247692
782.162995	2528.138654
782.486776	2510.494615
782.810511	2404.630385
783.134201	2434.877308
783.457844	2515.535769
783.781441	2523.097500
784.104993	2525.618077
784.428498	2507.974038
784.751958	2502.932885
785.075372	2543.262115
785.398739	2465.124231
785.722061	2462.603654
786.045337	2528.138654
786.368568	2500.412308
786.691752	2419.753846
787.014891	2477.727115
787.337983	2586.111923
787.661030	2427.315577
787.984031	2520.576923
788.306987	2485.288846
788.629897	2513.015192
788.952760	2487.809423
789.275579	2553.344423
789.598351	2565.947308
789.921078	2422.274423
790.243759	2414.712692
790.566395	2492.850577
790.888984	2490.330000
791.211529	2497.891731
791.534027	2475.206538
791.856480	2457.562500
792.178888	2510.494615
792.501249	2576.029615
792.823566	2538.220962
793.145836	2492.850577
793.468062	2392.027500
793.790241	2414.712692
794.112375	2497.891731
794.434464	2573.509038
794.756507	2500.412308
795.078505	2550.823846
795.400457	2477.727115
795.722364	2513.015192
796.044226	2530.659231
796.366042	2581.070769
796.687812	2450.000769
797.009538	2533.179808
797.331218	2480.247692
797.652852	2530.659231
797.974442	2515.535769
798.295986	2555.865000
798.617484	2490.330000
798.938938	2520.576923
799.260346	2450.000769
799.581709	2497.891731
799.903026	2457.562500
800.224299	2424.795000
800.545526	2591.153077
800.866708	2505.453462
801.187845	2523.097500
801.508936	2538.220962
801.829983	2381.945192
802.150984	2480.247692
802.471940	2492.850577
802.792851	2616.358846
803.113717	2487.809423
803.434538	2520.576923
803.755314	2515.535769
804.076045	2545.782692
804.396731	2457.562500
804.717372	2568.467885
805.037967	2480.247692
805.358518	2452.521346
805.679024	2447.480192
805.999485	2533.179808
806.319901	2533.179808
806.640272	2450.000769
806.960598	2500.412308
807.280879	2533.179808
807.601115	2490.330000
807.921306	2565.947308
808.241453	2490.330000
808.561554	2450.000769
808.881611	2530.659231
809.201623	2414.712692
809.521590	2432.356731
809.841513	2530.659231
810.161390	2530.659231
810.481223	2545.782692
810.801011	2477.727115
811.120755	2495.371154
811.440453	2520.576923
811.760107	2475.206538
812.079716	2492.850577
812.399281	2492.850577
812.718801	2356.739423
813.038276	2465.124231
813.357707	2518.056346
813.677093	2510.494615
813.996434	2525.618077
814.315731	2447.480192
814.634983	2507.974038
814.954191	2462.603654
815.273354	2505.453462
815.592473	2437.397885
815.911547	2523.097500
816.230577	2482.768269
816.549562	2455.041923
816.868502	2487.809423
817.187399	2523.097500
817.506250	2460.083077
817.825058	2520.576923
818.143821	2472.685962
818.462539	2543.262115
818.781213	2576.029615
819.099843	2470.165385
819.418429	2465.124231
819.736970	2485.288846
820.055466	2500.412308
820.373919	2472.685962
820.692327	2460.083077
821.010691	2497.891731
821.329011	2538.220962
821.647286	2460.083077
821.965517	2520.576923
822.283704	2465.124231
822.601847	2548.303269
822.919945	2477.727115
823.237999	2450.000769
823.556010	2515.535769
823.873976	2553.344423
824.191897	2497.891731
824.509775	2492.850577
824.827609	2560.906154
825.145398	2507.974038
825.463144	2525.618077
825.780845	2523.097500
826.098502	2555.865000
826.416116	2540.741538
826.733685	2376.904038
827.051210	2447.480192
827.368692	2490.330000
827.686129	2432.356731
828.003522	2470.165385
828.320872	2502.932885
828.638177	2477.727115
828.955439	2460.083077
829.272656	2535.700385
829.589830	2550.823846
829.906960	2540.741538
830.224046	2442.439038
830.541088	2495.371154
830.858086	2553.344423
831.175041	2470.165385
831.491952	2470.165385
831.808819	2515.535769
832.125642	2477.727115
832.442421	2520.576923
832.759157	2465.124231
833.075849	2485.288846
833.392497	2432.356731
833.709101	2452.521346
834.025662	2485.288846
834.342179	2487.809423
834.658653	2472.685962
834.975083	2450.000769
835.291469	2505.453462
835.607811	2392.027500
835.924110	2558.385577
836.240366	2560.906154
836.556578	2480.247692
836.872746	2457.562500
837.188871	2480.247692
837.504952	2402.109808
837.820990	2535.700385
838.136984	2515.535769
838.452935	2452.521346
838.768842	2470.165385
839.084706	2490.330000
839.400526	2538.220962
839.716303	2407.150962
840.032037	2505.453462
840.347727	2455.041923
840.663373	2510.494615
840.978977	2538.220962
841.294537	2523.097500
841.610054	2487.809423
841.925527	2523.097500
842.240957	2475.206538
842.556344	2407.150962
842.871687	2480.247692
843.186987	2432.356731
843.502244	2475.206538
843.817458	2578.550192
844.132629	2487.809423
844.447756	2424.795000
844.762840	2495.371154
845.077881	2492.850577
845.392879	2518.056346
845.707833	2472.685962
846.022745	2442.439038
846.337613	2513.015192
846.652438	2520.576923
846.967221	2412.192115
847.281960	2515.535769
847.596656	2460.083077
847.911309	2465.124231
848.225919	2550.823846
848.540485	2460.083077
848.855009	2472.685962
849.169490	2439.918462
849.483928	2548.303269
849.798323	2455.041923
850.112675	2510.494615
850.426984	2535.700385
850.741251	2439.918462
851.055474	2442.439038
851.369654	2417.233269
851.683792	2545.782692
851.997887	2472.685962
852.311938	2424.795000
852.625947	2470.165385
852.939914	2487.809423
853.253837	2502.932885
853.567718	2596.194231
853.881555	2518.056346
854.195350	2470.165385
854.509103	2467.644808
854.822812	2520.576923
855.136479	2492.850577
855.450103	2467.644808
855.763685	2550.823846
856.077224	2437.397885
856.390720	2450.000769
856.704173	2520.576923
857.017584	2477.727115
857.330953	2505.453462
857.644278	2502.932885
857.957561	2465.124231
858.270802	2505.453462
858.584000	2513.015192
858.897155	2497.891731
859.210268	2495.371154
859.523339	2462.603654
859.836367	2523.097500
860.149352	2450.000769
860.462295	2492.850577
860.775195	2497.891731
861.088054	2555.865000
861.400869	2555.865000
861.713642	2439.918462
862.026373	2515.535769
862.339062	2427.315577
862.651708	2447.480192
862.964312	2553.344423
863.276873	2530.659231
863.589392	2477.727115
863.901869	2467.644808
864.214303	2462.603654
864.526696	2455.041923
864.839045	2414.712692
865.151353	2608.797115
865.463619	2437.397885
865.775842	2424.795000
866.088023	2457.562500
866.400162	2487.809423
866.712258	2462.603654
867.024313	2492.850577
867.336325	2538.220962
867.648296	2583.591346
867.960224	2543.262115
868.272110	2480.247692
868.583954	2520.576923
868.895755	2507.974038
869.207515	2475.206538
869.519233	2500.412308
869.830909	2591.153077
870.142542	2439.918462
870.454134	2417.233269
870.765684	2402.109808
871.077191	2505.453462
871.388657	2485.288846
871.700081	2475.206538
872.011463	2543.262115
872.322803	2495.371154
872.634101	2528.138654
872.945357	2487.809423
873.256571	2548.303269
873.567744	2500.412308
873.878874	2533.179808
874.189963	2497.891731
874.501010	2558.385577
874.812015	2437.397885
875.122979	2409.671538
875.433900	2485.288846
875.744780	2462.603654
876.055618	2462.603654
876.366415	2558.385577
876.677169	2601.235385
876.987882	2452.521346
877.298554	2581.070769
877.609183	2505.453462
877.919771	2502.932885
878.230317	2515.535769
878.540822	2621.400000
878.851285	2480.247692
879.161707	2447.480192
879.472087	2495.371154
879.782425	2523.097500
880.092722	2586.111923
880.402977	2540.741538
880.713191	2432.356731
881.023363	2608.797115
881.333494	2490.330000
881.643583	2502.932885
881.953631	2439.918462
882.263637	2495.371154
882.573602	2492.850577
882.883526	2495.371154
883.193408	2525.618077
883.503248	2434.877308
883.813048	2497.891731
884.122806	2560.906154
884.432522	2482.768269
884.742197	2467.644808
885.051831	2513.015192
885.361424	2502.932885
885.670975	2465.124231
885.980485	2565.947308
886.289954	2392.027500
886.599382	2475.206538
886.908768	2525.618077
887.218113	2563.426731
887.527417	2356.739423
887.836680	2505.453462
888.145901	2558.385577
888.455082	2507.974038
888.764221	2460.083077
889.073319	2462.603654
889.382376	2578.550192
889.691392	2452.521346
890.000366	2497.891731
890.309300	2500.412308
890.618193	2495.371154
890.927044	2482.768269
891.235855	2510.494615
891.544625	2447.480192
891.853353	2555.865000
892.162041	2467.644808
892.470687	2565.947308
892.779293	2490.330000
893.087858	2518.056346
893.396381	2518.056346
893.704864	2427.315577
894.013306	2467.644808
894.321707	2515.535769
894.630068	2467.644808
894.938387	2513.015192
895.246665	2477.727115
895.554903	2533.179808
895.863100	2432.356731
896.171256	2518.056346
896.479371	2444.959615
896.787446	2523.097500
897.095480	2581.070769
897.403473	2480.247692
897.711425	2513.015192
898.019336	2538.220962
898.327207	2455.041923
898.635038	2500.412308
898.942827	2540.741538
899.250576	2545.782692
899.558284	2412.192115
899.865952	2497.891731
900.173579	2505.453462
900.481165	2460.083077
900.788711	2548.303269
901.096216	2455.041923
901.403681	2477.727115
901.711105	2442.439038
902.018489	2555.865000
902.325832	2442.439038
902.633135	2497.891731
902.940397	2477.727115
903.247619	2429.836154
903.554800	2528.138654
903.861941	2500.412308
904.169041	2543.262115
904.476101	2467.644808
904.783121	2540.741538
905.090100	2452.521346
905.397039	2565.947308
905.703938	2450.000769
906.010796	2477.727115
906.317614	2525.618077
906.624391	2520.576923
906.931129	2487.809423
907.237826	2525.618077
907.544483	2497.891731
907.851099	2437.397885
908.157675	2530.659231
908.464211	2462.603654
908.770707	2467.644808
909.077163	2513.015192
909.383578	2492.850577
909.689954	2475.206538
909.996289	2515.535769
910.302584	2467.644808
910.608839	2520.576923
910.915054	2465.124231
911.221229	2507.974038
911.527363	2507.974038
911.833458	2417.233269
912.139513	2515.535769
912.445527	2497.891731
912.751502	2513.015192
913.057436	2467.644808
913.363331	2467.644808
913.669186	2467.644808
913.975000	2477.727115
914.280775	2490.330000
914.586510	2528.138654
914.892205	2432.356731
915.197859	2492.850577
915.503475	2518.056346
915.809050	2424.795000
916.114585	2518.056346
916.420081	2424.795000
916.725536	2510.494615
917.030952	2553.344423
917.336328	2472.685962
917.641665	2507.974038
917.946961	2477.727115
918.252218	2419.753846
918.557435	2596.194231
918.862612	2475.206538
919.167750	2427.315577
919.472848	2553.344423
919.777906	2525.618077
920.082925	2477.727115
920.387904	2492.850577
920.692843	2528.138654
920.997743	2480.247692
921.302603	2507.974038
921.607423	2462.603654
921.912204	2525.618077
922.216946	2528.138654
922.521647	2429.836154
922.826310	2482.768269
923.130932	2535.700385
923.435516	2513.015192
923.740059	2492.850577
924.044564	2439.918462
924.349028	2399.589231
924.653454	2543.262115
924.957840	2444.959615
925.262186	2434.877308
925.566493	2475.206538
925.870761	2500.412308
926.174989	2419.753846
926.479178	2497.891731
926.783328	2467.644808
927.087438	2538.220962
927.391509	2515.535769
927.695541	2429.836154
927.999533	2452.521346
928.303486	2513.015192
928.607400	2502.932885
928.911275	2548.303269
929.215110	2424.795000
929.518906	2439.918462
929.822663	2515.535769
930.126381	2525.618077
930.430060	2528.138654
930.733699	2462.603654
931.037299	2555.865000
931.340861	2427.315577
931.644383	2523.097500
931.947866	2593.673654
932.251309	2520.576923
932.554714	2462.603654
932.858080	2563.426731
933.161407	2434.877308
933.464694	2540.741538
933.767943	2540.741538
934.071153	2424.795000
934.374323	2480.247692
934.677455	2563.426731
934.980548	2480.247692
935.283602	2545.782692
935.586617	2482.768269
935.889593	2570.988462
936.192530	2485.288846
936.495428	2505.453462
936.798287	2487.809423
937.101108	2429.836154
937.403890	2540.741538
937.706632	2487.809423
938.009336	2578.550192
938.312002	2407.150962
938.614628	2530.659231
938.917216	2500.412308
939.219765	2507.974038
939.522275	2467.644808
939.824747	2533.179808
940.127179	2565.947308
940.429573	2505.453462
940.731929	2487.809423
941.034246	2507.974038
941.336524	2525.618077
941.638763	2492.850577
941.940964	2371.862885
942.243126	2497.891731
942.545250	2548.303269
942.847335	2497.891731
943.149381	2540.741538
943.451389	2540.741538
943.753359	2502.932885
944.055290	2502.932885
944.357182	2558.385577
944.659036	2470.165385
944.960851	2520.576923
945.262628	2490.330000
945.564367	2560.906154
945.866067	2528.138654
946.167729	2429.836154
946.469352	2455.041923
946.770937	2485.288846
947.072484	2434.877308
947.373992	2422.274423
947.675462	2545.782692
947.976893	2487.809423
948.278286	2523.097500
948.579641	2462.603654
948.880958	2515.535769
949.182236	2502.932885
949.483476	2543.262115
949.784678	2429.836154
950.085841	2480.247692
950.386967	2513.015192
950.688054	2545.782692
950.989103	2540.741538
951.290114	2444.959615
951.591087	2434.877308
951.892021	2450.000769
952.192917	2507.974038
952.493776	2540.741538
952.794596	2447.480192
953.095378	2533.179808
953.396122	2525.618077
953.696828	2502.932885
953.997496	2500.412308
954.298126	2467.644808
954.598718	2555.865000
954.899272	2507.974038
955.199788	2560.906154
955.500266	2535.700385
955.800706	2528.138654
956.101108	2487.809423
956.401472	2543.262115
956.701798	2495.371154
957.002087	2518.056346
957.302337	2492.850577
957.602550	2528.138654
957.902724	2500.412308
958.202861	2568.467885
958.502960	2518.056346
958.803022	2505.453462
959.103045	2492.850577
959.403031	2480.247692
959.702979	2533.179808
960.002889	2422.274423
960.302762	2523.097500
960.602596	2414.712692
960.902393	2455.041923
961.202153	2550.823846
961.501875	2439.918462
961.801559	2490.330000
962.101205	2548.303269
962.400814	2437.397885
962.700385	2540.741538
962.999918	2540.741538
963.299414	2475.206538
963.598873	2397.068654
963.898293	2507.974038
964.197677	2485.288846
964.497022	2470.165385
964.796331	2452.521346
965.095601	2528.138654
965.394835	2482.768269
965.694030	2442.439038
965.993189	2500.412308
966.292309	2450.000769
966.591393	2507.974038
966.890439	2444.959615
967.189447	2460.083077
967.488419	2520.576923
967.787353	2555.865000
968.086249	2573.509038
968.385108	2472.685962
968.683930	2560.906154
968.982714	2480.247692
969.281462	2507.974038
969.580172	2490.330000
969.878844	2505.453462
970.177480	2530.659231
970.476078	2520.576923
970.774639	2518.056346
971.073162	2540.741538
971.371649	2593.673654
971.670098	2495.371154
971.968510	2465.124231
972.266885	2578.550192
972.565223	2581.070769
972.863524	2434.877308
973.161788	2472.685962
973.460014	2482.768269
973.758204	2548.303269
974.056356	2389.506923
974.354471	2497.891731
974.652550	2424.795000
974.950591	2465.124231
975.248595	2462.603654
975.546563	2465.124231
975.844493	2462.603654
976.142386	2487.809423
976.440243	2432.356731
976.738062	2540.741538
977.035845	2427.315577
977.333590	2414.712692
977.631299	2548.303269
977.928971	2485.288846
978.226606	2485.288846
978.524204	2482.768269
978.821765	2442.439038
979.119290	2472.685962
979.416777	2518.056346
979.714228	2502.932885
980.011642	2475.206538
980.309020	2525.618077
980.606360	2364.301154
980.903664	2502.932885
981.200931	2505.453462
981.498162	2492.850577
981.795356	2452.521346
982.092513	2457.562500
982.389633	2490.330000
982.686717	2603.755962
982.983764	2399.589231
983.280775	2455.041923
983.577749	2477.727115
983.874686	2500.412308
984.171587	2470.165385
984.468451	2414.712692
984.765279	2558.385577
985.062070	2462.603654
985.358824	2490.330000
985.655543	2480.247692
985.952224	2513.015192
986.248869	2538.220962
986.545478	2460.083077
986.842050	2475.206538
987.138586	2480.247692
987.435086	2490.330000
987.731549	2528.138654
988.027975	2520.576923
988.324366	2518.056346
988.620719	2576.029615
988.917037	2475.206538
989.213318	2477.727115
989.509563	2460.083077
989.805772	2432.356731
990.101944	2452.521346
990.398080	2427.315577
990.694180	2523.097500
990.990244	2475.206538
991.286271	2530.659231
991.582262	2505.453462
991.878217	2492.850577
992.174136	2510.494615
992.470019	2447.480192
992.765865	2490.330000
993.061676	2548.303269
993.357450	2480.247692
993.653188	2510.494615
993.948890	2477.727115
994.244556	2465.124231
994.540186	2497.891731
994.835780	2530.659231
995.131337	2475.206538
995.426859	2513.015192
995.722345	2457.562500
996.017795	2412.192115
996.313208	2510.494615
996.608586	2492.850577
996.903928	2560.906154
997.199234	2477.727115
997.494504	2490.330000
997.789738	2570.988462
998.084936	2480.247692
998.380099	2419.753846
998.675225	2507.974038
998.970316	2525.618077
999.265371	2525.618077
999.560390	2480.247692
999.855373	2460.083077
1000.150320	2578.550192
1000.445232	2588.632500
1000.740108	2492.850577
1001.034948	2490.330000
1001.329752	2500.412308
1001.624521	2417.233269
1001.919254	2371.862885
1002.213951	2611.317692
1002.508613	2480.247692
1002.803239	2545.782692
1003.097829	2543.262115
1003.392384	2394.548077
1003.686903	2439.918462
1003.981386	2535.700385
1004.275834	2467.644808
1004.570246	2560.906154
1004.864623	2487.809423
1005.158964	2500.412308
1005.453270	2613.838269
1005.747540	2472.685962
1006.041775	2500.412308
1006.335974	2482.768269
1006.630138	2505.453462
1006.924266	2460.083077
1007.218359	2434.877308
1007.512416	2530.659231
1007.806438	2480.247692
1008.100425	2553.344423
1008.394376	2485.288846
1008.688292	2548.303269
1008.982172	2439.918462
1009.276017	2510.494615
1009.569827	2495.371154
1009.863602	2482.768269
1010.157341	2563.426731
1010.451045	2490.330000
1010.744714	2495.371154
1011.038347	2548.303269
1011.331945	2455.041923
1011.625508	2490.330000
1011.919036	2414.712692
1012.212528	2523.097500
1012.505986	2588.632500
1012.799408	2487.809423
1013.092795	2470.165385
1013.386147	2558.385577
1013.679464	2470.165385
1013.972745	2523.097500
1014.265992	2437.397885
1014.559204	2480.247692
1014.852380	2442.439038
1015.145521	2429.836154
1015.438628	2495.371154
1015.731699	2513.015192
1016.024736	2515.535769
1016.317737	2505.453462
1016.610703	2455.041923
1016.903635	2543.262115
1017.196531	2480.247692
1017.489393	2492.850577
1017.782219	2442.439038
1018.075011	2462.603654
1018.367768	2545.782692
1018.660490	2470.165385
1018.953177	2470.165385
1019.245829	2470.165385
