Dividing Wavelength (nm)	Counts (n)	Blue Motor Position (mm): 0.000000	Red Motor Position (mm): 15.400000	
326.493990	2127.034207
326.888308	2127.034207
327.282561	2127.034207
327.676750	2095.484146
328.070874	2093.548343
328.464933	2097.709815
328.858929	2103.799529
329.252859	2113.914604
329.646726	2125.249638
330.040528	2138.565846
330.434265	2156.731644
330.827938	2173.753100
331.221547	2190.512416
331.615091	2205.051104
332.008571	2229.402398
332.401986	2249.559451
332.795338	2266.646442
333.188625	2287.050512
333.581847	2306.463996
333.975006	2323.961841
334.368100	2343.208966
334.761129	2360.311081
335.154095	2376.490664
335.546996	2393.917933
335.939833	2410.692372
336.332606	2424.943714
336.725315	2438.116249
337.117960	2445.859461
337.510540	2455.790534
337.903056	2466.666824
338.295508	2469.983903
338.687896	2481.666777
339.080220	2490.503920
339.472480	2495.474498
339.864676	2499.310816
340.256807	2504.999758
340.648875	2507.485047
341.040879	2508.856240
341.432818	2511.696931
341.824694	2515.326561
342.216506	2513.020233
342.608253	2514.247754
342.999937	2514.678773
343.391557	2516.128105
343.783113	2511.770027
344.174605	2511.941427
344.566033	2510.983607
344.957397	2507.679131
345.348697	2507.795077
345.739934	2504.581342
346.131106	2501.501197
346.522215	2501.997751
346.913260	2499.209992
347.304241	2497.669920
347.695159	2497.490959
348.086012	2495.857625
348.476802	2493.087511
348.867528	2492.843015
349.258191	2490.145998
349.648789	2487.978302
350.039324	2488.487458
350.429796	2488.578199
350.820203	2485.566110
351.210548	2484.971253
351.600828	2484.741881
351.991045	2484.535194
352.381198	2482.816160
352.771288	2484.023517
353.161314	2482.407827
353.551276	2482.705255
353.941175	2482.559061
354.331010	2482.551500
354.720782	2482.599391
355.110490	2482.223825
355.500135	2481.308855
355.889717	2483.816829
356.279235	2482.062508
356.668689	2484.366315
357.058080	2485.556027
357.447408	2479.667960
357.836672	2479.980511
358.225873	2485.936634
358.615010	2476.975983
359.004084	2484.613332
359.393095	2487.806903
359.782043	2486.571820
360.170927	2488.807572
360.559748	2488.174907
360.948505	2487.459063
361.337199	2488.356388
361.725830	2492.996770
362.114398	2490.148518
362.502903	2491.129023
362.891344	2492.646410
363.279722	2491.499548
363.668037	2493.266472
364.056289	2494.970382
364.444478	2494.526761
364.832603	2495.547594
365.220665	2497.077584
365.608665	2495.769405
365.996601	2496.641525
366.384474	2495.930722
366.772284	2500.974396
367.160031	2497.019611
367.547715	2503.018584
367.935336	2506.350787
368.322893	2506.847341
368.710388	2510.827332
369.097820	2518.671367
369.485189	2520.002232
369.872495	2527.556401
370.259738	2529.910619
370.646918	2538.909079
371.034035	2546.080120
371.421090	2555.433981
371.808081	2568.619119
372.195010	2577.985583
372.581875	2592.085690
372.968678	2603.839141
373.355418	2612.333485
373.742096	2631.668830
374.128710	2645.746252
374.515262	2660.821823
374.901751	2677.465192
375.288177	2687.295442
375.674540	2714.011037
376.060841	2728.403532
376.447079	2750.062849
376.833254	2769.476332
377.219367	2782.767335
377.605417	2818.191523
377.991404	2830.464212
378.377329	2851.964733
378.763191	2867.683051
379.148991	2905.975655
379.534727	2932.935746
379.920402	2958.905250
380.306013	2971.349338
380.691563	3019.152080
381.077049	3042.903476
381.462474	3061.560786
381.847835	3097.529419
382.233134	3119.864251
382.618371	3119.415588
383.003545	3190.866382
383.388657	3193.240766
383.773706	3226.777042
384.158693	3247.511308
384.543618	3269.634411
384.928480	3310.046821
385.313280	3353.791434
385.698017	3348.601566
386.082692	3403.885379
386.467305	3409.433169
386.851856	3440.685803
387.236344	3461.440233
387.620770	3495.732682
388.005133	3517.863347
388.389435	3546.267729
388.773674	3559.604101
389.157851	3601.806121
389.541965	3614.469499
389.926018	3579.380548
390.310008	3650.806136
390.693936	3668.349351
391.077802	3706.445351
391.461606	3697.721634
391.845348	3762.271089
392.229027	3758.391921
392.612645	3768.844753
392.996200	3849.898945
393.379694	3887.248854
393.763125	3950.532979
394.146494	3914.322371
394.529801	3972.280517
394.913047	4021.159544
395.296230	3980.905931
395.679351	4031.259496
396.062410	4046.004871
396.445408	4021.290614
396.828343	4047.799522
397.211217	4060.840987
397.594028	3967.083087
397.976778	4021.388917
398.359466	4036.366185
398.742092	4050.103329
399.124656	3963.576965
399.507158	4020.539482
399.889598	4030.384856
400.271977	4065.287285
400.654294	4019.097712
401.036549	4004.251514
401.418742	3953.774441
401.800874	4017.885315
402.182944	4012.234182
402.564952	4038.506155
402.946898	4001.917460
403.328783	3970.644662
403.710606	3871.858212
404.092367	3987.101509
404.474067	3929.944907
404.855705	3904.040938
405.237282	3818.880726
405.618797	3856.921273
406.000250	3843.698326
406.381642	3862.335472
406.762972	3802.154177
407.144240	3766.419958
407.525447	3726.511664
407.906593	3722.521591
408.287677	3708.310578
408.668700	3624.725727
409.049661	3613.650312
409.430560	3590.188782
409.811399	3510.979652
410.192176	3544.079868
410.572891	3480.682317
410.953545	3474.751400
411.334138	3389.235786
411.714669	3377.457130
412.095139	3301.817138
412.475547	3305.872746
412.855894	3259.224429
413.236180	3222.608008
413.616405	3173.993641
413.996568	3164.022238
414.376670	3109.514762
414.756711	3064.729152
415.136691	3039.639329
415.516609	3025.365302
415.896466	3003.272445
416.276262	2979.818477
416.655997	2939.516972
417.035670	2939.476643
417.415283	2931.196548
417.794834	2892.409910
418.174324	2861.432020
418.553753	2824.823161
418.933121	2822.650423
419.312428	2805.485294
419.691674	2774.968670
420.070859	2764.102462
420.449983	2737.580952
420.829045	2728.390929
421.208047	2705.534337
421.586988	2692.099662
421.965867	2675.877229
422.344686	2667.728204
422.723444	2647.770276
423.102141	2630.768984
423.480777	2630.385857
423.859352	2614.702827
424.237866	2611.514297
424.616319	2601.852926
424.994712	2598.314036
425.373044	2586.747108
425.751314	2581.781572
426.129524	2572.367217
426.507673	2569.362689
426.885762	2568.024263
427.263789	2562.499158
427.641756	2557.261400
428.019662	2553.740154
428.397508	2551.746377
428.775292	2550.642365
429.153016	2550.584391
429.530679	2547.557178
429.908282	2547.486602
430.285824	2542.939482
430.663305	2547.312682
431.040726	2538.117618
431.418086	2539.682896
431.795385	2540.996117
432.172624	2537.724408
432.549802	2540.003009
432.926920	2540.383617
433.303977	2540.060983
433.680974	2535.791125
434.057910	2537.316074
434.434786	2537.671476
434.811601	2536.469161
435.188355	2535.599562
435.565050	2535.602082
435.941683	2535.390354
436.318257	2535.259284
436.694770	2532.973120
437.071222	2531.354910
437.447614	2533.089067
437.823946	2533.920857
438.200218	2534.808100
438.576429	2537.129552
438.952580	2535.965045
439.328670	2536.937988
439.704700	2535.266845
440.080670	2535.342463
440.456580	2534.026722
440.832429	2538.410005
441.208218	2535.420601
441.583947	2538.571322
441.959616	2536.645601
442.335224	2534.654345
442.710773	2537.394212
443.086261	2534.437576
443.461689	2534.664427
443.837057	2535.410518
444.212365	2535.942360
444.587612	2536.706095
444.962800	2536.922864
445.337927	2537.553009
445.712995	2536.549819
446.088002	2541.346477
446.462949	2536.673327
446.837837	2538.364634
447.212664	2537.089222
447.587431	2537.815149
447.962139	2542.120294
448.336786	2545.376879
448.711374	2540.532331
449.085901	2538.591486
449.460369	2538.168029
449.834776	2538.838503
450.209124	2538.820859
450.583412	2543.378062
450.957640	2538.904038
451.331808	2543.186498
451.705917	2540.766744
452.079965	2540.663401
452.453954	2540.970911
452.827883	2539.929913
453.201752	2542.662218
453.575562	2541.469985
453.949311	2537.691640
454.323001	2540.391178
454.696632	2541.096940
455.070202	2542.203473
455.443713	2540.587783
455.817164	2540.123997
456.190556	2539.571991
456.563888	2539.859337
456.937160	2536.612833
457.310373	2541.815304
457.683526	2539.390509
458.056619	2540.292876
458.429653	2541.233051
458.802628	2541.636343
459.175542	2540.933102
459.548398	2544.643392
459.921194	2543.640202
460.293930	2544.144317
460.666607	2545.054246
461.039224	2546.453166
461.411782	2547.448794
461.784280	2548.540203
462.156719	2551.650595
462.529099	2550.266799
462.901419	2549.644216
463.273680	2546.019627
463.645882	2546.014585
464.018024	2546.785882
464.390106	2549.437529
464.762130	2547.998279
465.134094	2550.770914
465.505999	2553.651933
465.877845	2557.790721
466.249631	2561.642162
466.621358	2558.322563
466.993026	2560.404559
467.364634	2562.710887
467.736184	2555.534804
468.107674	2555.439022
468.479105	2555.048333
468.850477	2555.020607
469.221790	2553.979608
469.593043	2552.898281
469.964238	2555.963302
470.335373	2550.551624
470.706449	2555.587737
471.077467	2554.105637
471.448425	2561.833726
471.819324	2562.536967
472.190164	2564.989488
472.560945	2555.703683
472.931667	2555.832233
473.302330	2554.214022
473.672934	2553.601522
474.043479	2553.725030
474.413965	2553.709907
474.784393	2552.575647
475.154761	2554.370298
475.525070	2551.963147
475.895321	2553.046995
476.265513	2553.178065
476.635645	2557.503375
477.005719	2554.685370
477.375734	2555.938097
477.745691	2555.862479
478.115588	2558.783828
478.485427	2559.913047
478.855207	2560.318859
479.224928	2563.837585
479.594591	2563.693912
479.964194	2565.959911
480.333739	2567.389078
480.703226	2565.785991
481.072653	2564.928995
481.442022	2566.302709
481.811333	2563.134344
482.180584	2565.866649
482.549777	2564.071998
482.918912	2564.553429
483.287988	2561.632080
483.657005	2564.714746
484.025964	2561.382543
484.394864	2563.051165
484.763706	2560.497820
485.132489	2559.030845
485.501213	2561.251473
485.869879	2562.189127
486.238487	2560.180228
486.607036	2560.364230
486.975527	2559.676112
487.343959	2562.093346
487.712333	2563.462019
488.080648	2558.869528
488.448905	2561.634601
488.817104	2558.239383
489.185244	2560.984292
489.553326	2563.106618
489.921350	2561.843808
490.289315	2566.784139
490.657222	2569.498801
491.025070	2566.630384
491.392861	2568.160374
491.760593	2565.733059
492.128267	2564.687019
492.495883	2564.694581
492.863440	2561.715259
493.230939	2561.498489
493.598380	2562.151319
493.965763	2556.664023
494.333088	2556.666543
494.700354	2559.000598
495.067563	2558.685526
495.434713	2557.223591
495.801805	2559.754250
496.168839	2558.264589
496.535815	2560.875907
496.902733	2562.877245
497.269593	2562.375650
497.636395	2562.201730
498.003139	2560.941442
498.369825	2560.283571
498.736453	2560.205433
499.103023	2563.494786
499.469535	2559.963458
499.835989	2560.734755
500.202385	2560.475135
500.568723	2562.481514
500.935003	2559.761812
501.301226	2561.014539
501.667390	2562.088304
502.033497	2561.551422
502.399546	2559.219888
502.765537	2560.502862
503.131470	2560.502862
503.497345	2561.906823
503.863163	2561.967317
504.228923	2561.790876
504.594625	2559.461863
504.960269	2565.289437
505.325856	2559.628221
505.691385	2560.533108
506.056856	2562.030331
506.422270	2562.529405
506.787625	2562.473953
507.152924	2562.078222
507.518164	2561.649724
507.883347	2560.704508
508.248472	2560.845660
508.613540	2562.632749
508.978550	2560.543191
509.343503	2560.633932
509.708398	2562.116031
510.073236	2562.262224
510.438016	2561.127965
510.802738	2562.859601
511.167403	2561.546380
511.532010	2560.417162
511.896561	2560.777604
512.261053	2562.925136
512.625488	2559.847512
512.989866	2557.967161
513.354186	2561.783315
513.718449	2559.325752
514.082655	2565.601989
514.446803	2562.103428
514.810894	2561.647203
515.174927	2566.232133
515.538904	2559.209806
515.902822	2564.747513
516.266684	2563.509910
516.630488	2561.480845
516.994235	2564.404715
517.357925	2563.739282
517.721558	2563.509910
518.085133	2562.746175
518.448651	2561.667368
518.812112	2560.696946
519.175516	2564.581155
519.538863	2562.131154
519.902152	2561.874055
520.265385	2563.751885
520.628560	2562.307595
520.991678	2564.155177
521.354739	2565.264231
521.717743	2562.047975
522.080690	2566.000240
522.443580	2565.828841
522.806413	2564.770198
523.169189	2566.123748
523.531908	2562.776422
523.894569	2565.256670
524.257174	2562.988150
524.619722	2561.594271
524.982213	2564.858418
525.344647	2563.852708
525.707025	2561.876576
526.069345	2563.678788
526.431608	2564.324056
526.793815	2563.013356
527.155964	2564.394632
527.518057	2566.416135
527.880093	2566.065775
528.242072	2562.073181
528.603995	2565.901937
528.965860	2566.090981
529.327669	2564.586196
529.689421	2563.716597
530.051117	2563.971175
530.412755	2563.441854
530.774337	2563.033521
531.135862	2563.923284
531.497331	2560.701987
531.858743	2557.813406
532.220098	2557.800803
532.581396	2561.206102
532.942638	2560.240722
533.303824	2560.545711
533.664953	2561.758109
534.026025	2559.298026
534.387040	2565.092832
534.747999	2562.819272
535.108902	2564.283727
535.469748	2562.766340
535.830537	2564.150136
536.191270	2562.935218
536.551947	2565.816238
536.912567	2562.801628
537.273131	2562.910012
537.633638	2562.925136
537.994089	2564.109807
538.354483	2562.166442
538.714821	2564.195507
539.075103	2563.898079
539.435328	2560.263407
539.795497	2561.599312
540.155609	2561.503531
540.515665	2564.283727
540.875665	2560.303736
541.235609	2561.407749
541.595496	2562.501679
541.955328	2559.711400
542.315102	2561.163253
542.674821	2562.904971
543.034483	2564.520661
543.394090	2562.980589
543.753640	2563.149467
544.113134	2562.284909
544.472571	2560.049158
544.831953	2563.580486
545.191278	2563.769529
545.550548	2560.570917
545.909761	2563.368757
546.268918	2564.840774
546.628019	2563.880435
546.987064	2562.534447
547.346053	2563.192317
547.704986	2563.956052
548.063863	2562.907492
548.422684	2563.368757
548.781449	2563.532595
549.140158	2562.973027
549.498811	2562.204251
549.857408	2562.269786
550.215949	2561.105279
550.574434	2559.746688
550.932864	2558.884651
551.291237	2558.322562
551.649555	2562.189127
552.007817	2562.718449
552.366022	2565.949828
552.724173	2563.222564
553.082267	2564.624005
553.440305	2562.330280
553.798288	2562.484035
554.156215	2561.841288
554.514086	2563.081412
554.871902	2562.002605
555.229661	2561.042265
555.587365	2563.129303
555.945014	2561.894220
556.302606	2560.901113
556.660143	2562.337842
557.017625	2562.015208
557.375050	2562.715928
557.732421	2562.123593
558.089735	2563.424210
558.446994	2560.938921
558.804197	2562.174004
559.161345	2562.463870
559.518437	2560.994374
559.875474	2560.081925
560.232455	2562.277348
560.589381	2561.838767
560.946251	2563.356155
561.303065	2562.756257
561.659825	2558.357851
562.016528	2562.312636
562.373177	2560.245763
562.729770	2563.993861
563.086307	2560.233160
563.442789	2561.715259
563.799216	2561.831206
564.155587	2560.674261
564.511904	2559.872717
564.868164	2560.361709
565.224370	2564.651731
565.580520	2561.942111
565.936615	2563.257852
566.292654	2561.448078
566.648638	2562.715928
567.004567	2560.142419
567.360441	2561.107800
567.716260	2562.549570
568.072023	2561.990002
568.427732	2557.949517
568.783385	2559.013201
569.138982	2557.044630
569.494525	2560.223078
569.850013	2558.758622
570.205445	2561.158212
570.560823	2561.208623
570.916145	2559.814744
571.271412	2559.779456
571.626625	2563.603171
571.981782	2560.959086
572.336884	2564.402194
572.691931	2558.957748
573.046923	2561.848850
573.401860	2557.894064
573.756743	2562.179045
574.111570	2558.045299
574.466342	2560.908674
574.821059	2559.197203
575.175722	2562.158881
575.530330	2560.291133
575.884882	2561.291802
576.239380	2559.209806
576.593823	2561.992523
576.948211	2557.397511
577.302544	2560.412121
577.656823	2559.623180
578.011047	2561.319528
578.365216	2563.388922
578.719330	2561.740465
579.073389	2556.709393
579.427394	2560.306257
579.781344	2556.737120
580.135239	2559.121585
580.489080	2557.752912
580.842866	2559.698798
581.196597	2561.677450
581.550273	2561.495969
581.903895	2557.001780
582.257463	2561.188458
582.610975	2557.783159
582.964434	2558.647717
583.317837	2559.628221
583.671186	2559.537481
584.024481	2557.639486
584.377721	2558.408262
584.730906	2559.764332
585.084037	2559.991184
585.437113	2560.825495
585.790135	2560.149981
586.143103	2561.548901
586.496016	2560.109652
586.848874	2557.173179
587.201679	2555.615463
587.554428	2553.881306
587.907124	2556.306101
588.259765	2551.673281
588.612352	2557.092521
588.964884	2557.130330
589.317362	2556.648899
589.669786	2557.049671
590.022155	2557.810885
590.374470	2558.372974
590.726731	2559.708880
591.078937	2558.942624
591.431090	2557.044630
591.783188	2558.042778
592.135232	2557.805844
592.487222	2556.333827
592.839157	2556.996739
593.191038	2558.987995
593.542866	2555.867521
593.894639	2556.343910
594.246358	2557.291647
594.598022	2555.938097
594.949633	2555.078580
595.301190	2556.260731
595.652692	2556.853066
596.004141	2558.904816
596.355535	2555.118909
596.706876	2557.642007
597.058162	2555.093703
597.409395	2556.442212
597.760573	2554.574465
598.111698	2556.585885
598.462768	2558.604867
598.813785	2555.837274
599.164748	2558.751061
599.515657	2556.321224
599.866511	2554.718138
600.217312	2555.532284
600.568060	2556.916081
600.918753	2556.885834
601.269392	2555.514640
601.619978	2556.603529
601.970510	2557.636966
602.320988	2553.793086
602.671412	2557.558828
603.021783	2556.905998
603.372100	2556.991698
603.722363	2556.086811
604.072572	2555.549928
604.422728	2556.966492
604.772830	2554.045143
605.122878	2551.562375
605.472872	2553.185627
605.822813	2550.082797
606.172701	2553.137736
606.522534	2555.025648
606.872314	2556.759805
607.222041	2555.980947
607.571714	2555.597819
607.921333	2556.290978
608.270899	2554.670247
608.620411	2554.977757
608.969870	2558.090669
609.319276	2557.311811
609.668627	2559.267779
610.017926	2562.294992
610.367171	2562.310115
610.716362	2565.841443
611.065500	2565.304561
611.414585	2560.291133
611.763616	2559.706359
612.112594	2558.118396
612.461518	2559.998746
612.810389	2555.552448
613.159207	2558.904816
613.507971	2556.530432
613.856682	2559.895403
614.205340	2556.298539
614.553945	2558.710731
614.902496	2555.865000
615.250994	2556.296019
615.599439	2553.964485
615.947830	2556.837943
616.296169	2553.843497
616.644454	2557.760474
616.992686	2555.078580
617.340864	2555.612942
617.688990	2557.301729
618.037063	2556.774928
618.385082	2554.261913
618.733048	2556.883313
619.080961	2556.890875
619.428821	2557.911708
619.776628	2557.233673
620.124382	2558.350289
620.472083	2555.446584
620.819731	2558.052861
621.167326	2555.769218
621.514868	2555.958261
621.862357	2555.194527
622.209793	2555.943138
622.557176	2557.954558
622.904506	2556.618652
623.251783	2551.159083
623.599007	2552.558003
623.946179	2548.678835
624.293297	2548.938455
624.640363	2552.875596
624.987376	2553.964485
625.334336	2554.584547
625.681243	2554.032541
626.028097	2551.559855
626.374899	2553.919115
626.721647	2553.238559
627.068343	2556.500185
627.414987	2552.701676
627.761577	2555.877603
628.108115	2553.016748
628.454600	2555.544887
628.801032	2555.028168
629.147412	2553.251162
629.493739	2553.072201
629.840014	2552.857952
630.186236	2554.347613
630.532405	2554.672767
630.878521	2553.793086
631.224585	2555.212171
631.570597	2553.041954
631.916556	2553.165462
632.262462	2552.668908
632.608316	2554.309804
632.954117	2553.092365
633.299866	2550.907025
633.645562	2553.525905
633.991206	2552.694114
634.336797	2551.370811
634.682336	2552.689073
635.027823	2550.115564
635.373257	2552.691594
635.718639	2549.724875
636.063968	2551.771583
636.409245	2551.340564
636.754470	2551.340564
637.099642	2551.451470
637.444762	2551.370811
637.789829	2549.263609
638.134845	2552.731923
638.479808	2551.184289
638.824719	2550.176058
639.169577	2548.114226
639.514383	2553.362067
639.859137	2547.675646
640.203839	2549.682025
640.548489	2550.322251
640.893086	2546.732950
641.237632	2545.487785
641.582125	2547.859648
641.926566	2544.966025
642.270955	2548.015923
642.615292	2548.446942
642.959576	2550.168496
643.303809	2551.212015
643.647990	2552.439536
643.992118	2549.301418
644.336195	2546.148176
644.680219	2548.078938
645.024192	2550.980122
645.368112	2551.065822
645.711981	2548.106664
646.055797	2552.321069
646.399562	2550.017262
646.743274	2548.182282
647.086935	2549.135060
647.430544	2549.765204
647.774101	2550.682694
648.117606	2551.464073
648.461059	2551.222097
648.804460	2552.260575
649.147810	2548.371325
649.491108	2548.961140
649.834354	2552.227807
650.177548	2548.668753
650.520690	2551.292673
650.863781	2551.151521
651.206820	2551.247303
651.549807	2547.426108
651.892742	2546.869061
652.235626	2550.909546
652.578458	2549.593805
652.921238	2547.796633
653.263967	2547.912580
653.606644	2547.773948
653.949269	2549.926521
654.291843	2547.042981
654.634365	2549.099772
654.976836	2546.669935
655.319255	2548.726726
655.661622	2548.651109
656.003938	2548.696479
656.346203	2549.704710
656.688416	2545.956612
657.030577	2549.092210
657.372687	2547.257230
657.714746	2547.123639
658.056753	2546.662374
658.398708	2543.935109
658.740612	2547.660522
659.082465	2545.888557
659.424266	2545.573484
659.766016	2542.884029
660.107715	2547.693290
660.449362	2546.901828
660.790958	2548.482230
661.132503	2547.678166
661.473996	2550.070194
661.815438	2543.178936
662.156829	2546.513660
662.498168	2548.817467
662.839456	2545.197918
663.180693	2549.911397
663.521879	2547.476520
663.863013	2545.616334
664.204097	2548.583053
664.545129	2547.040460
664.886110	2546.001982
665.227040	2548.114226
665.567918	2546.831252
665.908746	2549.114895
666.249522	2547.463917
666.590248	2546.521221
666.930922	2545.681869
667.271545	2548.653629
667.612118	2549.392158
667.952639	2549.031716
668.293109	2547.080789
668.633528	2546.402754
668.973896	2546.289328
669.314213	2548.439380
669.654480	2549.412323
669.994695	2548.532642
670.334859	2547.731098
670.674973	2547.274874
671.015035	2549.341747
671.355047	2548.736808
671.695008	2546.843855
672.034918	2549.379556
672.374777	2544.822352
672.714585	2549.523228
673.054342	2546.541386
673.394049	2546.294369
673.733705	2545.177754
674.073310	2548.567930
674.412864	2548.746891
674.752368	2547.143804
675.091820	2546.369987
675.431223	2546.652291
675.770574	2549.210677
676.109875	2543.463762
676.449125	2544.688762
676.788324	2544.066179
677.127473	2545.379400
677.466571	2542.238761
677.805619	2546.349822
678.144616	2547.602549
678.483562	2546.773279
678.822458	2542.306817
679.161303	2547.121119
679.500098	2544.933258
679.838842	2545.865871
680.177535	2545.180274
680.516179	2547.521890
680.854771	2548.474668
681.193314	2544.164482
681.531805	2550.037426
681.870247	2546.652291
682.208638	2547.486602
682.546978	2547.385779
682.885268	2549.198074
683.223508	2548.212528
683.561697	2546.642209
683.899836	2545.921324
684.237925	2545.265974
684.575963	2545.737322
684.913951	2547.668084
685.251889	2546.664894
685.589776	2546.014585
685.927614	2548.320913
686.265401	2547.088351
686.603137	2547.746222
686.940824	2546.185985
687.278460	2547.284956
687.616046	2546.700182
687.953582	2545.392003
688.291068	2547.201777
688.628504	2549.908877
688.965889	2548.076417
689.303224	2548.905687
689.640510	2548.338557
689.977745	2545.989380
690.314930	2545.379400
690.652065	2547.708413
690.989150	2544.333361
691.326185	2546.498536
691.663170	2545.210521
692.000105	2545.775131
692.336990	2546.344781
692.673825	2544.388813
693.010610	2546.533824
693.347345	2542.140459
693.684030	2540.635674
694.020665	2541.621220
694.357251	2538.213400
694.693786	2540.504604
695.030272	2546.884184
695.366707	2543.546941
695.703093	2541.419574
696.039429	2545.578526
696.375716	2544.555171
696.711952	2543.821683
697.048139	2544.963505
697.384276	2542.919317
697.720363	2545.346632
698.056400	2547.839483
698.392388	2545.250851
698.728326	2543.005017
699.064214	2543.315047
699.400053	2544.688762
699.735842	2540.562578
700.071581	2545.167672
700.407270	2543.713299
700.742910	2543.302445
701.078501	2541.006199
701.414042	2542.160623
701.749533	2543.655325
702.084974	2543.831766
702.420366	2543.983000
702.755709	2544.592980
703.091002	2542.387475
703.426246	2543.403268
703.761440	2546.533824
704.096584	2540.461754
704.431679	2542.546272
704.766725	2543.743546
705.101721	2542.064841
705.436668	2543.582229
705.771565	2540.421425
706.106413	2541.258257
706.441212	2542.387475
706.775961	2541.001158
707.110661	2541.258257
707.445311	2542.155582
707.779913	2541.873278
708.114465	2544.368649
708.448967	2540.870088
708.783421	2543.388144
709.117825	2541.628782
709.452180	2541.938813
709.786485	2544.605583
710.120742	2543.725902
710.454949	2544.318237
710.789107	2542.556354
711.123216	2536.224665
711.457275	2541.643905
711.791286	2538.916641
712.125247	2541.560726
712.459159	2543.680531
712.793023	2542.962167
713.126837	2546.357384
713.460602	2543.957795
713.794318	2542.359749
714.127985	2543.262115
714.461602	2542.057280
714.795171	2546.191026
715.128691	2544.759338
715.462162	2542.773123
715.795584	2542.566436
716.128957	2543.864533
716.462281	2543.546941
716.795556	2542.097609
717.128782	2543.506611
717.461960	2543.322609
717.795088	2541.926210
718.128167	2541.757331
718.461198	2539.556867
718.794180	2542.604245
719.127113	2543.367980
719.459997	2540.542413
719.792833	2543.967877
720.125619	2543.869574
720.458357	2540.144162
720.791046	2540.544933
721.123686	2539.997968
721.456278	2541.190201
721.788821	2541.285983
722.121315	2539.884542
722.453761	2537.903369
722.786158	2539.546785
723.118506	2539.622402
723.450805	2541.414533
723.783056	2539.584594
724.115259	2542.672300
724.447412	2540.418905
724.779518	2540.315561
725.111574	2542.269008
725.443582	2542.142979
725.775542	2541.593493
726.107453	2539.735828
726.439315	2539.357742
726.771129	2546.490974
727.102895	2538.868750
727.434612	2543.062990
727.766281	2542.480737
728.097901	2539.551826
728.429473	2538.024357
728.760996	2540.618030
729.092471	2538.407484
729.423897	2541.313709
729.755276	2541.538041
730.086606	2542.314378
730.417887	2542.944523
730.749120	2542.090047
731.080305	2544.212373
731.411442	2542.052238
731.742530	2542.170706
732.073570	2542.480737
732.404562	2541.008720
732.735506	2542.747918
733.066401	2542.422763
733.397249	2543.814122
733.728048	2541.626261
734.058798	2542.095088
734.389501	2540.746580
734.720156	2544.295552
735.050762	2541.691796
735.381320	2540.885211
735.711831	2541.157434
736.042293	2538.304141
736.372707	2539.239275
736.703073	2540.113915
737.033391	2539.740869
737.363661	2538.624254
737.693883	2540.996117
738.024056	2541.868236
738.354182	2542.150541
738.684260	2541.714481
739.014290	2538.488143
739.344272	2542.725232
739.674207	2539.143493
740.004093	2541.631302
740.333931	2540.497043
740.663722	2542.135417
740.993464	2539.463606
741.323159	2540.696168
741.652806	2541.374203
741.982405	2544.308155
742.311956	2538.024357
742.641460	2541.081816
742.970915	2539.357742
743.300323	2537.918492
743.629683	2541.525438
743.958996	2539.289686
744.288260	2540.055942
744.617477	2540.928061
744.946647	2533.658717
745.275768	2538.982176
745.604842	2535.118131
745.933869	2537.487474
746.262847	2532.567307
746.591778	2540.282793
746.920662	2537.550488
747.249498	2541.298586
747.578286	2536.532175
747.907027	2537.800025
748.235720	2539.133410
748.564365	2539.584594
748.892963	2540.161806
749.221514	2541.180119
749.550017	2540.217258
749.878473	2539.662732
750.206881	2541.326312
750.535242	2539.163657
750.863555	2540.423946
751.191821	2542.815973
751.520039	2539.082999
751.848210	2541.313709
752.176334	2539.319933
752.504411	2539.960160
752.832440	2538.077289
753.160421	2539.811446
753.488356	2539.186342
753.816243	2539.766075
754.144082	2538.616692
754.471875	2535.957483
754.799620	2541.336395
755.127318	2536.675848
755.454969	2538.223482
755.782572	2538.888914
756.110129	2538.818338
756.437638	2540.630633
756.765100	2538.016795
757.092515	2540.549975
757.419882	2538.316743
757.747203	2538.644418
758.074477	2539.057793
758.401703	2536.484284
758.728882	2538.276414
759.056014	2540.744059
759.383099	2541.883360
759.710138	2539.289686
760.037129	2537.666435
760.364073	2539.337577
760.690970	2537.905889
761.017820	2539.375386
761.344623	2541.472506
761.671379	2539.529141
761.998088	2535.813811
762.324751	2537.157278
762.651366	2538.188194
762.977935	2541.933771
763.304456	2542.233720
763.630931	2546.188505
763.957359	2546.347302
764.283740	2545.598690
764.610074	2540.827238
764.936362	2541.475026
765.262602	2540.791950
765.588796	2539.614841
765.914943	2538.316743
766.241044	2539.009902
766.567097	2536.239788
766.893104	2536.607792
767.219064	2540.678524
767.544978	2539.622402
767.870845	2538.868750
768.196665	2537.535365
768.522438	2537.588297
768.848165	2539.032587
769.173846	2537.220292
769.499479	2537.212731
769.825066	2535.599562
770.150607	2538.362114
770.476101	2539.062834
770.801548	2536.375899
771.126949	2536.887576
771.452303	2534.024201
771.777611	2538.651980
772.102872	2537.880684
772.428087	2534.487987
772.753256	2537.235416
773.078378	2537.547967
773.403453	2535.249201
773.728482	2534.982020
774.053465	2537.157278
774.378401	2536.073430
774.703291	2538.467978
775.028135	2537.084181
775.352932	2539.750952
775.677683	2537.386651
776.002388	2539.070396
776.327046	2535.990251
776.651658	2537.240457
776.976224	2534.868594
777.300743	2536.620395
777.625216	2535.276928
777.949643	2537.459747
778.274024	2539.065355
778.598359	2531.836340
778.922647	2533.247863
779.246889	2533.981351
779.571086	2532.670651
779.895236	2535.660055
780.219339	2539.027546
780.543397	2536.466640
780.867409	2537.293389
781.191374	2536.408667
781.515294	2535.062679
781.839167	2536.817000
782.162995	2536.781712
782.486776	2537.558050
782.810511	2536.333049
783.134201	2538.175591
783.457844	2535.841537
783.781441	2535.498738
784.104993	2536.443955
784.428498	2535.307175
784.751958	2536.912782
785.075372	2534.465302
785.398739	2536.668286
785.722061	2535.748276
786.045337	2534.447658
786.368568	2535.990251
786.691752	2535.269366
787.014891	2536.685930
787.337983	2532.726104
787.661030	2537.333718
787.984031	2539.672814
788.306987	2537.094264
788.629897	2536.902700
788.952760	2538.657021
789.275579	2538.044521
789.598351	2535.745755
789.921078	2538.624254
790.243759	2535.954963
790.566395	2535.571835
790.888984	2536.897659
791.211529	2535.627288
791.534027	2540.761703
791.856480	2536.625436
792.178888	2535.546629
792.501249	2536.653163
792.823566	2536.098636
793.145836	2537.255581
793.468062	2535.430683
793.790241	2537.379089
794.112375	2537.419418
794.434464	2535.748276
794.756507	2535.052596
795.078505	2537.426980
795.400457	2536.196938
795.722364	2532.335414
796.044226	2534.361958
796.366042	2530.082019
796.687812	2533.636032
797.009538	2535.430683
797.331218	2538.571322
797.652852	2537.300951
797.974442	2537.371527
798.295986	2536.320447
798.617484	2535.813811
798.938938	2536.461599
799.260346	2533.714170
799.581709	2536.874973
799.903026	2536.963194
800.224299	2533.557894
800.545526	2534.356917
800.866708	2534.999664
801.187845	2535.491177
801.508936	2535.130734
801.829983	2536.665766
802.150984	2537.240457
802.471940	2535.891948
802.792851	2534.122503
803.113717	2536.592669
803.434538	2536.632998
803.755314	2536.970755
804.076045	2535.473533
804.396731	2535.483615
804.717372	2533.320960
805.037967	2533.290713
805.358518	2537.240457
805.679024	2537.056455
805.999485	2535.108049
806.319901	2535.846578
806.640272	2536.161650
806.960598	2535.450848
807.280879	2534.959335
807.601115	2535.360107
807.921306	2536.494366
808.241453	2537.356404
808.561554	2535.662576
808.881611	2534.916485
809.201623	2533.512524
809.521590	2536.244829
809.841513	2536.640560
810.161390	2536.091074
810.481223	2534.001516
810.801011	2534.324150
811.120755	2534.273738
811.440453	2533.487318
811.760107	2535.317257
812.079716	2533.890610
812.399281	2532.249715
812.718801	2532.539581
813.038276	2530.127389
813.357707	2535.365148
813.677093	2533.046217
813.996434	2536.305323
814.315731	2535.987730
814.634983	2537.101825
814.954191	2536.199459
815.273354	2535.778522
815.592473	2533.371372
815.911547	2536.184335
816.230577	2534.850950
816.549562	2538.047042
816.868502	2535.760878
817.187399	2536.847247
817.506250	2535.528985
817.825058	2535.395395
818.143821	2535.329860
818.462539	2538.508307
818.781213	2536.839685
819.099843	2537.308513
819.418429	2535.914634
819.736970	2539.657690
820.055466	2537.850437
820.373919	2536.960673
820.692327	2541.958977
821.010691	2540.552495
821.329011	2550.352498
821.647286	2557.268961
821.965517	2569.123235
822.283704	2575.865778
822.601847	2579.286201
822.919945	2571.623647
823.237999	2566.048131
823.556010	2560.772563
823.873976	2553.833415
824.191897	2549.971891
824.509775	2546.501057
824.827609	2546.475851
825.145398	2542.228679
825.463144	2542.904193
825.780845	2544.897970
826.098502	2542.392516
826.416116	2549.112374
826.733685	2548.570450
827.051210	2551.532128
827.368692	2552.368960
827.686129	2545.512991
828.003522	2546.337219
828.320872	2537.104346
828.638177	2535.307175
828.955439	2534.437576
829.272656	2534.172915
829.589830	2531.659900
829.906960	2535.508821
830.224046	2535.823893
830.541088	2539.720705
830.858086	2533.260466
831.175041	2534.868594
831.491952	2534.455220
831.808819	2535.874304
832.125642	2531.697708
832.442421	2537.704243
832.759157	2539.203987
833.075849	2543.456200
833.392497	2541.157434
833.709101	2541.560726
834.025662	2543.357897
834.342179	2542.949564
834.658653	2542.211035
834.975083	2540.532331
835.291469	2544.870243
835.607811	2537.794984
835.924110	2536.746424
836.240366	2536.086033
836.556578	2532.678213
836.872746	2534.160312
837.188871	2534.412370
837.504952	2533.260466
837.820990	2533.094108
838.136984	2532.663089
838.452935	2535.914634
838.768842	2536.448996
839.084706	2536.033101
839.400526	2531.796011
839.716303	2535.390354
840.032037	2536.872453
840.347727	2536.315405
840.663373	2536.605272
840.978977	2533.036135
841.294537	2536.282638
841.610054	2534.702236
841.925527	2533.580579
842.240957	2534.677030
842.556344	2535.770961
842.871687	2532.736186
843.186987	2535.234078
843.502244	2532.600075
843.817458	2530.855836
844.132629	2530.891124
844.447756	2534.130065
844.762840	2528.211751
845.077881	2530.724766
845.392879	2529.572862
845.707833	2532.526978
846.022745	2525.701256
846.337613	2529.237625
846.652438	2532.761392
846.967221	2531.281813
847.281960	2534.034283
847.596656	2532.917668
847.911309	2533.320960
848.225919	2532.506814
848.540485	2532.370703
848.855009	2532.297606
849.169490	2533.943543
849.483928	2534.414890
849.798323	2534.155271
850.112675	2529.966072
850.426984	2531.375075
850.741251	2533.497400
851.055474	2531.987575
851.369654	2532.416073
851.683792	2533.358769
851.997887	2533.608306
852.311938	2532.221988
852.625947	2530.891124
852.939914	2533.056299
853.253837	2533.056299
853.567718	2532.622760
853.881555	2532.529499
854.195350	2533.409180
854.509103	2532.136289
854.822812	2532.733666
855.136479	2533.366330
855.450103	2534.351876
855.763685	2533.653676
856.077224	2533.477236
856.390720	2531.922040
856.704173	2533.071423
857.017584	2532.479087
857.330953	2530.991947
857.644278	2534.215765
857.957561	2533.467153
858.270802	2535.062679
858.584000	2531.075126
858.897155	2531.312060
859.210268	2531.251566
859.523339	2533.777184
859.836367	2532.526978
860.149352	2533.792308
860.462295	2529.769467
860.775195	2527.803417
861.088054	2526.591020
861.400869	2529.310722
861.713642	2527.445495
862.026373	2532.133768
862.339062	2531.140661
862.651708	2531.080167
862.964312	2530.487832
863.276873	2533.537730
863.589392	2532.915147
863.901869	2531.460774
864.214303	2530.782739
864.526696	2532.342976
864.839045	2531.702750
865.151353	2531.100332
865.463619	2533.895652
865.775842	2532.859694
866.088023	2531.007070
866.400162	2531.949766
866.712258	2530.870959
867.024313	2534.228368
867.336325	2531.576721
867.648296	2535.907072
867.960224	2532.829447
868.272110	2530.124868
868.583954	2533.678882
868.895755	2532.854653
869.207515	2531.753161
869.519233	2531.370033
869.830909	2530.818027
870.142542	2536.247350
870.454134	2532.040507
870.765684	2534.243491
871.077191	2530.258459
871.388657	2534.765251
871.700081	2532.262318
872.011463	2534.934129
872.322803	2529.504807
872.634101	2533.963707
872.945357	2532.093439
873.256571	2534.606454
873.567744	2530.802904
873.878874	2534.596372
874.189963	2534.535878
874.501010	2532.489170
874.812015	2532.935312
875.122979	2534.248532
875.433900	2531.990095
875.744780	2533.789787
876.055618	2532.751310
876.366415	2530.669313
876.677169	2533.971269
876.987882	2531.256607
877.298554	2531.359951
877.609183	2531.231402
877.919771	2529.267872
878.230317	2530.344159
878.540822	2536.834644
878.851285	2533.716691
879.161707	2532.426155
879.472087	2535.314736
879.782425	2535.450848
880.092722	2537.449665
880.402977	2543.100798
880.713191	2545.830583
881.023363	2551.650595
881.333494	2556.210319
881.643583	2560.631411
881.953631	2561.395146
882.263637	2556.273333
882.573602	2555.333158
882.883526	2549.734957
883.193408	2548.968702
883.503248	2545.661705
883.813048	2543.773793
884.122806	2543.146169
884.432522	2541.676673
884.742197	2538.440252
885.051831	2542.881508
885.361424	2534.629139
885.670975	2536.186856
885.980485	2534.182997
886.289954	2534.770292
886.599382	2535.523944
886.908768	2535.808769
887.218113	2531.675023
887.527417	2535.397915
887.836680	2532.332894
888.145901	2532.431196
888.455082	2530.966741
888.764221	2532.146371
889.073319	2536.131403
889.382376	2531.768285
889.691392	2532.741227
890.000366	2533.734335
890.309300	2532.416073
890.618193	2533.787267
890.927044	2534.722401
891.235855	2532.889941
891.544625	2534.712318
891.853353	2531.937163
892.162041	2533.441948
892.470687	2536.128883
892.779293	2534.119983
893.087858	2531.375075
893.396381	2529.850126
893.704864	2532.940353
894.013306	2531.395239
894.321707	2538.488143
894.630068	2540.678524
894.938387	2539.602238
895.246665	2538.906558
895.554903	2538.437731
895.863100	2539.067875
896.171256	2538.099974
896.479371	2536.315405
896.787446	2537.800025
897.095480	2531.977493
897.403473	2533.807431
897.711425	2535.443286
898.019336	2536.189377
898.327207	2534.377082
898.635038	2533.222657
898.942827	2534.140147
899.250576	2535.307175
899.558284	2533.557894
899.865952	2531.440610
900.173579	2532.743748
900.481165	2533.366330
900.788711	2531.097811
901.096216	2531.730476
901.403681	2532.821886
901.711105	2529.958510
902.018489	2533.683923
902.325832	2533.691485
902.633135	2532.589993
902.940397	2533.199972
903.247619	2536.184335
903.554800	2534.014119
903.861941	2537.376568
904.169041	2540.975952
904.476101	2542.362269
904.783121	2547.232024
905.090100	2541.911086
905.397039	2539.539223
905.703938	2538.168029
906.010796	2537.371527
906.317614	2535.269366
906.624391	2535.642411
906.931129	2535.017308
907.237826	2532.227030
907.544483	2533.890610
907.851099	2530.855836
908.157675	2532.479087
908.464211	2531.208717
908.770707	2525.509692
909.077163	2530.732328
909.383578	2527.770650
909.689954	2528.778880
909.996289	2528.937677
910.302584	2529.744261
910.608839	2530.757533
910.915054	2531.700229
911.221229	2529.212420
911.527363	2531.778367
911.833458	2531.997657
912.139513	2530.230733
912.445527	2531.516227
912.751502	2531.629653
913.057436	2531.354910
913.363331	2531.627132
913.669186	2530.039169
913.975000	2532.557225
914.280775	2534.054448
914.586510	2536.030580
914.892205	2535.211393
915.197859	2539.864378
915.503475	2537.154758
915.809050	2541.626261
916.114585	2541.593493
916.420081	2544.580377
916.725536	2543.892260
917.030952	2542.901673
917.336328	2541.656508
917.641665	2539.582073
917.946961	2536.746424
918.252218	2535.269366
918.557435	2534.102339
918.862612	2534.510672
919.167750	2533.769623
919.472848	2534.767771
919.777906	2533.210055
920.082925	2536.118800
920.387904	2531.775846
920.692843	2533.136958
920.997743	2531.211237
921.302603	2530.717204
921.607423	2530.777698
921.912204	2531.952287
922.216946	2531.647297
922.521647	2533.091588
922.826310	2532.101001
923.130932	2531.627132
923.435516	2533.147040
923.740059	2532.552184
924.044564	2530.437420
924.349028	2531.672503
924.653454	2526.530526
924.957840	2529.151926
925.262186	2527.437933
925.566493	2531.065044
925.870761	2523.568848
926.174989	2530.770136
926.479178	2531.470857
926.783328	2531.223840
927.087438	2531.528830
927.391509	2528.347862
927.695541	2530.187883
927.999533	2530.966741
928.303486	2530.276103
928.607400	2529.182173
928.911275	2529.330887
929.215110	2533.013450
929.518906	2530.560928
929.822663	2529.323325
930.126381	2530.291227
930.430060	2531.669982
930.733699	2529.877852
931.037299	2532.058151
931.340861	2530.303829
931.644383	2531.370033
931.947866	2529.802235
932.251309	2527.561442
932.554714	2532.083357
932.858080	2534.072092
933.161407	2528.065557
933.464694	2528.700742
933.767943	2531.715353
934.071153	2528.741072
934.374323	2527.425331
934.677455	2531.785929
934.980548	2528.957841
935.283602	2528.897348
935.586617	2530.298788
935.889593	2528.057995
936.192530	2528.902389
936.495428	2528.730989
936.798287	2532.569828
937.101108	2530.351720
937.403890	2527.851308
937.706632	2531.186031
938.009336	2529.761905
938.312002	2531.319622
938.614628	2528.902389
938.917216	2530.029087
939.219765	2530.560928
939.522275	2531.864067
939.824747	2531.864067
940.127179	2526.979188
940.429573	2527.596730
940.731929	2529.313243
941.034246	2526.666637
941.336524	2526.883407
941.638763	2526.959024
941.940964	2531.838861
942.243126	2530.941535
942.545250	2529.940866
942.847335	2525.799558
943.149381	2529.998840
943.451389	2529.167049
943.753359	2529.673685
944.055290	2530.298788
944.357182	2530.162677
944.659036	2527.846267
944.960851	2530.558408
945.262628	2528.814168
945.564367	2529.519930
945.866067	2528.584796
946.167729	2528.892306
946.469352	2530.190403
946.770937	2529.184693
947.072484	2528.544467
947.373992	2530.749972
947.675462	2527.473222
947.976893	2529.955990
948.278286	2529.192255
948.579641	2529.313243
948.880958	2529.262831
949.182236	2531.846422
949.483476	2528.794004
949.784678	2531.627132
950.085841	2527.379960
950.386967	2532.562266
950.688054	2528.988088
950.989103	2530.752492
951.290114	2528.680578
951.591087	2528.589837
951.892021	2530.197965
952.192917	2533.215096
952.493776	2530.908768
952.794596	2528.499096
953.095378	2529.625794
953.396122	2533.265507
953.696828	2527.851308
953.997496	2528.980527
954.298126	2527.470701
954.598718	2530.291227
954.899272	2526.591020
955.199788	2530.876000
955.500266	2528.710825
955.800706	2528.655372
956.101108	2525.431554
956.401472	2526.883407
956.701798	2526.722090
957.002087	2525.771832
957.302337	2529.557739
957.602550	2530.306350
957.902724	2527.710156
958.202861	2529.388860
958.502960	2528.909950
958.803022	2531.145702
959.103045	2527.095135
959.403031	2527.508510
959.702979	2529.051103
960.002889	2529.683767
960.302762	2529.461957
960.602596	2530.392050
960.902393	2525.207223
961.202153	2527.044723
961.501875	2530.613860
961.801559	2527.848787
962.101205	2526.033972
962.400814	2530.374406
962.700385	2530.881042
962.999918	2529.945907
963.299414	2528.751154
963.598873	2529.487163
963.898293	2528.035310
964.197677	2528.536905
964.497022	2525.973478
964.796331	2527.556401
965.095601	2528.834333
965.394835	2527.258973
965.694030	2525.744106
965.993189	2530.276103
966.292309	2526.316277
966.591393	2526.936339
966.890439	2527.949611
967.189447	2527.135464
967.488419	2528.350382
967.787353	2524.713190
968.086249	2526.969106
968.385108	2528.113448
968.683930	2527.707635
968.982714	2528.746113
969.281462	2530.399611
969.580172	2527.780732
969.878844	2527.276617
970.177480	2526.775022
970.476078	2526.817872
970.774639	2530.883562
971.073162	2529.590506
971.371649	2526.858201
971.670098	2525.416431
971.968510	2526.369209
972.266885	2524.249404
972.565223	2529.454395
972.863524	2529.817358
973.161788	2527.178314
973.460014	2527.616894
973.758204	2530.354241
974.056356	2524.929959
974.354471	2526.535567
974.652550	2525.683612
974.950591	2530.008922
975.248595	2529.126720
975.546563	2528.761236
975.844493	2527.586648
976.142386	2528.020187
976.440243	2527.299302
976.738062	2528.320135
977.035845	2528.441123
977.333590	2528.841895
977.631299	2526.044054
977.928971	2531.017153
978.226606	2524.244363
978.524204	2529.353572
978.821765	2525.076153
979.119290	2528.602440
979.416777	2526.686802
979.714228	2529.081350
980.011642	2525.570186
980.309020	2531.100332
980.606360	2525.880217
980.903664	2528.967924
981.200931	2526.830474
981.498162	2527.405166
981.795356	2526.621267
982.092513	2529.250228
982.389633	2528.171421
982.686717	2527.475742
982.983764	2528.299971
983.280775	2530.026566
983.577749	2527.269055
983.874686	2527.190917
984.171587	2527.722759
984.468451	2525.507172
984.765279	2526.626308
985.062070	2527.924405
985.358824	2523.604136
985.655543	2528.393232
985.952224	2526.374250
986.248869	2526.633869
986.545478	2524.652696
986.842050	2525.701256
987.138586	2525.355937
987.435086	2526.102028
987.731549	2520.561800
988.027975	2527.919364
988.324366	2527.284178
988.620719	2528.723428
988.917037	2526.303674
989.213318	2527.505989
989.509563	2526.583458
989.805772	2526.459950
990.101944	2529.131761
990.398080	2526.631349
990.694180	2525.194620
990.990244	2525.600433
991.286271	2527.337110
991.582262	2527.478263
991.878217	2526.911133
992.174136	2527.642100
992.470019	2528.620084
992.765865	2526.051616
993.061676	2526.217974
993.357450	2525.696215
993.653188	2527.092614
993.948890	2526.815351
994.244556	2525.252593
994.540186	2529.209899
994.835780	2526.175124
995.131337	2527.674868
995.426859	2527.732841
995.722345	2527.790814
996.017795	2526.018849
996.313208	2529.454395
996.608586	2526.200330
996.903928	2528.620084
997.199234	2528.652852
997.494504	2528.257121
997.789738	2524.710669
998.084936	2527.997502
998.380099	2526.298633
998.675225	2527.853829
998.970316	2526.956503
999.265371	2531.775846
999.560390	2525.978519
999.855373	2526.444826
1000.150320	2525.882738
1000.445232	2525.691174
1000.740108	2527.649662
1001.034948	2528.819210
1001.329752	2525.103879
1001.624521	2527.339631
1001.919254	2525.532377
1002.213951	2523.926770
1002.508613	2521.517098
1002.803239	2526.492717
1003.097829	2525.429034
1003.392384	2524.211595
1003.686903	2525.366019
1003.981386	2528.022707
1004.275834	2527.137985
1004.570246	2526.565814
1004.864623	2524.420803
1005.158964	2526.129754
1005.453270	2526.457429
1005.747540	2527.546318
1006.041775	2527.664785
1006.335974	2528.821730
1006.630138	2526.656555
1006.924266	2527.967255
1007.218359	2528.829292
1007.512416	2528.201668
1007.806438	2527.178314
1008.100425	2523.674712
1008.394376	2526.928777
1008.688292	2527.213602
1008.982172	2527.805938
1009.276017	2526.568334
1009.569827	2526.293592
1009.863602	2527.944569
1010.157341	2527.727800
1010.451045	2526.507841
1010.744714	2527.178314
1011.038347	2528.557070
1011.331945	2526.769981
1011.625508	2527.689991
1011.919036	2529.784591
1012.212528	2524.806451
1012.505986	2526.709487
1012.799408	2527.861390
1013.092795	2527.228726
1013.386147	2524.756040
1013.679464	2523.649506
1013.972745	2523.246214
1014.265992	2526.371729
1014.559204	2528.947759
1014.852380	2527.929446
1015.145521	2530.129910
1015.438628	2526.618746
1015.731699	2528.241997
1016.024736	2528.282327
1016.317737	2527.016997
1016.610703	2527.574045
1016.903635	2523.866276
1017.196531	2524.957686
1017.489393	2525.086235
1017.782219	2522.830319
1018.075011	2525.595392
1018.367768	2525.912984
1018.660490	2523.704959
1018.953177	2523.704959
1019.245829	2523.704959
