Dividing Wavelength (nm)	Counts (n)	Blue Motor Position (mm): 0.000000	Red Motor Position (mm): 1.700000	
326.493990	2094.599423
326.888308	2094.599423
327.282561	2094.599423
327.676750	2006.379231
328.070874	2081.996538
328.464933	2160.134423
328.858929	2119.805192
329.252859	2071.914231
329.646726	2071.914231
330.040528	2185.340192
330.434265	2157.613846
330.827938	2102.161154
331.221547	2205.504808
331.615091	2129.887500
332.008571	2190.381346
332.401986	2157.613846
332.795338	2250.875192
333.188625	2265.998654
333.581847	2288.683846
333.975006	2233.231154
334.368100	2238.272308
334.761129	2404.630385
335.154095	2286.163269
335.546996	2339.095385
335.939833	2316.410192
336.332606	2339.095385
336.725315	2376.904038
337.117960	2447.480192
337.510540	2404.630385
337.903056	2346.657115
338.295508	2399.589231
338.687896	2432.356731
339.080220	2482.768269
339.472480	2437.397885
339.864676	2528.138654
340.256807	2404.630385
340.648875	2500.412308
341.040879	2480.247692
341.432818	2477.727115
341.824694	2452.521346
342.216506	2497.891731
342.608253	2530.659231
342.999937	2429.836154
343.391557	2523.097500
343.783113	2495.371154
344.174605	2487.809423
344.566033	2465.124231
344.957397	2450.000769
345.348697	2530.659231
345.739934	2457.562500
346.131106	2472.685962
346.522215	2548.303269
346.913260	2429.836154
347.304241	2510.494615
347.695159	2422.274423
348.086012	2389.506923
348.476802	2502.932885
348.867528	2429.836154
349.258191	2560.906154
349.648789	2439.918462
350.039324	2404.630385
350.429796	2424.795000
350.820203	2439.918462
351.210548	2460.083077
351.600828	2364.301154
351.991045	2502.932885
352.381198	2452.521346
352.771288	2500.412308
353.161314	2480.247692
353.551276	2462.603654
353.941175	2399.589231
354.331010	2495.371154
354.720782	2414.712692
355.110490	2570.988462
355.500135	2450.000769
355.889717	2515.535769
356.279235	2422.274423
356.668689	2437.397885
357.058080	2465.124231
357.447408	2525.618077
357.836672	2497.891731
358.225873	2455.041923
358.615010	2402.109808
359.004084	2432.356731
359.393095	2427.315577
359.782043	2392.027500
360.170927	2518.056346
360.559748	2505.453462
360.948505	2404.630385
361.337199	2543.262115
361.725830	2424.795000
362.114398	2457.562500
362.502903	2417.233269
362.891344	2462.603654
363.279722	2470.165385
363.668037	2346.657115
364.056289	2462.603654
364.444478	2417.233269
364.832603	2545.782692
365.220665	2439.918462
365.608665	2518.056346
365.996601	2439.918462
366.384474	2528.138654
366.772284	2457.562500
367.160031	2429.836154
367.547715	2513.015192
367.935336	2414.712692
368.322893	2477.727115
368.710388	2482.768269
369.097820	2384.465769
369.485189	2480.247692
369.872495	2462.603654
370.259738	2376.904038
370.646918	2485.288846
371.034035	2482.768269
371.421090	2480.247692
371.808081	2409.671538
372.195010	2518.056346
372.581875	2427.315577
372.968678	2389.506923
373.355418	2475.206538
373.742096	2394.548077
374.128710	2407.150962
374.515262	2492.850577
374.901751	2389.506923
375.288177	2477.727115
375.674540	2507.974038
376.060841	2533.179808
376.447079	2495.371154
376.833254	2520.576923
377.219367	2477.727115
377.605417	2457.562500
377.991404	2460.083077
378.377329	2467.644808
378.763191	2485.288846
379.148991	2462.603654
379.534727	2538.220962
379.920402	2450.000769
380.306013	2472.685962
380.691563	2392.027500
381.077049	2490.330000
381.462474	2447.480192
381.847835	2525.618077
382.233134	2455.041923
382.618371	2470.165385
383.003545	2450.000769
383.388657	2402.109808
383.773706	2447.480192
384.158693	2462.603654
384.543618	2485.288846
384.928480	2444.959615
385.313280	2470.165385
385.698017	2442.439038
386.082692	2404.630385
386.467305	2487.809423
386.851856	2477.727115
387.236344	2465.124231
387.620770	2485.288846
388.005133	2386.986346
388.389435	2452.521346
388.773674	2497.891731
389.157851	2462.603654
389.541965	2437.397885
389.926018	2392.027500
390.310008	2470.165385
390.693936	2422.274423
391.077802	2460.083077
391.461606	2452.521346
391.845348	2470.165385
392.229027	2409.671538
392.612645	2465.124231
392.996200	2450.000769
393.379694	2515.535769
393.763125	2455.041923
394.146494	2540.741538
394.529801	2497.891731
394.913047	2500.412308
395.296230	2513.015192
395.679351	2507.974038
396.062410	2495.371154
396.445408	2407.150962
396.828343	2450.000769
397.211217	2525.618077
397.594028	2402.109808
397.976778	2452.521346
398.359466	2402.109808
398.742092	2354.218846
399.124656	2523.097500
399.507158	2505.453462
399.889598	2434.877308
400.271977	2495.371154
400.654294	2467.644808
401.036549	2550.823846
401.418742	2447.480192
401.800874	2523.097500
402.182944	2467.644808
402.564952	2427.315577
402.946898	2434.877308
403.328783	2432.356731
403.710606	2535.700385
404.092367	2528.138654
404.474067	2432.356731
404.855705	2523.097500
405.237282	2490.330000
405.618797	2487.809423
406.000250	2422.274423
406.381642	2465.124231
406.762972	2419.753846
407.144240	2550.823846
407.525447	2487.809423
407.906593	2500.412308
408.287677	2427.315577
408.668700	2470.165385
409.049661	2525.618077
409.430560	2523.097500
409.811399	2495.371154
410.192176	2492.850577
410.572891	2470.165385
410.953545	2477.727115
411.334138	2480.247692
411.714669	2462.603654
412.095139	2495.371154
412.475547	2434.877308
412.855894	2487.809423
413.236180	2560.906154
413.616405	2520.576923
413.996568	2563.426731
414.376670	2477.727115
414.756711	2472.685962
415.136691	2480.247692
415.516609	2495.371154
415.896466	2515.535769
416.276262	2497.891731
416.655997	2510.494615
417.035670	2490.330000
417.415283	2583.591346
417.794834	2442.439038
418.174324	2392.027500
418.553753	2399.589231
418.933121	2515.535769
419.312428	2394.548077
419.691674	2384.465769
420.070859	2475.206538
420.449983	2424.795000
420.829045	2472.685962
421.208047	2502.932885
421.586988	2543.262115
421.965867	2492.850577
422.344686	2502.932885
422.723444	2460.083077
423.102141	2495.371154
423.480777	2505.453462
423.859352	2485.288846
424.237866	2500.412308
424.616319	2500.412308
424.994712	2412.192115
425.373044	2502.932885
425.751314	2472.685962
426.129524	2535.700385
426.507673	2424.795000
426.885762	2414.712692
427.263789	2460.083077
427.641756	2460.083077
428.019662	2513.015192
428.397508	2497.891731
428.775292	2497.891731
429.153016	2409.671538
429.530679	2550.823846
429.908282	2460.083077
430.285824	2437.397885
430.663305	2447.480192
431.040726	2545.782692
431.418086	2450.000769
431.795385	2450.000769
432.172624	2452.521346
432.549802	2523.097500
432.926920	2452.521346
433.303977	2560.906154
433.680974	2485.288846
434.057910	2465.124231
434.434786	2460.083077
434.811601	2490.330000
435.188355	2560.906154
435.565050	2492.850577
435.941683	2462.603654
436.318257	2419.753846
436.694770	2540.741538
437.071222	2520.576923
437.447614	2434.877308
437.823946	2530.659231
438.200218	2480.247692
438.576429	2409.671538
438.952580	2389.506923
439.328670	2482.768269
439.704700	2470.165385
440.080670	2460.083077
440.456580	2490.330000
440.832429	2485.288846
441.208218	2414.712692
441.583947	2404.630385
441.959616	2510.494615
442.335224	2500.412308
442.710773	2457.562500
443.086261	2533.179808
443.461689	2482.768269
443.837057	2404.630385
444.212365	2505.453462
444.587612	2477.727115
444.962800	2455.041923
445.337927	2505.453462
445.712995	2412.192115
446.088002	2477.727115
446.462949	2467.644808
446.837837	2432.356731
447.212664	2507.974038
447.587431	2444.959615
447.962139	2558.385577
448.336786	2437.397885
448.711374	2545.782692
449.085901	2462.603654
449.460369	2452.521346
449.834776	2492.850577
450.209124	2603.755962
450.583412	2442.439038
450.957640	2485.288846
451.331808	2555.865000
451.705917	2434.877308
452.079965	2515.535769
452.453954	2490.330000
452.827883	2513.015192
453.201752	2497.891731
453.575562	2538.220962
453.949311	2543.262115
454.323001	2444.959615
454.696632	2455.041923
455.070202	2437.397885
455.443713	2588.632500
455.817164	2565.947308
456.190556	2432.356731
456.563888	2437.397885
456.937160	2477.727115
457.310373	2513.015192
457.683526	2523.097500
458.056619	2510.494615
458.429653	2467.644808
458.802628	2518.056346
459.175542	2399.589231
459.548398	2429.836154
459.921194	2450.000769
460.293930	2447.480192
460.666607	2492.850577
461.039224	2470.165385
461.411782	2535.700385
461.784280	2510.494615
462.156719	2507.974038
462.529099	2515.535769
462.901419	2525.618077
463.273680	2402.109808
463.645882	2475.206538
464.018024	2457.562500
464.390106	2492.850577
464.762130	2538.220962
465.134094	2455.041923
465.505999	2507.974038
465.877845	2573.509038
466.249631	2439.918462
466.621358	2513.015192
466.993026	2563.426731
467.364634	2568.467885
467.736184	2560.906154
468.107674	2520.576923
468.479105	2500.412308
468.850477	2465.124231
469.221790	2507.974038
469.593043	2455.041923
469.964238	2505.453462
470.335373	2429.836154
470.706449	2457.562500
471.077467	2452.521346
471.448425	2472.685962
471.819324	2407.150962
472.190164	2485.288846
472.560945	2447.480192
472.931667	2475.206538
473.302330	2505.453462
473.672934	2523.097500
474.043479	2392.027500
474.413965	2523.097500
474.784393	2442.439038
475.154761	2538.220962
475.525070	2490.330000
475.895321	2495.371154
476.265513	2424.795000
476.635645	2560.906154
477.005719	2533.179808
477.375734	2530.659231
477.745691	2442.439038
478.115588	2578.550192
478.485427	2550.823846
478.855207	2485.288846
479.224928	2530.659231
479.594591	2545.782692
479.964194	2558.385577
480.333739	2510.494615
480.703226	2412.192115
481.072653	2475.206538
481.442022	2487.809423
481.811333	2523.097500
482.180584	2540.741538
482.549777	2480.247692
482.918912	2518.056346
483.287988	2462.603654
483.657005	2485.288846
484.025964	2480.247692
484.394864	2505.453462
484.763706	2437.397885
485.132489	2540.741538
485.501213	2563.426731
485.869879	2485.288846
486.238487	2513.015192
486.607036	2437.397885
486.975527	2611.317692
487.343959	2490.330000
487.712333	2502.932885
488.080648	2525.618077
488.448905	2497.891731
488.817104	2550.823846
489.185244	2444.959615
489.553326	2570.988462
489.921350	2417.233269
490.289315	2462.603654
490.657222	2520.576923
491.025070	2513.015192
491.392861	2525.618077
491.760593	2553.344423
492.128267	2581.070769
492.495883	2550.823846
492.863440	2475.206538
493.230939	2427.315577
493.598380	2510.494615
493.965763	2424.795000
494.333088	2505.453462
494.700354	2533.179808
495.067563	2513.015192
495.434713	2515.535769
495.801805	2482.768269
496.168839	2442.439038
496.535815	2520.576923
496.902733	2505.453462
497.269593	2437.397885
497.636395	2530.659231
498.003139	2570.988462
498.369825	2550.823846
498.736453	2477.727115
499.103023	2553.344423
499.469535	2490.330000
499.835989	2465.124231
500.202385	2485.288846
500.568723	2533.179808
500.935003	2470.165385
501.301226	2520.576923
501.667390	2467.644808
502.033497	2528.138654
502.399546	2434.877308
502.765537	2555.865000
503.131470	2460.083077
503.497345	2366.821731
503.863163	2497.891731
504.228923	2497.891731
504.594625	2543.262115
504.960269	2490.330000
505.325856	2593.673654
505.691385	2477.727115
506.056856	2472.685962
506.422270	2550.823846
506.787625	2450.000769
507.152924	2515.535769
507.518164	2528.138654
507.883347	2555.865000
508.248472	2460.083077
508.613540	2384.465769
508.978550	2492.850577
509.343503	2513.015192
509.708398	2482.768269
510.073236	2520.576923
510.438016	2543.262115
510.802738	2565.947308
511.167403	2470.165385
511.532010	2545.782692
511.896561	2444.959615
512.261053	2429.836154
512.625488	2523.097500
512.989866	2470.165385
513.354186	2492.850577
513.718449	2412.192115
514.082655	2495.371154
514.446803	2475.206538
514.810894	2550.823846
515.174927	2540.741538
515.538904	2540.741538
515.902822	2513.015192
516.266684	2533.179808
516.630488	2485.288846
516.994235	2470.165385
517.357925	2576.029615
517.721558	2520.576923
518.085133	2565.947308
518.448651	2437.397885
518.812112	2520.576923
519.175516	2507.974038
519.538863	2399.589231
519.902152	2538.220962
520.265385	2538.220962
520.628560	2530.659231
520.991678	2472.685962
521.354739	2495.371154
521.717743	2457.562500
522.080690	2563.426731
522.443580	2490.330000
522.806413	2505.453462
523.169189	2533.179808
523.531908	2543.262115
523.894569	2434.877308
524.257174	2576.029615
524.619722	2513.015192
524.982213	2565.947308
525.344647	2470.165385
525.707025	2603.755962
526.069345	2513.015192
526.431608	2545.782692
526.793815	2477.727115
527.155964	2555.865000
527.518057	2480.247692
527.880093	2530.659231
528.242072	2518.056346
528.603995	2578.550192
528.965860	2543.262115
529.327669	2505.453462
529.689421	2621.400000
530.051117	2477.727115
530.412755	2523.097500
530.774337	2505.453462
531.135862	2548.303269
531.497331	2525.618077
531.858743	2497.891731
532.220098	2460.083077
532.581396	2497.891731
532.942638	2528.138654
533.303824	2593.673654
533.664953	2487.809423
534.026025	2490.330000
534.387040	2492.850577
534.747999	2482.768269
535.108902	2530.659231
535.469748	2513.015192
535.830537	2419.753846
536.191270	2596.194231
536.551947	2510.494615
536.912567	2545.782692
537.273131	2465.124231
537.633638	2510.494615
537.994089	2452.521346
538.354483	2460.083077
538.714821	2502.932885
539.075103	2487.809423
539.435328	2490.330000
539.795497	2576.029615
540.155609	2530.659231
540.515665	2485.288846
540.875665	2538.220962
541.235609	2535.700385
541.595496	2487.809423
541.955328	2530.659231
542.315102	2497.891731
542.674821	2462.603654
543.034483	2447.480192
543.394090	2558.385577
543.753640	2515.535769
544.113134	2543.262115
544.472571	2555.865000
544.831953	2472.685962
545.191278	2507.974038
545.550548	2487.809423
545.909761	2601.235385
546.268918	2452.521346
546.628019	2465.124231
546.987064	2553.344423
547.346053	2467.644808
547.704986	2399.589231
548.063863	2450.000769
548.422684	2482.768269
548.781449	2455.041923
549.140158	2452.521346
549.498811	2535.700385
549.857408	2480.247692
550.215949	2535.700385
550.574434	2442.439038
550.932864	2500.412308
551.291237	2467.644808
551.649555	2480.247692
552.007817	2432.356731
552.366022	2495.371154
552.724173	2510.494615
553.082267	2533.179808
553.440305	2424.795000
553.798288	2485.288846
554.156215	2492.850577
554.514086	2485.288846
554.871902	2434.877308
555.229661	2432.356731
555.587365	2422.274423
555.945014	2525.618077
556.302606	2553.344423
556.660143	2553.344423
557.017625	2525.618077
557.375050	2520.576923
557.732421	2523.097500
558.089735	2510.494615
558.446994	2470.165385
558.804197	2427.315577
559.161345	2515.535769
559.518437	2565.947308
559.875474	2465.124231
560.232455	2444.959615
560.589381	2548.303269
560.946251	2497.891731
561.303065	2538.220962
561.659825	2502.932885
562.016528	2467.644808
562.373177	2558.385577
562.729770	2427.315577
563.086307	2518.056346
563.442789	2480.247692
563.799216	2558.385577
564.155587	2568.467885
564.511904	2558.385577
564.868164	2467.644808
565.224370	2434.877308
565.580520	2467.644808
565.936615	2553.344423
566.292654	2507.974038
566.648638	2563.426731
567.004567	2492.850577
567.360441	2553.344423
567.716260	2485.288846
568.072023	2497.891731
568.427732	2444.959615
568.783385	2424.795000
569.138982	2465.124231
569.494525	2472.685962
569.850013	2518.056346
570.205445	2477.727115
570.560823	2472.685962
570.916145	2507.974038
571.271412	2490.330000
571.626625	2507.974038
571.981782	2417.233269
572.336884	2470.165385
572.691931	2437.397885
573.046923	2495.371154
573.401860	2497.891731
573.756743	2502.932885
574.111570	2485.288846
574.466342	2482.768269
574.821059	2487.809423
575.175722	2523.097500
575.530330	2591.153077
575.884882	2523.097500
576.239380	2460.083077
576.593823	2538.220962
576.948211	2555.865000
577.302544	2520.576923
577.656823	2525.618077
578.011047	2505.453462
578.365216	2528.138654
578.719330	2507.974038
579.073389	2460.083077
579.427394	2523.097500
579.781344	2528.138654
580.135239	2528.138654
580.489080	2588.632500
580.842866	2404.630385
581.196597	2450.000769
581.550273	2553.344423
581.903895	2558.385577
582.257463	2442.439038
582.610975	2583.591346
582.964434	2530.659231
583.317837	2545.782692
583.671186	2563.426731
584.024481	2505.453462
584.377721	2510.494615
584.730906	2550.823846
585.084037	2477.727115
585.437113	2505.453462
585.790135	2558.385577
586.143103	2490.330000
586.496016	2515.535769
586.848874	2472.685962
587.201679	2523.097500
587.554428	2507.974038
587.907124	2500.412308
588.259765	2492.850577
588.612352	2545.782692
588.964884	2540.741538
589.317362	2513.015192
589.669786	2525.618077
590.022155	2434.877308
590.374470	2477.727115
590.726731	2409.671538
591.078937	2520.576923
591.431090	2497.891731
591.783188	2523.097500
592.135232	2502.932885
592.487222	2555.865000
592.839157	2535.700385
593.191038	2533.179808
593.542866	2480.247692
593.894639	2530.659231
594.246358	2507.974038
594.598022	2543.262115
594.949633	2515.535769
595.301190	2545.782692
595.652692	2555.865000
596.004141	2457.562500
596.355535	2475.206538
596.706876	2427.315577
597.058162	2497.891731
597.409395	2457.562500
597.760573	2492.850577
598.111698	2442.439038
598.462768	2472.685962
598.813785	2533.179808
599.164748	2558.385577
599.515657	2565.947308
599.866511	2475.206538
600.217312	2545.782692
600.568060	2560.906154
600.918753	2518.056346
601.269392	2513.015192
601.619978	2482.768269
601.970510	2533.179808
602.320988	2545.782692
602.671412	2543.262115
603.021783	2505.453462
603.372100	2439.918462
603.722363	2525.618077
604.072572	2397.068654
604.422728	2515.535769
604.772830	2467.644808
605.122878	2465.124231
605.472872	2502.932885
605.822813	2442.439038
606.172701	2583.591346
606.522534	2447.480192
606.872314	2452.521346
607.222041	2439.918462
607.571714	2470.165385
607.921333	2495.371154
608.270899	2492.850577
608.620411	2525.618077
608.969870	2460.083077
609.319276	2465.124231
609.668627	2482.768269
610.017926	2550.823846
610.367171	2437.397885
610.716362	2490.330000
611.065500	2482.768269
611.414585	2570.988462
611.763616	2465.124231
612.112594	2573.509038
612.461518	2505.453462
612.810389	2515.535769
613.159207	2460.083077
613.507971	2452.521346
613.856682	2520.576923
614.205340	2533.179808
614.553945	2538.220962
614.902496	2535.700385
615.250994	2470.165385
615.599439	2500.412308
615.947830	2485.288846
616.296169	2513.015192
616.644454	2472.685962
616.992686	2470.165385
617.340864	2510.494615
617.688990	2507.974038
618.037063	2535.700385
618.385082	2444.959615
618.733048	2505.453462
619.080961	2550.823846
619.428821	2472.685962
619.776628	2548.303269
620.124382	2472.685962
620.472083	2497.891731
620.819731	2525.618077
621.167326	2480.247692
621.514868	2402.109808
621.862357	2475.206538
622.209793	2533.179808
622.557176	2523.097500
622.904506	2424.795000
623.251783	2460.083077
623.599007	2457.562500
623.946179	2505.453462
624.293297	2424.795000
624.640363	2482.768269
624.987376	2485.288846
625.334336	2492.850577
625.681243	2553.344423
626.028097	2583.591346
626.374899	2475.206538
626.721647	2482.768269
627.068343	2510.494615
627.414987	2535.700385
627.761577	2515.535769
628.108115	2573.509038
628.454600	2475.206538
628.801032	2565.947308
629.147412	2583.591346
629.493739	2548.303269
629.840014	2586.111923
630.186236	2477.727115
630.532405	2497.891731
630.878521	2525.618077
631.224585	2523.097500
631.570597	2417.233269
631.916556	2583.591346
632.262462	2553.344423
632.608316	2518.056346
632.954117	2429.836154
633.299866	2417.233269
633.645562	2480.247692
633.991206	2510.494615
634.336797	2558.385577
634.682336	2535.700385
635.027823	2477.727115
635.373257	2581.070769
635.718639	2505.453462
636.063968	2528.138654
636.409245	2467.644808
636.754470	2497.891731
637.099642	2495.371154
637.444762	2487.809423
637.789829	2573.509038
638.134845	2507.974038
638.479808	2497.891731
638.824719	2543.262115
639.169577	2568.467885
639.514383	2550.823846
639.859137	2578.550192
640.203839	2457.562500
640.548489	2515.535769
640.893086	2502.932885
641.237632	2500.412308
641.582125	2447.480192
641.926566	2518.056346
642.270955	2573.509038
642.615292	2530.659231
642.959576	2591.153077
643.303809	2507.974038
643.647990	2457.562500
643.992118	2470.165385
644.336195	2444.959615
644.680219	2586.111923
645.024192	2487.809423
645.368112	2472.685962
645.711981	2505.453462
646.055797	2487.809423
646.399562	2548.303269
646.743274	2427.315577
647.086935	2540.741538
647.430544	2422.274423
647.774101	2507.974038
648.117606	2573.509038
648.461059	2472.685962
648.804460	2560.906154
649.147810	2545.782692
649.491108	2472.685962
649.834354	2505.453462
650.177548	2470.165385
650.520690	2460.083077
650.863781	2432.356731
651.206820	2460.083077
651.549807	2507.974038
651.892742	2576.029615
652.235626	2565.947308
652.578458	2570.988462
652.921238	2510.494615
653.263967	2477.727115
653.606644	2467.644808
653.949269	2553.344423
654.291843	2616.358846
654.634365	2530.659231
654.976836	2553.344423
655.319255	2528.138654
655.661622	2475.206538
656.003938	2487.809423
656.346203	2540.741538
656.688416	2540.741538
657.030577	2457.562500
657.372687	2513.015192
657.714746	2472.685962
658.056753	2444.959615
658.398708	2429.836154
658.740612	2518.056346
659.082465	2460.083077
659.424266	2429.836154
659.766016	2533.179808
660.107715	2450.000769
660.449362	2543.262115
660.790958	2535.700385
661.132503	2450.000769
661.473996	2576.029615
661.815438	2424.795000
662.156829	2510.494615
662.498168	2518.056346
662.839456	2565.947308
663.180693	2492.850577
663.521879	2563.426731
663.863013	2520.576923
664.204097	2533.179808
664.545129	2538.220962
664.886110	2434.877308
665.227040	2525.618077
665.567918	2555.865000
665.908746	2485.288846
666.249522	2593.673654
666.590248	2412.192115
666.930922	2528.138654
667.271545	2472.685962
667.612118	2477.727115
667.952639	2596.194231
668.293109	2570.988462
668.633528	2407.150962
668.973896	2500.412308
669.314213	2427.315577
669.654480	2518.056346
669.994695	2505.453462
670.334859	2548.303269
670.674973	2525.618077
671.015035	2462.603654
671.355047	2583.591346
671.695008	2588.632500
672.034918	2543.262115
672.374777	2533.179808
672.714585	2570.988462
673.054342	2555.865000
673.394049	2528.138654
673.733705	2490.330000
674.073310	2490.330000
674.412864	2545.782692
674.752368	2447.480192
675.091820	2523.097500
675.431223	2505.453462
675.770574	2465.124231
676.109875	2618.879423
676.449125	2543.262115
676.788324	2439.918462
677.127473	2548.303269
677.466571	2563.426731
677.805619	2568.467885
678.144616	2495.371154
678.483562	2530.659231
678.822458	2533.179808
679.161303	2555.865000
679.500098	2467.644808
679.838842	2548.303269
680.177535	2560.906154
680.516179	2500.412308
680.854771	2422.274423
681.193314	2487.809423
681.531805	2452.521346
681.870247	2495.371154
682.208638	2500.412308
682.546978	2586.111923
682.885268	2507.974038
683.223508	2515.535769
683.561697	2452.521346
683.899836	2429.836154
684.237925	2492.850577
684.575963	2598.714808
684.913951	2407.150962
685.251889	2570.988462
685.589776	2545.782692
685.927614	2565.947308
686.265401	2523.097500
686.603137	2538.220962
686.940824	2419.753846
687.278460	2543.262115
687.616046	2472.685962
687.953582	2490.330000
688.291068	2502.932885
688.628504	2500.412308
688.965889	2495.371154
689.303224	2480.247692
689.640510	2520.576923
689.977745	2419.753846
690.314930	2475.206538
690.652065	2492.850577
690.989150	2480.247692
691.326185	2540.741538
691.663170	2439.918462
692.000105	2502.932885
692.336990	2520.576923
692.673825	2434.877308
693.010610	2555.865000
693.347345	2505.453462
693.684030	2535.700385
694.020665	2495.371154
694.357251	2533.179808
694.693786	2477.727115
695.030272	2533.179808
695.366707	2487.809423
695.703093	2548.303269
696.039429	2434.877308
696.375716	2472.685962
696.711952	2555.865000
697.048139	2528.138654
697.384276	2462.603654
697.720363	2553.344423
698.056400	2515.535769
698.392388	2588.632500
698.728326	2422.274423
699.064214	2545.782692
699.400053	2434.877308
699.735842	2538.220962
700.071581	2442.439038
700.407270	2429.836154
700.742910	2543.262115
701.078501	2477.727115
701.414042	2538.220962
701.749533	2570.988462
702.084974	2414.712692
702.420366	2460.083077
702.755709	2523.097500
703.091002	2487.809423
703.426246	2490.330000
703.761440	2523.097500
704.096584	2555.865000
704.431679	2576.029615
704.766725	2467.644808
705.101721	2520.576923
705.436668	2485.288846
705.771565	2472.685962
706.106413	2427.315577
706.441212	2538.220962
706.775961	2465.124231
707.110661	2502.932885
707.445311	2490.330000
707.779913	2573.509038
708.114465	2432.356731
708.448967	2482.768269
708.783421	2500.412308
709.117825	2515.535769
709.452180	2495.371154
709.786485	2540.741538
710.120742	2455.041923
710.454949	2545.782692
710.789107	2578.550192
711.123216	2518.056346
711.457275	2555.865000
711.791286	2553.344423
712.125247	2523.097500
712.459159	2583.591346
712.793023	2397.068654
713.126837	2593.673654
713.460602	2510.494615
713.794318	2515.535769
714.127985	2530.659231
714.461602	2472.685962
714.795171	2470.165385
715.128691	2550.823846
715.462162	2578.550192
715.795584	2545.782692
716.128957	2565.947308
716.462281	2460.083077
716.795556	2550.823846
717.128782	2487.809423
717.461960	2568.467885
717.795088	2477.727115
718.128167	2480.247692
718.461198	2444.959615
718.794180	2548.303269
719.127113	2513.015192
719.459997	2452.521346
719.792833	2581.070769
720.125619	2502.932885
720.458357	2528.138654
720.791046	2525.618077
721.123686	2505.453462
721.456278	2505.453462
721.788821	2485.288846
722.121315	2573.509038
722.453761	2558.385577
722.786158	2502.932885
723.118506	2432.356731
723.450805	2533.179808
723.783056	2500.412308
724.115259	2513.015192
724.447412	2495.371154
724.779518	2500.412308
725.111574	2429.836154
725.443582	2439.918462
725.775542	2475.206538
726.107453	2497.891731
726.439315	2475.206538
726.771129	2550.823846
727.102895	2450.000769
727.434612	2548.303269
727.766281	2573.509038
728.097901	2533.179808
728.429473	2570.988462
728.760996	2465.124231
729.092471	2528.138654
729.423897	2460.083077
729.755276	2565.947308
730.086606	2450.000769
730.417887	2568.467885
730.749120	2462.603654
731.080305	2545.782692
731.411442	2578.550192
731.742530	2470.165385
732.073570	2487.809423
732.404562	2475.206538
732.735506	2442.439038
733.066401	2492.850577
733.397249	2520.576923
733.728048	2502.932885
734.058798	2543.262115
734.389501	2490.330000
734.720156	2495.371154
735.050762	2424.795000
735.381320	2505.453462
735.711831	2490.330000
736.042293	2560.906154
736.372707	2472.685962
736.703073	2497.891731
737.033391	2507.974038
737.363661	2510.494615
737.693883	2570.988462
738.024056	2581.070769
738.354182	2472.685962
738.684260	2507.974038
739.014290	2424.795000
739.344272	2465.124231
739.674207	2455.041923
740.004093	2586.111923
740.333931	2412.192115
740.663722	2482.768269
740.993464	2427.315577
741.323159	2528.138654
741.652806	2497.891731
741.982405	2379.424615
742.311956	2490.330000
742.641460	2543.262115
742.970915	2523.097500
743.300323	2462.603654
743.629683	2480.247692
743.958996	2570.988462
744.288260	2550.823846
744.617477	2495.371154
744.946647	2530.659231
745.275768	2500.412308
745.604842	2535.700385
745.933869	2570.988462
746.262847	2492.850577
746.591778	2560.906154
746.920662	2535.700385
747.249498	2528.138654
747.578286	2530.659231
747.907027	2450.000769
748.235720	2535.700385
748.564365	2442.439038
748.892963	2492.850577
749.221514	2480.247692
749.550017	2470.165385
749.878473	2442.439038
750.206881	2424.795000
750.535242	2515.535769
750.863555	2545.782692
751.191821	2515.535769
751.520039	2515.535769
751.848210	2462.603654
752.176334	2487.809423
752.504411	2518.056346
752.832440	2487.809423
753.160421	2558.385577
753.488356	2495.371154
753.816243	2533.179808
754.144082	2492.850577
754.471875	2381.945192
754.799620	2538.220962
755.127318	2482.768269
755.454969	2525.618077
755.782572	2545.782692
756.110129	2465.124231
756.437638	2533.179808
756.765100	2545.782692
757.092515	2457.562500
757.419882	2472.685962
757.747203	2442.439038
758.074477	2490.330000
758.401703	2457.562500
758.728882	2497.891731
759.056014	2560.906154
759.383099	2485.288846
759.710138	2424.795000
760.037129	2533.179808
760.364073	2477.727115
760.690970	2515.535769
761.017820	2472.685962
761.344623	2492.850577
761.671379	2480.247692
761.998088	2513.015192
762.324751	2568.467885
762.651366	2480.247692
762.977935	2455.041923
763.304456	2510.494615
763.630931	2460.083077
763.957359	2518.056346
764.283740	2576.029615
764.610074	2376.904038
764.936362	2500.412308
765.262602	2540.741538
765.588796	2452.521346
765.914943	2533.179808
766.241044	2447.480192
766.567097	2565.947308
766.893104	2525.618077
767.219064	2515.535769
767.544978	2444.959615
767.870845	2437.397885
768.196665	2528.138654
768.522438	2472.685962
768.848165	2432.356731
769.173846	2507.974038
769.499479	2472.685962
769.825066	2417.233269
770.150607	2460.083077
770.476101	2419.753846
770.801548	2538.220962
771.126949	2515.535769
771.452303	2492.850577
771.777611	2540.741538
772.102872	2530.659231
772.428087	2492.850577
772.753256	2523.097500
773.078378	2565.947308
773.403453	2520.576923
773.728482	2520.576923
774.053465	2520.576923
774.378401	2525.618077
774.703291	2497.891731
775.028135	2515.535769
775.352932	2616.358846
775.677683	2490.330000
776.002388	2623.920577
776.327046	2568.467885
776.651658	2457.562500
776.976224	2533.179808
777.300743	2540.741538
777.625216	2535.700385
777.949643	2538.220962
778.274024	2533.179808
778.598359	2505.453462
778.922647	2480.247692
779.246889	2533.179808
779.571086	2447.480192
779.895236	2525.618077
780.219339	2361.780577
780.543397	2505.453462
780.867409	2414.712692
781.191374	2452.521346
781.515294	2573.509038
781.839167	2560.906154
782.162995	2543.262115
782.486776	2548.303269
782.810511	2490.330000
783.134201	2490.330000
783.457844	2455.041923
783.781441	2470.165385
784.104993	2356.739423
784.428498	2450.000769
784.751958	2444.959615
785.075372	2432.356731
785.398739	2515.535769
785.722061	2427.315577
786.045337	2530.659231
786.368568	2538.220962
786.691752	2505.453462
787.014891	2502.932885
787.337983	2518.056346
787.661030	2505.453462
787.984031	2548.303269
788.306987	2467.644808
788.629897	2540.741538
788.952760	2472.685962
789.275579	2568.467885
789.598351	2422.274423
789.921078	2497.891731
790.243759	2475.206538
790.566395	2485.288846
790.888984	2477.727115
791.211529	2621.400000
791.534027	2502.932885
791.856480	2492.850577
792.178888	2543.262115
792.501249	2482.768269
792.823566	2495.371154
793.145836	2505.453462
793.468062	2465.124231
793.790241	2424.795000
794.112375	2495.371154
794.434464	2457.562500
794.756507	2477.727115
795.078505	2472.685962
795.400457	2457.562500
795.722364	2492.850577
796.044226	2442.439038
796.366042	2528.138654
796.687812	2515.535769
797.009538	2422.274423
797.331218	2565.947308
797.652852	2540.741538
797.974442	2548.303269
798.295986	2513.015192
798.617484	2611.317692
798.938938	2523.097500
799.260346	2535.700385
799.581709	2518.056346
799.903026	2480.247692
800.224299	2429.836154
800.545526	2581.070769
800.866708	2447.480192
801.187845	2507.974038
801.508936	2455.041923
801.829983	2485.288846
802.150984	2450.000769
802.471940	2447.480192
802.792851	2492.850577
803.113717	2477.727115
803.434538	2507.974038
803.755314	2419.753846
804.076045	2518.056346
804.396731	2465.124231
804.717372	2462.603654
805.037967	2482.768269
805.358518	2540.741538
805.679024	2548.303269
805.999485	2482.768269
806.319901	2470.165385
806.640272	2460.083077
806.960598	2586.111923
807.280879	2381.945192
807.601115	2560.906154
807.921306	2530.659231
808.241453	2490.330000
808.561554	2371.862885
808.881611	2555.865000
809.201623	2520.576923
809.521590	2525.618077
809.841513	2520.576923
810.161390	2540.741538
810.481223	2507.974038
810.801011	2515.535769
811.120755	2538.220962
811.440453	2495.371154
811.760107	2515.535769
812.079716	2533.179808
812.399281	2462.603654
812.718801	2482.768269
813.038276	2528.138654
813.357707	2518.056346
813.677093	2530.659231
813.996434	2470.165385
814.315731	2555.865000
814.634983	2518.056346
814.954191	2482.768269
815.273354	2545.782692
815.592473	2394.548077
815.911547	2492.850577
816.230577	2507.974038
816.549562	2581.070769
816.868502	2472.685962
817.187399	2487.809423
817.506250	2485.288846
817.825058	2442.439038
818.143821	2570.988462
818.462539	2525.618077
818.781213	2507.974038
819.099843	2502.932885
819.418429	2439.918462
819.736970	2560.906154
820.055466	2492.850577
820.373919	2442.439038
820.692327	2495.371154
821.010691	2460.083077
821.329011	2434.877308
821.647286	2550.823846
821.965517	2535.700385
822.283704	2518.056346
822.601847	2505.453462
822.919945	2507.974038
823.237999	2545.782692
823.556010	2523.097500
823.873976	2568.467885
824.191897	2467.644808
824.509775	2513.015192
824.827609	2437.397885
825.145398	2450.000769
825.463144	2467.644808
825.780845	2502.932885
826.098502	2565.947308
826.416116	2452.521346
826.733685	2419.753846
827.051210	2477.727115
827.368692	2535.700385
827.686129	2492.850577
828.003522	2505.453462
828.320872	2450.000769
828.638177	2482.768269
828.955439	2492.850577
829.272656	2475.206538
829.589830	2502.932885
829.906960	2525.618077
830.224046	2515.535769
830.541088	2510.494615
830.858086	2477.727115
831.175041	2505.453462
831.491952	2457.562500
831.808819	2497.891731
832.125642	2570.988462
832.442421	2492.850577
832.759157	2543.262115
833.075849	2573.509038
833.392497	2462.603654
833.709101	2555.865000
834.025662	2475.206538
834.342179	2540.741538
834.658653	2535.700385
834.975083	2505.453462
835.291469	2563.426731
835.607811	2447.480192
835.924110	2460.083077
836.240366	2492.850577
836.556578	2407.150962
836.872746	2530.659231
837.188871	2538.220962
837.504952	2515.535769
837.820990	2465.124231
838.136984	2507.974038
838.452935	2480.247692
838.768842	2407.150962
839.084706	2492.850577
839.400526	2472.685962
839.716303	2563.426731
840.032037	2535.700385
840.347727	2528.138654
840.663373	2490.330000
840.978977	2490.330000
841.294537	2475.206538
841.610054	2477.727115
841.925527	2437.397885
842.240957	2455.041923
842.556344	2515.535769
842.871687	2432.356731
843.186987	2518.056346
843.502244	2558.385577
843.817458	2447.480192
844.132629	2472.685962
844.447756	2465.124231
844.762840	2523.097500
845.077881	2507.974038
845.392879	2432.356731
845.707833	2545.782692
846.022745	2492.850577
846.337613	2565.947308
846.652438	2412.192115
846.967221	2550.823846
847.281960	2513.015192
847.596656	2505.453462
847.911309	2513.015192
848.225919	2434.877308
848.540485	2450.000769
848.855009	2510.494615
849.169490	2598.714808
849.483928	2374.383462
849.798323	2523.097500
850.112675	2495.371154
850.426984	2525.618077
850.741251	2472.685962
851.055474	2482.768269
851.369654	2525.618077
851.683792	2482.768269
851.997887	2492.850577
852.311938	2490.330000
852.625947	2530.659231
852.939914	2472.685962
853.253837	2500.412308
853.567718	2490.330000
853.881555	2475.206538
854.195350	2450.000769
854.509103	2490.330000
854.822812	2545.782692
855.136479	2409.671538
855.450103	2472.685962
855.763685	2485.288846
856.077224	2485.288846
856.390720	2502.932885
856.704173	2535.700385
857.017584	2475.206538
857.330953	2528.138654
857.644278	2558.385577
857.957561	2470.165385
858.270802	2487.809423
858.584000	2497.891731
858.897155	2447.480192
859.210268	2543.262115
859.523339	2444.959615
859.836367	2518.056346
860.149352	2457.562500
860.462295	2487.809423
860.775195	2429.836154
861.088054	2487.809423
861.400869	2447.480192
861.713642	2518.056346
862.026373	2467.644808
862.339062	2505.453462
862.651708	2477.727115
862.964312	2513.015192
863.276873	2528.138654
863.589392	2528.138654
863.901869	2477.727115
864.214303	2422.274423
864.526696	2606.276538
864.839045	2553.344423
865.151353	2467.644808
865.463619	2507.974038
865.775842	2601.235385
866.088023	2513.015192
866.400162	2485.288846
866.712258	2548.303269
867.024313	2513.015192
867.336325	2465.124231
867.648296	2429.836154
867.960224	2507.974038
868.272110	2386.986346
868.583954	2570.988462
868.895755	2497.891731
869.207515	2495.371154
869.519233	2507.974038
869.830909	2492.850577
870.142542	2424.795000
870.454134	2447.480192
870.765684	2462.603654
871.077191	2533.179808
871.388657	2525.618077
871.700081	2533.179808
872.011463	2553.344423
872.322803	2444.959615
872.634101	2515.535769
872.945357	2492.850577
873.256571	2555.865000
873.567744	2480.247692
873.878874	2467.644808
874.189963	2497.891731
874.501010	2460.083077
874.812015	2583.591346
875.122979	2576.029615
875.433900	2618.879423
875.744780	2558.385577
876.055618	2586.111923
876.366415	2500.412308
876.677169	2513.015192
876.987882	2477.727115
877.298554	2548.303269
877.609183	2538.220962
877.919771	2510.494615
878.230317	2535.700385
878.540822	2538.220962
878.851285	2427.315577
879.161707	2538.220962
879.472087	2460.083077
879.782425	2497.891731
880.092722	2538.220962
880.402977	2432.356731
880.713191	2482.768269
881.023363	2505.453462
881.333494	2568.467885
881.643583	2593.673654
881.953631	2485.288846
882.263637	2439.918462
882.573602	2462.603654
882.883526	2467.644808
883.193408	2480.247692
883.503248	2472.685962
883.813048	2545.782692
884.122806	2490.330000
884.432522	2452.521346
884.742197	2409.671538
885.051831	2475.206538
885.361424	2437.397885
885.670975	2510.494615
885.980485	2485.288846
886.289954	2540.741538
886.599382	2427.315577
886.908768	2528.138654
887.218113	2404.630385
887.527417	2492.850577
887.836680	2505.453462
888.145901	2523.097500
888.455082	2497.891731
888.764221	2497.891731
889.073319	2429.836154
889.382376	2437.397885
889.691392	2646.605769
890.000366	2477.727115
890.309300	2528.138654
890.618193	2475.206538
890.927044	2518.056346
891.235855	2477.727115
891.544625	2573.509038
891.853353	2442.439038
892.162041	2533.179808
892.470687	2568.467885
892.779293	2568.467885
893.087858	2621.400000
893.396381	2470.165385
893.704864	2576.029615
894.013306	2593.673654
894.321707	2482.768269
894.630068	2545.782692
894.938387	2470.165385
895.246665	2533.179808
895.554903	2485.288846
895.863100	2475.206538
896.171256	2457.562500
896.479371	2475.206538
896.787446	2460.083077
897.095480	2407.150962
897.403473	2487.809423
897.711425	2417.233269
898.019336	2457.562500
898.327207	2470.165385
898.635038	2361.780577
898.942827	2492.850577
899.250576	2523.097500
899.558284	2543.262115
899.865952	2576.029615
900.173579	2601.235385
900.481165	2444.959615
900.788711	2485.288846
901.096216	2475.206538
901.403681	2538.220962
901.711105	2485.288846
902.018489	2507.974038
902.325832	2507.974038
902.633135	2422.274423
902.940397	2482.768269
903.247619	2497.891731
903.554800	2492.850577
903.861941	2447.480192
904.169041	2475.206538
904.476101	2530.659231
904.783121	2548.303269
905.090100	2500.412308
905.397039	2502.932885
905.703938	2563.426731
906.010796	2515.535769
906.317614	2467.644808
906.624391	2419.753846
906.931129	2485.288846
907.237826	2581.070769
907.544483	2538.220962
907.851099	2432.356731
908.157675	2374.383462
908.464211	2417.233269
908.770707	2555.865000
909.077163	2467.644808
909.383578	2530.659231
909.689954	2472.685962
909.996289	2497.891731
910.302584	2507.974038
910.608839	2412.192115
910.915054	2455.041923
911.221229	2505.453462
911.527363	2528.138654
911.833458	2523.097500
912.139513	2576.029615
912.445527	2502.932885
912.751502	2543.262115
913.057436	2502.932885
913.363331	2505.453462
913.669186	2538.220962
913.975000	2480.247692
914.280775	2490.330000
914.586510	2490.330000
914.892205	2533.179808
915.197859	2437.397885
915.503475	2540.741538
915.809050	2535.700385
916.114585	2460.083077
916.420081	2470.165385
916.725536	2578.550192
917.030952	2510.494615
917.336328	2497.891731
917.641665	2495.371154
917.946961	2475.206538
918.252218	2462.603654
918.557435	2500.412308
918.862612	2447.480192
919.167750	2502.932885
919.472848	2568.467885
919.777906	2409.671538
920.082925	2419.753846
920.387904	2482.768269
920.692843	2505.453462
920.997743	2563.426731
921.302603	2379.424615
921.607423	2455.041923
921.912204	2530.659231
922.216946	2507.974038
922.521647	2500.412308
922.826310	2520.576923
923.130932	2558.385577
923.435516	2525.618077
923.740059	2487.809423
924.044564	2530.659231
924.349028	2515.535769
924.653454	2543.262115
924.957840	2502.932885
925.262186	2422.274423
925.566493	2434.877308
925.870761	2518.056346
926.174989	2500.412308
926.479178	2520.576923
926.783328	2525.618077
927.087438	2553.344423
927.391509	2482.768269
927.695541	2535.700385
927.999533	2515.535769
928.303486	2538.220962
928.607400	2444.959615
928.911275	2439.918462
929.215110	2523.097500
929.518906	2437.397885
929.822663	2518.056346
930.126381	2381.945192
930.430060	2480.247692
930.733699	2530.659231
931.037299	2497.891731
931.340861	2502.932885
931.644383	2505.453462
931.947866	2450.000769
932.251309	2490.330000
932.554714	2472.685962
932.858080	2555.865000
933.161407	2472.685962
933.464694	2485.288846
933.767943	2475.206538
934.071153	2465.124231
934.374323	2497.891731
934.677455	2510.494615
934.980548	2523.097500
935.283602	2487.809423
935.586617	2472.685962
935.889593	2472.685962
936.192530	2455.041923
936.495428	2409.671538
936.798287	2538.220962
937.101108	2500.412308
937.403890	2530.659231
937.706632	2492.850577
938.009336	2515.535769
938.312002	2513.015192
938.614628	2550.823846
938.917216	2434.877308
939.219765	2570.988462
939.522275	2533.179808
939.824747	2505.453462
940.127179	2480.247692
940.429573	2447.480192
940.731929	2450.000769
941.034246	2485.288846
941.336524	2502.932885
941.638763	2450.000769
941.940964	2497.891731
942.243126	2535.700385
942.545250	2487.809423
942.847335	2465.124231
943.149381	2394.548077
943.451389	2492.850577
943.753359	2422.274423
944.055290	2528.138654
944.357182	2482.768269
944.659036	2492.850577
944.960851	2485.288846
945.262628	2505.453462
945.564367	2507.974038
945.866067	2404.630385
946.167729	2505.453462
946.469352	2447.480192
946.770937	2497.891731
947.072484	2452.521346
947.373992	2502.932885
947.675462	2442.439038
947.976893	2533.179808
948.278286	2507.974038
948.579641	2465.124231
948.880958	2530.659231
949.182236	2429.836154
949.483476	2485.288846
949.784678	2457.562500
950.085841	2543.262115
950.386967	2540.741538
950.688054	2485.288846
950.989103	2568.467885
951.290114	2467.644808
951.591087	2535.700385
951.892021	2460.083077
952.192917	2533.179808
952.493776	2467.644808
952.794596	2447.480192
953.095378	2447.480192
953.396122	2465.124231
953.696828	2480.247692
953.997496	2492.850577
954.298126	2472.685962
954.598718	2548.303269
954.899272	2472.685962
955.199788	2460.083077
955.500266	2565.947308
955.800706	2500.412308
956.101108	2447.480192
956.401472	2409.671538
956.701798	2485.288846
957.002087	2492.850577
957.302337	2545.782692
957.602550	2513.015192
957.902724	2500.412308
958.202861	2437.397885
958.502960	2460.083077
958.803022	2533.179808
959.103045	2495.371154
959.403031	2510.494615
959.702979	2482.768269
960.002889	2495.371154
960.302762	2429.836154
960.602596	2533.179808
960.902393	2500.412308
961.202153	2570.988462
961.501875	2407.150962
961.801559	2525.618077
962.101205	2505.453462
962.400814	2455.041923
962.700385	2560.906154
962.999918	2593.673654
963.299414	2523.097500
963.598873	2442.439038
963.898293	2543.262115
964.197677	2560.906154
964.497022	2455.041923
964.796331	2475.206538
965.095601	2414.712692
965.394835	2465.124231
965.694030	2495.371154
965.993189	2548.303269
966.292309	2497.891731
966.591393	2487.809423
966.890439	2447.480192
967.189447	2477.727115
967.488419	2523.097500
967.787353	2457.562500
968.086249	2553.344423
968.385108	2523.097500
968.683930	2533.179808
968.982714	2555.865000
969.281462	2472.685962
969.580172	2560.906154
969.878844	2470.165385
970.177480	2495.371154
970.476078	2568.467885
970.774639	2485.288846
971.073162	2480.247692
971.371649	2460.083077
971.670098	2482.768269
971.968510	2427.315577
972.266885	2457.562500
972.565223	2515.535769
972.863524	2434.877308
973.161788	2515.535769
973.460014	2538.220962
973.758204	2467.644808
974.056356	2462.603654
974.354471	2457.562500
974.652550	2412.192115
974.950591	2507.974038
975.248595	2452.521346
975.546563	2540.741538
975.844493	2497.891731
976.142386	2495.371154
976.440243	2513.015192
976.738062	2439.918462
977.035845	2480.247692
977.333590	2482.768269
977.631299	2432.356731
977.928971	2500.412308
978.226606	2550.823846
978.524204	2490.330000
978.821765	2480.247692
979.119290	2520.576923
979.416777	2485.288846
979.714228	2455.041923
980.011642	2515.535769
980.309020	2475.206538
980.606360	2470.165385
980.903664	2427.315577
981.200931	2452.521346
981.498162	2513.015192
981.795356	2472.685962
982.092513	2465.124231
982.389633	2548.303269
982.686717	2450.000769
982.983764	2565.947308
983.280775	2480.247692
983.577749	2533.179808
983.874686	2447.480192
984.171587	2414.712692
984.468451	2457.562500
984.765279	2465.124231
985.062070	2475.206538
985.358824	2497.891731
985.655543	2548.303269
985.952224	2492.850577
986.248869	2392.027500
986.545478	2502.932885
986.842050	2558.385577
987.138586	2533.179808
987.435086	2596.194231
987.731549	2490.330000
988.027975	2495.371154
988.324366	2523.097500
988.620719	2500.412308
988.917037	2533.179808
989.213318	2495.371154
989.509563	2497.891731
989.805772	2460.083077
990.101944	2505.453462
990.398080	2505.453462
990.694180	2513.015192
990.990244	2442.439038
991.286271	2525.618077
991.582262	2427.315577
991.878217	2487.809423
992.174136	2485.288846
992.470019	2429.836154
992.765865	2513.015192
993.061676	2603.755962
993.357450	2432.356731
993.653188	2467.644808
993.948890	2480.247692
994.244556	2419.753846
994.540186	2510.494615
994.835780	2510.494615
995.131337	2437.397885
995.426859	2470.165385
995.722345	2510.494615
996.017795	2470.165385
996.313208	2465.124231
996.608586	2548.303269
996.903928	2465.124231
997.199234	2364.301154
997.494504	2480.247692
997.789738	2548.303269
998.084936	2482.768269
998.380099	2442.439038
998.675225	2467.644808
998.970316	2560.906154
999.265371	2553.344423
999.560390	2510.494615
999.855373	2495.371154
1000.150320	2543.262115
1000.445232	2545.782692
1000.740108	2505.453462
1001.034948	2450.000769
1001.329752	2608.797115
1001.624521	2520.576923
1001.919254	2407.150962
1002.213951	2497.891731
1002.508613	2369.342308
1002.803239	2583.591346
1003.097829	2379.424615
1003.392384	2502.932885
1003.686903	2447.480192
1003.981386	2470.165385
1004.275834	2455.041923
1004.570246	2510.494615
1004.864623	2525.618077
1005.158964	2477.727115
1005.453270	2434.877308
1005.747540	2477.727115
1006.041775	2419.753846
1006.335974	2523.097500
1006.630138	2497.891731
1006.924266	2523.097500
1007.218359	2538.220962
1007.512416	2434.877308
1007.806438	2394.548077
1008.100425	2502.932885
1008.394376	2560.906154
1008.688292	2457.562500
1008.982172	2548.303269
1009.276017	2573.509038
1009.569827	2581.070769
1009.863602	2475.206538
1010.157341	2523.097500
1010.451045	2528.138654
1010.744714	2520.576923
1011.038347	2490.330000
1011.331945	2513.015192
1011.625508	2505.453462
1011.919036	2543.262115
1012.212528	2505.453462
1012.505986	2439.918462
1012.799408	2409.671538
1013.092795	2467.644808
1013.386147	2455.041923
1013.679464	2573.509038
1013.972745	2565.947308
1014.265992	2450.000769
1014.559204	2553.344423
1014.852380	2472.685962
1015.145521	2444.959615
1015.438628	2523.097500
1015.731699	2475.206538
1016.024736	2470.165385
1016.317737	2434.877308
1016.610703	2518.056346
1016.903635	2500.412308
1017.196531	2563.426731
1017.489393	2475.206538
1017.782219	2523.097500
1018.075011	2482.768269
1018.367768	2505.453462
1018.660490	2500.412308
1018.953177	2500.412308
1019.245829	2500.412308
