Dividing Wavelength (nm)	Counts (n)	Blue Motor Position (mm): 0.000000	Red Motor Position (mm): 8.100000	
326.493990	2238.272308
326.888308	2238.272308
327.282561	2238.272308
327.676750	2094.599423
328.070874	2069.393654
328.464933	2051.749615
328.858929	2061.831923
329.252859	2114.764038
329.646726	2013.940962
330.040528	2162.655000
330.434265	2139.969808
330.827938	2114.764038
331.221547	2165.175577
331.615091	2175.257885
332.008571	2180.299038
332.401986	2253.395769
332.795338	2210.545962
333.188625	2200.463654
333.581847	2296.245577
333.975006	2303.807308
334.368100	2291.204423
334.761129	2384.465769
335.154095	2293.725000
335.546996	2291.204423
335.939833	2326.492500
336.332606	2359.260000
336.725315	2427.315577
337.117960	2366.821731
337.510540	2444.959615
337.903056	2412.192115
338.295508	2354.218846
338.687896	2447.480192
339.080220	2482.768269
339.472480	2447.480192
339.864676	2485.288846
340.256807	2492.850577
340.648875	2513.015192
341.040879	2455.041923
341.432818	2422.274423
341.824694	2437.397885
342.216506	2424.795000
342.608253	2500.412308
342.999937	2467.644808
343.391557	2465.124231
343.783113	2518.056346
344.174605	2447.480192
344.566033	2515.535769
344.957397	2412.192115
345.348697	2452.521346
345.739934	2457.562500
346.131106	2452.521346
346.522215	2523.097500
346.913260	2475.206538
347.304241	2505.453462
347.695159	2457.562500
348.086012	2424.795000
348.476802	2455.041923
348.867528	2417.233269
349.258191	2462.603654
349.648789	2477.727115
350.039324	2397.068654
350.429796	2482.768269
350.820203	2427.315577
351.210548	2495.371154
351.600828	2528.138654
351.991045	2437.397885
352.381198	2419.753846
352.771288	2457.562500
353.161314	2397.068654
353.551276	2462.603654
353.941175	2452.521346
354.331010	2505.453462
354.720782	2417.233269
355.110490	2397.068654
355.500135	2374.383462
355.889717	2429.836154
356.279235	2462.603654
356.668689	2397.068654
357.058080	2447.480192
357.447408	2356.739423
357.836672	2460.083077
358.225873	2455.041923
358.615010	2457.562500
359.004084	2568.467885
359.393095	2407.150962
359.782043	2424.795000
360.170927	2422.274423
360.559748	2518.056346
360.948505	2452.521346
361.337199	2518.056346
361.725830	2397.068654
362.114398	2384.465769
362.502903	2412.192115
362.891344	2455.041923
363.279722	2432.356731
363.668037	2502.932885
364.056289	2467.644808
364.444478	2369.342308
364.832603	2442.439038
365.220665	2515.535769
365.608665	2429.836154
365.996601	2442.439038
366.384474	2399.589231
366.772284	2444.959615
367.160031	2477.727115
367.547715	2409.671538
367.935336	2364.301154
368.322893	2414.712692
368.710388	2502.932885
369.097820	2507.974038
369.485189	2470.165385
369.872495	2523.097500
370.259738	2477.727115
370.646918	2450.000769
371.034035	2543.262115
371.421090	2394.548077
371.808081	2460.083077
372.195010	2407.150962
372.581875	2495.371154
372.968678	2475.206538
373.355418	2497.891731
373.742096	2434.877308
374.128710	2477.727115
374.515262	2437.397885
374.901751	2432.356731
375.288177	2432.356731
375.674540	2482.768269
376.060841	2467.644808
376.447079	2437.397885
376.833254	2465.124231
377.219367	2444.959615
377.605417	2394.548077
377.991404	2402.109808
378.377329	2437.397885
378.763191	2518.056346
379.148991	2467.644808
379.534727	2467.644808
379.920402	2465.124231
380.306013	2497.891731
380.691563	2402.109808
381.077049	2366.821731
381.462474	2422.274423
381.847835	2437.397885
382.233134	2447.480192
382.618371	2465.124231
383.003545	2427.315577
383.388657	2419.753846
383.773706	2523.097500
384.158693	2492.850577
384.543618	2482.768269
384.928480	2472.685962
385.313280	2510.494615
385.698017	2475.206538
386.082692	2515.535769
386.467305	2389.506923
386.851856	2515.535769
387.236344	2505.453462
387.620770	2392.027500
388.005133	2427.315577
388.389435	2424.795000
388.773674	2467.644808
389.157851	2492.850577
389.541965	2475.206538
389.926018	2513.015192
390.310008	2502.932885
390.693936	2538.220962
391.077802	2470.165385
391.461606	2437.397885
391.845348	2530.659231
392.229027	2460.083077
392.612645	2442.439038
392.996200	2434.877308
393.379694	2457.562500
393.763125	2475.206538
394.146494	2399.589231
394.529801	2510.494615
394.913047	2568.467885
395.296230	2487.809423
395.679351	2457.562500
396.062410	2505.453462
396.445408	2485.288846
396.828343	2467.644808
397.211217	2402.109808
397.594028	2502.932885
397.976778	2507.974038
398.359466	2462.603654
398.742092	2457.562500
399.124656	2394.548077
399.507158	2505.453462
399.889598	2402.109808
400.271977	2399.589231
400.654294	2497.891731
401.036549	2472.685962
401.418742	2523.097500
401.800874	2470.165385
402.182944	2540.741538
402.564952	2452.521346
402.946898	2510.494615
403.328783	2434.877308
403.710606	2460.083077
404.092367	2460.083077
404.474067	2424.795000
404.855705	2505.453462
405.237282	2497.891731
405.618797	2500.412308
406.000250	2520.576923
406.381642	2548.303269
406.762972	2427.315577
407.144240	2422.274423
407.525447	2465.124231
407.906593	2470.165385
408.287677	2513.015192
408.668700	2392.027500
409.049661	2495.371154
409.430560	2487.809423
409.811399	2535.700385
410.192176	2500.412308
410.572891	2525.618077
410.953545	2457.562500
411.334138	2558.385577
411.714669	2432.356731
412.095139	2485.288846
412.475547	2447.480192
412.855894	2467.644808
413.236180	2513.015192
413.616405	2470.165385
413.996568	2553.344423
414.376670	2462.603654
414.756711	2477.727115
415.136691	2409.671538
415.516609	2485.288846
415.896466	2404.630385
416.276262	2450.000769
416.655997	2447.480192
417.035670	2510.494615
417.415283	2533.179808
417.794834	2392.027500
418.174324	2450.000769
418.553753	2513.015192
418.933121	2424.795000
419.312428	2434.877308
419.691674	2419.753846
420.070859	2530.659231
420.449983	2535.700385
420.829045	2457.562500
421.208047	2492.850577
421.586988	2429.836154
421.965867	2510.494615
422.344686	2452.521346
422.723444	2548.303269
423.102141	2480.247692
423.480777	2515.535769
423.859352	2450.000769
424.237866	2576.029615
424.616319	2467.644808
424.994712	2505.453462
425.373044	2482.768269
425.751314	2354.218846
426.129524	2523.097500
426.507673	2417.233269
426.885762	2417.233269
427.263789	2581.070769
427.641756	2442.439038
428.019662	2444.959615
428.397508	2553.344423
428.775292	2467.644808
429.153016	2480.247692
429.530679	2495.371154
429.908282	2402.109808
430.285824	2500.412308
430.663305	2427.315577
431.040726	2460.083077
431.418086	2518.056346
431.795385	2510.494615
432.172624	2439.918462
432.549802	2502.932885
432.926920	2465.124231
433.303977	2492.850577
433.680974	2460.083077
434.057910	2505.453462
434.434786	2540.741538
434.811601	2482.768269
435.188355	2434.877308
435.565050	2455.041923
435.941683	2492.850577
436.318257	2505.453462
436.694770	2455.041923
437.071222	2462.603654
437.447614	2432.356731
437.823946	2470.165385
438.200218	2502.932885
438.576429	2518.056346
438.952580	2434.877308
439.328670	2455.041923
439.704700	2450.000769
440.080670	2540.741538
440.456580	2487.809423
440.832429	2523.097500
441.208218	2523.097500
441.583947	2465.124231
441.959616	2515.535769
442.335224	2497.891731
442.710773	2505.453462
443.086261	2555.865000
443.461689	2487.809423
443.837057	2452.521346
444.212365	2477.727115
444.587612	2427.315577
444.962800	2497.891731
445.337927	2447.480192
445.712995	2560.906154
446.088002	2472.685962
446.462949	2528.138654
446.837837	2492.850577
447.212664	2513.015192
447.587431	2450.000769
447.962139	2601.235385
448.336786	2452.521346
448.711374	2525.618077
449.085901	2455.041923
449.460369	2434.877308
449.834776	2535.700385
450.209124	2450.000769
450.583412	2513.015192
450.957640	2467.644808
451.331808	2518.056346
451.705917	2467.644808
452.079965	2510.494615
452.453954	2465.124231
452.827883	2467.644808
453.201752	2432.356731
453.575562	2497.891731
453.949311	2470.165385
454.323001	2402.109808
454.696632	2487.809423
455.070202	2495.371154
455.443713	2437.397885
455.817164	2490.330000
456.190556	2535.700385
456.563888	2477.727115
456.937160	2482.768269
457.310373	2553.344423
457.683526	2429.836154
458.056619	2376.904038
458.429653	2472.685962
458.802628	2399.589231
459.175542	2475.206538
459.548398	2460.083077
459.921194	2412.192115
460.293930	2490.330000
460.666607	2535.700385
461.039224	2447.480192
461.411782	2475.206538
461.784280	2535.700385
462.156719	2510.494615
462.529099	2457.562500
462.901419	2467.644808
463.273680	2543.262115
463.645882	2472.685962
464.018024	2530.659231
464.390106	2538.220962
464.762130	2417.233269
465.134094	2495.371154
465.505999	2510.494615
465.877845	2500.412308
466.249631	2603.755962
466.621358	2477.727115
466.993026	2497.891731
467.364634	2465.124231
467.736184	2495.371154
468.107674	2455.041923
468.479105	2462.603654
468.850477	2452.521346
469.221790	2513.015192
469.593043	2492.850577
469.964238	2528.138654
470.335373	2490.330000
470.706449	2475.206538
471.077467	2545.782692
471.448425	2444.959615
471.819324	2462.603654
472.190164	2480.247692
472.560945	2472.685962
472.931667	2442.439038
473.302330	2502.932885
473.672934	2470.165385
474.043479	2540.741538
474.413965	2540.741538
474.784393	2480.247692
475.154761	2480.247692
475.525070	2601.235385
475.895321	2424.795000
476.265513	2444.959615
476.635645	2439.918462
477.005719	2490.330000
477.375734	2490.330000
477.745691	2397.068654
478.115588	2482.768269
478.485427	2485.288846
478.855207	2550.823846
479.224928	2334.054231
479.594591	2412.192115
479.964194	2500.412308
480.333739	2472.685962
480.703226	2439.918462
481.072653	2427.315577
481.442022	2434.877308
481.811333	2465.124231
482.180584	2555.865000
482.549777	2444.959615
482.918912	2417.233269
483.287988	2568.467885
483.657005	2457.562500
484.025964	2513.015192
484.394864	2492.850577
484.763706	2487.809423
485.132489	2513.015192
485.501213	2452.521346
485.869879	2450.000769
486.238487	2455.041923
486.607036	2452.521346
486.975527	2450.000769
487.343959	2520.576923
487.712333	2470.165385
488.080648	2417.233269
488.448905	2520.576923
488.817104	2525.618077
489.185244	2530.659231
489.553326	2490.330000
489.921350	2523.097500
490.289315	2505.453462
490.657222	2507.974038
491.025070	2495.371154
491.392861	2485.288846
491.760593	2525.618077
492.128267	2492.850577
492.495883	2452.521346
492.863440	2477.727115
493.230939	2528.138654
493.598380	2437.397885
493.965763	2550.823846
494.333088	2429.836154
494.700354	2487.809423
495.067563	2447.480192
495.434713	2502.932885
495.801805	2495.371154
496.168839	2480.247692
496.535815	2447.480192
496.902733	2553.344423
497.269593	2480.247692
497.636395	2447.480192
498.003139	2419.753846
498.369825	2513.015192
498.736453	2460.083077
499.103023	2570.988462
499.469535	2447.480192
499.835989	2455.041923
500.202385	2510.494615
500.568723	2510.494615
500.935003	2465.124231
501.301226	2402.109808
501.667390	2432.356731
502.033497	2500.412308
502.399546	2510.494615
502.765537	2467.644808
503.131470	2500.412308
503.497345	2515.535769
503.863163	2444.959615
504.228923	2480.247692
504.594625	2462.603654
504.960269	2520.576923
505.325856	2447.480192
505.691385	2548.303269
506.056856	2485.288846
506.422270	2525.618077
506.787625	2510.494615
507.152924	2538.220962
507.518164	2573.509038
507.883347	2502.932885
508.248472	2457.562500
508.613540	2439.918462
508.978550	2497.891731
509.343503	2525.618077
509.708398	2444.959615
510.073236	2502.932885
510.438016	2535.700385
510.802738	2553.344423
511.167403	2417.233269
511.532010	2492.850577
511.896561	2495.371154
512.261053	2588.632500
512.625488	2490.330000
512.989866	2502.932885
513.354186	2439.918462
513.718449	2543.262115
514.082655	2442.439038
514.446803	2475.206538
514.810894	2460.083077
515.174927	2515.535769
515.538904	2490.330000
515.902822	2505.453462
516.266684	2518.056346
516.630488	2505.453462
516.994235	2523.097500
517.357925	2545.782692
517.721558	2472.685962
518.085133	2412.192115
518.448651	2487.809423
518.812112	2490.330000
519.175516	2432.356731
519.538863	2480.247692
519.902152	2450.000769
520.265385	2518.056346
520.628560	2424.795000
520.991678	2510.494615
521.354739	2500.412308
521.717743	2495.371154
522.080690	2507.974038
522.443580	2412.192115
522.806413	2545.782692
523.169189	2601.235385
523.531908	2492.850577
523.894569	2472.685962
524.257174	2444.959615
524.619722	2583.591346
524.982213	2540.741538
525.344647	2495.371154
525.707025	2399.589231
526.069345	2507.974038
526.431608	2485.288846
526.793815	2515.535769
527.155964	2457.562500
527.518057	2510.494615
527.880093	2457.562500
528.242072	2523.097500
528.603995	2472.685962
528.965860	2497.891731
529.327669	2470.165385
529.689421	2578.550192
530.051117	2470.165385
530.412755	2545.782692
530.774337	2518.056346
531.135862	2500.412308
531.497331	2487.809423
531.858743	2470.165385
532.220098	2482.768269
532.581396	2507.974038
532.942638	2485.288846
533.303824	2507.974038
533.664953	2465.124231
534.026025	2500.412308
534.387040	2538.220962
534.747999	2442.439038
535.108902	2518.056346
535.469748	2452.521346
535.830537	2495.371154
536.191270	2492.850577
536.551947	2626.441154
536.912567	2467.644808
537.273131	2495.371154
537.633638	2563.426731
537.994089	2460.083077
538.354483	2422.274423
538.714821	2417.233269
539.075103	2497.891731
539.435328	2455.041923
539.795497	2490.330000
540.155609	2444.959615
540.515665	2487.809423
540.875665	2533.179808
541.235609	2422.274423
541.595496	2455.041923
541.955328	2513.015192
542.315102	2507.974038
542.674821	2450.000769
543.034483	2550.823846
543.394090	2482.768269
543.753640	2480.247692
544.113134	2533.179808
544.472571	2520.576923
544.831953	2525.618077
545.191278	2409.671538
545.550548	2399.589231
545.909761	2490.330000
546.268918	2389.506923
546.628019	2563.426731
546.987064	2480.247692
547.346053	2550.823846
547.704986	2439.918462
548.063863	2475.206538
548.422684	2434.877308
548.781449	2495.371154
549.140158	2490.330000
549.498811	2515.535769
549.857408	2457.562500
550.215949	2513.015192
550.574434	2502.932885
550.932864	2525.618077
551.291237	2563.426731
551.649555	2437.397885
552.007817	2525.618077
552.366022	2515.535769
552.724173	2482.768269
553.082267	2505.453462
553.440305	2507.974038
553.798288	2593.673654
554.156215	2477.727115
554.514086	2475.206538
554.871902	2497.891731
555.229661	2588.632500
555.587365	2586.111923
555.945014	2502.932885
556.302606	2543.262115
556.660143	2513.015192
557.017625	2462.603654
557.375050	2518.056346
557.732421	2495.371154
558.089735	2475.206538
558.446994	2631.482308
558.804197	2505.453462
559.161345	2477.727115
559.518437	2412.192115
559.875474	2487.809423
560.232455	2530.659231
560.589381	2513.015192
560.946251	2538.220962
561.303065	2545.782692
561.659825	2467.644808
562.016528	2455.041923
562.373177	2525.618077
562.729770	2462.603654
563.086307	2507.974038
563.442789	2518.056346
563.799216	2513.015192
564.155587	2543.262115
564.511904	2429.836154
564.868164	2558.385577
565.224370	2482.768269
565.580520	2550.823846
565.936615	2510.494615
566.292654	2520.576923
566.648638	2457.562500
567.004567	2444.959615
567.360441	2495.371154
567.716260	2545.782692
568.072023	2500.412308
568.427732	2548.303269
568.783385	2477.727115
569.138982	2523.097500
569.494525	2573.509038
569.850013	2545.782692
570.205445	2487.809423
570.560823	2462.603654
570.916145	2475.206538
571.271412	2515.535769
571.626625	2507.974038
571.981782	2422.274423
572.336884	2500.412308
572.691931	2593.673654
573.046923	2477.727115
573.401860	2548.303269
573.756743	2510.494615
574.111570	2485.288846
574.466342	2510.494615
574.821059	2452.521346
575.175722	2502.932885
575.530330	2535.700385
575.884882	2502.932885
576.239380	2535.700385
576.593823	2535.700385
576.948211	2485.288846
577.302544	2482.768269
577.656823	2495.371154
578.011047	2523.097500
578.365216	2477.727115
578.719330	2467.644808
579.073389	2576.029615
579.427394	2462.603654
579.781344	2540.741538
580.135239	2502.932885
580.489080	2523.097500
580.842866	2482.768269
581.196597	2439.918462
581.550273	2444.959615
581.903895	2515.535769
582.257463	2460.083077
582.610975	2465.124231
582.964434	2399.589231
583.317837	2553.344423
583.671186	2538.220962
584.024481	2480.247692
584.377721	2548.303269
584.730906	2530.659231
585.084037	2510.494615
585.437113	2497.891731
585.790135	2490.330000
586.143103	2502.932885
586.496016	2505.453462
586.848874	2470.165385
587.201679	2492.850577
587.554428	2460.083077
587.907124	2581.070769
588.259765	2457.562500
588.612352	2495.371154
588.964884	2424.795000
589.317362	2570.988462
589.669786	2450.000769
590.022155	2497.891731
590.374470	2578.550192
590.726731	2472.685962
591.078937	2505.453462
591.431090	2505.453462
591.783188	2608.797115
592.135232	2502.932885
592.487222	2419.753846
592.839157	2487.809423
593.191038	2467.644808
593.542866	2457.562500
593.894639	2455.041923
594.246358	2455.041923
594.598022	2457.562500
594.949633	2578.550192
595.301190	2402.109808
595.652692	2487.809423
596.004141	2452.521346
596.355535	2482.768269
596.706876	2422.274423
597.058162	2530.659231
597.409395	2482.768269
597.760573	2495.371154
598.111698	2621.400000
598.462768	2455.041923
598.813785	2475.206538
599.164748	2505.453462
599.515657	2462.603654
599.866511	2409.671538
600.217312	2482.768269
600.568060	2578.550192
600.918753	2513.015192
601.269392	2439.918462
601.619978	2465.124231
601.970510	2545.782692
602.320988	2538.220962
602.671412	2495.371154
603.021783	2490.330000
603.372100	2497.891731
603.722363	2432.356731
604.072572	2548.303269
604.422728	2573.509038
604.772830	2475.206538
605.122878	2578.550192
605.472872	2540.741538
605.822813	2487.809423
606.172701	2581.070769
606.522534	2447.480192
606.872314	2492.850577
607.222041	2530.659231
607.571714	2563.426731
607.921333	2530.659231
608.270899	2523.097500
608.620411	2505.453462
608.969870	2596.194231
609.319276	2424.795000
609.668627	2439.918462
610.017926	2450.000769
610.367171	2457.562500
610.716362	2462.603654
611.065500	2457.562500
611.414585	2510.494615
611.763616	2500.412308
612.112594	2553.344423
612.461518	2480.247692
612.810389	2477.727115
613.159207	2555.865000
613.507971	2444.959615
613.856682	2429.836154
614.205340	2409.671538
614.553945	2533.179808
614.902496	2518.056346
615.250994	2422.274423
615.599439	2505.453462
615.947830	2455.041923
616.296169	2540.741538
616.644454	2533.179808
616.992686	2480.247692
617.340864	2381.945192
617.688990	2482.768269
618.037063	2505.453462
618.385082	2465.124231
618.733048	2470.165385
619.080961	2510.494615
619.428821	2444.959615
619.776628	2513.015192
620.124382	2548.303269
620.472083	2490.330000
620.819731	2500.412308
621.167326	2492.850577
621.514868	2500.412308
621.862357	2553.344423
622.209793	2530.659231
622.557176	2601.235385
622.904506	2465.124231
623.251783	2510.494615
623.599007	2475.206538
623.946179	2424.795000
624.293297	2439.918462
624.640363	2573.509038
624.987376	2545.782692
625.334336	2427.315577
625.681243	2482.768269
626.028097	2500.412308
626.374899	2535.700385
626.721647	2482.768269
627.068343	2548.303269
627.414987	2505.453462
627.761577	2530.659231
628.108115	2573.509038
628.454600	2485.288846
628.801032	2442.439038
629.147412	2528.138654
629.493739	2505.453462
629.840014	2444.959615
630.186236	2528.138654
630.532405	2500.412308
630.878521	2507.974038
631.224585	2513.015192
631.570597	2447.480192
631.916556	2487.809423
632.262462	2470.165385
632.608316	2437.397885
632.954117	2429.836154
633.299866	2477.727115
633.645562	2523.097500
633.991206	2535.700385
634.336797	2518.056346
634.682336	2631.482308
635.027823	2568.467885
635.373257	2455.041923
635.718639	2492.850577
636.063968	2467.644808
636.409245	2465.124231
636.754470	2422.274423
637.099642	2507.974038
637.444762	2470.165385
637.789829	2487.809423
638.134845	2432.356731
638.479808	2485.288846
638.824719	2472.685962
639.169577	2439.918462
639.514383	2487.809423
639.859137	2535.700385
640.203839	2548.303269
640.548489	2500.412308
640.893086	2540.741538
641.237632	2462.603654
641.582125	2513.015192
641.926566	2497.891731
642.270955	2535.700385
642.615292	2475.206538
642.959576	2434.877308
643.303809	2465.124231
643.647990	2507.974038
643.992118	2538.220962
644.336195	2568.467885
644.680219	2548.303269
645.024192	2502.932885
645.368112	2492.850577
645.711981	2492.850577
646.055797	2513.015192
646.399562	2402.109808
646.743274	2475.206538
647.086935	2505.453462
647.430544	2439.918462
647.774101	2480.247692
648.117606	2429.836154
648.461059	2563.426731
648.804460	2502.932885
649.147810	2505.453462
649.491108	2520.576923
649.834354	2520.576923
650.177548	2550.823846
650.520690	2495.371154
650.863781	2578.550192
651.206820	2404.630385
651.549807	2434.877308
651.892742	2495.371154
652.235626	2518.056346
652.578458	2502.932885
652.921238	2492.850577
653.263967	2422.274423
653.606644	2507.974038
653.949269	2477.727115
654.291843	2520.576923
654.634365	2490.330000
654.976836	2515.535769
655.319255	2523.097500
655.661622	2482.768269
656.003938	2495.371154
656.346203	2505.453462
656.688416	2432.356731
657.030577	2545.782692
657.372687	2475.206538
657.714746	2462.603654
658.056753	2462.603654
658.398708	2470.165385
658.740612	2492.850577
659.082465	2497.891731
659.424266	2515.535769
659.766016	2444.959615
660.107715	2510.494615
660.449362	2460.083077
660.790958	2583.591346
661.132503	2492.850577
661.473996	2502.932885
661.815438	2465.124231
662.156829	2470.165385
662.498168	2485.288846
662.839456	2535.700385
663.180693	2495.371154
663.521879	2598.714808
663.863013	2500.412308
664.204097	2507.974038
664.545129	2437.397885
664.886110	2528.138654
665.227040	2477.727115
665.567918	2480.247692
665.908746	2513.015192
666.249522	2538.220962
666.590248	2472.685962
666.930922	2492.850577
667.271545	2480.247692
667.612118	2490.330000
667.952639	2513.015192
668.293109	2570.988462
668.633528	2455.041923
668.973896	2495.371154
669.314213	2560.906154
669.654480	2515.535769
669.994695	2500.412308
670.334859	2467.644808
670.674973	2492.850577
671.015035	2495.371154
671.355047	2513.015192
671.695008	2475.206538
672.034918	2518.056346
672.374777	2510.494615
672.714585	2457.562500
673.054342	2490.330000
673.394049	2543.262115
673.733705	2528.138654
674.073310	2485.288846
674.412864	2417.233269
674.752368	2419.753846
675.091820	2465.124231
675.431223	2538.220962
675.770574	2457.562500
676.109875	2412.192115
676.449125	2460.083077
676.788324	2487.809423
677.127473	2558.385577
677.466571	2462.603654
677.805619	2540.741538
678.144616	2500.412308
678.483562	2533.179808
678.822458	2422.274423
679.161303	2460.083077
679.500098	2455.041923
679.838842	2555.865000
680.177535	2565.947308
680.516179	2520.576923
680.854771	2505.453462
681.193314	2467.644808
681.531805	2513.015192
681.870247	2492.850577
682.208638	2460.083077
682.546978	2548.303269
682.885268	2477.727115
683.223508	2510.494615
683.561697	2510.494615
683.899836	2490.330000
684.237925	2427.315577
684.575963	2462.603654
684.913951	2444.959615
685.251889	2570.988462
685.589776	2500.412308
685.927614	2518.056346
686.265401	2515.535769
686.603137	2457.562500
686.940824	2530.659231
687.278460	2530.659231
687.616046	2462.603654
687.953582	2502.932885
688.291068	2467.644808
688.628504	2565.947308
688.965889	2505.453462
689.303224	2450.000769
689.640510	2550.823846
689.977745	2502.932885
690.314930	2492.850577
690.652065	2548.303269
690.989150	2510.494615
691.326185	2570.988462
691.663170	2510.494615
692.000105	2444.959615
692.336990	2502.932885
692.673825	2520.576923
693.010610	2475.206538
693.347345	2505.453462
693.684030	2523.097500
694.020665	2591.153077
694.357251	2500.412308
694.693786	2482.768269
695.030272	2583.591346
695.366707	2404.630385
695.703093	2480.247692
696.039429	2470.165385
696.375716	2480.247692
696.711952	2530.659231
697.048139	2472.685962
697.384276	2530.659231
697.720363	2455.041923
698.056400	2510.494615
698.392388	2424.795000
698.728326	2424.795000
699.064214	2540.741538
699.400053	2492.850577
699.735842	2485.288846
700.071581	2487.809423
700.407270	2518.056346
700.742910	2591.153077
701.078501	2576.029615
701.414042	2492.850577
701.749533	2533.179808
702.084974	2407.150962
702.420366	2616.358846
702.755709	2482.768269
703.091002	2444.959615
703.426246	2505.453462
703.761440	2492.850577
704.096584	2507.974038
704.431679	2515.535769
704.766725	2457.562500
705.101721	2543.262115
705.436668	2535.700385
705.771565	2523.097500
706.106413	2487.809423
706.441212	2528.138654
706.775961	2601.235385
707.110661	2558.385577
707.445311	2490.330000
707.779913	2533.179808
708.114465	2472.685962
708.448967	2555.865000
708.783421	2573.509038
709.117825	2565.947308
709.452180	2444.959615
709.786485	2450.000769
710.120742	2518.056346
710.454949	2535.700385
710.789107	2477.727115
711.123216	2427.315577
711.457275	2444.959615
711.791286	2497.891731
712.125247	2482.768269
712.459159	2371.862885
712.793023	2467.644808
713.126837	2523.097500
713.460602	2583.591346
713.794318	2404.630385
714.127985	2404.630385
714.461602	2487.809423
714.795171	2490.330000
715.128691	2515.535769
715.462162	2583.591346
715.795584	2533.179808
716.128957	2427.315577
716.462281	2490.330000
716.795556	2437.397885
717.128782	2525.618077
717.461960	2515.535769
717.795088	2507.974038
718.128167	2560.906154
718.461198	2518.056346
718.794180	2507.974038
719.127113	2467.644808
719.459997	2482.768269
719.792833	2500.412308
720.125619	2447.480192
720.458357	2447.480192
720.791046	2538.220962
721.123686	2515.535769
721.456278	2470.165385
721.788821	2492.850577
722.121315	2482.768269
722.453761	2507.974038
722.786158	2472.685962
723.118506	2515.535769
723.450805	2444.959615
723.783056	2565.947308
724.115259	2442.439038
724.447412	2515.535769
724.779518	2482.768269
725.111574	2487.809423
725.443582	2472.685962
725.775542	2515.535769
726.107453	2538.220962
726.439315	2439.918462
726.771129	2513.015192
727.102895	2429.836154
727.434612	2507.974038
727.766281	2492.850577
728.097901	2490.330000
728.429473	2535.700385
728.760996	2500.412308
729.092471	2513.015192
729.423897	2540.741538
729.755276	2500.412308
730.086606	2507.974038
730.417887	2621.400000
730.749120	2434.877308
731.080305	2510.494615
731.411442	2450.000769
731.742530	2548.303269
732.073570	2560.906154
732.404562	2593.673654
732.735506	2450.000769
733.066401	2500.412308
733.397249	2467.644808
733.728048	2444.959615
734.058798	2460.083077
734.389501	2429.836154
734.720156	2480.247692
735.050762	2467.644808
735.381320	2558.385577
735.711831	2515.535769
736.042293	2505.453462
736.372707	2434.877308
736.703073	2543.262115
737.033391	2467.644808
737.363661	2452.521346
737.693883	2507.974038
738.024056	2573.509038
738.354182	2480.247692
738.684260	2518.056346
739.014290	2545.782692
739.344272	2477.727115
739.674207	2495.371154
740.004093	2490.330000
740.333931	2487.809423
740.663722	2553.344423
740.993464	2533.179808
741.323159	2538.220962
741.652806	2530.659231
741.982405	2523.097500
742.311956	2601.235385
742.641460	2490.330000
742.970915	2553.344423
743.300323	2455.041923
743.629683	2485.288846
743.958996	2591.153077
744.288260	2565.947308
744.617477	2500.412308
744.946647	2502.932885
745.275768	2502.932885
745.604842	2505.453462
745.933869	2487.809423
746.262847	2460.083077
746.591778	2611.317692
746.920662	2505.453462
747.249498	2583.591346
747.578286	2568.467885
747.907027	2621.400000
748.235720	2485.288846
748.564365	2578.550192
748.892963	2475.206538
749.221514	2548.303269
749.550017	2520.576923
749.878473	2528.138654
750.206881	2507.974038
750.535242	2543.262115
750.863555	2462.603654
751.191821	2505.453462
751.520039	2518.056346
751.848210	2452.521346
752.176334	2475.206538
752.504411	2530.659231
752.832440	2482.768269
753.160421	2513.015192
753.488356	2465.124231
753.816243	2432.356731
754.144082	2475.206538
754.471875	2485.288846
754.799620	2460.083077
755.127318	2492.850577
755.454969	2570.988462
755.782572	2447.480192
756.110129	2543.262115
756.437638	2465.124231
756.765100	2460.083077
757.092515	2525.618077
757.419882	2477.727115
757.747203	2485.288846
758.074477	2543.262115
758.401703	2616.358846
758.728882	2472.685962
759.056014	2447.480192
759.383099	2497.891731
759.710138	2450.000769
760.037129	2447.480192
760.364073	2460.083077
760.690970	2452.521346
761.017820	2497.891731
761.344623	2490.330000
761.671379	2407.150962
761.998088	2434.877308
762.324751	2500.412308
762.651366	2392.027500
762.977935	2570.988462
763.304456	2417.233269
763.630931	2492.850577
763.957359	2510.494615
764.283740	2480.247692
764.610074	2555.865000
764.936362	2502.932885
765.262602	2490.330000
765.588796	2434.877308
765.914943	2429.836154
766.241044	2442.439038
766.567097	2545.782692
766.893104	2455.041923
767.219064	2538.220962
767.544978	2530.659231
767.870845	2525.618077
768.196665	2538.220962
768.522438	2518.056346
768.848165	2432.356731
769.173846	2525.618077
769.499479	2548.303269
769.825066	2543.262115
770.150607	2412.192115
770.476101	2480.247692
770.801548	2548.303269
771.126949	2467.644808
771.452303	2550.823846
771.777611	2490.330000
772.102872	2455.041923
772.428087	2528.138654
772.753256	2558.385577
773.078378	2505.453462
773.403453	2586.111923
773.728482	2487.809423
774.053465	2452.521346
774.378401	2432.356731
774.703291	2452.521346
775.028135	2497.891731
775.352932	2457.562500
775.677683	2439.918462
776.002388	2560.906154
776.327046	2495.371154
776.651658	2518.056346
776.976224	2497.891731
777.300743	2520.576923
777.625216	2470.165385
777.949643	2482.768269
778.274024	2472.685962
778.598359	2518.056346
778.922647	2409.671538
779.246889	2485.288846
779.571086	2439.918462
779.895236	2470.165385
780.219339	2457.562500
780.543397	2515.535769
780.867409	2447.480192
781.191374	2520.576923
781.515294	2510.494615
781.839167	2513.015192
782.162995	2563.426731
782.486776	2583.591346
782.810511	2465.124231
783.134201	2470.165385
783.457844	2434.877308
783.781441	2510.494615
784.104993	2490.330000
784.428498	2543.262115
784.751958	2510.494615
785.075372	2513.015192
785.398739	2525.618077
785.722061	2520.576923
786.045337	2525.618077
786.368568	2550.823846
786.691752	2550.823846
787.014891	2417.233269
787.337983	2515.535769
787.661030	2492.850577
787.984031	2510.494615
788.306987	2520.576923
788.629897	2533.179808
788.952760	2412.192115
789.275579	2545.782692
789.598351	2455.041923
789.921078	2520.576923
790.243759	2576.029615
790.566395	2510.494615
790.888984	2492.850577
791.211529	2487.809423
791.534027	2520.576923
791.856480	2528.138654
792.178888	2414.712692
792.501249	2470.165385
792.823566	2477.727115
793.145836	2399.589231
793.468062	2472.685962
793.790241	2437.397885
794.112375	2444.959615
794.434464	2502.932885
794.756507	2586.111923
795.078505	2490.330000
795.400457	2492.850577
795.722364	2417.233269
796.044226	2444.959615
796.366042	2482.768269
796.687812	2530.659231
797.009538	2455.041923
797.331218	2497.891731
797.652852	2543.262115
797.974442	2465.124231
798.295986	2424.795000
798.617484	2497.891731
798.938938	2442.439038
799.260346	2515.535769
799.581709	2407.150962
799.903026	2457.562500
800.224299	2462.603654
800.545526	2505.453462
800.866708	2457.562500
801.187845	2482.768269
801.508936	2477.727115
801.829983	2444.959615
802.150984	2523.097500
802.471940	2558.385577
802.792851	2495.371154
803.113717	2513.015192
803.434538	2477.727115
803.755314	2530.659231
804.076045	2497.891731
804.396731	2422.274423
804.717372	2505.453462
805.037967	2487.809423
805.358518	2495.371154
805.679024	2482.768269
805.999485	2520.576923
806.319901	2407.150962
806.640272	2507.974038
806.960598	2452.521346
807.280879	2581.070769
807.601115	2455.041923
807.921306	2497.891731
808.241453	2487.809423
808.561554	2465.124231
808.881611	2414.712692
809.201623	2497.891731
809.521590	2487.809423
809.841513	2477.727115
810.161390	2507.974038
810.481223	2467.644808
810.801011	2523.097500
811.120755	2492.850577
811.440453	2553.344423
811.760107	2492.850577
812.079716	2427.315577
812.399281	2429.836154
812.718801	2591.153077
813.038276	2500.412308
813.357707	2515.535769
813.677093	2583.591346
813.996434	2455.041923
814.315731	2520.576923
814.634983	2535.700385
814.954191	2432.356731
815.273354	2560.906154
815.592473	2467.644808
815.911547	2434.877308
816.230577	2427.315577
816.549562	2485.288846
816.868502	2525.618077
817.187399	2457.562500
817.506250	2447.480192
817.825058	2543.262115
818.143821	2472.685962
818.462539	2452.521346
818.781213	2528.138654
819.099843	2452.521346
819.418429	2414.712692
819.736970	2475.206538
820.055466	2480.247692
820.373919	2502.932885
820.692327	2424.795000
821.010691	2533.179808
821.329011	2513.015192
821.647286	2510.494615
821.965517	2470.165385
822.283704	2507.974038
822.601847	2475.206538
822.919945	2480.247692
823.237999	2470.165385
823.556010	2404.630385
823.873976	2608.797115
824.191897	2376.904038
824.509775	2465.124231
824.827609	2480.247692
825.145398	2523.097500
825.463144	2623.920577
825.780845	2472.685962
826.098502	2558.385577
826.416116	2460.083077
826.733685	2465.124231
827.051210	2535.700385
827.368692	2480.247692
827.686129	2548.303269
828.003522	2455.041923
828.320872	2528.138654
828.638177	2462.603654
828.955439	2404.630385
829.272656	2523.097500
829.589830	2472.685962
829.906960	2528.138654
830.224046	2570.988462
830.541088	2518.056346
830.858086	2530.659231
831.175041	2540.741538
831.491952	2528.138654
831.808819	2480.247692
832.125642	2462.603654
832.442421	2510.494615
832.759157	2535.700385
833.075849	2553.344423
833.392497	2374.383462
833.709101	2530.659231
834.025662	2535.700385
834.342179	2437.397885
834.658653	2525.618077
834.975083	2558.385577
835.291469	2470.165385
835.607811	2482.768269
835.924110	2497.891731
836.240366	2412.192115
836.556578	2568.467885
836.872746	2455.041923
837.188871	2434.877308
837.504952	2533.179808
837.820990	2419.753846
838.136984	2386.986346
838.452935	2568.467885
838.768842	2497.891731
839.084706	2505.453462
839.400526	2480.247692
839.716303	2492.850577
840.032037	2568.467885
840.347727	2452.521346
840.663373	2462.603654
840.978977	2560.906154
841.294537	2505.453462
841.610054	2523.097500
841.925527	2495.371154
842.240957	2530.659231
842.556344	2520.576923
842.871687	2437.397885
843.186987	2485.288846
843.502244	2452.521346
843.817458	2394.548077
844.132629	2450.000769
844.447756	2523.097500
844.762840	2472.685962
845.077881	2525.618077
845.392879	2462.603654
845.707833	2450.000769
846.022745	2505.453462
846.337613	2570.988462
846.652438	2573.509038
846.967221	2505.453462
847.281960	2555.865000
847.596656	2487.809423
847.911309	2490.330000
848.225919	2429.836154
848.540485	2427.315577
848.855009	2482.768269
849.169490	2472.685962
849.483928	2515.535769
849.798323	2465.124231
850.112675	2492.850577
850.426984	2495.371154
850.741251	2455.041923
851.055474	2553.344423
851.369654	2477.727115
851.683792	2510.494615
851.997887	2502.932885
852.311938	2538.220962
852.625947	2565.947308
852.939914	2507.974038
853.253837	2525.618077
853.567718	2434.877308
853.881555	2568.467885
854.195350	2513.015192
854.509103	2381.945192
854.822812	2513.015192
855.136479	2442.439038
855.450103	2477.727115
855.763685	2505.453462
856.077224	2586.111923
856.390720	2565.947308
856.704173	2480.247692
857.017584	2497.891731
857.330953	2528.138654
857.644278	2437.397885
857.957561	2528.138654
858.270802	2525.618077
858.584000	2492.850577
858.897155	2427.315577
859.210268	2447.480192
859.523339	2482.768269
859.836367	2502.932885
860.149352	2444.959615
860.462295	2518.056346
860.775195	2457.562500
861.088054	2530.659231
861.400869	2530.659231
861.713642	2482.768269
862.026373	2447.480192
862.339062	2502.932885
862.651708	2581.070769
862.964312	2470.165385
863.276873	2555.865000
863.589392	2462.603654
863.901869	2424.795000
864.214303	2434.877308
864.526696	2500.412308
864.839045	2467.644808
865.151353	2545.782692
865.463619	2533.179808
865.775842	2487.809423
866.088023	2606.276538
866.400162	2477.727115
866.712258	2563.426731
867.024313	2465.124231
867.336325	2482.768269
867.648296	2513.015192
867.960224	2502.932885
868.272110	2510.494615
868.583954	2502.932885
868.895755	2520.576923
869.207515	2535.700385
869.519233	2465.124231
869.830909	2510.494615
870.142542	2460.083077
870.454134	2475.206538
870.765684	2452.521346
871.077191	2447.480192
871.388657	2586.111923
871.700081	2475.206538
872.011463	2457.562500
872.322803	2525.618077
872.634101	2467.644808
872.945357	2467.644808
873.256571	2492.850577
873.567744	2513.015192
873.878874	2457.562500
874.189963	2513.015192
874.501010	2477.727115
874.812015	2510.494615
875.122979	2535.700385
875.433900	2487.809423
875.744780	2545.782692
876.055618	2492.850577
876.366415	2530.659231
876.677169	2477.727115
876.987882	2432.356731
877.298554	2467.644808
877.609183	2565.947308
877.919771	2450.000769
878.230317	2548.303269
878.540822	2470.165385
878.851285	2507.974038
879.161707	2437.397885
879.472087	2565.947308
879.782425	2528.138654
880.092722	2450.000769
880.402977	2462.603654
880.713191	2407.150962
881.023363	2608.797115
881.333494	2472.685962
881.643583	2439.918462
881.953631	2490.330000
882.263637	2457.562500
882.573602	2482.768269
882.883526	2460.083077
883.193408	2520.576923
883.503248	2485.288846
883.813048	2457.562500
884.122806	2570.988462
884.432522	2495.371154
884.742197	2404.630385
885.051831	2497.891731
885.361424	2513.015192
885.670975	2530.659231
885.980485	2457.562500
886.289954	2472.685962
886.599382	2457.562500
886.908768	2450.000769
887.218113	2581.070769
887.527417	2477.727115
887.836680	2581.070769
888.145901	2487.809423
888.455082	2429.836154
888.764221	2530.659231
889.073319	2472.685962
889.382376	2535.700385
889.691392	2457.562500
890.000366	2560.906154
890.309300	2550.823846
890.618193	2460.083077
890.927044	2518.056346
891.235855	2507.974038
891.544625	2535.700385
891.853353	2490.330000
892.162041	2520.576923
892.470687	2523.097500
892.779293	2497.891731
893.087858	2507.974038
893.396381	2550.823846
893.704864	2470.165385
894.013306	2475.206538
894.321707	2528.138654
894.630068	2538.220962
894.938387	2460.083077
895.246665	2510.494615
895.554903	2427.315577
895.863100	2492.850577
896.171256	2462.603654
896.479371	2550.823846
896.787446	2465.124231
897.095480	2513.015192
897.403473	2429.836154
897.711425	2480.247692
898.019336	2470.165385
898.327207	2492.850577
898.635038	2530.659231
898.942827	2480.247692
899.250576	2510.494615
899.558284	2470.165385
899.865952	2560.906154
900.173579	2455.041923
900.481165	2500.412308
900.788711	2455.041923
901.096216	2510.494615
901.403681	2540.741538
901.711105	2513.015192
902.018489	2490.330000
902.325832	2568.467885
902.633135	2455.041923
902.940397	2495.371154
903.247619	2510.494615
903.554800	2460.083077
903.861941	2497.891731
904.169041	2507.974038
904.476101	2563.426731
904.783121	2535.700385
905.090100	2586.111923
905.397039	2417.233269
905.703938	2487.809423
906.010796	2576.029615
906.317614	2528.138654
906.624391	2467.644808
906.931129	2472.685962
907.237826	2447.480192
907.544483	2472.685962
907.851099	2492.850577
908.157675	2477.727115
908.464211	2480.247692
908.770707	2507.974038
909.077163	2500.412308
909.383578	2520.576923
909.689954	2492.850577
909.996289	2460.083077
910.302584	2422.274423
910.608839	2495.371154
910.915054	2460.083077
911.221229	2414.712692
911.527363	2505.453462
911.833458	2455.041923
912.139513	2502.932885
912.445527	2535.700385
912.751502	2538.220962
913.057436	2477.727115
913.363331	2487.809423
913.669186	2389.506923
913.975000	2397.068654
914.280775	2472.685962
914.586510	2457.562500
914.892205	2487.809423
915.197859	2414.712692
915.503475	2553.344423
915.809050	2480.247692
916.114585	2518.056346
916.420081	2502.932885
916.725536	2507.974038
917.030952	2455.041923
917.336328	2550.823846
917.641665	2477.727115
917.946961	2429.836154
918.252218	2467.644808
918.557435	2513.015192
918.862612	2460.083077
919.167750	2467.644808
919.472848	2495.371154
919.777906	2442.439038
920.082925	2545.782692
920.387904	2470.165385
920.692843	2528.138654
920.997743	2492.850577
921.302603	2510.494615
921.607423	2487.809423
921.912204	2550.823846
922.216946	2553.344423
922.521647	2439.918462
922.826310	2495.371154
923.130932	2518.056346
923.435516	2419.753846
923.740059	2495.371154
924.044564	2475.206538
924.349028	2528.138654
924.653454	2513.015192
924.957840	2470.165385
925.262186	2422.274423
925.566493	2467.644808
925.870761	2558.385577
926.174989	2399.589231
926.479178	2525.618077
926.783328	2495.371154
927.087438	2492.850577
927.391509	2492.850577
927.695541	2520.576923
927.999533	2507.974038
928.303486	2507.974038
928.607400	2515.535769
928.911275	2495.371154
929.215110	2450.000769
929.518906	2462.603654
929.822663	2482.768269
930.126381	2457.562500
930.430060	2467.644808
930.733699	2555.865000
931.037299	2450.000769
931.340861	2480.247692
931.644383	2462.603654
931.947866	2432.356731
932.251309	2523.097500
932.554714	2510.494615
932.858080	2465.124231
933.161407	2515.535769
933.464694	2465.124231
933.767943	2475.206538
934.071153	2450.000769
934.374323	2523.097500
934.677455	2462.603654
934.980548	2502.932885
935.283602	2412.192115
935.586617	2424.795000
935.889593	2530.659231
936.192530	2500.412308
936.495428	2510.494615
936.798287	2530.659231
937.101108	2523.097500
937.403890	2510.494615
937.706632	2500.412308
938.009336	2490.330000
938.312002	2470.165385
938.614628	2505.453462
938.917216	2485.288846
939.219765	2475.206538
939.522275	2591.153077
939.824747	2470.165385
940.127179	2492.850577
940.429573	2487.809423
940.731929	2492.850577
941.034246	2490.330000
941.336524	2510.494615
941.638763	2434.877308
941.940964	2507.974038
942.243126	2429.836154
942.545250	2505.453462
942.847335	2394.548077
943.149381	2452.521346
943.451389	2417.233269
943.753359	2475.206538
944.055290	2457.562500
944.357182	2487.809423
944.659036	2475.206538
944.960851	2507.974038
945.262628	2452.521346
945.564367	2412.192115
945.866067	2523.097500
946.167729	2442.439038
946.469352	2523.097500
946.770937	2470.165385
947.072484	2520.576923
947.373992	2495.371154
947.675462	2495.371154
947.976893	2470.165385
948.278286	2500.412308
948.579641	2470.165385
948.880958	2397.068654
949.182236	2457.562500
949.483476	2495.371154
949.784678	2444.959615
950.085841	2505.453462
950.386967	2487.809423
950.688054	2492.850577
950.989103	2507.974038
951.290114	2518.056346
951.591087	2487.809423
951.892021	2513.015192
952.192917	2540.741538
952.493776	2472.685962
952.794596	2487.809423
953.095378	2477.727115
953.396122	2505.453462
953.696828	2525.618077
953.997496	2419.753846
954.298126	2523.097500
954.598718	2477.727115
954.899272	2523.097500
955.199788	2513.015192
955.500266	2570.988462
955.800706	2570.988462
956.101108	2502.932885
956.401472	2475.206538
956.701798	2505.453462
957.002087	2505.453462
957.302337	2470.165385
957.602550	2555.865000
957.902724	2447.480192
958.202861	2422.274423
958.502960	2492.850577
958.803022	2490.330000
959.103045	2502.932885
959.403031	2502.932885
959.702979	2450.000769
960.002889	2450.000769
960.302762	2475.206538
960.602596	2520.576923
960.902393	2490.330000
961.202153	2515.535769
961.501875	2576.029615
961.801559	2507.974038
962.101205	2429.836154
962.400814	2434.877308
962.700385	2497.891731
962.999918	2583.591346
963.299414	2422.274423
963.598873	2540.741538
963.898293	2402.109808
964.197677	2417.233269
964.497022	2475.206538
964.796331	2434.877308
965.095601	2530.659231
965.394835	2510.494615
965.694030	2507.974038
965.993189	2467.644808
966.292309	2528.138654
966.591393	2414.712692
966.890439	2369.342308
967.189447	2417.233269
967.488419	2528.138654
967.787353	2497.891731
968.086249	2513.015192
968.385108	2480.247692
968.683930	2482.768269
968.982714	2538.220962
969.281462	2548.303269
969.580172	2505.453462
969.878844	2510.494615
970.177480	2470.165385
970.476078	2477.727115
970.774639	2502.932885
971.073162	2442.439038
971.371649	2450.000769
971.670098	2480.247692
971.968510	2492.850577
972.266885	2525.618077
972.565223	2510.494615
972.863524	2480.247692
973.161788	2414.712692
973.460014	2520.576923
973.758204	2538.220962
974.056356	2525.618077
974.354471	2450.000769
974.652550	2513.015192
974.950591	2510.494615
975.248595	2422.274423
975.546563	2452.521346
975.844493	2510.494615
976.142386	2429.836154
976.440243	2490.330000
976.738062	2429.836154
977.035845	2525.618077
977.333590	2434.877308
977.631299	2465.124231
977.928971	2530.659231
978.226606	2404.630385
978.524204	2538.220962
978.821765	2492.850577
979.119290	2487.809423
979.416777	2475.206538
979.714228	2588.632500
980.011642	2477.727115
980.309020	2550.823846
980.606360	2507.974038
980.903664	2467.644808
981.200931	2543.262115
981.498162	2533.179808
981.795356	2505.453462
982.092513	2528.138654
982.389633	2507.974038
982.686717	2535.700385
982.983764	2475.206538
983.280775	2497.891731
983.577749	2553.344423
983.874686	2452.521346
984.171587	2533.179808
984.468451	2452.521346
984.765279	2427.315577
985.062070	2404.630385
985.358824	2495.371154
985.655543	2434.877308
985.952224	2535.700385
986.248869	2492.850577
986.545478	2437.397885
986.842050	2502.932885
987.138586	2497.891731
987.435086	2518.056346
987.731549	2525.618077
988.027975	2553.344423
988.324366	2465.124231
988.620719	2442.439038
988.917037	2492.850577
989.213318	2578.550192
989.509563	2475.206538
989.805772	2487.809423
990.101944	2460.083077
990.398080	2520.576923
990.694180	2553.344423
990.990244	2457.562500
991.286271	2533.179808
991.582262	2540.741538
991.878217	2480.247692
992.174136	2424.795000
992.470019	2538.220962
992.765865	2429.836154
993.061676	2495.371154
993.357450	2389.506923
993.653188	2482.768269
993.948890	2467.644808
994.244556	2419.753846
994.540186	2462.603654
994.835780	2434.877308
995.131337	2500.412308
995.426859	2497.891731
995.722345	2404.630385
996.017795	2460.083077
996.313208	2573.509038
996.608586	2389.506923
996.903928	2432.356731
997.199234	2502.932885
997.494504	2530.659231
997.789738	2515.535769
998.084936	2444.959615
998.380099	2510.494615
998.675225	2480.247692
998.970316	2470.165385
999.265371	2477.727115
999.560390	2467.644808
999.855373	2480.247692
1000.150320	2455.041923
1000.445232	2394.548077
1000.740108	2538.220962
1001.034948	2477.727115
1001.329752	2505.453462
1001.624521	2427.315577
1001.919254	2523.097500
1002.213951	2487.809423
1002.508613	2507.974038
1002.803239	2573.509038
1003.097829	2492.850577
1003.392384	2455.041923
1003.686903	2528.138654
1003.981386	2507.974038
1004.275834	2520.576923
1004.570246	2460.083077
1004.864623	2518.056346
1005.158964	2492.850577
1005.453270	2613.838269
1005.747540	2409.671538
1006.041775	2439.918462
1006.335974	2447.480192
1006.630138	2444.959615
1006.924266	2515.535769
1007.218359	2470.165385
1007.512416	2434.877308
1007.806438	2326.492500
1008.100425	2518.056346
1008.394376	2492.850577
1008.688292	2586.111923
1008.982172	2487.809423
1009.276017	2528.138654
1009.569827	2452.521346
1009.863602	2495.371154
1010.157341	2573.509038
1010.451045	2462.603654
1010.744714	2442.439038
1011.038347	2450.000769
1011.331945	2467.644808
1011.625508	2515.535769
1011.919036	2545.782692
1012.212528	2450.000769
1012.505986	2495.371154
1012.799408	2472.685962
1013.092795	2502.932885
1013.386147	2492.850577
1013.679464	2520.576923
1013.972745	2528.138654
1014.265992	2535.700385
1014.559204	2510.494615
1014.852380	2429.836154
1015.145521	2485.288846
1015.438628	2507.974038
1015.731699	2513.015192
1016.024736	2510.494615
1016.317737	2495.371154
1016.610703	2452.521346
1016.903635	2477.727115
1017.196531	2409.671538
1017.489393	2555.865000
1017.782219	2432.356731
1018.075011	2409.671538
1018.367768	2472.685962
1018.660490	2510.494615
1018.953177	2510.494615
1019.245829	2510.494615
