Dividing Wavelength (nm)	Counts (n)	Blue Motor Position (mm): 0.000000	Red Motor Position (mm): 13.400000	
326.493990	2125.274844
326.888308	2125.274844
327.282561	2125.274844
327.676750	2093.472725
328.070874	2093.087077
328.464933	2095.882397
328.858929	2102.675352
329.252859	2111.212546
329.646726	2123.187807
330.040528	2138.180198
330.434265	2156.086377
330.827938	2170.796463
331.221547	2188.183403
331.615091	2207.806094
332.008571	2229.155381
332.401986	2246.317989
332.795338	2267.412698
333.188625	2286.750564
333.581847	2301.760599
333.975006	2322.789773
334.368100	2341.550427
334.761129	2362.413242
335.154095	2375.426980
335.546996	2392.060267
335.939833	2406.150292
336.332606	2424.863056
336.725315	2435.078954
337.117960	2442.497012
337.510540	2453.763991
337.903056	2465.111628
338.295508	2471.544140
338.687896	2477.938844
339.080220	2487.716162
339.472480	2492.769918
339.864676	2499.454488
340.256807	2502.602689
340.648875	2503.792401
341.040879	2507.313647
341.432818	2510.187105
341.824694	2511.523011
342.216506	2512.702641
342.608253	2511.709533
342.999937	2513.214318
343.391557	2513.199194
343.783113	2508.500839
344.174605	2511.273474
344.566033	2511.649040
344.957397	2508.087464
345.348697	2503.994048
345.739934	2503.552947
346.131106	2499.777122
346.522215	2501.700323
346.913260	2494.564569
347.304241	2497.793428
347.695159	2496.046668
348.086012	2494.763695
348.476802	2489.926708
348.867528	2490.062819
349.258191	2487.343116
349.648789	2489.392345
350.039324	2484.394041
350.429796	2485.654330
350.820203	2483.363125
351.210548	2483.070738
351.600828	2485.114926
351.991045	2482.896819
352.381198	2481.298773
352.771288	2483.499237
353.161314	2479.836838
353.551276	2484.709113
353.941175	2479.088227
354.331010	2481.447487
354.720782	2477.144862
355.110490	2482.168372
355.500135	2479.884729
355.889717	2482.206181
356.279235	2481.797847
356.668689	2485.140132
357.058080	2479.332723
357.447408	2480.363639
357.836672	2479.607466
358.225873	2483.413537
358.615010	2478.314410
359.004084	2484.557879
359.393095	2483.282467
359.782043	2485.493013
360.170927	2485.077118
360.559748	2488.043837
360.948505	2486.309680
361.337199	2486.944865
361.725830	2487.683394
362.114398	2489.168014
362.502903	2490.803868
362.891344	2491.633138
363.279722	2488.618528
363.668037	2488.429485
364.056289	2491.993581
364.444478	2494.105824
364.832603	2492.061636
365.220665	2493.775629
365.608665	2494.120948
365.996601	2495.731596
366.384474	2496.119765
366.772284	2495.645897
367.160031	2497.430465
367.547715	2499.303254
367.935336	2502.529592
368.322893	2506.224758
368.710388	2508.538648
369.097820	2516.309586
369.485189	2516.115502
369.872495	2524.975330
370.259738	2532.532019
370.646918	2534.777853
371.034035	2543.864533
371.421090	2549.550955
371.808081	2561.621998
372.195010	2574.466858
372.581875	2587.440267
372.968678	2599.105497
373.355418	2609.071858
373.742096	2629.145733
374.128710	2640.979842
374.515262	2655.896616
374.901751	2669.543019
375.288177	2685.596574
375.674540	2711.520707
376.060841	2727.665002
376.447079	2746.297107
376.833254	2766.920467
377.219367	2778.900770
377.605417	2815.643219
377.991404	2824.639158
378.377329	2845.164216
378.763191	2862.084849
379.148991	2900.170767
379.534727	2925.633635
379.920402	2955.714200
380.306013	2966.139306
380.691563	3016.649147
381.077049	3035.092208
381.462474	3054.578788
381.847835	3092.064808
382.233134	3116.017851
382.618371	3116.963067
383.003545	3183.092923
383.388657	3188.628110
383.773706	3224.188409
384.158693	3239.364803
384.543618	3265.525871
384.928480	3299.934267
385.313280	3344.702233
385.698017	3343.774661
386.082692	3397.546128
386.467305	3401.934453
386.851856	3432.443516
387.236344	3457.155252
387.620770	3486.053667
388.005133	3509.341277
388.389435	3534.937735
388.773674	3541.884445
389.157851	3581.646546
389.541965	3587.900098
389.926018	3553.824418
390.310008	3613.977987
390.693936	3625.577682
391.077802	3657.533556
391.461606	3637.005977
391.845348	3686.643699
392.229027	3672.914116
392.612645	3667.492355
392.996200	3728.165162
393.379694	3748.675097
393.763125	3787.865027
394.146494	3735.615988
394.529801	3772.260135
394.913047	3792.641520
395.296230	3741.408273
395.679351	3762.024072
396.062410	3754.467383
396.445408	3717.412381
396.828343	3711.168912
397.211217	3703.392932
397.594028	3613.110908
397.976778	3627.815954
398.359466	3619.087196
398.742092	3602.143878
399.124656	3522.849048
399.507158	3541.367727
399.889598	3527.098741
400.271977	3523.627907
400.654294	3467.754278
401.036549	3438.336625
401.418742	3383.635064
401.800874	3402.025194
402.182944	3375.465875
402.564952	3366.326263
402.946898	3322.405210
403.328783	3285.972791
403.710606	3208.996892
404.092367	3245.275556
404.474067	3200.237887
404.855705	3163.036693
405.237282	3110.316306
405.618797	3108.458641
406.000250	3083.477203
406.381642	3070.342476
406.762972	3028.228677
407.144240	2995.067967
407.525447	2967.686940
407.906593	2948.338992
408.287677	2925.615991
408.668700	2882.433467
409.049661	2864.365971
409.430560	2845.315451
409.811399	2808.981335
410.192176	2803.972948
410.572891	2778.419339
410.953545	2765.423245
411.334138	2734.347052
411.714669	2721.096379
412.095139	2694.350537
412.475547	2686.864424
412.855894	2669.180056
413.236180	2654.414517
413.616405	2640.896662
413.996568	2633.276958
414.376670	2618.642489
414.756711	2606.611775
415.136691	2598.135075
415.516609	2592.874631
415.896466	2584.309711
416.276262	2577.574729
416.655997	2568.311609
417.035670	2565.365054
417.415283	2559.497151
417.794834	2555.300391
418.174324	2552.162273
418.553753	2549.235883
418.933121	2551.292673
419.312428	2543.476364
419.691674	2540.517207
420.070859	2543.670449
420.449983	2538.762886
420.829045	2535.140817
421.208047	2536.670807
421.586988	2534.389685
421.965867	2532.804242
422.344686	2532.423635
422.723444	2533.073943
423.102141	2530.719725
423.480777	2530.936494
423.859352	2527.747964
424.237866	2530.387008
424.616319	2530.636546
424.994712	2531.417924
425.373044	2529.620753
425.751314	2530.477749
426.129524	2532.030425
426.507673	2529.066226
426.885762	2531.473377
427.263789	2531.551515
427.641756	2529.746782
428.019662	2530.152595
428.397508	2528.743592
428.775292	2529.141843
429.153016	2529.149405
429.530679	2532.799201
429.908282	2529.154446
430.285824	2526.215454
430.663305	2526.800228
431.040726	2530.765095
431.418086	2526.986750
431.795385	2529.595547
432.172624	2529.189734
432.549802	2532.463964
432.926920	2530.717204
433.303977	2530.235774
433.680974	2528.294930
434.057910	2530.626463
434.434786	2529.774508
434.811601	2529.731658
435.188355	2527.415248
435.565050	2528.995650
435.941683	2531.183511
436.318257	2529.282996
436.694770	2527.337110
437.071222	2527.024559
437.447614	2525.739065
437.823946	2527.843746
438.200218	2529.658562
438.576429	2530.704601
438.952580	2528.990609
439.328670	2531.140661
439.704700	2530.946577
440.080670	2527.687471
440.456580	2530.631504
440.832429	2530.016484
441.208218	2529.517409
441.583947	2531.044879
441.959616	2531.284334
442.335224	2531.516227
442.710773	2530.908768
443.086261	2533.315919
443.461689	2533.240302
443.837057	2531.705270
444.212365	2532.831968
444.587612	2533.111752
444.962800	2532.837009
445.337927	2534.349355
445.712995	2533.925898
446.088002	2531.201155
446.462949	2534.699716
446.837837	2533.567977
447.212664	2534.462781
447.587431	2534.868594
447.962139	2534.334232
448.336786	2536.585107
448.711374	2537.404295
449.085901	2533.983872
449.460369	2534.465302
449.834776	2533.114273
450.209124	2536.806918
450.583412	2539.418236
450.957640	2536.310364
451.331808	2535.624767
451.705917	2535.493697
452.079965	2535.327339
452.453954	2535.720549
452.827883	2537.724408
453.201752	2535.960004
453.575562	2534.601413
453.949311	2534.452699
454.323001	2536.196938
454.696632	2534.760209
455.070202	2537.868081
455.443713	2537.001002
455.817164	2535.854140
456.190556	2533.225178
456.563888	2535.357586
456.937160	2533.522606
457.310373	2539.841692
457.683526	2537.371527
458.056619	2538.266332
458.429653	2537.737011
458.802628	2538.883873
459.175542	2538.417567
459.548398	2538.752803
459.921194	2538.561239
460.293930	2539.950077
460.666607	2541.059131
461.039224	2542.039636
461.411782	2544.015768
461.784280	2543.846889
462.156719	2542.919317
462.529099	2544.502239
462.901419	2543.108360
463.273680	2542.815973
463.645882	2541.560726
464.018024	2543.378062
464.390106	2541.033925
464.762130	2542.637012
465.134094	2546.490974
465.505999	2549.525749
465.877845	2552.515153
466.249631	2551.464073
466.621358	2550.216387
466.993026	2552.507592
467.364634	2553.319217
467.736184	2547.327806
468.107674	2546.735470
468.479105	2548.681356
468.850477	2546.889226
469.221790	2547.572302
469.593043	2544.444266
469.964238	2547.804195
470.335373	2548.517518
470.706449	2547.388300
471.077467	2547.842004
471.448425	2550.377704
471.819324	2551.022972
472.190164	2553.276368
472.560945	2551.441387
472.931667	2546.269164
473.302330	2547.887374
473.672934	2547.171530
474.043479	2547.625234
474.413965	2547.378218
474.784393	2545.555840
475.154761	2545.911242
475.525070	2545.379400
475.895321	2545.177754
476.265513	2542.994934
476.635645	2548.953578
477.005719	2548.409133
477.375734	2547.965512
477.745691	2547.973074
478.115588	2549.913918
478.485427	2551.668239
478.855207	2552.195040
479.224928	2551.416182
479.594591	2555.234856
479.964194	2555.522202
480.333739	2553.762839
480.703226	2555.239897
481.072653	2555.582695
481.442022	2555.098745
481.811333	2553.924156
482.180584	2552.774773
482.549777	2554.539177
482.918912	2553.357026
483.287988	2554.055226
483.657005	2551.637993
484.025964	2551.423743
484.394864	2550.801161
484.763706	2555.224773
485.132489	2552.895760
485.501213	2553.031872
485.869879	2552.137067
486.238487	2551.592622
486.607036	2551.597663
486.975527	2552.671429
487.343959	2550.329813
487.712333	2552.797458
488.080648	2554.584547
488.448905	2550.997766
488.817104	2551.857283
489.185244	2551.600184
489.553326	2554.776111
489.921350	2555.854918
490.289315	2554.221584
490.657222	2557.952038
491.025070	2556.522871
491.392861	2558.420865
491.760593	2555.922973
492.128267	2557.163097
492.495883	2552.817623
492.863440	2556.497665
493.230939	2552.210163
493.598380	2555.489434
493.965763	2548.759494
494.333088	2550.846531
494.700354	2551.859803
495.067563	2553.011707
495.434713	2549.061963
495.801805	2551.544731
496.168839	2552.147149
496.535815	2555.343241
496.902733	2549.767724
497.269593	2555.118909
497.636395	2551.673281
498.003139	2554.216543
498.369825	2554.549259
498.736453	2553.314176
499.103023	2553.261244
499.469535	2552.608415
499.835989	2551.612787
500.202385	2551.131357
500.568723	2552.686552
500.935003	2555.774259
501.301226	2553.336861
501.667390	2553.535987
502.033497	2553.495658
502.399546	2553.689742
502.765537	2553.021789
503.131470	2552.888199
503.497345	2552.678991
503.863163	2552.731923
504.228923	2553.200750
504.594625	2550.264278
504.960269	2553.654454
505.325856	2552.479865
505.691385	2551.499361
506.056856	2554.445915
506.422270	2551.610266
506.787625	2552.469783
507.152924	2553.175544
507.518164	2550.833928
507.883347	2550.322251
508.248472	2552.484906
508.613540	2553.246121
508.978550	2550.110523
509.343503	2555.620504
509.708398	2553.805689
510.073236	2553.173024
510.438016	2553.772921
510.802738	2551.927859
511.167403	2554.410627
511.532010	2553.049516
511.896561	2553.851059
512.261053	2552.583209
512.625488	2551.766542
512.989866	2548.968702
513.354186	2552.250493
513.718449	2546.397713
514.082655	2553.314176
514.446803	2555.146636
514.810894	2554.854249
515.174927	2554.498847
515.538904	2553.470452
515.902822	2553.651933
516.266684	2555.093703
516.630488	2554.859290
516.994235	2555.376008
517.357925	2551.030533
517.721558	2556.898437
518.085133	2554.093034
518.448651	2556.502706
518.812112	2555.801986
519.175516	2553.669578
519.538863	2553.931718
519.902152	2552.046326
520.265385	2556.260731
520.628560	2555.575134
520.991678	2554.012376
521.354739	2552.905843
521.717743	2551.484237
522.080690	2556.359033
522.443580	2553.891388
522.806413	2554.108158
523.169189	2554.156049
523.531908	2557.712583
523.894569	2555.716286
524.257174	2556.958930
524.619722	2555.040771
524.982213	2554.367777
525.344647	2552.371480
525.707025	2554.662685
526.069345	2552.515153
526.431608	2552.258054
526.793815	2554.062788
527.155964	2557.498334
527.518057	2555.345761
527.880093	2555.360885
528.242072	2556.545556
528.603995	2556.979095
528.965860	2554.287119
529.327669	2555.353323
529.689421	2554.667726
530.051117	2555.055895
530.412755	2553.679660
530.774337	2556.190154
531.135862	2556.414486
531.497331	2554.917263
531.858743	2549.825698
532.220098	2551.499361
532.581396	2551.181768
532.942638	2552.873075
533.303824	2554.226625
533.664953	2555.839794
534.026025	2556.679146
534.387040	2554.279557
534.747999	2554.574465
535.108902	2553.825853
535.469748	2554.516491
535.830537	2556.885834
536.191270	2556.429609
536.551947	2554.670247
536.912567	2552.603373
537.273131	2554.808878
537.633638	2555.827191
537.994089	2555.413817
538.354483	2552.673950
538.714821	2554.060267
539.075103	2556.462377
539.435328	2555.318035
539.795497	2554.350133
540.155609	2553.228477
540.515665	2555.128992
540.875665	2554.314845
541.235609	2553.450287
541.595496	2557.528581
541.955328	2552.900802
542.315102	2557.788200
542.674821	2553.909032
543.034483	2555.617983
543.394090	2554.655123
543.753640	2555.413817
544.113134	2555.474311
544.472571	2554.531615
544.831953	2553.709907
545.191278	2555.575134
545.550548	2552.671429
545.909761	2554.380380
546.268918	2555.968344
546.628019	2552.958775
546.987064	2554.897098
547.346053	2555.504557
547.704986	2555.928014
548.063863	2553.649413
548.422684	2555.670916
548.781449	2554.680329
549.140158	2554.307283
549.498811	2554.292160
549.857408	2555.076059
550.215949	2554.849208
550.574434	2550.057591
550.932864	2553.435164
551.291237	2550.105482
551.649555	2553.659495
552.007817	2555.575134
552.366022	2556.694270
552.724173	2554.433312
553.082267	2553.530946
553.440305	2555.698642
553.798288	2552.961295
554.156215	2554.564382
554.514086	2554.952551
554.871902	2553.745195
555.229661	2557.140412
555.587365	2556.928683
555.945014	2556.981616
556.302606	2554.438353
556.660143	2557.324414
557.017625	2553.992211
557.375050	2555.721327
557.732421	2555.660833
558.089735	2555.499516
558.446994	2552.789896
558.804197	2557.173179
559.161345	2553.515822
559.518437	2554.329969
559.875474	2556.502706
560.232455	2554.871893
560.589381	2555.670916
560.946251	2556.467418
561.303065	2555.736451
561.659825	2556.041440
562.016528	2556.868190
562.373177	2554.720658
562.729770	2553.886347
563.086307	2555.925494
563.442789	2553.762839
563.799216	2554.166131
564.155587	2555.880123
564.511904	2555.917932
564.868164	2556.550597
565.224370	2557.909188
565.580520	2553.485575
565.936615	2555.391132
566.292654	2556.447253
566.648638	2558.037737
567.004567	2554.980278
567.360441	2555.827191
567.716260	2554.614794
568.072023	2558.088149
568.427732	2551.479196
568.783385	2555.628066
569.138982	2550.685214
569.494525	2553.432643
569.850013	2550.932231
570.205445	2554.390462
570.560823	2553.503219
570.916145	2556.409445
571.271412	2555.144115
571.626625	2554.697973
571.981782	2553.762839
572.336884	2554.375339
572.691931	2554.584547
573.046923	2554.284598
573.401860	2554.763508
573.756743	2552.537838
574.111570	2555.365926
574.466342	2553.510781
574.821059	2554.395504
575.175722	2555.819630
575.530330	2549.135060
575.884882	2553.583878
576.239380	2553.508261
576.593823	2555.199568
576.948211	2551.784186
577.302544	2555.413817
577.656823	2555.534804
578.011047	2554.952551
578.365216	2551.569937
578.719330	2554.183775
579.073389	2552.177396
579.427394	2552.058929
579.781344	2553.329300
580.135239	2552.414330
580.489080	2553.074721
580.842866	2553.941800
581.196597	2555.819630
581.550273	2553.893909
581.903895	2553.281409
582.257463	2553.866183
582.610975	2551.955585
582.964434	2554.317366
583.317837	2552.769732
583.671186	2554.831563
584.024481	2553.417520
584.377721	2552.860472
584.730906	2552.532797
585.084037	2555.713765
585.437113	2553.432643
585.790135	2553.472972
586.143103	2553.634289
586.496016	2550.163455
586.848874	2548.270502
587.201679	2551.837118
587.554428	2550.024823
587.907124	2551.595143
588.259765	2546.092723
588.612352	2553.896429
588.964884	2550.801161
589.317362	2551.925338
589.669786	2552.104299
590.022155	2554.113199
590.374470	2553.997252
590.726731	2552.510112
591.078937	2550.821326
591.431090	2549.661860
591.783188	2550.402910
592.135232	2550.223949
592.487222	2552.926007
592.839157	2554.178734
593.191038	2551.511964
593.542866	2552.353836
593.894639	2551.058260
594.246358	2550.851572
594.598022	2550.395348
594.949633	2550.448280
595.301190	2550.866696
595.652692	2552.308466
596.004141	2555.186965
596.355535	2552.890719
596.706876	2552.051367
597.058162	2551.020451
597.409395	2552.469783
597.760573	2550.773435
598.111698	2549.785368
598.462768	2549.293856
598.813785	2551.640513
599.164748	2551.373332
599.515657	2551.806871
599.866511	2550.649926
600.217312	2549.767724
600.568060	2552.174875
600.918753	2553.377191
601.269392	2552.343754
601.619978	2551.620348
601.970510	2552.734443
602.320988	2551.012889
602.671412	2550.349978
603.021783	2550.788558
603.372100	2549.732436
603.722363	2549.200595
604.072572	2552.096738
604.422728	2552.225287
604.772830	2549.858465
605.122878	2547.655481
605.472872	2547.796633
605.822813	2545.792775
606.172701	2548.303269
606.522534	2551.635472
606.872314	2551.605225
607.222041	2549.823177
607.571714	2549.067004
607.921333	2552.464742
608.270899	2551.101110
608.620411	2553.505740
608.969870	2553.404917
609.319276	2553.057077
609.668627	2555.428940
610.017926	2556.399362
610.367171	2559.635783
610.716362	2558.824157
611.065500	2557.014383
611.414585	2555.174362
611.763616	2554.939948
612.112594	2552.827705
612.461518	2553.019269
612.810389	2550.944834
613.159207	2553.362067
613.507971	2548.779658
613.856682	2552.172355
614.205340	2552.878116
614.553945	2552.971378
614.902496	2548.603218
615.250994	2554.435833
615.599439	2549.545914
615.947830	2554.193857
616.296169	2550.513815
616.644454	2552.767211
616.992686	2551.549772
617.340864	2551.239741
617.688990	2549.094730
618.037063	2552.719320
618.385082	2551.214536
618.733048	2552.684032
619.080961	2549.971891
619.428821	2551.214536
619.776628	2551.627910
620.124382	2551.108671
620.472083	2551.360729
620.819731	2553.470452
621.167326	2549.175389
621.514868	2551.683363
621.862357	2550.430636
622.209793	2550.680173
622.557176	2554.100596
622.904506	2548.857796
623.251783	2546.274205
623.599007	2548.222611
623.946179	2542.571477
624.293297	2546.271684
624.640363	2550.009700
624.987376	2550.813764
625.334336	2548.855276
625.681243	2547.768907
626.028097	2550.309648
626.374899	2550.420554
626.721647	2548.988866
627.068343	2550.239072
627.414987	2549.782848
627.761577	2548.235214
628.108115	2545.873433
628.454600	2548.441901
628.801032	2547.428629
629.147412	2549.356870
629.493739	2549.608928
629.840014	2549.092210
630.186236	2550.730585
630.532405	2549.941644
630.878521	2551.000287
631.224585	2549.245965
631.570597	2548.394010
631.916556	2547.988197
632.262462	2549.187992
632.608316	2549.724875
632.954117	2547.509288
633.299866	2548.946016
633.645562	2545.707075
633.991206	2547.589946
634.336797	2545.500388
634.682336	2550.460883
635.027823	2549.540873
635.373257	2547.952909
635.718639	2546.372507
636.063968	2548.217570
636.409245	2548.988866
636.754470	2546.806047
637.099642	2545.528114
637.444762	2548.630944
637.789829	2547.221942
638.134845	2545.918803
638.479808	2543.562064
638.824719	2545.875954
639.169577	2544.240099
639.514383	2544.903011
639.859137	2548.462066
640.203839	2546.130532
640.548489	2545.560882
640.893086	2543.246992
641.237632	2541.356559
641.582125	2542.168185
641.926566	2543.441076
642.270955	2547.562220
642.615292	2544.930737
642.959576	2544.484595
643.303809	2545.344112
643.647990	2545.341591
643.992118	2543.662887
644.336195	2545.923845
644.680219	2547.216901
645.024192	2544.426622
645.368112	2546.314534
645.711981	2548.562889
646.055797	2547.030378
646.399562	2546.473330
646.743274	2547.501726
647.086935	2544.603062
647.430544	2545.883515
647.774101	2546.216232
648.117606	2547.302600
648.461059	2546.687579
648.804460	2546.997610
649.147810	2544.582898
649.491108	2546.203629
649.834354	2546.685059
650.177548	2546.468289
650.520690	2548.116747
650.863781	2546.528783
651.206820	2546.838814
651.549807	2545.202960
651.892742	2545.480223
652.235626	2544.653474
652.578458	2543.073072
652.921238	2547.020296
653.263967	2544.406457
653.606644	2546.198588
653.949269	2544.948381
654.291843	2545.699513
654.634365	2544.726571
654.976836	2542.707588
655.319255	2544.986190
655.661622	2543.622558
656.003938	2545.069369
656.346203	2544.376210
656.688416	2547.403423
657.030577	2543.483926
657.372687	2544.920655
657.714746	2546.473330
658.056753	2541.752290
658.398708	2540.434028
658.740612	2541.706919
659.082465	2542.339584
659.424266	2542.294214
659.766016	2539.035108
660.107715	2544.429142
660.449362	2544.020809
660.790958	2543.796478
661.132503	2546.004503
661.473996	2546.816129
661.815438	2544.771941
662.156829	2543.559543
662.498168	2543.194060
662.839456	2546.284287
663.180693	2542.657177
663.521879	2544.650953
663.863013	2544.522404
664.204097	2544.729091
664.545129	2542.301776
664.886110	2544.986190
665.227040	2543.960315
665.567918	2543.194060
665.908746	2543.378062
666.249522	2542.513504
666.590248	2544.822352
666.930922	2544.850079
667.271545	2544.366128
667.612118	2542.321940
667.952639	2541.505273
668.293109	2544.081303
668.633528	2542.079965
668.973896	2544.913093
669.314213	2544.030891
669.654480	2544.184647
669.994695	2544.131714
670.334859	2546.347302
670.674973	2542.415202
671.015035	2545.812939
671.355047	2543.133566
671.695008	2542.596683
672.034918	2541.986703
672.374777	2544.018288
672.714585	2544.046015
673.054342	2543.463762
673.394049	2542.994934
673.733705	2541.648946
674.073310	2545.046684
674.412864	2540.161806
674.752368	2544.756817
675.091820	2544.875285
675.431223	2543.436035
675.770574	2542.795809
676.109875	2539.133410
676.449125	2539.501415
676.788324	2538.820859
677.127473	2542.942002
677.466571	2536.940508
677.805619	2544.333361
678.144616	2542.838658
678.483562	2542.321940
678.822458	2542.926879
679.161303	2543.932589
679.500098	2542.263967
679.838842	2541.984183
680.177535	2544.852599
680.516179	2543.246992
680.854771	2542.727753
681.193314	2544.610624
681.531805	2544.744215
681.870247	2545.334030
682.208638	2544.691282
682.546978	2544.678680
682.885268	2544.903011
683.223508	2542.395037
683.561697	2543.403268
683.899836	2542.568957
684.237925	2543.743546
684.575963	2544.635830
684.913951	2542.284132
685.251889	2543.274718
685.589776	2543.985521
685.927614	2543.158772
686.265401	2541.885880
686.603137	2543.453679
686.940824	2541.933771
687.278460	2544.245140
687.616046	2544.706406
687.953582	2543.342774
688.291068	2545.618855
688.628504	2543.922507
688.965889	2543.171375
689.303224	2543.957795
689.640510	2545.137425
689.977745	2543.998124
690.314930	2540.819676
690.652065	2542.296734
690.989150	2541.628782
691.326185	2542.596683
691.663170	2540.744059
692.000105	2542.135417
692.336990	2543.299924
692.673825	2540.600386
693.010610	2540.928061
693.347345	2538.893956
693.684030	2537.119469
694.020665	2539.458565
694.357251	2537.973945
694.693786	2539.037628
695.030272	2540.809594
695.366707	2540.996117
695.703093	2541.107022
696.039429	2540.638195
696.375716	2541.754810
696.711952	2540.219779
697.048139	2538.720036
697.384276	2541.885880
697.720363	2540.113915
698.056400	2539.745911
698.392388	2541.396888
698.728326	2540.038297
699.064214	2540.272711
699.400053	2537.951260
699.735842	2539.367824
700.071581	2539.861857
700.407270	2540.708771
700.742910	2542.127856
701.078501	2541.177598
701.414042	2536.519572
701.749533	2541.550644
702.084974	2540.446631
702.420366	2538.987217
702.755709	2537.185004
703.091002	2539.393030
703.426246	2539.793802
703.761440	2539.619882
704.096584	2540.207176
704.431679	2540.854964
704.766725	2539.677855
705.101721	2540.676003
705.436668	2538.783050
705.771565	2541.129707
706.106413	2538.493184
706.441212	2538.808256
706.775961	2539.529141
707.110661	2539.526620
707.445311	2539.836651
707.779913	2541.059131
708.114465	2542.760521
708.448967	2540.862526
708.783421	2542.964687
709.117825	2537.573173
709.452180	2542.697506
709.786485	2538.727597
710.120742	2542.077444
710.454949	2542.778165
710.789107	2537.248019
711.123216	2534.959335
711.457275	2537.437062
711.791286	2537.502597
712.125247	2538.228523
712.459159	2540.489481
712.793023	2538.941847
713.126837	2539.042670
713.460602	2541.230530
713.794318	2538.835982
714.127985	2541.258257
714.461602	2540.116435
714.795171	2541.381765
715.128691	2541.979142
715.462162	2539.418236
715.795584	2539.403112
716.128957	2539.289686
716.462281	2538.578883
716.795556	2542.269008
717.128782	2535.627288
717.461960	2540.093750
717.795088	2536.814480
718.128167	2539.730787
718.461198	2538.962011
718.794180	2541.777496
719.127113	2536.776671
719.459997	2537.991589
719.792833	2541.701878
720.125619	2537.643749
720.458357	2539.690458
720.791046	2538.120138
721.123686	2537.147196
721.456278	2542.064841
721.788821	2536.133924
722.121315	2538.825900
722.453761	2536.587628
722.786158	2533.822555
723.118506	2537.492515
723.450805	2538.379758
723.783056	2539.529141
724.115259	2538.268852
724.447412	2537.910931
724.779518	2537.053934
725.111574	2538.740200
725.443582	2538.467978
725.775542	2538.873791
726.107453	2536.912782
726.439315	2538.619213
726.771129	2541.863195
727.102895	2536.819521
727.434612	2537.409336
727.766281	2538.669624
728.097901	2538.329346
728.429473	2533.318439
728.760996	2532.539581
729.092471	2532.332894
729.423897	2539.647608
729.755276	2538.042001
730.086606	2538.021836
730.417887	2538.404964
730.749120	2538.873791
731.080305	2538.962011
731.411442	2538.679707
731.742530	2539.677855
732.073570	2537.701723
732.404562	2538.611651
732.735506	2538.687268
733.066401	2538.866229
733.397249	2537.164840
733.728048	2538.271373
734.058798	2538.946888
734.389501	2533.298275
734.720156	2538.276414
735.050762	2537.547967
735.381320	2541.933771
735.711831	2535.622247
736.042293	2538.341949
736.372707	2538.162988
736.703073	2536.368337
737.033391	2534.281300
737.363661	2538.283976
737.693883	2538.319264
738.024056	2537.888245
738.354182	2537.421939
738.684260	2535.738193
739.014290	2537.704243
739.344272	2536.325488
739.674207	2534.387164
740.004093	2536.630477
740.333931	2538.321785
740.663722	2536.023018
740.993464	2538.213400
741.323159	2540.867567
741.652806	2537.489994
741.982405	2539.390509
742.311956	2536.091074
742.641460	2538.049562
742.970915	2536.050745
743.300323	2534.982020
743.629683	2540.706250
743.958996	2540.524769
744.288260	2537.815149
744.617477	2534.440096
744.946647	2533.381454
745.275768	2537.593338
745.604842	2531.254087
745.933869	2532.559746
746.262847	2530.233253
746.591778	2535.627288
746.920662	2535.060158
747.249498	2535.463450
747.578286	2537.001002
747.907027	2539.246836
748.235720	2536.759027
748.564365	2540.706250
748.892963	2538.271373
749.221514	2535.844058
749.550017	2539.594676
749.878473	2538.815818
750.206881	2537.880684
750.535242	2536.925385
750.863555	2536.794315
751.191821	2535.481094
751.520039	2535.201310
751.848210	2536.179294
752.176334	2535.881866
752.504411	2538.578883
752.832440	2533.215096
753.160421	2537.303472
753.488356	2535.977648
753.816243	2537.870601
754.144082	2535.413039
754.471875	2538.152906
754.799620	2534.387164
755.127318	2536.398584
755.454969	2534.641742
755.782572	2538.326826
756.110129	2538.440252
756.437638	2535.808769
756.765100	2533.711649
757.092515	2537.248019
757.419882	2537.328677
757.747203	2535.571835
758.074477	2535.080323
758.401703	2539.571991
758.728882	2536.960673
759.056014	2536.285158
759.383099	2537.563091
759.710138	2536.098636
760.037129	2537.883204
760.364073	2539.622402
760.690970	2536.658204
761.017820	2536.176774
761.344623	2536.693492
761.671379	2539.882022
761.998088	2534.218285
762.324751	2536.509490
762.651366	2536.413708
762.977935	2539.398071
763.304456	2537.908410
763.630931	2539.433359
763.957359	2540.698689
764.283740	2540.532331
764.610074	2539.705581
764.936362	2538.362114
765.262602	2536.789274
765.588796	2537.293389
765.914943	2536.927906
766.241044	2535.463450
766.567097	2536.519572
766.893104	2534.611495
767.219064	2533.895652
767.544978	2533.515044
767.870845	2535.297092
768.196665	2538.818338
768.522438	2535.221475
768.848165	2537.447144
769.173846	2535.410518
769.499479	2533.182328
769.825066	2534.137627
770.150607	2536.968235
770.476101	2535.249201
770.801548	2537.913451
771.126949	2536.264994
771.452303	2537.658873
771.777611	2534.979500
772.102872	2535.491177
772.428087	2535.919675
772.753256	2535.899510
773.078378	2535.002185
773.403453	2537.691640
773.728482	2535.647453
774.053465	2536.469161
774.378401	2533.270548
774.703291	2532.605116
775.028135	2534.848430
775.352932	2534.462781
775.677683	2532.602596
776.002388	2536.690971
776.327046	2533.890610
776.651658	2535.697864
776.976224	2535.965045
777.300743	2534.293903
777.625216	2536.416228
777.949643	2534.223327
778.274024	2535.849099
778.598359	2531.380116
778.922647	2530.291227
779.246889	2535.188707
779.571086	2530.916330
779.895236	2532.889941
780.219339	2532.983203
780.543397	2534.472864
780.867409	2532.297606
781.191374	2535.261804
781.515294	2535.670138
781.839167	2531.730476
782.162995	2534.634181
782.486776	2534.039324
782.810511	2532.663089
783.134201	2533.852802
783.457844	2533.419263
783.781441	2535.297092
784.104993	2533.401618
784.428498	2536.028060
784.751958	2530.535723
785.075372	2535.733152
785.398739	2531.770805
785.722061	2535.584438
786.045337	2531.501103
786.368568	2534.172915
786.691752	2533.048738
787.014891	2536.978317
787.337983	2534.467823
787.661030	2531.397760
787.984031	2534.064530
788.306987	2535.685261
788.629897	2535.259284
788.952760	2534.538399
789.275579	2533.938501
789.598351	2535.521424
789.921078	2537.177443
790.243759	2530.034128
790.566395	2532.761392
790.888984	2535.556712
791.211529	2533.726773
791.534027	2533.056299
791.856480	2533.540250
792.178888	2531.634694
792.501249	2534.366999
792.823566	2532.905065
793.145836	2533.610826
793.468062	2533.691485
793.790241	2532.373223
794.112375	2532.773995
794.434464	2532.900024
794.756507	2533.535209
795.078505	2535.009747
795.400457	2530.686957
795.722364	2527.997502
796.044226	2533.603265
796.366042	2533.293234
796.687812	2531.617050
797.009538	2533.444468
797.331218	2532.451361
797.652852	2534.417411
797.974442	2532.461443
798.295986	2534.866074
798.617484	2536.292720
798.938938	2534.006557
799.260346	2534.535878
799.581709	2533.436907
799.903026	2534.979500
800.224299	2535.639891
800.545526	2531.143182
800.866708	2535.687782
801.187845	2531.153264
801.508936	2533.643594
801.829983	2532.320291
802.150984	2533.888090
802.471940	2534.122503
802.792851	2534.281300
803.113717	2535.302133
803.434538	2532.635363
803.755314	2535.735673
804.076045	2531.327184
804.396731	2532.947915
804.717372	2532.027904
805.037967	2533.729293
805.358518	2532.892462
805.679024	2531.551515
805.999485	2532.854653
806.319901	2532.748789
806.640272	2532.930271
806.960598	2532.968079
807.280879	2533.668800
807.601115	2532.035466
807.921306	2535.123172
808.241453	2532.025383
808.561554	2533.053779
808.881611	2532.423635
809.201623	2535.465971
809.521590	2534.238450
809.841513	2533.779705
810.161390	2534.755168
810.481223	2532.897503
810.801011	2534.397246
811.120755	2532.779036
811.440453	2533.482277
811.760107	2532.612678
812.079716	2533.283151
812.399281	2531.551515
812.718801	2530.525640
813.038276	2529.764426
813.357707	2532.043028
813.677093	2532.940353
813.996434	2533.434386
814.315731	2534.916485
814.634983	2534.286341
814.954191	2529.729138
815.273354	2532.237112
815.592473	2532.595034
815.911547	2534.966897
816.230577	2531.438089
816.549562	2533.220137
816.868502	2530.492873
817.187399	2533.326001
817.506250	2531.632173
817.825058	2534.679551
818.143821	2530.860877
818.462539	2534.586290
818.781213	2531.919519
819.099843	2531.178470
819.418429	2531.390198
819.736970	2536.385982
820.055466	2535.801208
820.373919	2536.075951
820.692327	2535.569315
821.010691	2537.888245
821.329011	2544.093906
821.647286	2551.937941
821.965517	2559.151832
822.283704	2564.865980
822.601847	2562.713407
822.919945	2559.514795
823.237999	2555.065977
823.556010	2551.217056
823.873976	2544.933258
824.191897	2544.010727
824.509775	2543.065510
824.827609	2540.386137
825.145398	2539.521579
825.463144	2537.535365
825.780845	2537.855478
826.098502	2541.190201
826.416116	2543.655325
826.733685	2543.957795
827.051210	2544.391334
827.368692	2544.378731
827.686129	2540.781868
828.003522	2539.410674
828.320872	2533.031094
828.638177	2534.208203
828.955439	2532.821886
829.272656	2531.896834
829.589830	2528.438602
829.906960	2532.630322
830.224046	2533.194931
830.541088	2533.711649
830.858086	2533.096629
831.175041	2533.527647
831.491952	2529.363654
831.808819	2537.308513
832.125642	2535.163502
832.442421	2535.634850
832.759157	2536.249870
833.075849	2538.573842
833.392497	2538.079809
833.709101	2536.690971
834.025662	2539.672814
834.342179	2538.203318
834.658653	2538.654501
834.975083	2536.869932
835.291469	2539.698020
835.607811	2533.104190
835.924110	2531.501103
836.240366	2535.655014
836.556578	2531.307019
836.872746	2534.364479
837.188871	2532.481608
837.504952	2533.245343
837.820990	2530.818027
838.136984	2534.157792
838.452935	2530.560928
838.768842	2533.898172
839.084706	2531.145702
839.400526	2534.177956
839.716303	2532.111083
840.032037	2532.259797
840.347727	2533.457071
840.663373	2534.316588
840.978977	2533.653676
841.294537	2532.300126
841.610054	2531.579241
841.925527	2532.348017
842.240957	2533.121834
842.556344	2531.425486
842.871687	2531.531350
843.186987	2531.874149
843.502244	2531.407842
843.817458	2532.872297
844.132629	2531.301978
844.447756	2531.740558
844.762840	2527.732841
845.077881	2530.112266
845.392879	2526.301153
845.707833	2531.556556
846.022745	2526.578417
846.337613	2531.347348
846.652438	2531.690147
846.967221	2530.392050
847.281960	2526.953983
847.596656	2526.921215
847.911309	2530.218130
848.225919	2533.373892
848.540485	2527.947090
848.855009	2531.163346
849.169490	2530.855836
849.483928	2532.068233
849.798323	2532.322812
850.112675	2527.480783
850.426984	2529.527492
850.741251	2530.523120
851.055474	2529.824920
851.369654	2531.097811
851.683792	2527.173273
851.997887	2532.736186
852.311938	2527.785773
852.625947	2532.285003
852.939914	2528.138654
853.253837	2531.052441
853.567718	2531.624612
853.881555	2529.431710
854.195350	2529.759385
854.509103	2529.489683
854.822812	2530.974303
855.136479	2529.749302
855.450103	2531.433048
855.763685	2530.404653
856.077224	2530.102183
856.390720	2528.670496
856.704173	2529.797193
857.017584	2531.196114
857.330953	2529.363654
857.644278	2533.124355
857.957561	2534.908923
858.270802	2530.339117
858.584000	2531.614529
858.897155	2529.739220
859.210268	2530.412214
859.523339	2533.517565
859.836367	2529.550177
860.149352	2531.838861
860.462295	2533.149561
860.775195	2528.272244
861.088054	2525.207223
861.400869	2530.414735
861.713642	2525.865093
862.026373	2527.921884
862.339062	2527.218643
862.651708	2531.370033
862.964312	2530.271062
863.276873	2531.022194
863.589392	2531.710311
863.901869	2530.634025
864.214303	2532.723583
864.526696	2532.398429
864.839045	2530.787780
865.151353	2532.678213
865.463619	2529.431710
865.775842	2530.076977
866.088023	2530.722245
866.400162	2533.883049
866.712258	2533.696526
867.024313	2531.354910
867.336325	2527.432892
867.648296	2531.785929
867.960224	2530.097142
868.272110	2530.535722
868.583954	2531.760723
868.895755	2531.433048
869.207515	2530.911288
869.519233	2530.099663
869.830909	2530.628984
870.142542	2529.920702
870.454134	2530.167718
870.765684	2529.610671
871.077191	2529.860208
871.388657	2534.840868
871.700081	2529.461957
872.011463	2530.603778
872.322803	2530.787780
872.634101	2531.072605
872.945357	2531.037317
873.256571	2531.465815
873.567744	2529.015815
873.878874	2533.036135
874.189963	2532.133768
874.501010	2532.211906
874.812015	2527.495907
875.122979	2530.989426
875.433900	2529.136802
875.744780	2530.845753
876.055618	2531.523789
876.366415	2531.105373
876.677169	2535.516382
876.987882	2530.051772
877.298554	2529.406504
877.609183	2528.799045
877.919771	2526.480114
878.230317	2527.256452
878.540822	2532.138809
878.851285	2530.253418
879.161707	2531.279293
879.472087	2533.913296
879.782425	2532.761392
880.092722	2534.644263
880.402977	2537.999151
880.713191	2540.522248
881.023363	2543.693134
881.333494	2549.326623
881.643583	2550.808723
881.953631	2546.795964
882.263637	2545.248330
882.573602	2545.870912
882.883526	2544.613145
883.193408	2539.539223
883.503248	2539.619882
883.813048	2536.038142
884.122806	2537.711805
884.432522	2537.074099
884.742197	2538.162988
885.051831	2531.851464
885.361424	2533.046217
885.670975	2532.799201
885.980485	2531.496062
886.289954	2532.302647
886.599382	2530.278624
886.908768	2532.874818
887.218113	2532.385826
887.527417	2532.320291
887.836680	2531.884231
888.145901	2528.824251
888.455082	2529.466998
888.764221	2530.137471
889.073319	2531.692667
889.382376	2529.441792
889.691392	2530.835671
890.000366	2530.565969
890.309300	2528.360465
890.618193	2533.008408
890.927044	2532.405991
891.235855	2531.707791
891.544625	2532.325332
891.853353	2529.456916
892.162041	2530.881042
892.470687	2529.358613
892.779293	2527.909281
893.087858	2529.673685
893.396381	2527.856349
893.704864	2529.976154
894.013306	2528.105886
894.321707	2535.176105
894.630068	2533.005888
894.938387	2534.024201
895.246665	2535.060158
895.554903	2537.482432
895.863100	2534.848430
896.171256	2533.820034
896.479371	2529.149405
896.787446	2534.251053
897.095480	2531.301978
897.403473	2530.795342
897.711425	2529.252749
898.019336	2531.652338
898.327207	2529.381298
898.635038	2533.089067
898.942827	2530.301309
899.250576	2530.092101
899.558284	2527.826102
899.865952	2532.950435
900.173579	2529.071267
900.481165	2529.257790
900.788711	2530.024045
901.096216	2532.484128
901.403681	2530.598737
901.711105	2529.807276
902.018489	2528.375588
902.325832	2531.692667
902.633135	2531.165867
902.940397	2528.753675
903.247619	2532.559746
903.554800	2531.871628
903.861941	2534.044366
904.169041	2534.629139
904.476101	2538.198276
904.783121	2536.675848
905.090100	2535.450848
905.397039	2536.466640
905.703938	2534.435055
906.010796	2535.418080
906.317614	2530.876000
906.624391	2531.312060
906.931129	2529.885414
907.237826	2529.792152
907.544483	2532.295085
907.851099	2531.057482
908.157675	2533.033614
908.464211	2530.089580
908.770707	2522.754702
909.077163	2528.229395
909.383578	2528.610002
909.689954	2527.730320
909.996289	2527.750485
910.302584	2530.623943
910.608839	2529.416586
910.915054	2529.633356
911.221229	2528.496576
911.527363	2528.279806
911.833458	2529.393901
912.139513	2529.043541
912.445527	2529.335928
912.751502	2530.071936
913.057436	2529.691329
913.363331	2529.219981
913.669186	2529.250228
913.975000	2528.239477
914.280775	2531.319622
914.586510	2529.275434
914.892205	2531.601927
915.197859	2532.471526
915.503475	2534.127545
915.809050	2538.906558
916.114585	2536.020498
916.420081	2537.883204
916.725536	2535.443286
917.030952	2537.502597
917.336328	2533.625950
917.641665	2534.346835
917.946961	2533.063861
918.252218	2531.513706
918.557435	2527.949611
918.862612	2534.760209
919.167750	2528.730989
919.472848	2532.894982
919.777906	2531.251566
920.082925	2528.819210
920.387904	2530.250897
920.692843	2528.234436
920.997743	2529.562780
921.302603	2528.345341
921.607423	2529.187214
921.912204	2531.785929
922.216946	2529.734179
922.521647	2530.442461
922.826310	2529.550177
923.130932	2530.200486
923.435516	2527.810979
923.740059	2525.693694
924.044564	2527.692512
924.349028	2530.213089
924.653454	2524.093128
924.957840	2526.344003
925.262186	2524.100690
925.566493	2527.536236
925.870761	2518.499968
926.174989	2527.422810
926.479178	2530.407173
926.783328	2526.926256
927.087438	2528.025228
927.391509	2529.577903
927.695541	2527.712676
927.999533	2529.625794
928.303486	2528.713345
928.607400	2529.459436
928.911275	2528.781401
929.215110	2528.365506
929.518906	2527.783252
929.822663	2527.954652
930.126381	2529.061185
930.430060	2529.731658
930.733699	2528.347862
931.037299	2527.727800
931.340861	2526.754857
931.644383	2527.062367
931.947866	2528.262162
932.251309	2530.623943
932.554714	2528.844415
932.858080	2531.672503
933.161407	2527.586647
933.464694	2527.163191
933.767943	2528.917512
934.071153	2530.540764
934.374323	2529.066226
934.677455	2527.924405
934.980548	2525.741585
935.283602	2529.472039
935.586617	2527.511030
935.889593	2529.227543
936.192530	2529.477080
936.495428	2527.266534
936.798287	2530.376926
937.101108	2527.480783
937.403890	2527.528674
937.706632	2529.078829
938.009336	2526.946421
938.312002	2526.938859
938.614628	2530.578572
938.917216	2530.581093
939.219765	2528.201668
939.522275	2527.843746
939.824747	2528.342821
940.127179	2525.726462
940.429573	2524.219157
940.731929	2523.793179
941.034246	2524.219157
941.336524	2526.903571
941.638763	2529.686288
941.940964	2527.889117
942.243126	2525.683612
942.545250	2528.463808
942.847335	2527.604292
943.149381	2529.683767
943.451389	2529.580424
943.753359	2528.294930
944.055290	2529.590506
944.357182	2527.324508
944.659036	2529.489683
944.960851	2529.630835
945.262628	2529.366175
945.564367	2528.758716
945.866067	2529.219981
946.167729	2525.998684
946.469352	2528.259642
946.770937	2528.627646
947.072484	2527.175793
947.373992	2529.250228
947.675462	2528.158818
947.976893	2527.183355
948.278286	2527.639580
948.579641	2529.867770
948.880958	2527.649662
949.182236	2528.867101
949.483476	2525.504651
949.784678	2531.160826
950.085841	2526.422141
950.386967	2527.221164
950.688054	2527.516071
950.989103	2529.582944
951.290114	2525.728982
951.591087	2528.415917
951.892021	2528.405835
952.192917	2526.797707
952.493776	2526.099507
952.794596	2526.016328
953.095378	2526.696884
953.396122	2526.921215
953.696828	2529.426669
953.997496	2525.207223
954.298126	2526.742254
954.598718	2529.643438
954.899272	2524.980371
955.199788	2527.957172
955.500266	2526.593540
955.800706	2525.479445
956.101108	2522.802593
956.401472	2522.737058
956.701798	2523.914167
957.002087	2524.945083
957.302337	2524.836698
957.602550	2527.931967
957.902724	2525.436595
958.202861	2526.936339
958.502960	2527.143026
958.803022	2528.602440
959.103045	2527.153108
959.403031	2528.486493
959.702979	2527.357275
960.002889	2526.802748
960.302762	2525.071112
960.602596	2527.793335
960.902393	2525.081194
961.202153	2527.962213
961.501875	2526.464991
961.801559	2525.189579
962.101205	2528.158818
962.400814	2528.012625
962.700385	2526.628828
962.999918	2527.387522
963.299414	2526.160001
963.598873	2529.247708
963.898293	2526.225536
964.197677	2529.005732
964.497022	2525.509692
964.796331	2525.993643
965.095601	2525.701256
965.394835	2527.821061
965.694030	2525.794517
965.993189	2525.872655
966.292309	2526.207892
966.591393	2527.536236
966.890439	2527.717717
967.189447	2525.469363
967.488419	2526.109589
967.787353	2526.124713
968.086249	2524.708149
968.385108	2528.231915
968.683930	2526.258303
968.982714	2529.585465
969.281462	2525.343334
969.580172	2527.634538
969.878844	2525.983561
970.177480	2525.308046
970.476078	2526.129754
970.774639	2529.915661
971.073162	2526.638911
971.371649	2524.277130
971.670098	2524.642614
971.968510	2523.634383
972.266885	2519.707324
972.565223	2527.987419
972.863524	2524.670340
973.161788	2528.428520
973.460014	2525.875176
973.758204	2524.360309
974.056356	2526.328880
974.354471	2527.836185
974.652550	2527.362316
974.950591	2525.955834
975.248595	2526.976668
975.546563	2525.842408
975.844493	2528.773839
976.142386	2526.006246
976.440243	2528.635207
976.738062	2526.636390
977.035845	2526.139836
977.333590	2526.344003
977.631299	2522.966430
977.928971	2526.966586
978.226606	2526.555732
978.524204	2528.355423
978.821765	2525.862573
979.119290	2528.216792
979.416777	2524.062881
979.714228	2524.337624
980.011642	2528.420958
980.309020	2528.620084
980.606360	2525.706297
980.903664	2524.357788
981.200931	2527.092614
981.498162	2523.662109
981.795356	2525.040865
982.092513	2524.204033
982.389633	2527.579086
982.686717	2525.751668
982.983764	2525.113962
983.280775	2528.642769
983.577749	2526.880886
983.874686	2527.480783
984.171587	2527.397604
984.468451	2525.633200
984.765279	2524.624970
985.062070	2528.506658
985.358824	2526.006246
985.655543	2523.654547
985.952224	2525.393746
986.248869	2524.637573
986.545478	2521.643127
986.842050	2522.633714
987.138586	2521.819568
987.435086	2522.658920
987.731549	2522.542973
988.027975	2525.776873
988.324366	2523.226049
988.620719	2525.008097
988.917037	2525.018180
989.213318	2524.277130
989.509563	2525.716379
989.805772	2525.849970
990.101944	2524.776204
990.398080	2525.297964
990.694180	2523.606657
990.990244	2528.196627
991.286271	2524.950124
991.582262	2524.509023
991.878217	2526.570855
992.174136	2529.582944
992.470019	2525.035824
992.765865	2525.106400
993.061676	2527.241328
993.357450	2524.819054
993.653188	2524.998015
993.948890	2524.869466
994.244556	2525.683612
994.540186	2526.354085
994.835780	2526.447347
995.131337	2527.523633
995.426859	2528.514220
995.722345	2523.548683
996.017795	2523.856194
996.313208	2526.888448
996.608586	2524.569517
996.903928	2525.426513
997.199234	2525.718900
997.494504	2526.608664
997.789738	2526.142357
998.084936	2524.851822
998.380099	2525.489528
998.675225	2526.510361
998.970316	2528.055475
999.265371	2526.754857
999.560390	2524.909795
999.855373	2527.286699
1000.150320	2527.324508
1000.445232	2530.450023
1000.740108	2525.030782
1001.034948	2526.162522
1001.329752	2524.216636
1001.624521	2526.591020
1001.919254	2518.149608
1002.213951	2522.875689
1002.508613	2523.276461
1002.803239	2522.853004
1003.097829	2519.893847
1003.392384	2524.511544
1003.686903	2526.172604
1003.981386	2525.514733
1004.275834	2527.518592
1004.570246	2525.305525
1004.864623	2526.016328
1005.158964	2524.125895
1005.453270	2525.010618
1005.747540	2524.317459
1006.041775	2524.834177
1006.335974	2526.331400
1006.630138	2523.364681
1006.924266	2525.431554
1007.218359	2523.452901
1007.512416	2523.341996
1007.806438	2525.429034
1008.100425	2526.613705
1008.394376	2522.192613
1008.688292	2527.357275
1008.982172	2524.330062
1009.276017	2525.119003
1009.569827	2526.427182
1009.863602	2526.081863
1010.157341	2525.146729
1010.451045	2524.922398
1010.744714	2525.257634
1011.038347	2525.360978
1011.331945	2526.286030
1011.625508	2525.159332
1011.919036	2524.577079
1012.212528	2525.779394
1012.505986	2522.137160
1012.799408	2523.783097
1013.092795	2526.933818
1013.386147	2525.297964
1013.679464	2525.774353
1013.972745	2525.897861
1014.265992	2524.067922
1014.559204	2523.621780
1014.852380	2523.450381
1015.145521	2525.403828
1015.438628	2524.957686
1015.731699	2523.447860
1016.024736	2524.234280
1016.317737	2525.902902
1016.610703	2524.168745
1016.903635	2522.696728
1017.196531	2517.262364
1017.489393	2523.871317
1017.782219	2521.552386
1018.075011	2526.507841
1018.367768	2526.845598
1018.660490	2525.882737
1018.953177	2525.882737
1019.245829	2525.882737
