Dividing Wavelength (nm)	Counts (n)	Blue Motor Position (mm): 0.000000	Red Motor Position (mm): 8.500000	
326.493990	2076.955385
326.888308	2076.955385
327.282561	2076.955385
327.676750	2026.543846
328.070874	2036.626154
328.464933	2071.914231
328.858929	2092.078846
329.252859	2034.105577
329.646726	2122.325769
330.040528	2117.284615
330.434265	2114.764038
330.827938	2059.311346
331.221547	2129.887500
331.615091	2155.093269
332.008571	2172.737308
332.401986	2200.463654
332.795338	2243.313462
333.188625	2293.725000
333.581847	2220.628269
333.975006	2260.957500
334.368100	2354.218846
334.761129	2311.369038
335.154095	2291.204423
335.546996	2344.136538
335.939833	2389.506923
336.332606	2366.821731
336.725315	2414.712692
337.117960	2424.795000
337.510540	2412.192115
337.903056	2460.083077
338.295508	2386.986346
338.687896	2442.439038
339.080220	2528.138654
339.472480	2460.083077
339.864676	2535.700385
340.256807	2376.904038
340.648875	2439.918462
341.040879	2558.385577
341.432818	2444.959615
341.824694	2497.891731
342.216506	2487.809423
342.608253	2540.741538
342.999937	2497.891731
343.391557	2487.809423
343.783113	2427.315577
344.174605	2558.385577
344.566033	2384.465769
344.957397	2452.521346
345.348697	2487.809423
345.739934	2513.015192
346.131106	2482.768269
346.522215	2442.439038
346.913260	2475.206538
347.304241	2487.809423
347.695159	2409.671538
348.086012	2611.317692
348.476802	2490.330000
348.867528	2447.480192
349.258191	2467.644808
349.648789	2394.548077
350.039324	2475.206538
350.429796	2439.918462
350.820203	2427.315577
351.210548	2442.439038
351.600828	2397.068654
351.991045	2538.220962
352.381198	2460.083077
352.771288	2457.562500
353.161314	2434.877308
353.551276	2502.932885
353.941175	2467.644808
354.331010	2429.836154
354.720782	2407.150962
355.110490	2513.015192
355.500135	2490.330000
355.889717	2392.027500
356.279235	2404.630385
356.668689	2412.192115
357.058080	2460.083077
357.447408	2399.589231
357.836672	2399.589231
358.225873	2412.192115
358.615010	2323.971923
359.004084	2439.918462
359.393095	2364.301154
359.782043	2429.836154
360.170927	2409.671538
360.559748	2558.385577
360.948505	2455.041923
361.337199	2497.891731
361.725830	2455.041923
362.114398	2465.124231
362.502903	2528.138654
362.891344	2452.521346
363.279722	2482.768269
363.668037	2392.027500
364.056289	2477.727115
364.444478	2452.521346
364.832603	2419.753846
365.220665	2535.700385
365.608665	2465.124231
365.996601	2392.027500
366.384474	2465.124231
366.772284	2515.535769
367.160031	2462.603654
367.547715	2477.727115
367.935336	2480.247692
368.322893	2402.109808
368.710388	2487.809423
369.097820	2455.041923
369.485189	2442.439038
369.872495	2379.424615
370.259738	2434.877308
370.646918	2457.562500
371.034035	2497.891731
371.421090	2429.836154
371.808081	2409.671538
372.195010	2412.192115
372.581875	2533.179808
372.968678	2397.068654
373.355418	2424.795000
373.742096	2495.371154
374.128710	2389.506923
374.515262	2465.124231
374.901751	2447.480192
375.288177	2487.809423
375.674540	2427.315577
376.060841	2414.712692
376.447079	2462.603654
376.833254	2427.315577
377.219367	2497.891731
377.605417	2432.356731
377.991404	2437.397885
378.377329	2480.247692
378.763191	2477.727115
379.148991	2402.109808
379.534727	2520.576923
379.920402	2392.027500
380.306013	2450.000769
380.691563	2432.356731
381.077049	2455.041923
381.462474	2439.918462
381.847835	2480.247692
382.233134	2439.918462
382.618371	2429.836154
383.003545	2376.904038
383.388657	2455.041923
383.773706	2490.330000
384.158693	2485.288846
384.543618	2475.206538
384.928480	2392.027500
385.313280	2507.974038
385.698017	2434.877308
386.082692	2497.891731
386.467305	2507.974038
386.851856	2510.494615
387.236344	2422.274423
387.620770	2482.768269
388.005133	2457.562500
388.389435	2472.685962
388.773674	2404.630385
389.157851	2505.453462
389.541965	2500.412308
389.926018	2397.068654
390.310008	2485.288846
390.693936	2492.850577
391.077802	2558.385577
391.461606	2470.165385
391.845348	2402.109808
392.229027	2487.809423
392.612645	2424.795000
392.996200	2487.809423
393.379694	2394.548077
393.763125	2404.630385
394.146494	2447.480192
394.529801	2442.439038
394.913047	2507.974038
395.296230	2462.603654
395.679351	2462.603654
396.062410	2513.015192
396.445408	2409.671538
396.828343	2447.480192
397.211217	2450.000769
397.594028	2424.795000
397.976778	2485.288846
398.359466	2485.288846
398.742092	2507.974038
399.124656	2515.535769
399.507158	2487.809423
399.889598	2502.932885
400.271977	2407.150962
400.654294	2487.809423
401.036549	2462.603654
401.418742	2482.768269
401.800874	2475.206538
402.182944	2417.233269
402.564952	2457.562500
402.946898	2550.823846
403.328783	2465.124231
403.710606	2432.356731
404.092367	2427.315577
404.474067	2442.439038
404.855705	2424.795000
405.237282	2492.850577
405.618797	2434.877308
406.000250	2442.439038
406.381642	2374.383462
406.762972	2482.768269
407.144240	2495.371154
407.525447	2548.303269
407.906593	2455.041923
408.287677	2482.768269
408.668700	2515.535769
409.049661	2477.727115
409.430560	2477.727115
409.811399	2402.109808
410.192176	2414.712692
410.572891	2482.768269
410.953545	2442.439038
411.334138	2452.521346
411.714669	2414.712692
412.095139	2492.850577
412.475547	2490.330000
412.855894	2470.165385
413.236180	2490.330000
413.616405	2472.685962
413.996568	2490.330000
414.376670	2450.000769
414.756711	2540.741538
415.136691	2450.000769
415.516609	2500.412308
415.896466	2505.453462
416.276262	2560.906154
416.655997	2490.330000
417.035670	2444.959615
417.415283	2465.124231
417.794834	2482.768269
418.174324	2490.330000
418.553753	2505.453462
418.933121	2412.192115
419.312428	2538.220962
419.691674	2419.753846
420.070859	2409.671538
420.449983	2507.974038
420.829045	2505.453462
421.208047	2502.932885
421.586988	2525.618077
421.965867	2485.288846
422.344686	2528.138654
422.723444	2548.303269
423.102141	2606.276538
423.480777	2477.727115
423.859352	2578.550192
424.237866	2442.439038
424.616319	2548.303269
424.994712	2407.150962
425.373044	2467.644808
425.751314	2422.274423
426.129524	2455.041923
426.507673	2422.274423
426.885762	2386.986346
427.263789	2487.809423
427.641756	2480.247692
428.019662	2482.768269
428.397508	2364.301154
428.775292	2538.220962
429.153016	2502.932885
429.530679	2525.618077
429.908282	2475.206538
430.285824	2447.480192
430.663305	2492.850577
431.040726	2485.288846
431.418086	2477.727115
431.795385	2538.220962
432.172624	2457.562500
432.549802	2439.918462
432.926920	2568.467885
433.303977	2457.562500
433.680974	2452.521346
434.057910	2402.109808
434.434786	2515.535769
434.811601	2432.356731
435.188355	2513.015192
435.565050	2495.371154
435.941683	2424.795000
436.318257	2523.097500
436.694770	2444.959615
437.071222	2520.576923
437.447614	2467.644808
437.823946	2518.056346
438.200218	2444.959615
438.576429	2613.838269
438.952580	2490.330000
439.328670	2507.974038
439.704700	2447.480192
440.080670	2543.262115
440.456580	2444.959615
440.832429	2439.918462
441.208218	2518.056346
441.583947	2507.974038
441.959616	2515.535769
442.335224	2422.274423
442.710773	2545.782692
443.086261	2447.480192
443.461689	2507.974038
443.837057	2437.397885
444.212365	2490.330000
444.587612	2417.233269
444.962800	2507.974038
445.337927	2452.521346
445.712995	2452.521346
446.088002	2525.618077
446.462949	2442.439038
446.837837	2482.768269
447.212664	2490.330000
447.587431	2444.959615
447.962139	2482.768269
448.336786	2444.959615
448.711374	2475.206538
449.085901	2470.165385
449.460369	2502.932885
449.834776	2424.795000
450.209124	2422.274423
450.583412	2523.097500
450.957640	2455.041923
451.331808	2444.959615
451.705917	2442.439038
452.079965	2505.453462
452.453954	2530.659231
452.827883	2497.891731
453.201752	2427.315577
453.575562	2535.700385
453.949311	2472.685962
454.323001	2525.618077
454.696632	2528.138654
455.070202	2518.056346
455.443713	2452.521346
455.817164	2500.412308
456.190556	2447.480192
456.563888	2452.521346
456.937160	2447.480192
457.310373	2505.453462
457.683526	2490.330000
458.056619	2518.056346
458.429653	2545.782692
458.802628	2578.550192
459.175542	2528.138654
459.548398	2500.412308
459.921194	2538.220962
460.293930	2528.138654
460.666607	2553.344423
461.039224	2502.932885
461.411782	2495.371154
461.784280	2472.685962
462.156719	2513.015192
462.529099	2444.959615
462.901419	2515.535769
463.273680	2513.015192
463.645882	2480.247692
464.018024	2480.247692
464.390106	2548.303269
464.762130	2518.056346
465.134094	2439.918462
465.505999	2535.700385
465.877845	2465.124231
466.249631	2528.138654
466.621358	2497.891731
466.993026	2450.000769
467.364634	2518.056346
467.736184	2482.768269
468.107674	2588.632500
468.479105	2417.233269
468.850477	2475.206538
469.221790	2502.932885
469.593043	2495.371154
469.964238	2568.467885
470.335373	2437.397885
470.706449	2518.056346
471.077467	2429.836154
471.448425	2518.056346
471.819324	2452.521346
472.190164	2462.603654
472.560945	2492.850577
472.931667	2419.753846
473.302330	2578.550192
473.672934	2545.782692
474.043479	2545.782692
474.413965	2450.000769
474.784393	2404.630385
475.154761	2472.685962
475.525070	2528.138654
475.895321	2462.603654
476.265513	2460.083077
476.635645	2447.480192
477.005719	2520.576923
477.375734	2452.521346
477.745691	2505.453462
478.115588	2424.795000
478.485427	2482.768269
478.855207	2545.782692
479.224928	2520.576923
479.594591	2487.809423
479.964194	2492.850577
480.333739	2424.795000
480.703226	2492.850577
481.072653	2475.206538
481.442022	2533.179808
481.811333	2419.753846
482.180584	2472.685962
482.549777	2480.247692
482.918912	2437.397885
483.287988	2460.083077
483.657005	2409.671538
484.025964	2399.589231
484.394864	2444.959615
484.763706	2507.974038
485.132489	2505.453462
485.501213	2424.795000
485.869879	2505.453462
486.238487	2492.850577
486.607036	2518.056346
486.975527	2497.891731
487.343959	2462.603654
487.712333	2513.015192
488.080648	2510.494615
488.448905	2472.685962
488.817104	2422.274423
489.185244	2480.247692
489.553326	2520.576923
489.921350	2495.371154
490.289315	2520.576923
490.657222	2444.959615
491.025070	2490.330000
491.392861	2515.535769
491.760593	2497.891731
492.128267	2450.000769
492.495883	2442.439038
492.863440	2439.918462
493.230939	2502.932885
493.598380	2558.385577
493.965763	2475.206538
494.333088	2510.494615
494.700354	2455.041923
495.067563	2444.959615
495.434713	2497.891731
495.801805	2502.932885
496.168839	2520.576923
496.535815	2487.809423
496.902733	2538.220962
497.269593	2518.056346
497.636395	2565.947308
498.003139	2490.330000
498.369825	2477.727115
498.736453	2513.015192
499.103023	2442.439038
499.469535	2563.426731
499.835989	2515.535769
500.202385	2487.809423
500.568723	2581.070769
500.935003	2540.741538
501.301226	2424.795000
501.667390	2513.015192
502.033497	2482.768269
502.399546	2465.124231
502.765537	2515.535769
503.131470	2437.397885
503.497345	2490.330000
503.863163	2530.659231
504.228923	2502.932885
504.594625	2548.303269
504.960269	2513.015192
505.325856	2520.576923
505.691385	2505.453462
506.056856	2520.576923
506.422270	2507.974038
506.787625	2520.576923
507.152924	2495.371154
507.518164	2533.179808
507.883347	2591.153077
508.248472	2523.097500
508.613540	2555.865000
508.978550	2442.439038
509.343503	2545.782692
509.708398	2535.700385
510.073236	2515.535769
510.438016	2447.480192
510.802738	2470.165385
511.167403	2553.344423
511.532010	2462.603654
511.896561	2523.097500
512.261053	2502.932885
512.625488	2470.165385
512.989866	2455.041923
513.354186	2525.618077
513.718449	2455.041923
514.082655	2465.124231
514.446803	2470.165385
514.810894	2513.015192
515.174927	2533.179808
515.538904	2523.097500
515.902822	2518.056346
516.266684	2490.330000
516.630488	2470.165385
516.994235	2555.865000
517.357925	2550.823846
517.721558	2518.056346
518.085133	2510.494615
518.448651	2505.453462
518.812112	2533.179808
519.175516	2500.412308
519.538863	2412.192115
519.902152	2485.288846
520.265385	2457.562500
520.628560	2455.041923
520.991678	2450.000769
521.354739	2520.576923
521.717743	2482.768269
522.080690	2417.233269
522.443580	2533.179808
522.806413	2490.330000
523.169189	2429.836154
523.531908	2495.371154
523.894569	2492.850577
524.257174	2455.041923
524.619722	2515.535769
524.982213	2475.206538
525.344647	2507.974038
525.707025	2500.412308
526.069345	2543.262115
526.431608	2543.262115
526.793815	2533.179808
527.155964	2507.974038
527.518057	2550.823846
527.880093	2500.412308
528.242072	2510.494615
528.603995	2490.330000
528.965860	2523.097500
529.327669	2470.165385
529.689421	2510.494615
530.051117	2540.741538
530.412755	2455.041923
530.774337	2535.700385
531.135862	2570.988462
531.497331	2520.576923
531.858743	2404.630385
532.220098	2513.015192
532.581396	2487.809423
532.942638	2429.836154
533.303824	2596.194231
533.664953	2422.274423
534.026025	2460.083077
534.387040	2492.850577
534.747999	2414.712692
535.108902	2513.015192
535.469748	2545.782692
535.830537	2565.947308
536.191270	2500.412308
536.551947	2477.727115
536.912567	2475.206538
537.273131	2407.150962
537.633638	2437.397885
537.994089	2535.700385
538.354483	2442.439038
538.714821	2502.932885
539.075103	2497.891731
539.435328	2472.685962
539.795497	2477.727115
540.155609	2505.453462
540.515665	2510.494615
540.875665	2442.439038
541.235609	2500.412308
541.595496	2482.768269
541.955328	2548.303269
542.315102	2510.494615
542.674821	2490.330000
543.034483	2475.206538
543.394090	2540.741538
543.753640	2497.891731
544.113134	2515.535769
544.472571	2505.453462
544.831953	2427.315577
545.191278	2520.576923
545.550548	2477.727115
545.909761	2528.138654
546.268918	2412.192115
546.628019	2442.439038
546.987064	2505.453462
547.346053	2507.974038
547.704986	2533.179808
548.063863	2424.795000
548.422684	2475.206538
548.781449	2543.262115
549.140158	2452.521346
549.498811	2535.700385
549.857408	2492.850577
550.215949	2528.138654
550.574434	2545.782692
550.932864	2525.618077
551.291237	2518.056346
551.649555	2530.659231
552.007817	2467.644808
552.366022	2462.603654
552.724173	2427.315577
553.082267	2523.097500
553.440305	2465.124231
553.798288	2507.974038
554.156215	2555.865000
554.514086	2533.179808
554.871902	2505.453462
555.229661	2603.755962
555.587365	2477.727115
555.945014	2467.644808
556.302606	2545.782692
556.660143	2528.138654
557.017625	2460.083077
557.375050	2507.974038
557.732421	2507.974038
558.089735	2482.768269
558.446994	2507.974038
558.804197	2530.659231
559.161345	2528.138654
559.518437	2482.768269
559.875474	2505.453462
560.232455	2523.097500
560.589381	2520.576923
560.946251	2482.768269
561.303065	2439.918462
561.659825	2417.233269
562.016528	2540.741538
562.373177	2540.741538
562.729770	2475.206538
563.086307	2490.330000
563.442789	2472.685962
563.799216	2424.795000
564.155587	2470.165385
564.511904	2487.809423
564.868164	2460.083077
565.224370	2455.041923
565.580520	2548.303269
565.936615	2555.865000
566.292654	2497.891731
566.648638	2530.659231
567.004567	2442.439038
567.360441	2492.850577
567.716260	2462.603654
568.072023	2502.932885
568.427732	2475.206538
568.783385	2470.165385
569.138982	2505.453462
569.494525	2470.165385
569.850013	2596.194231
570.205445	2487.809423
570.560823	2444.959615
570.916145	2548.303269
571.271412	2485.288846
571.626625	2467.644808
571.981782	2447.480192
572.336884	2533.179808
572.691931	2492.850577
573.046923	2442.439038
573.401860	2487.809423
573.756743	2593.673654
574.111570	2545.782692
574.466342	2530.659231
574.821059	2480.247692
575.175722	2543.262115
575.530330	2565.947308
575.884882	2487.809423
576.239380	2460.083077
576.593823	2515.535769
576.948211	2429.836154
577.302544	2472.685962
577.656823	2462.603654
578.011047	2495.371154
578.365216	2573.509038
578.719330	2475.206538
579.073389	2525.618077
579.427394	2576.029615
579.781344	2497.891731
580.135239	2500.412308
580.489080	2442.439038
580.842866	2482.768269
581.196597	2563.426731
581.550273	2457.562500
581.903895	2510.494615
582.257463	2490.330000
582.610975	2444.959615
582.964434	2450.000769
583.317837	2502.932885
583.671186	2470.165385
584.024481	2505.453462
584.377721	2518.056346
584.730906	2550.823846
585.084037	2545.782692
585.437113	2490.330000
585.790135	2462.603654
586.143103	2558.385577
586.496016	2480.247692
586.848874	2427.315577
587.201679	2560.906154
587.554428	2465.124231
587.907124	2482.768269
588.259765	2450.000769
588.612352	2513.015192
588.964884	2505.453462
589.317362	2442.439038
589.669786	2555.865000
590.022155	2565.947308
590.374470	2485.288846
590.726731	2477.727115
591.078937	2444.959615
591.431090	2533.179808
591.783188	2513.015192
592.135232	2492.850577
592.487222	2467.644808
592.839157	2558.385577
593.191038	2581.070769
593.542866	2505.453462
593.894639	2515.535769
594.246358	2417.233269
594.598022	2523.097500
594.949633	2439.918462
595.301190	2513.015192
595.652692	2482.768269
596.004141	2487.809423
596.355535	2490.330000
596.706876	2591.153077
597.058162	2465.124231
597.409395	2500.412308
597.760573	2568.467885
598.111698	2439.918462
598.462768	2525.618077
598.813785	2578.550192
599.164748	2510.494615
599.515657	2502.932885
599.866511	2490.330000
600.217312	2513.015192
600.568060	2482.768269
600.918753	2555.865000
601.269392	2525.618077
601.619978	2525.618077
601.970510	2550.823846
602.320988	2470.165385
602.671412	2573.509038
603.021783	2543.262115
603.372100	2487.809423
603.722363	2540.741538
604.072572	2485.288846
604.422728	2545.782692
604.772830	2485.288846
605.122878	2467.644808
605.472872	2450.000769
605.822813	2553.344423
606.172701	2472.685962
606.522534	2427.315577
606.872314	2507.974038
607.222041	2520.576923
607.571714	2490.330000
607.921333	2455.041923
608.270899	2548.303269
608.620411	2452.521346
608.969870	2510.494615
609.319276	2470.165385
609.668627	2533.179808
610.017926	2533.179808
610.367171	2439.918462
610.716362	2455.041923
611.065500	2520.576923
611.414585	2545.782692
611.763616	2520.576923
612.112594	2495.371154
612.461518	2543.262115
612.810389	2455.041923
613.159207	2563.426731
613.507971	2389.506923
613.856682	2492.850577
614.205340	2480.247692
614.553945	2563.426731
614.902496	2505.453462
615.250994	2510.494615
615.599439	2434.877308
615.947830	2490.330000
616.296169	2495.371154
616.644454	2442.439038
616.992686	2460.083077
617.340864	2507.974038
617.688990	2565.947308
618.037063	2497.891731
618.385082	2470.165385
618.733048	2475.206538
619.080961	2442.439038
619.428821	2502.932885
619.776628	2563.426731
620.124382	2510.494615
620.472083	2513.015192
620.819731	2540.741538
621.167326	2485.288846
621.514868	2540.741538
621.862357	2565.947308
622.209793	2515.535769
622.557176	2520.576923
622.904506	2538.220962
623.251783	2520.576923
623.599007	2502.932885
623.946179	2452.521346
624.293297	2500.412308
624.640363	2568.467885
624.987376	2465.124231
625.334336	2490.330000
625.681243	2500.412308
626.028097	2540.741538
626.374899	2386.986346
626.721647	2523.097500
627.068343	2424.795000
627.414987	2601.235385
627.761577	2434.877308
628.108115	2477.727115
628.454600	2414.712692
628.801032	2472.685962
629.147412	2495.371154
629.493739	2482.768269
629.840014	2397.068654
630.186236	2497.891731
630.532405	2414.712692
630.878521	2482.768269
631.224585	2465.124231
631.570597	2432.356731
631.916556	2467.644808
632.262462	2523.097500
632.608316	2490.330000
632.954117	2477.727115
633.299866	2460.083077
633.645562	2432.356731
633.991206	2560.906154
634.336797	2455.041923
634.682336	2482.768269
635.027823	2520.576923
635.373257	2520.576923
635.718639	2404.630385
636.063968	2472.685962
636.409245	2379.424615
636.754470	2565.947308
637.099642	2550.823846
637.444762	2482.768269
637.789829	2495.371154
638.134845	2540.741538
638.479808	2462.603654
638.824719	2495.371154
639.169577	2500.412308
639.514383	2502.932885
639.859137	2450.000769
640.203839	2485.288846
640.548489	2538.220962
640.893086	2495.371154
641.237632	2455.041923
641.582125	2581.070769
641.926566	2422.274423
642.270955	2528.138654
642.615292	2487.809423
642.959576	2402.109808
643.303809	2500.412308
643.647990	2576.029615
643.992118	2518.056346
644.336195	2507.974038
644.680219	2495.371154
645.024192	2525.618077
645.368112	2497.891731
645.711981	2437.397885
646.055797	2427.315577
646.399562	2477.727115
646.743274	2608.797115
647.086935	2568.467885
647.430544	2482.768269
647.774101	2533.179808
648.117606	2573.509038
648.461059	2513.015192
648.804460	2568.467885
649.147810	2611.317692
649.491108	2581.070769
649.834354	2525.618077
650.177548	2490.330000
650.520690	2558.385577
650.863781	2429.836154
651.206820	2596.194231
651.549807	2472.685962
651.892742	2460.083077
652.235626	2487.809423
652.578458	2525.618077
652.921238	2538.220962
653.263967	2465.124231
653.606644	2505.453462
653.949269	2376.904038
654.291843	2497.891731
654.634365	2477.727115
654.976836	2472.685962
655.319255	2533.179808
655.661622	2523.097500
656.003938	2487.809423
656.346203	2492.850577
656.688416	2515.535769
657.030577	2525.618077
657.372687	2465.124231
657.714746	2487.809423
658.056753	2389.506923
658.398708	2533.179808
658.740612	2492.850577
659.082465	2432.356731
659.424266	2467.644808
659.766016	2475.206538
660.107715	2500.412308
660.449362	2570.988462
660.790958	2434.877308
661.132503	2457.562500
661.473996	2487.809423
661.815438	2505.453462
662.156829	2495.371154
662.498168	2513.015192
662.839456	2432.356731
663.180693	2402.109808
663.521879	2482.768269
663.863013	2538.220962
664.204097	2500.412308
664.545129	2455.041923
664.886110	2530.659231
665.227040	2515.535769
665.567918	2452.521346
665.908746	2591.153077
666.249522	2523.097500
666.590248	2475.206538
666.930922	2573.509038
667.271545	2450.000769
667.612118	2505.453462
667.952639	2490.330000
668.293109	2518.056346
668.633528	2510.494615
668.973896	2530.659231
669.314213	2528.138654
669.654480	2485.288846
669.994695	2462.603654
670.334859	2490.330000
670.674973	2530.659231
671.015035	2518.056346
671.355047	2432.356731
671.695008	2424.795000
672.034918	2540.741538
672.374777	2480.247692
672.714585	2482.768269
673.054342	2560.906154
673.394049	2417.233269
673.733705	2470.165385
674.073310	2409.671538
674.412864	2505.453462
674.752368	2455.041923
675.091820	2558.385577
675.431223	2414.712692
675.770574	2520.576923
676.109875	2563.426731
676.449125	2558.385577
676.788324	2457.562500
677.127473	2502.932885
677.466571	2444.959615
677.805619	2530.659231
678.144616	2472.685962
678.483562	2573.509038
678.822458	2455.041923
679.161303	2502.932885
679.500098	2591.153077
679.838842	2485.288846
680.177535	2409.671538
680.516179	2437.397885
680.854771	2550.823846
681.193314	2495.371154
681.531805	2437.397885
681.870247	2424.795000
682.208638	2523.097500
682.546978	2480.247692
682.885268	2588.632500
683.223508	2462.603654
683.561697	2482.768269
683.899836	2475.206538
684.237925	2490.330000
684.575963	2528.138654
684.913951	2495.371154
685.251889	2480.247692
685.589776	2477.727115
685.927614	2480.247692
686.265401	2533.179808
686.603137	2477.727115
686.940824	2515.535769
687.278460	2538.220962
687.616046	2404.630385
687.953582	2510.494615
688.291068	2543.262115
688.628504	2442.439038
688.965889	2487.809423
689.303224	2412.192115
689.640510	2460.083077
689.977745	2530.659231
690.314930	2465.124231
690.652065	2538.220962
690.989150	2475.206538
691.326185	2475.206538
691.663170	2475.206538
692.000105	2513.015192
692.336990	2538.220962
692.673825	2487.809423
693.010610	2507.974038
693.347345	2492.850577
693.684030	2545.782692
694.020665	2487.809423
694.357251	2533.179808
694.693786	2502.932885
695.030272	2444.959615
695.366707	2543.262115
695.703093	2523.097500
696.039429	2490.330000
696.375716	2530.659231
696.711952	2477.727115
697.048139	2555.865000
697.384276	2500.412308
697.720363	2480.247692
698.056400	2510.494615
698.392388	2472.685962
698.728326	2487.809423
699.064214	2515.535769
699.400053	2520.576923
699.735842	2525.618077
700.071581	2495.371154
700.407270	2482.768269
700.742910	2472.685962
701.078501	2404.630385
701.414042	2578.550192
701.749533	2538.220962
702.084974	2520.576923
702.420366	2515.535769
702.755709	2427.315577
703.091002	2528.138654
703.426246	2523.097500
703.761440	2475.206538
704.096584	2422.274423
704.431679	2583.591346
704.766725	2437.397885
705.101721	2520.576923
705.436668	2442.439038
705.771565	2535.700385
706.106413	2500.412308
706.441212	2543.262115
706.775961	2434.877308
707.110661	2525.618077
707.445311	2538.220962
707.779913	2424.795000
708.114465	2490.330000
708.448967	2467.644808
708.783421	2492.850577
709.117825	2472.685962
709.452180	2523.097500
709.786485	2404.630385
710.120742	2558.385577
710.454949	2490.330000
710.789107	2470.165385
711.123216	2475.206538
711.457275	2492.850577
711.791286	2447.480192
712.125247	2465.124231
712.459159	2465.124231
712.793023	2417.233269
713.126837	2525.618077
713.460602	2467.644808
713.794318	2528.138654
714.127985	2497.891731
714.461602	2533.179808
714.795171	2442.439038
715.128691	2538.220962
715.462162	2523.097500
715.795584	2487.809423
716.128957	2490.330000
716.462281	2495.371154
716.795556	2452.521346
717.128782	2510.494615
717.461960	2492.850577
717.795088	2545.782692
718.128167	2472.685962
718.461198	2485.288846
718.794180	2394.548077
719.127113	2500.412308
719.459997	2528.138654
719.792833	2379.424615
720.125619	2477.727115
720.458357	2407.150962
720.791046	2545.782692
721.123686	2507.974038
721.456278	2535.700385
721.788821	2543.262115
722.121315	2462.603654
722.453761	2507.974038
722.786158	2538.220962
723.118506	2543.262115
723.450805	2490.330000
723.783056	2510.494615
724.115259	2432.356731
724.447412	2427.315577
724.779518	2540.741538
725.111574	2480.247692
725.443582	2565.947308
725.775542	2520.576923
726.107453	2487.809423
726.439315	2465.124231
726.771129	2505.453462
727.102895	2472.685962
727.434612	2591.153077
727.766281	2518.056346
728.097901	2523.097500
728.429473	2497.891731
728.760996	2545.782692
729.092471	2510.494615
729.423897	2472.685962
729.755276	2495.371154
730.086606	2533.179808
730.417887	2528.138654
730.749120	2470.165385
731.080305	2460.083077
731.411442	2447.480192
731.742530	2490.330000
732.073570	2467.644808
732.404562	2525.618077
732.735506	2465.124231
733.066401	2487.809423
733.397249	2570.988462
733.728048	2467.644808
734.058798	2452.521346
734.389501	2583.591346
734.720156	2513.015192
735.050762	2495.371154
735.381320	2457.562500
735.711831	2439.918462
736.042293	2485.288846
736.372707	2505.453462
736.703073	2513.015192
737.033391	2518.056346
737.363661	2515.535769
737.693883	2513.015192
738.024056	2533.179808
738.354182	2505.453462
738.684260	2487.809423
739.014290	2447.480192
739.344272	2409.671538
739.674207	2525.618077
740.004093	2543.262115
740.333931	2518.056346
740.663722	2472.685962
740.993464	2424.795000
741.323159	2583.591346
741.652806	2465.124231
741.982405	2593.673654
742.311956	2439.918462
742.641460	2502.932885
742.970915	2515.535769
743.300323	2417.233269
743.629683	2525.618077
743.958996	2465.124231
744.288260	2485.288846
744.617477	2528.138654
744.946647	2477.727115
745.275768	2462.603654
745.604842	2548.303269
745.933869	2573.509038
746.262847	2543.262115
746.591778	2482.768269
746.920662	2434.877308
747.249498	2482.768269
747.578286	2570.988462
747.907027	2480.247692
748.235720	2439.918462
748.564365	2482.768269
748.892963	2470.165385
749.221514	2439.918462
749.550017	2495.371154
749.878473	2520.576923
750.206881	2520.576923
750.535242	2470.165385
750.863555	2530.659231
751.191821	2467.644808
751.520039	2555.865000
751.848210	2475.206538
752.176334	2475.206538
752.504411	2500.412308
752.832440	2467.644808
753.160421	2422.274423
753.488356	2477.727115
753.816243	2563.426731
754.144082	2520.576923
754.471875	2477.727115
754.799620	2475.206538
755.127318	2523.097500
755.454969	2465.124231
755.782572	2414.712692
756.110129	2437.397885
756.437638	2538.220962
756.765100	2460.083077
757.092515	2417.233269
757.419882	2487.809423
757.747203	2472.685962
758.074477	2538.220962
758.401703	2470.165385
758.728882	2513.015192
759.056014	2502.932885
759.383099	2495.371154
759.710138	2502.932885
760.037129	2515.535769
760.364073	2520.576923
760.690970	2530.659231
761.017820	2371.862885
761.344623	2545.782692
761.671379	2558.385577
761.998088	2540.741538
762.324751	2515.535769
762.651366	2444.959615
762.977935	2528.138654
763.304456	2422.274423
763.630931	2485.288846
763.957359	2492.850577
764.283740	2548.303269
764.610074	2507.974038
764.936362	2535.700385
765.262602	2447.480192
765.588796	2530.659231
765.914943	2518.056346
766.241044	2452.521346
766.567097	2563.426731
766.893104	2497.891731
767.219064	2530.659231
767.544978	2533.179808
767.870845	2505.453462
768.196665	2470.165385
768.522438	2502.932885
768.848165	2480.247692
769.173846	2515.535769
769.499479	2457.562500
769.825066	2505.453462
770.150607	2470.165385
770.476101	2500.412308
770.801548	2427.315577
771.126949	2502.932885
771.452303	2533.179808
771.777611	2465.124231
772.102872	2460.083077
772.428087	2487.809423
772.753256	2520.576923
773.078378	2485.288846
773.403453	2442.439038
773.728482	2414.712692
774.053465	2487.809423
774.378401	2455.041923
774.703291	2558.385577
775.028135	2394.548077
775.352932	2538.220962
775.677683	2447.480192
776.002388	2533.179808
776.327046	2472.685962
776.651658	2492.850577
776.976224	2513.015192
777.300743	2523.097500
777.625216	2480.247692
777.949643	2545.782692
778.274024	2555.865000
778.598359	2495.371154
778.922647	2465.124231
779.246889	2475.206538
779.571086	2543.262115
779.895236	2472.685962
780.219339	2523.097500
780.543397	2533.179808
780.867409	2502.932885
781.191374	2565.947308
781.515294	2510.494615
781.839167	2394.548077
782.162995	2515.535769
782.486776	2525.618077
782.810511	2457.562500
783.134201	2439.918462
783.457844	2563.426731
783.781441	2573.509038
784.104993	2548.303269
784.428498	2457.562500
784.751958	2515.535769
785.075372	2550.823846
785.398739	2500.412308
785.722061	2523.097500
786.045337	2386.986346
786.368568	2397.068654
786.691752	2530.659231
787.014891	2530.659231
787.337983	2500.412308
787.661030	2588.632500
787.984031	2518.056346
788.306987	2540.741538
788.629897	2485.288846
788.952760	2480.247692
789.275579	2548.303269
789.598351	2533.179808
789.921078	2586.111923
790.243759	2492.850577
790.566395	2480.247692
790.888984	2442.439038
791.211529	2530.659231
791.534027	2432.356731
791.856480	2500.412308
792.178888	2510.494615
792.501249	2510.494615
792.823566	2490.330000
793.145836	2520.576923
793.468062	2530.659231
793.790241	2495.371154
794.112375	2500.412308
794.434464	2480.247692
794.756507	2560.906154
795.078505	2439.918462
795.400457	2528.138654
795.722364	2414.712692
796.044226	2510.494615
796.366042	2500.412308
796.687812	2480.247692
797.009538	2482.768269
797.331218	2513.015192
797.652852	2505.453462
797.974442	2470.165385
798.295986	2475.206538
798.617484	2535.700385
798.938938	2475.206538
799.260346	2528.138654
799.581709	2465.124231
799.903026	2497.891731
800.224299	2467.644808
800.545526	2477.727115
800.866708	2502.932885
801.187845	2427.315577
801.508936	2417.233269
801.829983	2513.015192
802.150984	2447.480192
802.471940	2520.576923
802.792851	2442.439038
803.113717	2548.303269
803.434538	2470.165385
803.755314	2513.015192
804.076045	2555.865000
804.396731	2525.618077
804.717372	2502.932885
805.037967	2485.288846
805.358518	2480.247692
805.679024	2507.974038
805.999485	2482.768269
806.319901	2475.206538
806.640272	2487.809423
806.960598	2545.782692
807.280879	2548.303269
807.601115	2495.371154
807.921306	2462.603654
808.241453	2538.220962
808.561554	2447.480192
808.881611	2507.974038
809.201623	2538.220962
809.521590	2419.753846
809.841513	2518.056346
810.161390	2447.480192
810.481223	2538.220962
810.801011	2518.056346
811.120755	2505.453462
811.440453	2563.426731
811.760107	2457.562500
812.079716	2598.714808
812.399281	2402.109808
812.718801	2442.439038
813.038276	2550.823846
813.357707	2482.768269
813.677093	2518.056346
813.996434	2480.247692
814.315731	2525.618077
814.634983	2444.959615
814.954191	2530.659231
815.273354	2497.891731
815.592473	2485.288846
815.911547	2482.768269
816.230577	2558.385577
816.549562	2490.330000
816.868502	2487.809423
817.187399	2497.891731
817.506250	2490.330000
817.825058	2477.727115
818.143821	2535.700385
818.462539	2523.097500
818.781213	2507.974038
819.099843	2485.288846
819.418429	2467.644808
819.736970	2472.685962
820.055466	2470.165385
820.373919	2417.233269
820.692327	2492.850577
821.010691	2487.809423
821.329011	2490.330000
821.647286	2475.206538
821.965517	2477.727115
822.283704	2455.041923
822.601847	2477.727115
822.919945	2565.947308
823.237999	2427.315577
823.556010	2563.426731
823.873976	2422.274423
824.191897	2437.397885
824.509775	2578.550192
824.827609	2477.727115
825.145398	2475.206538
825.463144	2455.041923
825.780845	2497.891731
826.098502	2487.809423
826.416116	2533.179808
826.733685	2502.932885
827.051210	2482.768269
827.368692	2497.891731
827.686129	2417.233269
828.003522	2520.576923
828.320872	2530.659231
828.638177	2500.412308
828.955439	2417.233269
829.272656	2502.932885
829.589830	2515.535769
829.906960	2525.618077
830.224046	2535.700385
830.541088	2492.850577
830.858086	2490.330000
831.175041	2598.714808
831.491952	2452.521346
831.808819	2513.015192
832.125642	2495.371154
832.442421	2505.453462
832.759157	2507.974038
833.075849	2505.453462
833.392497	2550.823846
833.709101	2442.439038
834.025662	2573.509038
834.342179	2452.521346
834.658653	2513.015192
834.975083	2515.535769
835.291469	2530.659231
835.607811	2500.412308
835.924110	2480.247692
836.240366	2455.041923
836.556578	2422.274423
836.872746	2434.877308
837.188871	2500.412308
837.504952	2470.165385
837.820990	2523.097500
838.136984	2404.630385
838.452935	2397.068654
838.768842	2384.465769
839.084706	2505.453462
839.400526	2419.753846
839.716303	2502.932885
840.032037	2528.138654
840.347727	2533.179808
840.663373	2533.179808
840.978977	2480.247692
841.294537	2465.124231
841.610054	2437.397885
841.925527	2419.753846
842.240957	2485.288846
842.556344	2485.288846
842.871687	2513.015192
843.186987	2492.850577
843.502244	2485.288846
843.817458	2513.015192
844.132629	2492.850577
844.447756	2434.877308
844.762840	2470.165385
845.077881	2513.015192
845.392879	2540.741538
845.707833	2470.165385
846.022745	2457.562500
846.337613	2550.823846
846.652438	2450.000769
846.967221	2545.782692
847.281960	2505.453462
847.596656	2598.714808
847.911309	2500.412308
848.225919	2520.576923
848.540485	2462.603654
848.855009	2487.809423
849.169490	2497.891731
849.483928	2565.947308
849.798323	2475.206538
850.112675	2399.589231
850.426984	2507.974038
850.741251	2518.056346
851.055474	2497.891731
851.369654	2477.727115
851.683792	2515.535769
851.997887	2497.891731
852.311938	2513.015192
852.625947	2467.644808
852.939914	2563.426731
853.253837	2467.644808
853.567718	2457.562500
853.881555	2515.535769
854.195350	2492.850577
854.509103	2500.412308
854.822812	2472.685962
855.136479	2432.356731
855.450103	2573.509038
855.763685	2560.906154
856.077224	2530.659231
856.390720	2439.918462
856.704173	2596.194231
857.017584	2570.988462
857.330953	2455.041923
857.644278	2444.959615
857.957561	2460.083077
858.270802	2487.809423
858.584000	2444.959615
858.897155	2467.644808
859.210268	2482.768269
859.523339	2465.124231
859.836367	2492.850577
860.149352	2472.685962
860.462295	2618.879423
860.775195	2480.247692
861.088054	2432.356731
861.400869	2530.659231
861.713642	2500.412308
862.026373	2457.562500
862.339062	2505.453462
862.651708	2586.111923
862.964312	2485.288846
863.276873	2515.535769
863.589392	2533.179808
863.901869	2477.727115
864.214303	2472.685962
864.526696	2437.397885
864.839045	2548.303269
865.151353	2505.453462
865.463619	2467.644808
865.775842	2540.741538
866.088023	2482.768269
866.400162	2538.220962
866.712258	2492.850577
867.024313	2467.644808
867.336325	2525.618077
867.648296	2505.453462
867.960224	2427.315577
868.272110	2460.083077
868.583954	2497.891731
868.895755	2442.439038
869.207515	2543.262115
869.519233	2533.179808
869.830909	2465.124231
870.142542	2507.974038
870.454134	2500.412308
870.765684	2505.453462
871.077191	2510.494615
871.388657	2563.426731
871.700081	2507.974038
872.011463	2480.247692
872.322803	2437.397885
872.634101	2460.083077
872.945357	2520.576923
873.256571	2477.727115
873.567744	2394.548077
873.878874	2482.768269
874.189963	2465.124231
874.501010	2470.165385
874.812015	2487.809423
875.122979	2442.439038
875.433900	2525.618077
875.744780	2502.932885
876.055618	2505.453462
876.366415	2543.262115
876.677169	2419.753846
876.987882	2543.262115
877.298554	2424.795000
877.609183	2538.220962
877.919771	2480.247692
878.230317	2455.041923
878.540822	2515.535769
878.851285	2518.056346
879.161707	2502.932885
879.472087	2429.836154
879.782425	2417.233269
880.092722	2467.644808
880.402977	2412.192115
880.713191	2495.371154
881.023363	2525.618077
881.333494	2502.932885
881.643583	2492.850577
881.953631	2500.412308
882.263637	2502.932885
882.573602	2553.344423
882.883526	2470.165385
883.193408	2470.165385
883.503248	2505.453462
883.813048	2460.083077
884.122806	2450.000769
884.432522	2490.330000
884.742197	2576.029615
885.051831	2497.891731
885.361424	2495.371154
885.670975	2560.906154
885.980485	2581.070769
886.289954	2543.262115
886.599382	2507.974038
886.908768	2543.262115
887.218113	2455.041923
887.527417	2515.535769
887.836680	2424.795000
888.145901	2407.150962
888.455082	2480.247692
888.764221	2452.521346
889.073319	2558.385577
889.382376	2528.138654
889.691392	2437.397885
890.000366	2444.959615
890.309300	2490.330000
890.618193	2538.220962
890.927044	2528.138654
891.235855	2472.685962
891.544625	2492.850577
891.853353	2540.741538
892.162041	2452.521346
892.470687	2533.179808
892.779293	2470.165385
893.087858	2490.330000
893.396381	2460.083077
893.704864	2465.124231
894.013306	2550.823846
894.321707	2485.288846
894.630068	2520.576923
894.938387	2495.371154
895.246665	2432.356731
895.554903	2419.753846
895.863100	2487.809423
896.171256	2450.000769
896.479371	2412.192115
896.787446	2555.865000
897.095480	2520.576923
897.403473	2427.315577
897.711425	2535.700385
898.019336	2444.959615
898.327207	2492.850577
898.635038	2510.494615
898.942827	2497.891731
899.250576	2518.056346
899.558284	2457.562500
899.865952	2444.959615
900.173579	2555.865000
900.481165	2492.850577
900.788711	2548.303269
901.096216	2472.685962
901.403681	2402.109808
901.711105	2513.015192
902.018489	2550.823846
902.325832	2497.891731
902.633135	2444.959615
902.940397	2485.288846
903.247619	2455.041923
903.554800	2525.618077
903.861941	2477.727115
904.169041	2462.603654
904.476101	2457.562500
904.783121	2513.015192
905.090100	2492.850577
905.397039	2492.850577
905.703938	2485.288846
906.010796	2543.262115
906.317614	2520.576923
906.624391	2525.618077
906.931129	2424.795000
907.237826	2523.097500
907.544483	2525.618077
907.851099	2530.659231
908.157675	2447.480192
908.464211	2482.768269
908.770707	2455.041923
909.077163	2492.850577
909.383578	2490.330000
909.689954	2533.179808
909.996289	2576.029615
910.302584	2477.727115
910.608839	2565.947308
910.915054	2570.988462
911.221229	2505.453462
911.527363	2543.262115
911.833458	2457.562500
912.139513	2533.179808
912.445527	2520.576923
912.751502	2558.385577
913.057436	2485.288846
913.363331	2497.891731
913.669186	2530.659231
913.975000	2485.288846
914.280775	2507.974038
914.586510	2492.850577
914.892205	2462.603654
915.197859	2439.918462
915.503475	2442.439038
915.809050	2472.685962
916.114585	2465.124231
916.420081	2530.659231
916.725536	2429.836154
917.030952	2439.918462
917.336328	2490.330000
917.641665	2482.768269
917.946961	2555.865000
918.252218	2480.247692
918.557435	2490.330000
918.862612	2490.330000
919.167750	2515.535769
919.472848	2497.891731
919.777906	2530.659231
920.082925	2490.330000
920.387904	2530.659231
920.692843	2417.233269
920.997743	2397.068654
921.302603	2525.618077
921.607423	2439.918462
921.912204	2510.494615
922.216946	2417.233269
922.521647	2477.727115
922.826310	2593.673654
923.130932	2404.630385
923.435516	2495.371154
923.740059	2583.591346
924.044564	2518.056346
924.349028	2505.453462
924.653454	2492.850577
924.957840	2417.233269
925.262186	2455.041923
925.566493	2472.685962
925.870761	2442.439038
926.174989	2500.412308
926.479178	2437.397885
926.783328	2472.685962
927.087438	2550.823846
927.391509	2490.330000
927.695541	2530.659231
927.999533	2452.521346
928.303486	2439.918462
928.607400	2500.412308
928.911275	2495.371154
929.215110	2550.823846
929.518906	2465.124231
929.822663	2545.782692
930.126381	2505.453462
930.430060	2467.644808
930.733699	2475.206538
931.037299	2578.550192
931.340861	2497.891731
931.644383	2507.974038
931.947866	2467.644808
932.251309	2548.303269
932.554714	2462.603654
932.858080	2513.015192
933.161407	2543.262115
933.464694	2558.385577
933.767943	2538.220962
934.071153	2540.741538
934.374323	2535.700385
934.677455	2424.795000
934.980548	2507.974038
935.283602	2427.315577
935.586617	2500.412308
935.889593	2518.056346
936.192530	2462.603654
936.495428	2538.220962
936.798287	2462.603654
937.101108	2525.618077
937.403890	2548.303269
937.706632	2374.383462
938.009336	2497.891731
938.312002	2384.465769
938.614628	2548.303269
938.917216	2497.891731
939.219765	2533.179808
939.522275	2452.521346
939.824747	2502.932885
940.127179	2472.685962
940.429573	2543.262115
940.731929	2495.371154
941.034246	2525.618077
941.336524	2515.535769
941.638763	2520.576923
941.940964	2475.206538
942.243126	2482.768269
942.545250	2528.138654
942.847335	2533.179808
943.149381	2470.165385
943.451389	2482.768269
943.753359	2510.494615
944.055290	2497.891731
944.357182	2540.741538
944.659036	2465.124231
944.960851	2495.371154
945.262628	2434.877308
945.564367	2487.809423
945.866067	2470.165385
946.167729	2603.755962
946.469352	2452.521346
946.770937	2507.974038
947.072484	2538.220962
947.373992	2450.000769
947.675462	2480.247692
947.976893	2520.576923
948.278286	2563.426731
948.579641	2528.138654
948.880958	2460.083077
949.182236	2439.918462
949.483476	2470.165385
949.784678	2424.795000
950.085841	2472.685962
950.386967	2455.041923
950.688054	2480.247692
950.989103	2434.877308
951.290114	2452.521346
951.591087	2535.700385
951.892021	2502.932885
952.192917	2525.618077
952.493776	2392.027500
952.794596	2510.494615
953.095378	2523.097500
953.396122	2510.494615
953.696828	2523.097500
953.997496	2475.206538
954.298126	2550.823846
954.598718	2520.576923
954.899272	2414.712692
955.199788	2510.494615
955.500266	2487.809423
955.800706	2525.618077
956.101108	2460.083077
956.401472	2573.509038
956.701798	2434.877308
957.002087	2442.439038
957.302337	2432.356731
957.602550	2540.741538
957.902724	2570.988462
958.202861	2452.521346
958.502960	2490.330000
958.803022	2470.165385
959.103045	2450.000769
959.403031	2424.795000
959.702979	2389.506923
960.002889	2515.535769
960.302762	2606.276538
960.602596	2520.576923
960.902393	2497.891731
961.202153	2495.371154
961.501875	2447.480192
961.801559	2407.150962
962.101205	2540.741538
962.400814	2518.056346
962.700385	2497.891731
962.999918	2502.932885
963.299414	2507.974038
963.598873	2475.206538
963.898293	2497.891731
964.197677	2482.768269
964.497022	2505.453462
964.796331	2407.150962
965.095601	2558.385577
965.394835	2487.809423
965.694030	2495.371154
965.993189	2543.262115
966.292309	2487.809423
966.591393	2492.850577
966.890439	2568.467885
967.189447	2558.385577
967.488419	2515.535769
967.787353	2497.891731
968.086249	2460.083077
968.385108	2558.385577
968.683930	2502.932885
968.982714	2477.727115
969.281462	2477.727115
969.580172	2475.206538
969.878844	2507.974038
970.177480	2515.535769
970.476078	2472.685962
970.774639	2492.850577
971.073162	2467.644808
971.371649	2507.974038
971.670098	2502.932885
971.968510	2495.371154
972.266885	2475.206538
972.565223	2492.850577
972.863524	2548.303269
973.161788	2560.906154
973.460014	2492.850577
973.758204	2507.974038
974.056356	2470.165385
974.354471	2507.974038
974.652550	2450.000769
974.950591	2475.206538
975.248595	2462.603654
975.546563	2419.753846
975.844493	2467.644808
976.142386	2470.165385
976.440243	2497.891731
976.738062	2505.453462
977.035845	2490.330000
977.333590	2472.685962
977.631299	2515.535769
977.928971	2502.932885
978.226606	2507.974038
978.524204	2455.041923
978.821765	2475.206538
979.119290	2447.480192
979.416777	2455.041923
979.714228	2482.768269
980.011642	2507.974038
980.309020	2507.974038
980.606360	2467.644808
980.903664	2432.356731
981.200931	2460.083077
981.498162	2402.109808
981.795356	2523.097500
982.092513	2407.150962
982.389633	2485.288846
982.686717	2535.700385
982.983764	2560.906154
983.280775	2515.535769
983.577749	2497.891731
983.874686	2492.850577
984.171587	2487.809423
984.468451	2485.288846
984.765279	2533.179808
985.062070	2538.220962
985.358824	2439.918462
985.655543	2427.315577
985.952224	2467.644808
986.248869	2429.836154
986.545478	2447.480192
986.842050	2505.453462
987.138586	2482.768269
987.435086	2462.603654
987.731549	2560.906154
988.027975	2523.097500
988.324366	2507.974038
988.620719	2450.000769
988.917037	2480.247692
989.213318	2450.000769
989.509563	2500.412308
989.805772	2467.644808
990.101944	2404.630385
990.398080	2475.206538
990.694180	2475.206538
990.990244	2515.535769
991.286271	2548.303269
991.582262	2457.562500
991.878217	2452.521346
992.174136	2543.262115
992.470019	2538.220962
992.765865	2407.150962
993.061676	2376.904038
993.357450	2555.865000
993.653188	2485.288846
993.948890	2543.262115
994.244556	2432.356731
994.540186	2497.891731
994.835780	2523.097500
995.131337	2447.480192
995.426859	2505.453462
995.722345	2520.576923
996.017795	2477.727115
996.313208	2470.165385
996.608586	2482.768269
996.903928	2583.591346
997.199234	2515.535769
997.494504	2477.727115
997.789738	2545.782692
998.084936	2505.453462
998.380099	2409.671538
998.675225	2533.179808
998.970316	2507.974038
999.265371	2422.274423
999.560390	2563.426731
999.855373	2545.782692
1000.150320	2545.782692
1000.445232	2492.850577
1000.740108	2520.576923
1001.034948	2515.535769
1001.329752	2427.315577
1001.624521	2492.850577
1001.919254	2495.371154
1002.213951	2505.453462
1002.508613	2427.315577
1002.803239	2492.850577
1003.097829	2404.630385
1003.392384	2482.768269
1003.686903	2502.932885
1003.981386	2482.768269
1004.275834	2470.165385
1004.570246	2568.467885
1004.864623	2460.083077
1005.158964	2490.330000
1005.453270	2424.795000
1005.747540	2475.206538
1006.041775	2497.891731
1006.335974	2414.712692
1006.630138	2419.753846
1006.924266	2497.891731
1007.218359	2442.439038
1007.512416	2487.809423
1007.806438	2563.426731
1008.100425	2535.700385
1008.394376	2497.891731
1008.688292	2455.041923
1008.982172	2513.015192
1009.276017	2530.659231
1009.569827	2477.727115
1009.863602	2452.521346
1010.157341	2437.397885
1010.451045	2560.906154
1010.744714	2485.288846
1011.038347	2543.262115
1011.331945	2576.029615
1011.625508	2568.467885
1011.919036	2475.206538
1012.212528	2533.179808
1012.505986	2470.165385
1012.799408	2487.809423
1013.092795	2432.356731
1013.386147	2548.303269
1013.679464	2540.741538
1013.972745	2429.836154
1014.265992	2432.356731
1014.559204	2490.330000
1014.852380	2427.315577
1015.145521	2450.000769
1015.438628	2439.918462
1015.731699	2530.659231
1016.024736	2455.041923
1016.317737	2487.809423
1016.610703	2540.741538
1016.903635	2540.741538
1017.196531	2450.000769
1017.489393	2482.768269
1017.782219	2502.932885
1018.075011	2475.206538
1018.367768	2470.165385
1018.660490	2550.823846
1018.953177	2550.823846
1019.245829	2550.823846
