Dividing Wavelength (nm)	Counts (n)	Blue Motor Position (mm): 0.000000	Red Motor Position (mm): 12.000000	
326.493990	2085.192630
326.888308	2085.192630
327.282561	2085.192630
327.676750	2059.369319
328.070874	2061.438713
328.464933	2068.519014
328.858929	2080.577454
329.252859	2094.533888
329.646726	2108.407143
330.040528	2123.868362
330.434265	2143.785961
330.827938	2161.956800
331.221547	2180.155366
331.615091	2203.843748
332.008571	2221.999463
332.401986	2246.181878
332.795338	2263.684764
333.188625	2281.510284
333.581847	2300.250774
333.975006	2320.274237
334.368100	2339.297031
334.761129	2354.874196
335.154095	2369.629653
335.546996	2388.564227
335.939833	2401.502349
336.332606	2416.681263
336.725315	2428.807758
337.117960	2435.552822
337.510540	2444.032043
337.903056	2450.993877
338.295508	2456.899588
338.687896	2465.651031
339.080220	2475.478761
339.472480	2475.839203
339.864676	2481.611324
340.256807	2484.157107
340.648875	2484.948568
341.040879	2486.077787
341.432818	2487.423775
341.824694	2490.188848
342.216506	2487.711121
342.608253	2489.727582
342.999937	2485.949237
343.391557	2486.304639
343.783113	2483.652992
344.174605	2485.374546
344.566033	2481.329020
344.957397	2480.472024
345.348697	2478.311889
345.739934	2477.744759
346.131106	2475.506487
346.522215	2474.747793
346.913260	2471.014819
347.304241	2472.078502
347.695159	2468.214458
348.086012	2466.359313
348.476802	2466.797894
348.867528	2464.501648
349.258191	2465.204889
349.648789	2463.203551
350.039324	2463.243880
350.429796	2464.794035
350.820203	2459.473097
351.210548	2460.239353
351.600828	2458.515278
351.991045	2459.029476
352.381198	2459.704990
352.771288	2457.476800
353.161314	2460.708180
353.551276	2459.568879
353.941175	2460.536781
354.331010	2459.513427
354.720782	2457.542335
355.110490	2461.514765
355.500135	2460.551904
355.889717	2460.138530
356.279235	2460.894703
356.668689	2460.317491
357.058080	2462.041565
357.447408	2460.967799
357.836672	2454.618466
358.225873	2459.457974
358.615010	2460.362861
359.004084	2467.349900
359.393095	2463.581638
359.782043	2467.664972
360.170927	2465.424179
360.559748	2467.886783
360.948505	2466.329067
361.337199	2467.614561
361.725830	2469.368882
362.114398	2470.246043
362.502903	2468.058182
362.891344	2472.322998
363.279722	2472.978348
363.668037	2472.191928
364.056289	2472.317957
364.444478	2473.623616
364.832603	2475.191415
365.220665	2475.909779
365.608665	2473.847947
365.996601	2475.466158
366.384474	2476.948257
366.772284	2477.270891
367.160031	2477.933803
367.547715	2480.204843
367.935336	2478.785758
368.322893	2482.957313
368.710388	2482.979998
369.097820	2483.957982
369.485189	2482.727940
369.872495	2483.355564
370.259738	2483.963023
370.646918	2485.878661
371.034035	2487.879999
371.421090	2490.980309
371.808081	2493.153046
372.195010	2493.127840
372.581875	2499.696464
372.968678	2505.881960
373.355418	2510.756755
373.742096	2521.733868
374.128710	2531.165867
374.515262	2540.739018
374.901751	2554.413148
375.288177	2569.173646
375.674540	2585.449011
376.060841	2600.539705
376.447079	2623.887809
376.833254	2649.002838
377.219367	2667.256856
377.605417	2698.338090
377.991404	2722.684342
378.377329	2759.530136
378.763191	2792.814354
379.148991	2838.033504
379.534727	2883.058570
379.920402	2926.631783
380.306013	2972.677682
380.691563	3028.195910
381.077049	3080.865885
381.462474	3133.515696
381.847835	3205.195862
382.233134	3269.069802
382.618371	3325.495437
383.003545	3403.356058
383.388657	3479.578304
383.773706	3568.569793
384.158693	3634.661841
384.543618	3725.337075
384.928480	3799.303405
385.313280	3894.810585
385.698017	3991.981346
386.082692	4103.693315
386.467305	4167.108510
386.851856	4282.384575
387.236344	4425.583591
387.620770	4488.943333
388.005133	4600.814099
388.389435	4738.029265
388.773674	4820.840300
389.157851	4942.203558
389.541965	5069.112085
389.926018	5091.933389
390.310008	5262.268936
390.693936	5371.699783
391.077802	5482.287575
391.461606	5604.601091
391.845348	5710.372060
392.229027	5824.402960
392.612645	6029.262850
392.996200	6133.846628
393.379694	6295.513911
393.763125	6487.828889
394.146494	6565.908800
394.529801	6685.638725
394.913047	6895.320478
395.296230	6875.168465
395.679351	6912.871255
396.062410	7124.937474
396.445408	7014.054774
396.828343	7122.842874
397.211217	7213.177831
397.594028	7083.625218
397.976778	7228.812969
398.359466	7336.587797
398.742092	7277.462624
399.124656	7355.993719
399.507158	7473.608879
399.889598	7434.101357
400.271977	7564.808394
400.654294	7521.409100
401.036549	7628.798280
401.418742	7584.247083
401.800874	7761.184021
402.182944	7746.612566
402.564952	7955.964123
402.946898	7731.320226
403.328783	7688.485542
403.710606	7741.493274
404.092367	7843.170827
404.474067	8000.238057
404.855705	7752.006601
405.237282	7610.395548
405.618797	7800.570556
406.000250	7847.516301
406.381642	7966.444682
406.762972	7809.763100
407.144240	7568.470792
407.525447	7596.018177
407.906593	7431.011129
408.287677	7462.903989
408.668700	7409.109837
409.049661	7267.574401
409.430560	7218.904581
409.811399	7072.335554
410.192176	7021.039293
410.572891	6924.254180
410.953545	7005.784761
411.334138	6633.704758
411.714669	6752.648262
412.095139	6337.244582
412.475547	6393.481174
412.855894	6207.145004
413.236180	6192.903745
413.616405	5946.509789
413.996568	5911.496455
414.376670	5769.595536
414.756711	5608.820537
415.136691	5561.690789
415.516609	5490.832331
415.896466	5379.876535
416.276262	5335.809288
416.655997	5325.061548
417.035670	5214.698088
417.415283	5236.243979
417.794834	5126.800529
418.174324	4945.840750
418.553753	4808.063495
418.933121	4780.828662
419.312428	4636.124861
419.691674	4506.577289
420.070859	4475.390191
420.449983	4313.294410
420.829045	4290.165596
421.208047	4155.377745
421.586988	4117.591776
421.965867	4051.335891
422.344686	3956.705872
422.723444	3925.009617
423.102141	3712.378789
423.480777	3741.887183
423.859352	3618.920838
424.237866	3629.842498
424.616319	3533.564021
424.994712	3508.201976
425.373044	3424.561672
425.751314	3401.258938
426.129524	3291.754994
426.507673	3287.742236
426.885762	3217.909652
427.263789	3172.355266
427.641756	3131.980664
428.019662	3086.587595
428.397508	3043.107643
428.775292	3012.941378
429.153016	2970.414204
429.530679	2940.515121
429.908282	2905.791653
430.285824	2869.303782
430.663305	2854.976822
431.040726	2826.292657
431.418086	2797.497586
431.795385	2787.919394
432.172624	2775.291303
432.549802	2750.476224
432.926920	2736.028277
433.303977	2721.673591
433.680974	2709.206818
434.057910	2700.762885
434.434786	2693.271730
434.811601	2682.294618
435.188355	2682.027437
435.565050	2668.423883
435.941683	2661.870383
436.318257	2663.891886
436.694770	2655.505926
437.071222	2654.134732
437.447614	2639.664100
437.823946	2635.157309
438.200218	2634.572535
438.576429	2629.768315
438.952580	2630.363172
439.328670	2628.165228
439.704700	2627.540125
440.080670	2620.427057
440.456580	2623.552573
440.832429	2622.083076
441.208218	2611.370624
441.583947	2614.055039
441.959616	2612.479678
442.335224	2612.242744
442.710773	2612.593104
443.086261	2613.503032
443.461689	2608.557661
443.837057	2609.099585
444.212365	2607.509101
444.587612	2608.068669
444.962800	2605.699326
445.337927	2607.715788
445.712995	2599.097935
446.088002	2606.077413
446.462949	2605.084306
446.837837	2607.763679
447.212664	2604.799480
447.587431	2619.660802
447.962139	2633.115642
448.336786	2643.046715
448.711374	2635.363996
449.085901	2618.443363
449.460369	2616.048815
449.834776	2616.288270
450.209124	2626.889817
450.583412	2626.168932
450.957640	2625.664816
451.331808	2621.294136
451.705917	2612.588063
452.079965	2614.695265
452.453954	2615.506891
452.827883	2615.501850
453.201752	2613.800461
453.575562	2613.414812
453.949311	2617.969495
454.323001	2617.840945
454.696632	2617.493106
455.070202	2623.441667
455.443713	2623.106431
455.817164	2623.207254
456.190556	2627.484673
456.563888	2623.658437
456.937160	2623.471914
457.310373	2620.495113
457.683526	2621.246245
458.056619	2619.388580
458.429653	2619.134001
458.802628	2624.538118
459.175542	2622.937552
459.548398	2630.413583
459.921194	2636.568832
460.293930	2636.664614
460.666607	2647.830770
461.039224	2653.597850
461.411782	2654.447284
461.784280	2650.885709
462.156719	2648.715492
462.529099	2647.621562
462.901419	2643.117291
463.273680	2639.333905
463.645882	2639.379275
464.018024	2638.194604
464.390106	2645.017806
464.762130	2655.546256
465.134094	2671.728359
465.505999	2694.610157
465.877845	2711.981973
466.249631	2720.130998
466.621358	2715.200750
466.993026	2707.200438
467.364634	2700.268852
467.736184	2688.772501
468.107674	2685.394927
468.479105	2682.745801
468.850477	2680.860410
469.221790	2674.256498
469.593043	2669.974038
469.964238	2667.410611
470.335373	2667.150992
470.706449	2677.452590
471.077467	2689.213602
471.448425	2708.062476
471.819324	2722.223077
472.190164	2715.475492
472.560945	2699.121989
472.931667	2688.407017
473.302330	2679.332940
473.672934	2677.046777
474.043479	2678.213804
474.413965	2675.907476
474.784393	2671.299861
475.154761	2676.603155
475.525070	2673.943947
475.895321	2674.838751
476.265513	2675.050480
476.635645	2684.258147
477.005719	2684.638754
477.375734	2683.958199
477.745691	2687.320648
478.115588	2691.850125
478.485427	2700.226002
478.855207	2713.494319
479.224928	2724.244580
479.594591	2728.874879
479.964194	2725.469580
480.333739	2724.736092
480.703226	2724.841956
481.072653	2727.470918
481.442022	2725.910681
481.811333	2726.694580
482.180584	2718.462376
482.549777	2716.236707
482.918912	2710.467106
483.287988	2709.194215
483.657005	2703.825386
484.025964	2697.092925
484.394864	2696.906402
484.763706	2693.609488
485.132489	2688.190247
485.501213	2684.212777
485.869879	2684.739577
486.238487	2681.891326
486.607036	2681.314113
486.975527	2678.349915
487.343959	2677.603824
487.712333	2674.276663
488.080648	2675.973011
488.448905	2675.201714
488.817104	2670.964625
489.185244	2674.851354
489.553326	2680.477282
489.921350	2691.474559
490.289315	2700.067206
490.657222	2701.483770
491.025070	2698.338090
491.392861	2698.048224
491.760593	2691.900537
492.128267	2688.124712
492.495883	2677.127435
492.863440	2673.785150
493.230939	2668.277690
493.598380	2662.949190
493.965763	2658.273520
494.333088	2658.323931
494.700354	2651.898981
495.067563	2653.560041
495.434713	2650.575678
495.801805	2656.042809
496.168839	2653.570123
496.535815	2649.567447
496.902733	2649.736326
497.269593	2649.895122
497.636395	2646.910759
498.003139	2647.470327
498.369825	2644.160810
498.736453	2646.817498
499.103023	2645.489154
499.469535	2643.281128
499.835989	2644.014616
500.202385	2642.920686
500.568723	2640.959677
500.935003	2638.865077
501.301226	2639.210397
501.667390	2641.647794
502.033497	2642.663587
502.399546	2639.081847
502.765537	2636.830972
503.131470	2640.117804
503.497345	2639.961528
503.863163	2635.001033
504.228923	2636.573873
504.594625	2634.900210
504.960269	2634.396095
505.325856	2636.215951
505.691385	2633.100518
506.056856	2632.724952
506.422270	2633.405508
506.787625	2631.595734
507.152924	2629.934673
507.518164	2630.038017
507.883347	2628.381998
508.248472	2629.559107
508.613540	2628.954169
508.978550	2628.697070
509.343503	2629.410393
509.708398	2629.876700
510.073236	2630.118676
510.438016	2629.917029
510.802738	2624.064250
511.167403	2627.323356
511.532010	2627.164559
511.896561	2626.683129
512.261053	2628.145064
512.625488	2624.318828
512.989866	2622.050309
513.354186	2623.396297
513.718449	2619.559979
514.082655	2622.904784
514.446803	2623.010649
514.810894	2625.178345
515.174927	2622.854373
515.538904	2622.962758
515.902822	2624.528036
516.266684	2620.787500
516.630488	2621.233642
516.994235	2619.900257
517.357925	2618.130812
517.721558	2621.057202
518.085133	2621.692387
518.448651	2621.215998
518.812112	2616.237858
519.175516	2616.895729
519.538863	2618.823970
519.902152	2617.914042
520.265385	2616.842797
520.628560	2617.011676
520.991678	2617.528394
521.354739	2614.564195
521.717743	2617.684670
522.080690	2612.777106
522.443580	2617.525873
522.806413	2618.156018
523.169189	2613.979422
523.531908	2612.499843
523.894569	2613.712240
524.257174	2613.157713
524.619722	2611.847013
524.982213	2613.066973
525.344647	2611.428598
525.707025	2610.753083
526.069345	2612.146962
526.431608	2611.307610
526.793815	2613.802981
527.155964	2610.543875
527.518057	2608.169492
527.880093	2609.565891
528.242072	2608.073710
528.603995	2610.685027
528.965860	2609.449945
529.327669	2607.103288
529.689421	2603.692947
530.051117	2605.855602
530.412755	2605.290993
530.774337	2607.342742
531.135862	2605.805191
531.497331	2602.752772
531.858743	2601.525251
532.220098	2600.887545
532.581396	2598.213213
532.942638	2598.971907
533.303824	2601.613471
533.664953	2602.737648
534.026025	2600.774119
534.387040	2602.450303
534.747999	2599.929726
535.108902	2599.410487
535.469748	2598.424941
535.830537	2596.897472
536.191270	2600.277565
536.551947	2598.109869
536.912567	2599.087853
537.273131	2599.518872
537.633638	2596.305136
537.994089	2598.558532
538.354483	2596.529467
538.714821	2595.836309
539.075103	2595.029724
539.435328	2594.160125
539.795497	2597.923347
540.155609	2596.297574
540.515665	2592.995619
540.875665	2596.887389
541.235609	2593.109045
541.595496	2593.908067
541.955328	2595.037286
542.315102	2591.959662
542.674821	2590.850608
543.034483	2595.521237
543.394090	2591.760536
543.753640	2593.005701
544.113134	2593.114086
544.472571	2590.338931
544.831953	2589.164342
545.191278	2591.720207
545.550548	2591.626945
545.909761	2592.231884
546.268918	2592.514188
546.628019	2590.895978
546.987064	2590.437233
547.346053	2588.249372
547.704986	2589.766760
548.063863	2585.897674
548.422684	2588.445977
548.781449	2585.948086
549.140158	2589.824733
549.498811	2590.941348
549.857408	2585.915318
550.215949	2583.031778
550.574434	2583.402303
550.932864	2583.021696
551.291237	2585.474217
551.649555	2584.113106
552.007817	2587.369691
552.366022	2586.071594
552.724173	2585.451532
553.082267	2586.875658
553.440305	2587.394897
553.798288	2587.273909
554.156215	2586.114444
554.514086	2586.394228
554.871902	2586.273240
555.229661	2586.021182
555.587365	2584.760894
555.945014	2586.749629
556.302606	2585.688466
556.660143	2583.966912
557.017625	2581.489185
557.375050	2585.154104
557.732421	2584.395410
558.089735	2585.811974
558.446994	2582.378949
558.804197	2582.779720
559.161345	2584.702921
559.518437	2581.428691
559.875474	2578.799729
560.232455	2582.706624
560.589381	2581.955492
560.946251	2585.562437
561.303065	2581.703434
561.659825	2584.768456
562.016528	2583.697210
562.373177	2580.977508
562.729770	2581.658064
563.086307	2581.647981
563.442789	2585.668302
563.799216	2582.641089
564.155587	2582.769638
564.511904	2583.160327
564.868164	2581.491706
565.224370	2583.424988
565.580520	2580.501119
565.936615	2581.804257
566.292654	2579.692014
566.648638	2582.651171
567.004567	2581.826942
567.360441	2579.772672
567.716260	2578.033474
568.072023	2580.107909
568.427732	2576.566498
568.783385	2576.208576
569.138982	2574.497105
569.494525	2578.474575
569.850013	2572.783112
570.205445	2578.983732
570.560823	2578.676221
570.916145	2577.035326
571.271412	2578.915676
571.626625	2579.230748
571.981782	2577.796540
572.336884	2577.252095
572.691931	2575.313772
573.046923	2576.997517
573.401860	2573.940057
573.756743	2578.025912
574.111570	2579.293762
574.466342	2577.766293
574.821059	2575.825449
575.175722	2572.697413
575.530330	2576.064903
575.884882	2572.677248
576.239380	2573.413257
576.593823	2575.807805
576.948211	2574.683627
577.302544	2573.632547
577.656823	2573.637588
578.011047	2572.853688
578.365216	2570.917885
578.719330	2574.711354
579.073389	2569.171126
579.427394	2569.269428
579.781344	2574.209759
580.135239	2572.147927
580.489080	2572.173133
580.842866	2569.191290
581.196597	2571.653894
581.550273	2569.607185
581.903895	2570.633060
582.257463	2571.371589
582.610975	2570.038204
582.964434	2569.771023
583.317837	2570.461661
583.671186	2572.846127
584.024481	2571.779923
584.377721	2566.733728
584.730906	2567.696588
585.084037	2569.856722
585.437113	2568.626681
585.790135	2568.271280
586.143103	2565.254149
586.496016	2566.058213
586.848874	2564.296330
587.201679	2566.960580
587.554428	2564.376988
587.907124	2565.400342
588.259765	2564.021587
588.612352	2564.825651
588.964884	2563.830023
589.317362	2564.248439
589.669786	2566.017884
590.022155	2566.945456
590.374470	2566.080898
590.726731	2567.197514
591.078937	2564.976886
591.431090	2566.950497
591.783188	2565.874211
592.135232	2565.319684
592.487222	2565.778429
592.839157	2567.527709
593.191038	2565.647359
593.542866	2566.370765
593.894639	2566.244736
594.246358	2561.962276
594.598022	2562.995712
594.949633	2562.486556
595.301190	2562.219374
595.652692	2562.110990
596.004141	2563.235167
596.355535	2560.155022
596.706876	2559.769374
597.058162	2562.242060
597.409395	2559.300546
597.760573	2562.801628
598.111698	2559.038406
598.462768	2560.765002
598.813785	2558.947666
599.164748	2560.858263
599.515657	2561.816082
599.866511	2560.689384
600.217312	2560.817934
600.568060	2562.110990
600.918753	2560.986812
601.269392	2560.938921
601.619978	2556.895916
601.970510	2558.360371
602.320988	2556.301060
602.671412	2558.418344
603.021783	2557.861297
603.372100	2559.557645
603.722363	2556.230484
604.072572	2557.324414
604.422728	2562.678119
604.772830	2552.825184
605.122878	2554.561862
605.472872	2557.057233
605.822813	2555.711245
606.172701	2557.032027
606.522534	2558.120916
606.872314	2560.548232
607.222041	2557.682336
607.571714	2558.393139
607.921333	2554.856769
608.270899	2557.984805
608.620411	2557.664692
608.969870	2559.605536
609.319276	2556.003632
609.668627	2555.471790
610.017926	2558.703170
610.367171	2558.652758
610.716362	2557.034548
611.065500	2559.721483
611.414585	2558.960268
611.763616	2557.636966
612.112594	2557.760474
612.461518	2560.097049
612.810389	2558.249466
613.159207	2557.957079
613.507971	2557.228632
613.856682	2555.980947
614.205340	2553.969526
614.553945	2557.717624
614.902496	2558.909857
615.250994	2558.556976
615.599439	2558.829198
615.947830	2556.827860
616.296169	2556.396842
616.644454	2557.785680
616.992686	2555.975905
617.340864	2559.131668
617.688990	2559.262738
618.037063	2560.152501
618.385082	2557.689898
618.733048	2560.593602
619.080961	2557.826009
619.428821	2559.940773
619.776628	2557.402552
620.124382	2556.875751
620.472083	2557.536142
620.819731	2558.859445
621.167326	2558.083108
621.514868	2558.309960
621.862357	2556.217881
622.209793	2556.671585
622.557176	2555.345761
622.904506	2556.268292
623.251783	2549.989535
623.599007	2554.907181
623.946179	2549.868547
624.293297	2551.549772
624.640363	2555.829712
624.987376	2553.997252
625.334336	2551.993394
625.681243	2556.119578
626.028097	2551.272509
626.374899	2552.018600
626.721647	2551.688404
627.068343	2552.913404
627.414987	2551.373332
627.761577	2549.359391
628.108115	2554.392983
628.454600	2551.650595
628.801032	2549.979453
629.147412	2551.532128
629.493739	2550.032385
629.840014	2552.547921
630.186236	2550.400389
630.532405	2551.292673
630.878521	2547.257230
631.224585	2550.929710
631.570597	2549.908877
631.916556	2552.182437
632.262462	2548.615821
632.608316	2550.551624
632.954117	2548.923331
633.299866	2550.876778
633.645562	2551.567416
633.991206	2549.629093
634.336797	2548.651109
634.682336	2549.445091
635.027823	2546.801005
635.373257	2548.348640
635.718639	2547.287477
636.063968	2546.806047
636.409245	2545.742363
636.754470	2545.780172
637.099642	2547.350491
637.444762	2546.440563
637.789829	2546.995090
638.134845	2546.548948
638.479808	2542.750438
638.824719	2546.322096
639.169577	2543.778834
639.514383	2545.076931
639.859137	2542.692465
640.203839	2544.303114
640.548489	2544.192208
640.893086	2538.556198
641.237632	2538.989738
641.582125	2540.998637
641.926566	2536.670807
642.270955	2542.505942
642.615292	2542.662218
642.959576	2545.691952
643.303809	2540.928061
643.647990	2545.606252
643.992118	2542.279090
644.336195	2541.472506
644.680219	2542.415202
645.024192	2545.996941
645.368112	2544.713968
645.711981	2544.068700
646.055797	2544.230017
646.399562	2542.609286
646.743274	2544.968546
647.086935	2544.635830
647.430544	2545.807898
647.774101	2544.608103
648.117606	2544.711447
648.461059	2543.683052
648.804460	2545.671787
649.147810	2542.568957
649.491108	2542.611807
649.834354	2543.637681
650.177548	2543.826725
650.520690	2538.082330
650.863781	2540.192053
651.206820	2543.509132
651.549807	2539.672814
651.892742	2541.603576
652.235626	2541.190201
652.578458	2541.964018
652.921238	2541.648946
653.263967	2541.447300
653.606644	2540.834800
653.949269	2539.125849
654.291843	2538.692309
654.634365	2538.036959
654.976836	2538.470499
655.319255	2539.443441
655.661622	2540.126518
656.003938	2541.510314
656.346203	2537.837834
656.688416	2539.577032
657.030577	2536.539737
657.372687	2540.764224
657.714746	2538.732639
658.056753	2537.910931
658.398708	2533.172246
658.740612	2534.989582
659.082465	2535.712988
659.424266	2531.798532
659.766016	2535.493697
660.107715	2538.783050
660.449362	2535.095446
660.790958	2538.926723
661.132503	2538.856147
661.473996	2540.315561
661.815438	2539.922351
662.156829	2539.839172
662.498168	2537.419418
662.839456	2539.647608
663.180693	2537.961342
663.521879	2538.856147
663.863013	2537.724408
664.204097	2536.491846
664.545129	2537.369007
664.886110	2538.571322
665.227040	2540.567619
665.567918	2538.311702
665.908746	2538.800694
666.249522	2538.223482
666.590248	2539.733308
666.930922	2537.210210
667.271545	2538.069727
667.612118	2541.699358
667.952639	2540.025695
668.293109	2537.056455
668.633528	2539.035108
668.973896	2540.739018
669.314213	2537.447144
669.654480	2538.967052
669.994695	2538.314223
670.334859	2539.322454
670.674973	2540.068544
671.015035	2538.286497
671.355047	2538.944367
671.695008	2538.737680
672.034918	2535.100487
672.374777	2540.484440
672.714585	2535.586959
673.054342	2539.768596
673.394049	2538.001671
673.733705	2540.575180
674.073310	2537.046373
674.412864	2536.645601
674.752368	2534.861032
675.091820	2538.099974
675.431223	2538.480581
675.770574	2537.989068
676.109875	2533.893131
676.449125	2533.746938
676.788324	2532.254756
677.127473	2535.546629
677.466571	2534.702236
677.805619	2538.467978
678.144616	2534.165353
678.483562	2535.662576
678.822458	2536.436393
679.161303	2540.272711
679.500098	2536.421270
679.838842	2537.391692
680.177535	2535.730632
680.516179	2535.740714
680.854771	2535.707946
681.193314	2537.482432
681.531805	2536.764068
681.870247	2538.835982
682.208638	2538.001671
682.546978	2539.375386
682.885268	2538.704912
683.223508	2538.309182
683.561697	2535.849099
683.899836	2537.026208
684.237925	2536.963194
684.575963	2537.510159
684.913951	2537.421939
685.251889	2538.742721
685.589776	2537.595858
685.927614	2536.706095
686.265401	2534.818183
686.603137	2538.062165
686.940824	2537.084181
687.278460	2533.283151
687.616046	2534.863553
687.953582	2536.794315
688.291068	2534.470343
688.628504	2539.151054
688.965889	2539.088040
689.303224	2538.838503
689.640510	2537.641229
689.977745	2537.353883
690.314930	2538.543595
690.652065	2537.137113
690.989150	2536.907741
691.326185	2536.401105
691.663170	2531.995137
692.000105	2535.934798
692.336990	2534.034283
692.673825	2534.460261
693.010610	2534.692154
693.347345	2529.635877
693.684030	2525.570186
694.020665	2528.206709
694.357251	2526.686802
694.693786	2528.826771
695.030272	2530.853315
695.366707	2531.150743
695.703093	2529.164529
696.039429	2528.448685
696.375716	2532.438758
696.711952	2526.734693
697.048139	2528.433561
697.384276	2530.487832
697.720363	2530.646628
698.056400	2528.365506
698.392388	2528.927594
698.728326	2528.395753
699.064214	2526.585978
699.400053	2530.956659
699.735842	2528.604961
700.071581	2527.614374
700.407270	2525.706297
700.742910	2527.132944
701.078501	2526.996833
701.414042	2528.736031
701.749533	2523.904085
702.084974	2530.422297
702.420366	2528.577234
702.755709	2525.696215
703.091002	2525.960875
703.426246	2526.817872
703.761440	2528.539426
704.096584	2525.194620
704.431679	2524.498941
704.766725	2526.379291
705.101721	2522.926101
705.436668	2524.758560
705.771565	2525.217305
706.106413	2527.127903
706.441212	2525.542460
706.775961	2527.374919
707.110661	2528.882224
707.445311	2525.638242
707.779913	2525.524816
708.114465	2527.271575
708.448967	2524.995494
708.783421	2528.042872
709.117825	2528.448685
709.452180	2526.018849
709.786485	2529.295599
710.120742	2528.685619
710.454949	2527.468180
710.789107	2526.273427
711.123216	2524.181348
711.457275	2527.442975
711.791286	2527.301822
712.125247	2525.963396
712.459159	2528.673016
712.793023	2533.152081
713.126837	2528.806607
713.460602	2532.436237
713.794318	2527.339631
714.127985	2531.516227
714.461602	2527.816020
714.795171	2531.324663
715.128691	2525.623118
715.462162	2528.892306
715.795584	2525.605474
716.128957	2526.870804
716.462281	2524.123375
716.795556	2527.251411
717.128782	2525.948273
717.461960	2524.463653
717.795088	2528.559590
718.128167	2523.100021
718.461198	2522.853004
718.794180	2524.337624
719.127113	2525.623118
719.459997	2524.193951
719.792833	2525.113962
720.125619	2525.791997
720.458357	2523.641945
720.791046	2526.200330
721.123686	2520.778569
721.456278	2522.091790
721.788821	2524.163704
722.121315	2523.498272
722.453761	2519.094824
722.786158	2521.713703
723.118506	2522.444671
723.450805	2524.894671
723.783056	2524.589682
724.115259	2522.989115
724.447412	2519.462828
724.779518	2525.353416
725.111574	2523.115144
725.443582	2520.521470
725.775542	2521.607839
726.107453	2522.031296
726.439315	2523.044568
726.771129	2531.591844
727.102895	2522.875689
727.434612	2524.672861
727.766281	2524.299815
728.097901	2522.152284
728.429473	2521.895185
728.760996	2522.555576
729.092471	2521.207067
729.423897	2525.776873
729.755276	2526.739734
730.086606	2522.674043
730.417887	2527.080012
730.749120	2527.511030
731.080305	2527.208561
731.411442	2524.695546
731.742530	2526.981709
732.073570	2525.439116
732.404562	2526.555732
732.735506	2530.371885
733.066401	2527.402645
733.397249	2527.241328
733.728048	2526.830474
734.058798	2525.877696
734.389501	2524.894671
734.720156	2523.248735
735.050762	2522.288395
735.381320	2523.604136
735.711831	2523.233611
736.042293	2523.440298
736.372707	2521.799403
736.703073	2522.784948
737.033391	2522.139681
737.363661	2523.405010
737.693883	2521.028106
738.024056	2527.896678
738.354182	2523.044568
738.684260	2522.497603
739.014290	2522.603467
739.344272	2522.467356
739.674207	2523.132788
740.004093	2527.052285
740.333931	2524.693025
740.663722	2525.295443
740.993464	2523.558766
741.323159	2522.505164
741.652806	2524.748478
741.982405	2524.758560
742.311956	2524.756040
742.641460	2523.062212
742.970915	2523.914167
743.300323	2525.736544
743.629683	2522.265710
743.958996	2522.280833
744.288260	2522.674043
744.617477	2519.984587
744.946647	2517.993332
745.275768	2520.511388
745.604842	2519.520801
745.933869	2518.799916
746.262847	2516.307066
746.591778	2521.421316
746.920662	2518.515091
747.249498	2520.680267
747.578286	2523.629342
747.907027	2522.517767
748.235720	2521.706142
748.564365	2519.553569
748.892963	2522.404341
749.221514	2523.122706
749.550017	2522.232942
749.878473	2520.856707
750.206881	2520.876872
750.535242	2523.422654
750.863555	2519.891326
751.191821	2521.912829
751.520039	2520.438291
751.848210	2521.103724
752.176334	2522.187572
752.504411	2523.183200
752.832440	2520.249248
753.160421	2518.827643
753.488356	2519.830832
753.816243	2520.934845
754.144082	2520.297139
754.471875	2519.223373
754.799620	2518.555420
755.127318	2520.274454
755.454969	2522.056502
755.782572	2522.157325
756.110129	2518.804957
756.437638	2519.508198
756.765100	2521.073477
757.092515	2522.684125
757.419882	2521.764115
757.747203	2519.654392
758.074477	2518.361336
758.401703	2522.953827
758.728882	2519.835873
759.056014	2520.347551
759.383099	2520.902078
759.710138	2522.343847
760.037129	2522.817716
760.364073	2521.360822
760.690970	2521.323014
761.017820	2521.670853
761.344623	2523.468025
761.671379	2522.898374
761.998088	2517.975688
762.324751	2521.194464
762.651366	2525.179497
762.977935	2530.409694
763.304456	2531.937163
763.630931	2534.402288
763.957359	2532.161495
764.283740	2535.188707
764.610074	2530.268541
764.936362	2529.608150
765.262602	2529.829961
765.588796	2526.495238
765.914943	2521.096162
766.241044	2522.956348
766.567097	2518.111799
766.893104	2523.841070
767.219064	2519.427540
767.544978	2519.931655
767.870845	2519.319155
768.196665	2518.361336
768.522438	2517.355626
768.848165	2518.719258
769.173846	2518.323527
769.499479	2517.053157
769.825066	2518.895698
770.150607	2518.784793
770.476101	2515.530728
770.801548	2514.797240
771.126949	2516.344874
771.452303	2518.313445
771.777611	2515.465193
772.102872	2514.887981
772.428087	2517.340502
772.753256	2517.327899
773.078378	2515.472755
773.403453	2513.219359
773.728482	2515.419823
774.053465	2515.755059
774.378401	2514.214987
774.703291	2513.922600
775.028135	2517.118692
775.352932	2515.729854
775.677683	2514.774555
776.002388	2518.741943
776.327046	2516.647344
776.651658	2516.478465
776.976224	2514.976201
777.300743	2514.691376
777.625216	2513.237003
777.949643	2517.582478
778.274024	2513.776407
778.598359	2510.267763
778.922647	2509.130983
779.246889	2511.447393
779.571086	2511.250788
779.895236	2511.838083
780.219339	2513.846983
780.543397	2513.849503
780.867409	2513.405882
781.191374	2514.905625
781.515294	2516.062570
781.839167	2515.092148
782.162995	2514.746829
782.486776	2514.605676
782.810511	2515.545852
783.134201	2514.315810
783.457844	2510.686179
783.781441	2514.225069
784.104993	2513.438649
784.428498	2514.719102
784.751958	2513.660460
785.075372	2515.243382
785.398739	2513.955368
785.722061	2513.710872
786.045337	2513.466376
786.368568	2514.467045
786.691752	2512.621982
787.014891	2518.263033
787.337983	2513.413443
787.661030	2519.687159
787.984031	2515.964267
788.306987	2518.303363
788.629897	2516.942251
788.952760	2520.055164
789.275579	2519.601460
789.598351	2516.357477
789.921078	2516.917045
790.243759	2518.104237
790.566395	2515.155162
790.888984	2517.128774
791.211529	2514.033505
791.534027	2514.910666
791.856480	2514.441839
792.178888	2514.542662
792.501249	2510.658453
792.823566	2515.974350
793.145836	2515.190450
793.468062	2516.087776
793.790241	2512.616941
794.112375	2515.008969
794.434464	2512.193484
794.756507	2512.695079
795.078505	2515.934020
795.400457	2512.798423
795.722364	2515.346726
796.044226	2511.999400
796.366042	2513.415964
796.687812	2513.615090
797.009538	2516.334792
797.331218	2514.472086
797.652852	2515.215656
797.974442	2516.377642
798.295986	2517.282529
798.617484	2513.985614
798.938938	2513.741118
799.260346	2514.220028
799.581709	2514.308248
799.903026	2515.878568
800.224299	2513.683145
800.545526	2512.107785
800.866708	2515.162724
801.187845	2513.942765
801.508936	2515.618948
801.829983	2517.398476
802.150984	2514.978722
802.471940	2514.346057
802.792851	2513.620131
803.113717	2513.007631
803.434538	2513.768845
803.755314	2513.446211
804.076045	2513.403361
804.396731	2512.705161
804.717372	2513.799092
805.037967	2513.602487
805.358518	2509.947650
805.679024	2513.988135
805.999485	2515.198012
806.319901	2513.284894
806.640272	2512.521159
806.960598	2512.667353
807.280879	2511.228103
807.601115	2513.950326
807.921306	2510.797085
808.241453	2513.647857
808.561554	2513.168948
808.881611	2512.967301
809.201623	2515.382014
809.521590	2514.958557
809.841513	2513.930162
810.161390	2512.500995
810.481223	2511.696931
810.801011	2512.800943
811.120755	2511.066786
811.440453	2513.231962
811.760107	2513.670542
812.079716	2508.677279
812.399281	2509.032681
812.718801	2508.087464
813.038276	2510.260202
813.357707	2513.070645
813.677093	2513.942765
813.996434	2510.988648
814.315731	2513.519308
814.634983	2511.177692
814.954191	2511.770027
815.273354	2513.907477
815.592473	2514.346057
815.911547	2513.325223
816.230577	2515.878568
816.549562	2514.083917
816.868502	2514.643485
817.187399	2515.427384
817.506250	2514.189781
817.825058	2514.376304
818.143821	2513.995697
818.462539	2517.055677
818.781213	2516.833866
819.099843	2515.308917
819.418429	2519.261182
819.736970	2517.242200
820.055466	2520.859228
820.373919	2524.882068
820.692327	2524.904754
821.010691	2531.503624
821.329011	2548.993907
821.647286	2571.490056
821.965517	2592.599888
822.283704	2604.118925
822.601847	2605.054059
822.919945	2596.312698
823.237999	2586.515215
823.556010	2577.915007
823.873976	2565.425548
824.191897	2556.391801
824.509775	2547.395862
824.827609	2543.892260
825.145398	2535.967566
825.463144	2536.877494
825.780845	2538.359593
826.098502	2541.112063
826.416116	2543.183977
826.733685	2547.713454
827.051210	2553.193188
827.368692	2549.634134
827.686129	2543.846889
828.003522	2537.190046
828.320872	2527.609333
828.638177	2526.056657
828.955439	2521.602798
829.272656	2518.847807
829.589830	2515.853362
829.906960	2517.942920
830.224046	2517.048115
830.541088	2516.173475
830.858086	2515.601304
831.175041	2515.351767
831.491952	2514.492250
831.808819	2516.526356
832.125642	2516.112981
832.442421	2515.926459
832.759157	2520.544156
833.075849	2528.095804
833.392497	2527.921884
833.709101	2535.163502
834.025662	2532.960518
834.342179	2527.667306
834.658653	2526.565814
834.975083	2520.196316
835.291469	2527.362316
835.607811	2518.958713
835.924110	2515.631551
836.240366	2516.448218
836.556578	2516.695235
836.872746	2516.095337
837.188871	2515.051818
837.504952	2512.745491
837.820990	2510.572753
838.136984	2508.768020
838.452935	2511.475120
838.768842	2512.624503
839.084706	2514.310769
839.400526	2516.667508
839.716303	2515.712210
840.032037	2521.514578
840.347727	2516.007117
840.663373	2515.475275
840.978977	2514.688855
841.294537	2512.881602
841.610054	2510.804646
841.925527	2515.495440
842.240957	2510.013185
842.556344	2511.371776
842.871687	2511.959071
843.186987	2513.781448
843.502244	2509.904800
843.817458	2511.215500
844.132629	2510.000582
844.447756	2508.142917
844.762840	2504.634274
845.077881	2505.854233
845.392879	2507.278359
845.707833	2508.831035
846.022745	2504.175529
846.337613	2510.277846
846.652438	2508.894049
846.967221	2508.962105
847.281960	2506.209635
847.596656	2512.127949
847.911309	2509.753566
848.225919	2508.780623
848.540485	2507.840448
848.855009	2509.088133
849.169490	2508.473113
849.483928	2506.827176
849.798323	2509.201559
850.112675	2506.010509
850.426984	2505.720643
850.741251	2507.094357
851.055474	2507.273318
851.369654	2509.448576
851.683792	2510.769358
851.997887	2510.421519
852.311938	2509.488905
852.625947	2509.176354
852.939914	2508.034532
853.253837	2508.135355
853.567718	2507.885818
853.881555	2508.818432
854.195350	2508.009327
854.509103	2509.110819
854.822812	2506.824655
855.136479	2507.812722
855.450103	2507.734584
855.763685	2509.123422
856.077224	2508.397495
856.390720	2509.113339
856.704173	2508.647032
857.017584	2506.065962
857.330953	2507.129645
857.644278	2509.390603
857.957561	2512.448063
858.270802	2508.062259
858.584000	2510.545027
858.897155	2508.727691
859.210268	2508.054697
859.523339	2507.122083
859.836367	2504.760303
860.149352	2510.285407
860.462295	2506.844820
860.775195	2506.161744
861.088054	2504.601507
861.400869	2504.495642
861.713642	2500.167812
862.026373	2506.310458
862.339062	2506.113853
862.651708	2508.130314
862.964312	2509.758607
863.276873	2506.449089
863.589392	2508.198370
863.901869	2507.926147
864.214303	2508.440345
864.526696	2508.546209
864.839045	2508.820952
865.151353	2510.267763
865.463619	2509.027640
865.775842	2509.244409
866.088023	2508.299193
866.400162	2508.639471
866.712258	2508.311796
867.024313	2507.850530
867.336325	2509.345232
867.648296	2507.827845
867.960224	2509.206601
868.272110	2507.737104
868.583954	2508.684841
868.895755	2509.395644
869.207515	2509.461179
869.519233	2507.759789
869.830909	2510.368587
870.142542	2508.657115
870.454134	2507.840448
870.765684	2511.732219
871.077191	2510.403875
871.388657	2507.600993
871.700081	2509.257012
872.011463	2510.381189
872.322803	2510.678617
872.634101	2510.277846
872.945357	2509.262053
873.256571	2510.429080
873.567744	2511.341529
873.878874	2506.557474
874.189963	2509.824142
874.501010	2510.948319
874.812015	2509.627537
875.122979	2510.807167
875.433900	2510.207270
875.744780	2510.194667
876.055618	2511.366735
876.366415	2508.273987
876.677169	2510.645850
876.987882	2508.813391
877.298554	2505.438338
877.609183	2508.883967
877.919771	2506.328102
878.230317	2508.858761
878.540822	2512.374966
878.851285	2514.777076
879.161707	2512.327075
879.472087	2517.953003
879.782425	2516.856552
880.092722	2521.259999
880.402977	2529.681247
880.713191	2540.638195
881.023363	2551.590102
881.333494	2557.266441
881.643583	2558.390618
881.953631	2554.705535
882.263637	2553.576316
882.573602	2549.077086
882.883526	2544.537527
883.193408	2541.606096
883.503248	2537.043852
883.813048	2537.053934
884.122806	2530.737369
884.432522	2526.865763
884.742197	2523.994825
885.051831	2523.765453
885.361424	2518.840246
885.670975	2517.602642
885.980485	2517.194309
886.289954	2513.355470
886.599382	2515.563496
886.908768	2512.233813
887.218113	2513.269771
887.527417	2513.899915
887.836680	2510.350943
888.145901	2511.260871
888.455082	2509.413288
888.764221	2509.945130
889.073319	2508.962105
889.382376	2510.638288
889.691392	2511.139883
890.000366	2511.959071
890.309300	2509.970335
890.618193	2509.201559
890.927044	2513.337826
891.235855	2511.149965
891.544625	2509.251971
891.853353	2511.986797
892.162041	2511.704492
892.470687	2513.428567
892.779293	2510.204749
893.087858	2509.103257
893.396381	2508.636950
893.704864	2515.198012
894.013306	2514.436798
894.321707	2522.154804
894.630068	2521.799403
894.938387	2519.661954
895.246665	2521.645648
895.554903	2520.599608
895.863100	2520.975174
896.171256	2518.242869
896.479371	2516.221366
896.787446	2516.939731
897.095480	2513.300018
897.403473	2516.642303
897.711425	2512.347239
898.019336	2514.940913
898.327207	2512.788340
898.635038	2513.247085
898.942827	2513.549555
899.250576	2510.189626
899.558284	2510.819770
899.865952	2509.294821
900.173579	2509.710716
900.481165	2506.696106
900.788711	2508.705006
901.096216	2509.095695
901.403681	2508.974708
901.711105	2508.853720
902.018489	2507.394306
902.325832	2511.996879
902.633135	2509.816580
902.940397	2510.050994
903.247619	2510.350942
903.554800	2517.322858
903.861941	2518.628517
904.169041	2524.869466
904.476101	2523.863755
904.783121	2525.640762
905.090100	2525.086235
905.397039	2521.401152
905.703938	2520.168590
906.010796	2516.037364
906.317614	2517.504340
906.624391	2515.500481
906.931129	2513.181550
907.237826	2513.393279
907.544483	2510.605521
907.851099	2510.968484
908.157675	2506.144100
908.464211	2510.255161
908.770707	2504.805673
909.077163	2506.474295
909.383578	2501.985148
909.689954	2507.227948
909.996289	2503.212669
910.302584	2506.098729
910.608839	2506.549913
910.915054	2506.537310
911.221229	2505.909686
911.527363	2507.636281
911.833458	2506.280211
912.139513	2507.114522
912.445527	2507.094357
912.751502	2507.036384
913.057436	2509.824142
913.363331	2510.030829
913.669186	2507.537979
913.975000	2510.824811
914.280775	2510.141735
914.586510	2510.776920
914.892205	2513.776407
915.197859	2517.237159
915.503475	2522.716893
915.809050	2522.525329
916.114585	2526.931297
916.420081	2525.444157
916.725536	2523.798220
917.030952	2523.571368
917.336328	2520.060205
917.641665	2522.676564
917.946961	2521.375946
918.252218	2518.305883
918.557435	2516.362518
918.862612	2515.394617
919.167750	2513.824297
919.472848	2512.440501
919.777906	2515.709689
920.082925	2512.674914
920.387904	2511.954029
920.692843	2512.387569
920.997743	2509.496467
921.302603	2507.573267
921.607423	2507.371621
921.912204	2509.519152
922.216946	2508.813391
922.521647	2508.263905
922.826310	2507.459841
923.130932	2509.703154
923.435516	2507.033863
923.740059	2505.334994
924.044564	2506.330622
924.349028	2508.178205
924.653454	2503.989006
924.957840	2502.973214
925.262186	2501.765858
925.566493	2505.844151
925.870761	2502.549757
926.174989	2504.803153
926.479178	2506.383554
926.783328	2507.369100
927.087438	2505.808863
927.391509	2503.764675
927.695541	2504.331805
927.999533	2505.987824
928.303486	2510.096364
928.607400	2507.603514
928.911275	2502.257370
929.215110	2503.739469
929.518906	2503.888183
929.822663	2506.217196
930.126381	2507.752228
930.430060	2501.836434
930.733699	2506.169305
931.037299	2508.710047
931.340861	2504.188132
931.644383	2506.375993
931.947866	2503.094202
932.251309	2505.937412
932.554714	2504.082268
932.858080	2508.359687
933.161407	2504.606548
933.464694	2504.228461
933.767943	2506.282731
934.071153	2507.280880
934.374323	2506.423884
934.677455	2504.659480
934.980548	2504.122597
935.283602	2504.782988
935.586617	2504.359531
935.889593	2504.278873
936.192530	2505.619820
936.495428	2504.200735
936.798287	2504.626712
937.101108	2503.220230
937.403890	2502.733759
937.706632	2506.401198
938.009336	2507.099398
938.312002	2506.779285
938.614628	2506.426404
938.917216	2505.372803
939.219765	2504.208297
939.522275	2507.361538
939.824747	2507.041425
940.127179	2504.253667
940.429573	2503.230313
940.731929	2506.746518
941.034246	2501.735611
941.336524	2505.040087
941.638763	2506.010509
941.940964	2505.466064
942.243126	2505.067813
942.545250	2504.636795
942.847335	2504.893893
943.149381	2504.241064
943.451389	2502.912720
943.753359	2506.572598
944.055290	2505.085457
944.357182	2506.320540
944.659036	2502.900117
944.960851	2505.027484
945.262628	2507.449758
945.564367	2505.445900
945.866067	2502.605210
946.167729	2503.399191
946.469352	2505.150992
946.770937	2507.928668
947.072484	2502.668224
947.373992	2507.366579
947.675462	2505.455982
947.976893	2505.403050
948.278286	2502.196876
948.579641	2506.391116
948.880958	2504.896414
949.182236	2503.878101
949.483476	2503.066475
949.784678	2504.782988
950.085841	2508.669718
950.386967	2507.661487
950.688054	2506.176867
950.989103	2504.339367
951.290114	2505.607217
951.591087	2506.938081
951.892021	2505.377844
952.192917	2504.031856
952.493776	2506.111332
952.794596	2504.820797
953.095378	2505.702999
953.396122	2505.700478
953.696828	2505.231651
953.997496	2505.697958
954.298126	2504.644356
954.598718	2507.820283
954.899272	2502.305261
955.199788	2504.503204
955.500266	2505.103101
955.800706	2501.806187
956.101108	2500.389623
956.401472	2500.485404
956.701798	2502.824500
957.002087	2501.508759
957.302337	2503.046311
957.602550	2507.485047
957.902724	2503.565549
958.202861	2503.774757
958.502960	2503.668893
958.803022	2504.719974
959.103045	2502.917761
959.403031	2505.057731
959.702979	2500.399705
960.002889	2503.394150
960.302762	2502.456496
960.602596	2505.357680
960.902393	2502.713594
961.202153	2502.562360
961.501875	2501.254180
961.801559	2502.680827
962.101205	2501.773419
962.400814	2502.065806
962.700385	2502.932885
962.999918	2503.472288
963.299414	2501.163440
963.598873	2500.276197
963.898293	2503.966321
964.197677	2501.826351
964.497022	2503.391630
964.796331	2501.528923
965.095601	2501.551608
965.394835	2504.425066
965.694030	2502.317864
965.993189	2500.898779
966.292309	2503.452123
966.591393	2501.075219
966.890439	2503.920951
967.189447	2502.471619
967.488419	2499.827534
967.787353	2503.900786
968.086249	2504.465395
968.385108	2502.446413
968.683930	2502.980776
968.982714	2504.898935
969.281462	2503.668893
969.580172	2503.154695
969.878844	2504.662000
970.177480	2505.014881
970.476078	2501.854078
970.774639	2504.225941
971.073162	2502.781650
971.371649	2498.368120
971.670098	2497.238901
971.968510	2500.235867
972.266885	2499.411639
972.565223	2503.812566
972.863524	2503.749552
973.161788	2502.390961
973.460014	2502.678306
973.758204	2502.753924
974.056356	2502.814417
974.354471	2503.149654
974.652550	2505.334994
974.950591	2502.748883
975.248595	2500.777791
975.546563	2501.924654
975.844493	2504.296517
976.142386	2501.039931
976.440243	2503.401712
976.738062	2502.746362
977.035845	2502.993378
977.333590	2502.960611
977.631299	2506.007988
977.928971	2501.912051
978.226606	2502.085971
978.524204	2501.899448
978.821765	2504.218379
979.119290	2503.744510
979.416777	2501.964983
979.714228	2503.225272
980.011642	2501.748213
980.309020	2505.924809
980.606360	2501.425580
980.903664	2503.021105
981.200931	2504.223420
981.498162	2503.068996
981.795356	2502.320384
982.092513	2503.394150
982.389633	2501.032370
982.686717	2505.337515
982.983764	2502.338028
983.280775	2504.891373
983.577749	2505.193842
983.874686	2503.862978
984.171587	2503.270642
984.468451	2505.203924
984.765279	2504.079747
985.062070	2503.502535
985.358824	2504.472957
985.655543	2503.855416
985.952224	2503.754593
986.248869	2504.183091
986.545478	2500.659324
986.842050	2502.683347
987.138586	2500.296361
987.435086	2499.411639
987.731549	2496.593634
988.027975	2504.420025
988.324366	2501.954901
988.620719	2502.804335
988.917037	2498.829385
989.213318	2504.372134
989.509563	2500.429952
989.805772	2502.385919
990.101944	2502.637977
990.398080	2501.720487
990.694180	2502.874911
990.990244	2501.178563
991.286271	2501.032370
991.582262	2502.832062
991.878217	2501.551608
992.174136	2501.231495
992.470019	2502.075888
992.765865	2503.247957
993.061676	2501.420538
993.357450	2502.416166
993.653188	2499.600682
993.948890	2503.626043
994.244556	2499.807369
994.540186	2503.492453
994.835780	2503.464726
995.131337	2501.889366
995.426859	2504.218379
995.722345	2501.760816
996.017795	2502.655621
996.313208	2503.318533
996.608586	2502.464057
996.903928	2505.080416
997.199234	2503.684017
997.494504	2506.867505
997.789738	2502.849706
998.084936	2502.496825
998.380099	2500.099756
998.675225	2503.005981
998.970316	2504.006650
999.265371	2502.128821
999.560390	2501.347442
999.855373	2502.234685
1000.150320	2498.917606
1000.445232	2500.566063
1000.740108	2501.044972
1001.034948	2502.484222
1001.329752	2501.032370
1001.624521	2501.980107
1001.919254	2498.849550
1002.213951	2497.311998
1002.508613	2498.572287
1002.803239	2502.022956
1003.097829	2497.526247
1003.392384	2501.586897
1003.686903	2500.767709
1003.981386	2502.723677
1004.275834	2500.036742
1004.570246	2501.125631
1004.864623	2503.066475
1005.158964	2499.938439
1005.453270	2500.616474
1005.747540	2500.671927
1006.041775	2501.334839
1006.335974	2501.438183
1006.630138	2503.810045
1006.924266	2501.622185
1007.218359	2502.665703
1007.512416	2503.439521
1007.806438	2502.406084
1008.100425	2501.594458
1008.394376	2499.822493
1008.688292	2502.690909
1008.982172	2499.378871
1009.276017	2502.491784
1009.569827	2501.589417
1009.863602	2502.171670
1010.157341	2501.420538
1010.451045	2502.181753
1010.744714	2499.230157
1011.038347	2500.387102
1011.331945	2501.082781
1011.625508	2503.061434
1011.919036	2502.186794
1012.212528	2499.857781
1012.505986	2499.187307
1012.799408	2500.770230
1013.092795	2499.472133
1013.386147	2501.833913
1013.679464	2504.669562
1013.972745	2500.545898
1014.265992	2501.609582
1014.559204	2501.236536
1014.852380	2497.788387
1015.145521	2501.019767
1015.438628	2500.883656
1015.731699	2499.315857
1016.024736	2499.910713
1016.317737	2503.013543
1016.610703	2502.169150
1016.903635	2497.581700
1017.196531	2497.858963
1017.489393	2498.874756
1017.782219	2498.027842
1018.075011	2499.721670
1018.367768	2500.755106
1018.660490	2502.600168
1018.953177	2502.600168
1019.245829	2502.600168
