Dividing Wavelength (nm)	Counts (n)	Blue Motor Position (mm): 0.000000	Red Motor Position (mm): 23.600000	
326.493990	2127.298868
326.888308	2127.298868
327.282561	2127.298868
327.676750	2092.451892
328.070874	2091.168918
328.464933	2096.812490
328.858929	2102.710640
329.252859	2115.522732
329.646726	2123.722169
330.040528	2135.712553
330.434265	2153.396921
330.827938	2170.713284
331.221547	2190.053671
331.615091	2207.244006
332.008571	2225.775287
332.401986	2245.879409
332.795338	2267.974786
333.188625	2284.789555
333.581847	2303.398974
333.975006	2324.642397
334.368100	2339.246619
334.761129	2358.292098
335.154095	2374.655684
335.546996	2393.242418
335.939833	2409.893349
336.332606	2424.212747
336.725315	2434.494180
337.117960	2445.262085
337.510540	2453.252313
337.903056	2467.579273
338.295508	2469.368882
338.687896	2480.149390
339.080220	2490.461070
339.472480	2495.998778
339.864676	2499.320898
340.256807	2505.098060
340.648875	2507.784995
341.040879	2509.229286
341.432818	2512.838752
341.824694	2514.046108
342.216506	2513.947806
342.608253	2514.693897
342.999937	2514.726664
343.391557	2515.041736
343.783113	2508.921775
344.174605	2512.899246
344.566033	2509.471261
344.957397	2507.981600
345.348697	2507.056548
345.739934	2505.639984
346.131106	2502.542195
346.522215	2501.728049
346.913260	2498.567245
347.304241	2497.329642
347.695159	2495.552635
348.086012	2498.156391
348.476802	2491.287819
348.867528	2491.854949
349.258191	2490.355206
349.648789	2489.349496
350.039324	2489.813282
350.429796	2490.193889
350.820203	2485.233393
351.210548	2485.656850
351.600828	2484.966212
351.991045	2483.045533
352.381198	2485.102323
352.771288	2481.591160
353.161314	2483.761377
353.551276	2481.470172
353.941175	2479.839359
354.331010	2484.366315
354.720782	2482.632158
355.110490	2480.650985
355.500135	2482.158290
355.889717	2482.990080
356.279235	2482.949751
356.668689	2485.568630
357.058080	2485.835811
357.447408	2484.671305
357.836672	2477.275932
358.225873	2484.051243
358.615010	2480.217445
359.004084	2483.121150
359.393095	2483.431181
359.782043	2486.027375
360.170927	2486.801192
360.559748	2487.890082
360.948505	2490.284630
361.337199	2490.135916
361.725830	2490.390494
362.114398	2491.517192
362.502903	2488.920998
362.891344	2491.902840
363.279722	2491.764208
363.668037	2493.747902
364.056289	2493.057264
364.444478	2495.406442
364.832603	2493.828561
365.220665	2495.429127
365.608665	2494.546925
365.996601	2499.139416
366.384474	2497.397698
366.772284	2498.718480
367.160031	2500.843326
367.547715	2503.172339
367.935336	2506.587721
368.322893	2506.943122
368.710388	2512.601818
369.097820	2519.011645
369.485189	2521.149094
369.872495	2525.605474
370.259738	2534.137627
370.646918	2541.898483
371.034035	2545.898639
371.421090	2557.367264
371.808081	2567.701629
372.195010	2577.403330
372.581875	2591.838674
372.968678	2602.452823
373.355418	2613.697117
373.742096	2632.961886
374.128710	2646.119298
374.515262	2663.249139
374.901751	2677.717250
375.288177	2689.674867
375.674540	2713.456510
376.060841	2730.246073
376.447079	2749.909094
376.833254	2773.027825
377.219367	2784.720782
377.605417	2820.780155
377.991404	2830.633090
378.377329	2854.797861
378.763191	2867.189018
379.148991	2908.352559
379.534727	2932.779470
379.920402	2961.602267
380.306013	2975.452838
380.691563	3023.323634
381.077049	3046.828014
381.462474	3065.271076
381.847835	3102.293309
382.233134	3125.417082
382.618371	3122.460445
383.003545	3193.770087
383.388657	3200.401725
383.773706	3232.150912
384.158693	3247.130701
384.543618	3277.420473
384.928480	3308.199238
385.313280	3354.746732
385.698017	3352.700024
386.082692	3408.825710
386.467305	3411.484919
386.851856	3444.711164
387.236344	3465.692446
387.620770	3498.520440
388.005133	3521.165303
388.389435	3553.305179
388.773674	3561.189544
389.157851	3603.502469
389.541965	3621.212042
389.926018	3584.240220
390.310008	3659.066067
390.693936	3676.243798
391.077802	3715.126218
391.461606	3703.760937
391.845348	3767.791152
392.229027	3765.898199
392.612645	3780.593162
392.996200	3858.862117
393.379694	3897.157242
393.763125	3962.162921
394.146494	3930.915329
394.529801	3996.021831
394.913047	4041.447668
395.296230	4004.158253
395.679351	4061.438364
396.062410	4085.703958
396.445408	4065.378025
396.828343	4099.317594
397.211217	4118.352991
397.594028	4043.494377
397.976778	4109.848564
398.359466	4134.036020
398.742092	4163.967871
399.124656	4086.054318
399.507158	4164.242614
399.889598	4193.372922
400.271977	4252.309051
400.654294	4225.129670
401.036549	4232.658633
401.418742	4203.966906
401.800874	4308.843071
402.182944	4323.023837
402.564952	4388.979773
402.946898	4375.088874
403.328783	4372.109552
403.710606	4285.832724
404.092367	4476.345490
404.474067	4443.988844
404.855705	4452.261377
405.237282	4380.203124
405.618797	4490.087675
406.000250	4523.523128
406.381642	4603.122947
406.762972	4568.248245
407.144240	4576.601437
407.525447	4574.963062
407.906593	4633.511023
408.287677	4676.164225
408.668700	4609.205099
409.049661	4654.688910
409.430560	4695.819684
409.811399	4622.725474
410.192176	4788.229075
410.572891	4725.217173
410.953545	4827.381197
411.334138	4709.798804
411.714669	4778.640801
412.095139	4668.466383
412.475547	4812.935770
412.855894	4792.410712
413.236180	4802.888751
413.616405	4755.711112
413.996568	4843.331407
414.376670	4784.584321
414.756711	4743.171242
415.136691	4772.452784
415.516609	4850.789795
415.896466	4883.259867
416.276262	4917.872429
416.655997	4897.748143
417.035670	5085.649591
417.415283	5172.511192
417.794834	5116.851812
418.174324	5073.618877
418.553753	4976.909382
418.933121	5165.325027
419.312428	5229.430860
419.691674	5169.783928
420.070859	5293.546775
420.449983	5204.081418
420.829045	5323.624820
421.208047	5225.627309
421.586988	5297.577178
421.965867	5309.139064
422.344686	5441.250062
422.723444	5293.151045
423.102141	5114.111945
423.480777	5406.647582
423.859352	5180.571997
424.237866	5433.471562
424.616319	5426.996200
424.994712	5536.225401
425.373044	5412.865846
425.751314	5547.255445
426.129524	5349.087688
426.507673	5543.320825
426.885762	5620.205983
427.263789	5544.621442
427.641756	5429.594915
428.019662	5544.215630
428.397508	5540.273447
428.775292	5484.520806
429.153016	5576.252162
429.530679	5495.170244
429.908282	5567.906532
430.285824	5435.757725
430.663305	5692.312127
431.040726	5425.350263
431.418086	5416.392133
431.795385	5503.982181
432.172624	5504.088045
432.549802	5485.781095
432.926920	5481.768336
433.303977	5477.501000
433.680974	5498.247868
434.057910	5495.525645
434.434786	5482.960569
434.811601	5433.511891
435.188355	5639.044775
435.565050	5504.040154
435.941683	5464.275532
436.318257	5637.754239
436.694770	5590.632054
437.071222	5596.504998
437.447614	5514.089694
437.823946	5410.141102
438.200218	5519.433317
438.576429	5376.166246
438.952580	5425.307413
439.328670	5432.475934
439.704700	5322.382175
440.080670	5281.972286
440.456580	5461.061797
440.832429	5330.856355
441.208218	5175.634187
441.583947	5256.471609
441.959616	5225.836517
442.335224	5130.548627
442.710773	5190.437535
443.086261	5167.956509
443.461689	4977.708404
443.837057	5039.008835
444.212365	5104.614411
444.587612	4982.595803
444.962800	5034.328124
445.337927	4976.233867
445.712995	4676.340666
446.088002	4990.391948
446.462949	4832.376980
446.837837	4737.129419
447.212664	4800.516888
447.587431	4815.615144
447.962139	5060.143873
448.336786	5498.749463
448.711374	5308.801307
449.085901	4755.002830
449.460369	4649.224299
449.834776	4554.470772
450.209124	4684.429197
450.583412	4686.672511
450.957640	4708.624215
451.331808	4532.962689
451.705917	4281.293165
452.079965	4197.131102
452.453954	4219.798650
452.827883	4119.174699
453.201752	4103.128706
453.575562	3973.364365
453.949311	3985.732836
454.323001	3906.760640
454.696632	3880.057648
455.070202	3869.874518
455.443713	3866.156667
455.817164	3841.444930
456.190556	3810.761947
456.563888	3778.186011
456.937160	3740.808376
457.310373	3608.704940
457.683526	3561.106365
458.056619	3488.944768
458.429653	3443.120680
458.802628	3393.188051
459.175542	3378.717419
459.548398	3399.481932
459.921194	3391.859707
460.293930	3361.141436
460.666607	3408.109866
461.039224	3422.494799
461.411782	3401.251377
461.784280	3352.637009
462.156719	3287.752318
462.529099	3224.770663
462.901419	3131.589975
463.273680	3088.167996
463.645882	3055.193809
464.018024	3008.285873
464.390106	2994.435302
464.762130	3005.246057
465.134094	3020.503109
465.505999	3099.893720
465.877845	3168.871828
466.249631	3174.331398
466.621358	3089.024993
466.993026	3003.955521
467.364634	2954.809313
467.736184	2904.801066
468.107674	2867.002495
468.479105	2844.428208
468.850477	2814.987869
469.221790	2785.282870
469.593043	2758.174066
469.964238	2737.412073
470.335373	2724.116030
470.706449	2712.428115
471.077467	2701.022504
471.448425	2725.948490
471.819324	2739.531879
472.190164	2732.645662
472.560945	2693.364992
472.931667	2667.198883
473.302330	2655.818478
473.672934	2645.529483
474.043479	2643.717188
474.413965	2637.226702
474.784393	2629.496093
475.154761	2627.459467
475.525070	2621.818416
475.895321	2617.951851
476.265513	2615.461521
476.635645	2619.504526
477.005719	2616.333640
477.375734	2614.793568
477.745691	2613.712240
478.115588	2614.959926
478.485427	2615.136366
478.855207	2617.117540
479.224928	2625.435444
479.594591	2630.960548
479.964194	2624.654065
480.333739	2623.844960
480.703226	2620.792541
481.072653	2618.670215
481.442022	2618.642489
481.811333	2623.003087
482.180584	2619.751543
482.549777	2612.441870
482.918912	2606.979779
483.287988	2613.762652
483.657005	2611.163937
484.025964	2607.642691
484.394864	2606.180757
484.763706	2605.888370
485.132489	2599.622215
485.501213	2601.812597
485.869879	2598.578697
486.238487	2596.484097
486.607036	2602.974583
486.975527	2597.966196
487.343959	2598.588779
487.712333	2599.148347
488.080648	2594.268510
488.448905	2595.501072
488.817104	2597.802359
489.185244	2597.131885
489.553326	2599.975096
489.921350	2600.491814
490.289315	2606.616816
490.657222	2610.117898
491.025070	2607.851899
491.392861	2610.324585
491.760593	2603.279572
492.128267	2600.552308
492.495883	2599.344952
492.863440	2597.613316
493.230939	2594.812955
493.598380	2594.442430
493.965763	2588.965216
494.333088	2590.807758
494.700354	2588.756008
495.067563	2591.165680
495.434713	2588.009917
495.801805	2590.921184
496.168839	2590.626276
496.535815	2587.551172
496.902733	2590.200299
497.269593	2590.613673
497.636395	2589.849939
498.003139	2588.856831
498.369825	2588.655185
498.736453	2590.855649
499.103023	2589.721389
499.469535	2590.807758
499.835989	2588.599732
500.202385	2590.245669
500.568723	2585.819536
500.935003	2586.716862
501.301226	2585.141501
501.667390	2586.467324
502.033497	2587.641913
502.399546	2589.381111
502.765537	2584.352560
503.131470	2585.852304
503.497345	2587.049578
503.863163	2586.900864
504.228923	2585.491861
504.594625	2586.610997
504.960269	2586.237952
505.325856	2587.157962
505.691385	2579.371900
506.056856	2586.447160
506.422270	2586.381625
506.787625	2586.411872
507.152924	2586.583271
507.518164	2585.920359
507.883347	2583.069587
508.248472	2584.589495
508.613540	2583.679566
508.978550	2582.010944
509.343503	2581.753846
509.708398	2586.195102
510.073236	2585.842221
510.438016	2587.180648
510.802738	2589.118971
511.167403	2586.379104
511.532010	2585.302818
511.896561	2588.720720
512.261053	2588.186358
512.625488	2583.515729
512.989866	2581.617734
513.354186	2581.360636
513.718449	2583.500605
514.082655	2584.859196
514.446803	2584.604618
514.810894	2588.519074
515.174927	2586.772314
515.538904	2588.261975
515.902822	2589.418920
516.266684	2585.564958
516.630488	2587.455391
516.994235	2589.227356
517.357925	2584.839032
517.721558	2587.271388
518.085133	2587.437747
518.448651	2586.588312
518.812112	2587.664598
519.175516	2586.689135
519.538863	2588.035123
519.902152	2588.687953
520.265385	2588.473704
520.628560	2590.359095
520.991678	2587.876327
521.354739	2591.788262
521.717743	2590.129723
522.080690	2587.851121
522.443580	2590.459918
522.806413	2589.950762
523.169189	2589.870103
523.531908	2591.095104
523.894569	2589.628128
524.257174	2589.708786
524.619722	2587.735175
524.982213	2590.527974
525.344647	2589.993612
525.707025	2591.291709
526.069345	2589.923035
526.431608	2589.872624
526.793815	2592.443612
527.155964	2588.962696
527.518057	2590.674167
527.880093	2589.146698
528.242072	2589.877665
528.603995	2589.529825
528.965860	2588.294743
529.327669	2591.518561
529.689421	2587.157963
530.051117	2589.343303
530.412755	2590.464959
530.774337	2589.512181
531.135862	2589.537387
531.497331	2588.531677
531.858743	2586.116964
532.220098	2586.973960
532.581396	2585.081007
532.942638	2586.179979
533.303824	2586.583271
533.664953	2590.056626
534.026025	2587.009248
534.387040	2590.810278
534.747999	2587.273909
535.108902	2590.555700
535.469748	2588.849270
535.830537	2589.423961
536.191270	2587.430185
536.551947	2589.595360
536.912567	2590.497727
537.273131	2591.266503
537.633638	2584.844073
537.994089	2590.472521
538.354483	2586.777355
538.714821	2589.156780
539.075103	2587.415061
539.435328	2590.006214
539.795497	2589.446646
540.155609	2589.905391
540.515665	2589.986050
540.875665	2588.146029
541.235609	2587.425144
541.595496	2589.660895
541.955328	2588.272057
542.315102	2589.875144
542.674821	2590.664085
543.034483	2592.249528
543.394090	2586.389187
543.753640	2589.411358
544.113134	2589.469332
544.472571	2589.030751
544.831953	2587.715010
545.191278	2586.737026
545.550548	2591.553849
545.909761	2592.181472
546.268918	2591.090062
546.628019	2589.764239
546.987064	2588.317428
547.346053	2588.463621
547.704986	2589.613004
548.063863	2589.595360
548.422684	2589.323138
548.781449	2585.698548
549.140158	2590.497727
549.498811	2590.560741
549.857408	2589.464290
550.215949	2588.183837
550.574434	2584.085379
550.932864	2589.252562
551.291237	2588.181317
551.649555	2590.091914
552.007817	2589.381111
552.366022	2591.410176
552.724173	2590.893457
553.082267	2592.020155
553.440305	2591.679878
553.798288	2589.615525
554.156215	2588.685432
554.514086	2592.388160
554.871902	2587.505802
555.229661	2589.817171
555.587365	2590.114599
555.945014	2587.924218
556.302606	2590.475042
556.660143	2589.633169
557.017625	2591.712645
557.375050	2589.628128
557.732421	2589.141657
558.089735	2590.880855
558.446994	2589.683581
558.804197	2586.958837
559.161345	2588.236769
559.518437	2589.764239
559.875474	2591.765577
560.232455	2590.757346
560.589381	2587.795668
560.946251	2592.229363
561.303065	2589.280288
561.659825	2592.582244
562.016528	2588.967737
562.373177	2588.831626
562.729770	2586.764752
563.086307	2591.432861
563.442789	2589.686101
563.799216	2587.871286
564.155587	2590.157449
564.511904	2590.686770
564.868164	2588.619897
565.224370	2590.200299
565.580520	2589.940679
565.936615	2591.173242
566.292654	2588.899681
566.648638	2590.089393
567.004567	2589.446646
567.360441	2589.423961
567.716260	2589.088724
568.072023	2589.741554
568.427732	2584.339957
568.783385	2583.490523
569.138982	2590.225505
569.494525	2584.828949
569.850013	2583.288877
570.205445	2588.461101
570.560823	2589.338262
570.916145	2585.002869
571.271412	2588.342634
571.626625	2588.851790
571.981782	2588.037644
572.336884	2589.315576
572.691931	2589.103848
573.046923	2586.527818
573.401860	2584.281984
573.756743	2586.008579
574.111570	2587.099989
574.466342	2589.365988
574.821059	2584.662591
575.175722	2588.864393
575.530330	2584.728126
575.884882	2587.263827
576.239380	2585.635534
576.593823	2586.225349
576.948211	2582.220152
577.302544	2586.605956
577.656823	2585.582602
578.011047	2586.636203
578.365216	2586.588312
578.719330	2584.549165
579.073389	2584.455904
579.427394	2585.207036
579.781344	2582.462128
580.135239	2586.414392
580.489080	2583.132601
580.842866	2583.951789
581.196597	2586.376584
581.550273	2583.137642
581.903895	2583.936665
582.257463	2584.103023
582.610975	2584.181161
582.964434	2585.290215
583.317837	2583.046902
583.671186	2583.304000
584.024481	2580.775862
584.377721	2581.574885
584.730906	2581.804257
585.084037	2584.168558
585.437113	2581.925245
585.790135	2581.090934
586.143103	2583.760225
586.496016	2580.238979
586.848874	2581.733681
587.201679	2581.756366
587.554428	2577.189081
587.907124	2581.678228
588.259765	2577.408371
588.612352	2580.417940
588.964884	2581.446335
589.317362	2580.370049
589.669786	2580.193608
590.022155	2581.781572
590.374470	2582.063877
590.726731	2579.248392
591.078937	2579.102199
591.431090	2577.521797
591.783188	2579.278639
592.135232	2579.966757
592.487222	2579.283680
592.839157	2579.134966
593.191038	2581.169072
593.542866	2579.898701
593.894639	2579.462641
594.246358	2578.890470
594.598022	2579.087075
594.949633	2578.900552
595.301190	2578.817373
595.652692	2577.118505
596.004141	2576.934502
596.355535	2577.332754
596.706876	2576.432908
597.058162	2576.868967
597.409395	2576.092630
597.760573	2577.398289
598.111698	2577.652867
598.462768	2578.099009
598.813785	2576.818556
599.164748	2576.120356
599.515657	2574.855027
599.866511	2575.845613
600.217312	2573.894687
600.568060	2574.499625
600.918753	2577.065572
601.269392	2575.777558
601.619978	2576.700089
601.970510	2576.750500
602.320988	2576.251426
602.671412	2574.131621
603.021783	2576.753021
603.372100	2574.671024
603.722363	2574.199677
604.072572	2576.521128
604.422728	2577.022723
604.772830	2572.687330
605.122878	2569.581980
605.472872	2573.889646
605.822813	2570.597772
606.172701	2573.135993
606.522534	2572.873853
606.872314	2576.493402
607.222041	2576.400140
607.571714	2576.150603
607.921333	2576.737897
608.270899	2575.754872
608.620411	2576.266550
608.969870	2577.267219
609.319276	2576.768144
609.668627	2580.412899
610.017926	2585.038157
610.367171	2583.039340
610.716362	2581.940368
611.065500	2581.925245
611.414585	2577.786457
611.763616	2581.378280
612.112594	2578.734194
612.461518	2580.808629
612.810389	2579.414750
613.159207	2574.857547
613.507971	2576.359811
613.856682	2578.192270
614.205340	2577.947774
614.553945	2576.672362
614.902496	2574.711354
615.250994	2577.476427
615.599439	2577.121025
615.947830	2578.600604
616.296169	2577.390727
616.644454	2576.054821
616.992686	2578.671180
617.340864	2578.361149
617.688990	2575.023905
618.037063	2579.825604
618.385082	2577.037846
618.733048	2576.425346
619.080961	2576.049780
619.428821	2574.605489
619.776628	2576.836200
620.124382	2575.588514
620.472083	2578.467013
620.819731	2577.582291
621.167326	2575.986766
621.514868	2575.729667
621.862357	2573.564491
622.209793	2573.791343
622.557176	2575.124728
622.904506	2572.089954
623.251783	2568.765313
623.599007	2570.633060
623.946179	2569.909655
624.293297	2569.579459
624.640363	2572.117680
624.987376	2572.387382
625.334336	2570.688513
625.681243	2573.458627
626.028097	2569.236661
626.374899	2570.328070
626.721647	2569.718091
627.068343	2568.430076
627.414987	2572.301682
627.761577	2571.394274
628.108115	2568.140210
628.454600	2570.000395
628.801032	2569.314798
629.147412	2569.728173
629.493739	2571.452248
629.840014	2568.273800
630.186236	2568.921588
630.532405	2569.135837
630.878521	2570.146589
631.224585	2569.869325
631.570597	2569.639953
631.916556	2567.482339
632.262462	2568.737586
632.608316	2567.880590
632.954117	2567.353790
633.299866	2567.787329
633.645562	2567.913358
633.991206	2567.144582
634.336797	2567.817576
634.682336	2569.047617
635.027823	2565.601989
635.373257	2568.581311
635.718639	2564.679458
636.063968	2564.407235
636.409245	2565.894376
636.754470	2565.755744
637.099642	2566.098542
637.444762	2563.842626
637.789829	2564.434962
638.134845	2566.383368
638.479808	2565.390260
638.824719	2563.860270
639.169577	2562.484035
639.514383	2560.807851
639.859137	2564.699622
640.203839	2562.292471
640.548489	2561.937070
640.893086	2560.389436
641.237632	2559.870197
641.582125	2557.647048
641.926566	2557.473128
642.270955	2563.472101
642.615292	2561.390105
642.959576	2565.289437
643.303809	2564.059396
643.647990	2560.810372
643.992118	2562.670558
644.336195	2562.899930
644.680219	2561.059909
645.024192	2562.040413
645.368112	2560.613767
645.711981	2560.162584
646.055797	2563.819941
646.399562	2561.722821
646.743274	2563.938408
647.086935	2564.676937
647.430544	2565.123079
647.774101	2562.710887
648.117606	2565.296999
648.461059	2564.117369
648.804460	2567.215158
649.147810	2564.046793
649.491108	2562.486556
649.834354	2563.595609
650.177548	2562.526885
650.520690	2565.511248
650.863781	2560.666699
651.206820	2565.680127
651.549807	2560.868345
651.892742	2560.245763
652.235626	2561.775753
652.578458	2560.023952
652.921238	2558.272151
653.263967	2561.879097
653.606644	2560.059240
653.949269	2561.753068
654.291843	2561.183417
654.634365	2558.904816
654.976836	2557.163097
655.319255	2559.608057
655.661622	2559.141750
656.003938	2559.522357
656.346203	2555.751574
656.688416	2560.255845
657.030577	2556.200237
657.372687	2558.078067
657.714746	2562.657955
658.056753	2559.822306
658.398708	2554.035061
658.740612	2556.598488
659.082465	2551.801830
659.424266	2556.820299
659.766016	2553.306614
660.107715	2558.534291
660.449362	2557.077398
660.790958	2559.023283
661.132503	2557.568910
661.473996	2558.488921
661.815438	2560.820454
662.156829	2560.538150
662.498168	2558.342727
662.839456	2558.907336
663.180693	2559.192162
663.521879	2557.931873
663.863013	2555.249979
664.204097	2557.765515
664.545129	2555.754095
664.886110	2559.431616
665.227040	2556.043961
665.567918	2561.357337
665.908746	2558.582182
666.249522	2559.338355
666.590248	2557.372305
666.930922	2558.977913
667.271545	2558.284754
667.612118	2558.690567
667.952639	2560.558314
668.293109	2558.819116
668.633528	2560.833057
668.973896	2558.975392
669.314213	2556.911039
669.654480	2557.962120
669.994695	2560.492779
670.334859	2557.773077
670.674973	2557.452963
671.015035	2558.463715
671.355047	2556.527912
671.695008	2559.121585
672.034918	2557.301729
672.374777	2558.685526
672.714585	2556.220401
673.054342	2561.019580
673.394049	2558.383056
673.733705	2557.364743
674.073310	2559.063612
674.412864	2559.431616
674.752368	2557.997408
675.091820	2557.379867
675.431223	2559.129147
675.770574	2556.772408
676.109875	2552.038764
676.449125	2551.998435
676.788324	2554.153528
677.127473	2555.912891
677.466571	2552.805020
677.805619	2555.678477
678.144616	2553.425082
678.483562	2553.972047
678.822458	2556.490103
679.161303	2557.337017
679.500098	2558.065464
679.838842	2552.159752
680.177535	2553.588919
680.516179	2554.829043
680.854771	2554.967675
681.193314	2559.928170
681.531805	2556.535473
681.870247	2558.289795
682.208638	2560.621329
682.546978	2558.612429
682.885268	2557.795762
683.223508	2556.540515
683.561697	2556.633776
683.899836	2557.314332
684.237925	2556.013714
684.575963	2555.348282
684.913951	2554.130843
685.251889	2557.122768
685.589776	2558.675443
685.927614	2556.986657
686.265401	2558.632593
686.603137	2557.684857
686.940824	2558.163766
687.278460	2559.565207
687.616046	2556.432130
687.953582	2559.943293
688.291068	2558.299877
688.628504	2557.314332
688.965889	2559.124106
689.303224	2558.294836
689.640510	2559.532439
689.977745	2555.481872
690.314930	2558.118396
690.652065	2556.406924
690.989150	2553.074721
691.326185	2556.391801
691.663170	2554.521532
692.000105	2555.683518
692.336990	2553.346944
692.673825	2554.161090
693.010610	2552.477345
693.347345	2548.285625
693.684030	2547.015254
694.020665	2551.118754
694.357251	2544.761859
694.693786	2550.833928
695.030272	2552.489947
695.366707	2549.482899
695.703093	2549.694628
696.039429	2551.302756
696.375716	2551.597663
696.711952	2548.988866
697.048139	2553.082283
697.384276	2551.204453
697.720363	2549.734957
698.056400	2550.647406
698.392388	2552.041285
698.728326	2548.673794
699.064214	2548.802343
699.400053	2548.169679
699.735842	2549.891233
700.071581	2549.913918
700.407270	2549.558517
700.742910	2549.588763
701.078501	2551.743857
701.414042	2549.203115
701.749533	2546.715306
702.084974	2549.777807
702.420366	2550.203784
702.755709	2549.924000
703.091002	2543.670449
703.426246	2551.406099
703.761440	2548.325954
704.096584	2547.985677
704.431679	2546.861499
704.766725	2548.036088
705.101721	2545.858310
705.436668	2547.935265
705.771565	2546.352343
706.106413	2550.967519
706.441212	2543.549461
706.775961	2550.470965
707.110661	2550.060111
707.445311	2549.253527
707.779913	2547.983156
708.114465	2551.973229
708.448967	2547.804195
708.783421	2549.056922
709.117825	2548.348640
709.452180	2550.223949
709.786485	2549.011551
710.120742	2549.601366
710.454949	2551.340564
710.789107	2548.920811
711.123216	2548.948537
711.457275	2550.178578
711.791286	2548.250337
712.125247	2548.814946
712.459159	2551.630431
712.793023	2553.299053
713.126837	2552.300904
713.460602	2551.517005
713.794318	2551.554813
714.127985	2549.714792
714.461602	2550.652447
714.795171	2551.527087
715.128691	2550.115564
715.462162	2549.500543
715.795584	2550.816284
716.128957	2547.350491
716.462281	2548.540203
716.795556	2547.784030
717.128782	2549.261088
717.461960	2547.358053
717.795088	2546.193546
718.128167	2549.266130
718.461198	2546.823691
718.794180	2548.900646
719.127113	2546.034750
719.459997	2545.664225
719.792833	2545.429812
720.125619	2546.072559
720.458357	2547.226983
720.791046	2547.605069
721.123686	2546.992569
721.456278	2548.041129
721.788821	2544.524924
722.121315	2543.738504
722.453761	2545.034081
722.786158	2545.054246
723.118506	2544.653474
723.450805	2547.529452
723.783056	2545.331509
724.115259	2546.753114
724.447412	2544.713968
724.779518	2544.938299
725.111574	2547.226983
725.443582	2542.626930
725.775542	2546.377548
726.107453	2547.733619
726.439315	2549.331665
726.771129	2551.050698
727.102895	2547.136242
727.434612	2545.240768
727.766281	2545.228165
728.097901	2544.615665
728.429473	2543.234389
728.760996	2544.111550
729.092471	2540.877650
729.423897	2549.651778
729.755276	2547.181613
730.086606	2546.705223
730.417887	2548.658671
730.749120	2550.395348
731.080305	2546.841335
731.411442	2549.576161
731.742530	2547.630275
732.073570	2547.053063
732.404562	2546.468289
732.735506	2549.498023
733.066401	2547.786551
733.397249	2546.647250
733.728048	2546.392672
734.058798	2546.745553
734.389501	2547.862168
734.720156	2546.662374
735.050762	2547.320244
735.381320	2546.634647
735.711831	2547.012734
736.042293	2544.862682
736.372707	2547.171530
736.703073	2544.235058
737.033391	2545.591128
737.363661	2543.998124
737.693883	2544.996272
738.024056	2547.418547
738.354182	2543.882177
738.684260	2546.261602
739.014290	2545.568443
739.344272	2546.180943
739.674207	2546.168341
740.004093	2547.201777
740.333931	2544.232538
740.663722	2547.458876
740.993464	2546.080120
741.323159	2545.361756
741.652806	2544.391334
741.982405	2546.470810
742.311956	2545.949050
742.641460	2546.299411
742.970915	2544.766900
743.300323	2544.106509
743.629683	2543.168854
743.958996	2542.702547
744.288260	2543.773792
744.617477	2542.725233
744.946647	2540.897814
745.275768	2540.557536
745.604842	2539.501415
745.933869	2539.032587
746.262847	2538.236085
746.591778	2540.736497
746.920662	2539.629964
747.249498	2544.885367
747.578286	2543.632640
747.907027	2544.461910
748.235720	2543.975439
748.564365	2543.559543
748.892963	2543.551982
749.221514	2545.880995
749.550017	2541.948895
749.878473	2546.647250
750.206881	2542.314378
750.535242	2542.261446
750.863555	2543.690613
751.191821	2544.928217
751.520039	2540.751621
751.848210	2544.043494
752.176334	2541.230530
752.504411	2541.250695
752.832440	2539.267001
753.160421	2543.246992
753.488356	2543.718340
753.816243	2544.265305
754.144082	2543.178936
754.471875	2539.733308
754.799620	2538.788091
755.127318	2543.017619
755.454969	2539.745911
755.782572	2541.384286
756.110129	2541.238092
756.437638	2545.389482
756.765100	2540.512166
757.092515	2542.062321
757.419882	2542.372352
757.747203	2541.623740
758.074477	2542.246323
758.401703	2541.888401
758.728882	2541.964018
759.056014	2543.529297
759.383099	2539.725746
759.710138	2544.774462
760.037129	2542.745397
760.364073	2545.228165
760.690970	2541.671631
761.017820	2542.579039
761.344623	2540.199614
761.671379	2543.209183
761.998088	2539.594676
762.324751	2542.510983
762.651366	2546.173382
762.977935	2553.268806
763.304456	2553.707386
763.630931	2554.748384
763.957359	2552.729402
764.283740	2553.508261
764.610074	2547.000131
764.936362	2549.167827
765.262602	2542.019471
765.588796	2544.492157
765.914943	2545.447456
766.241044	2544.252702
766.567097	2543.010058
766.893104	2542.442928
767.219064	2541.616179
767.544978	2541.873278
767.870845	2540.224820
768.196665	2540.625592
768.522438	2541.444779
768.848165	2538.931764
769.173846	2538.306661
769.499479	2540.764224
769.825066	2537.777340
770.150607	2539.836651
770.476101	2539.788760
770.801548	2539.703061
771.126949	2542.788247
771.452303	2537.936136
771.777611	2537.651311
772.102872	2536.585107
772.428087	2540.585263
772.753256	2538.455375
773.078378	2538.921682
773.403453	2537.968904
773.728482	2540.126518
774.053465	2538.483102
774.378401	2538.614172
774.703291	2540.547454
775.028135	2539.108205
775.352932	2538.112577
775.677683	2536.935467
776.002388	2537.492515
776.327046	2537.333718
776.651658	2537.212731
776.976224	2537.293389
777.300743	2538.178112
777.625216	2537.225334
777.949643	2538.568801
778.274024	2538.641898
778.598359	2533.318439
778.922647	2531.264169
779.246889	2534.820703
779.571086	2533.172246
779.895236	2535.536547
780.219339	2536.494366
780.543397	2535.024870
780.867409	2534.064530
781.191374	2537.318595
781.515294	2537.374048
781.839167	2536.610313
782.162995	2534.324150
782.486776	2537.603420
782.810511	2538.712474
783.134201	2538.823379
783.457844	2535.234078
783.781441	2538.110056
784.104993	2536.257432
784.428498	2536.882535
784.751958	2535.813811
785.075372	2538.377237
785.398739	2537.041332
785.722061	2541.452341
786.045337	2537.162319
786.368568	2536.638039
786.691752	2537.822710
787.014891	2537.749614
787.337983	2535.534027
787.661030	2538.788091
787.984031	2540.978473
788.306987	2537.396733
788.629897	2539.970242
788.952760	2539.703061
789.275579	2541.114584
789.598351	2538.677186
789.921078	2539.884542
790.243759	2540.300438
790.566395	2537.883204
790.888984	2535.173584
791.211529	2537.842875
791.534027	2539.042670
791.856480	2535.783564
792.178888	2537.860519
792.501249	2535.294572
792.823566	2537.966383
793.145836	2536.194418
793.468062	2535.912113
793.790241	2535.443286
794.112375	2539.554347
794.434464	2535.438245
794.756507	2540.512166
795.078505	2538.404964
795.400457	2536.494366
795.722364	2532.224509
796.044226	2539.385468
796.366042	2533.913296
796.687812	2533.852802
797.009538	2536.471681
797.331218	2538.783050
797.652852	2536.146527
797.974442	2536.287679
798.295986	2537.638708
798.617484	2538.901517
798.938938	2535.811290
799.260346	2535.496218
799.581709	2536.827083
799.903026	2536.033101
800.224299	2537.492515
800.545526	2537.220293
800.866708	2537.280786
801.187845	2537.553009
801.508936	2537.737011
801.829983	2540.250026
802.150984	2534.919006
802.471940	2537.613503
802.792851	2535.907072
803.113717	2535.365148
803.434538	2536.849768
803.755314	2536.542257
804.076045	2532.746268
804.396731	2533.573018
804.717372	2535.811290
805.037967	2536.887576
805.358518	2536.995961
805.679024	2534.956814
805.999485	2534.906403
806.319901	2538.412525
806.640272	2533.988913
806.960598	2536.890097
807.280879	2535.982689
807.601115	2535.186187
807.921306	2535.758358
808.241453	2536.587628
808.561554	2534.629139
808.881611	2536.849768
809.201623	2536.464119
809.521590	2537.134593
809.841513	2535.949922
810.161390	2536.368338
810.481223	2536.111239
810.801011	2533.709129
811.120755	2533.903213
811.440453	2539.914789
811.760107	2535.413039
812.079716	2531.952287
812.399281	2530.583613
812.718801	2533.081505
813.038276	2530.850795
813.357707	2534.848430
813.677093	2536.053265
813.996434	2535.163502
814.315731	2534.177956
814.634983	2537.648791
814.954191	2536.091074
815.273354	2535.276928
815.592473	2536.101156
815.911547	2537.250539
816.230577	2537.074099
816.549562	2536.133924
816.868502	2536.776671
817.187399	2536.683410
817.506250	2536.300282
817.825058	2540.270191
818.143821	2537.616023
818.462539	2536.191897
818.781213	2537.575694
819.099843	2540.464275
819.418429	2536.990920
819.736970	2542.427804
820.055466	2539.559388
820.373919	2544.189688
820.692327	2545.074410
821.010691	2549.440049
821.329011	2560.613767
821.647286	2580.039853
821.965517	2599.087853
822.283704	2609.931375
822.601847	2619.640637
822.919945	2611.352980
823.237999	2597.572986
823.556010	2581.148907
823.873976	2574.683627
824.191897	2565.788511
824.509775	2562.110990
824.827609	2554.443395
825.145398	2552.764690
825.463144	2551.249824
825.780845	2552.212684
826.098502	2555.814588
826.416116	2558.534291
826.733685	2566.000240
827.051210	2572.684810
827.368692	2568.951835
827.686129	2563.855229
828.003522	2552.976419
828.320872	2544.729091
828.638177	2545.656663
828.955439	2539.241795
829.272656	2539.032587
829.589830	2533.615868
829.906960	2537.162319
830.224046	2537.794984
830.541088	2538.510828
830.858086	2537.701723
831.175041	2536.885056
831.491952	2538.651980
831.808819	2539.355221
832.125642	2536.973276
832.442421	2541.888401
832.759157	2545.069369
833.075849	2547.073228
833.392497	2548.152035
833.709101	2551.706048
834.025662	2552.031202
834.342179	2551.043136
834.658653	2546.228834
834.975083	2542.594162
835.291469	2548.903167
835.607811	2541.533000
835.924110	2535.617206
836.240366	2536.375899
836.556578	2536.358255
836.872746	2536.448996
837.188871	2534.442617
837.504952	2533.063861
837.820990	2536.804397
838.136984	2533.757020
838.452935	2534.006557
838.768842	2532.937832
839.084706	2536.746424
839.400526	2538.407484
839.716303	2539.544264
840.032037	2542.352187
840.347727	2542.024512
840.663373	2537.784902
840.978977	2538.354552
841.294537	2538.006713
841.610054	2533.429345
841.925527	2535.629808
842.240957	2533.101670
842.556344	2534.256094
842.871687	2531.314581
843.186987	2533.890610
843.502244	2532.219468
843.817458	2529.645959
844.132629	2531.296937
844.447756	2532.027904
844.762840	2529.945907
845.077881	2530.961700
845.392879	2528.027748
845.707833	2530.815507
846.022745	2523.818385
846.337613	2532.151412
846.652438	2532.723583
846.967221	2532.206865
847.281960	2533.822555
847.596656	2532.539581
847.911309	2530.744930
848.225919	2532.302647
848.540485	2532.771474
848.855009	2534.114942
849.169490	2531.929602
849.483928	2533.915816
849.798323	2530.523120
850.112675	2533.499921
850.426984	2531.697708
850.741251	2529.963552
851.055474	2530.475229
851.369654	2530.931453
851.683792	2534.240971
851.997887	2530.581093
852.311938	2533.479756
852.625947	2531.105373
852.939914	2532.993285
853.253837	2532.731145
853.567718	2531.932122
853.881555	2532.111083
854.195350	2531.806093
854.509103	2531.906916
854.822812	2532.413552
855.136479	2535.390354
855.450103	2532.030425
855.763685	2531.962369
856.077224	2530.618902
856.390720	2533.986392
856.704173	2534.568646
857.017584	2530.016484
857.330953	2530.694519
857.644278	2532.665610
857.957561	2535.891948
858.270802	2532.262318
858.584000	2531.705270
858.897155	2533.704088
859.210268	2531.649817
859.523339	2528.733510
859.836367	2532.925229
860.149352	2531.725435
860.462295	2535.045035
860.775195	2528.481452
861.088054	2527.390043
861.400869	2530.870959
861.713642	2528.531864
862.026373	2532.428676
862.339062	2533.746938
862.651708	2532.915147
862.964312	2530.303829
863.276873	2532.912627
863.589392	2531.959848
863.901869	2533.005888
864.214303	2532.549663
864.526696	2531.922040
864.839045	2534.044366
865.151353	2531.007070
865.463619	2532.592513
865.775842	2531.097811
866.088023	2529.240146
866.400162	2531.811134
866.712258	2530.560928
867.024313	2533.648635
867.336325	2530.593696
867.648296	2531.538912
867.960224	2532.337935
868.272110	2533.351207
868.583954	2531.773326
868.895755	2531.478418
869.207515	2531.407842
869.519233	2532.395908
869.830909	2531.750641
870.142542	2533.565456
870.454134	2535.440765
870.765684	2533.623429
871.077191	2531.264169
871.388657	2532.239633
871.700081	2529.545136
872.011463	2534.646783
872.322803	2531.848943
872.634101	2532.547143
872.945357	2533.021011
873.256571	2534.540919
873.567744	2532.350538
873.878874	2534.160312
874.189963	2534.150230
874.501010	2532.282482
874.812015	2537.328677
875.122979	2532.469005
875.433900	2533.373892
875.744780	2537.326157
876.055618	2534.084695
876.366415	2532.421114
876.677169	2533.830117
876.987882	2531.380116
877.298554	2529.908099
877.609183	2532.360620
877.919771	2530.686957
878.230317	2531.904396
878.540822	2536.350693
878.851285	2535.130734
879.161707	2536.998482
879.472087	2539.312371
879.782425	2540.421425
880.092722	2543.650284
880.402977	2548.973743
880.713191	2560.477656
881.023363	2571.696744
881.333494	2580.710327
881.643583	2582.812488
881.953631	2579.918866
882.263637	2575.346539
882.573602	2575.311251
882.883526	2569.080385
883.193408	2561.914385
883.503248	2554.198899
883.813048	2555.227294
884.122806	2548.482230
884.432522	2547.418547
884.742197	2542.337064
885.051831	2541.366642
885.361424	2541.071734
885.670975	2538.853626
885.980485	2539.398071
886.289954	2539.367824
886.599382	2537.205169
886.908768	2536.978317
887.218113	2537.371527
887.527417	2535.894469
887.836680	2535.546629
888.145901	2534.462781
888.455082	2535.541588
888.764221	2535.176105
889.073319	2532.675692
889.382376	2535.100487
889.691392	2530.371885
890.000366	2533.121834
890.309300	2531.763243
890.618193	2532.963038
890.927044	2530.883562
891.235855	2532.393388
891.544625	2534.949253
891.853353	2533.121834
892.162041	2533.593182
892.470687	2534.717360
892.779293	2536.191897
893.087858	2535.377751
893.396381	2532.227030
893.704864	2535.166022
894.013306	2536.774150
894.321707	2544.502239
894.630068	2546.967363
894.938387	2550.007179
895.246665	2548.646068
895.554903	2546.662374
895.863100	2544.862682
896.171256	2540.290355
896.479371	2542.425284
896.787446	2538.515869
897.095480	2539.677855
897.403473	2536.063348
897.711425	2536.895138
898.019336	2536.829603
898.327207	2535.468492
898.635038	2535.352545
898.942827	2533.487318
899.250576	2535.211393
899.558284	2531.511186
899.865952	2533.673841
900.173579	2533.865405
900.481165	2533.731814
900.788711	2532.716022
901.096216	2534.127545
901.403681	2532.569828
901.711105	2533.114273
902.018489	2534.520755
902.325832	2534.714839
902.633135	2533.550332
902.940397	2535.571835
903.247619	2535.934798
903.554800	2534.263656
903.861941	2544.373690
904.169041	2551.499361
904.476101	2557.122768
904.783121	2557.210988
905.090100	2551.196892
905.397039	2546.947199
905.703938	2541.593493
906.010796	2540.328164
906.317614	2539.587114
906.624391	2537.046373
906.931129	2535.392874
907.237826	2534.598893
907.544483	2532.469005
907.851099	2534.798018
908.157675	2531.942204
908.464211	2532.569828
908.770707	2527.412728
909.077163	2529.557739
909.383578	2526.160001
909.689954	2529.522451
909.996289	2526.853160
910.302584	2530.712163
910.608839	2530.664272
910.915054	2529.678726
911.221229	2529.809796
911.527363	2531.095291
911.833458	2531.168387
912.139513	2529.129241
912.445527	2529.686288
912.751502	2532.786598
913.057436	2531.601927
913.363331	2529.726617
913.669186	2532.388347
913.975000	2533.066382
914.280775	2535.544109
914.586510	2535.705426
914.892205	2537.978986
915.197859	2539.451003
915.503475	2544.194729
915.809050	2550.314690
916.114585	2552.908363
916.420081	2555.701162
916.725536	2553.336861
917.030952	2549.427447
917.336328	2546.869061
917.641665	2548.038609
917.946961	2540.439069
918.252218	2542.947043
918.557435	2540.577701
918.862612	2536.723739
919.167750	2537.104346
919.472848	2535.700385
919.777906	2534.644263
920.082925	2533.870446
920.387904	2531.874149
920.692843	2534.387164
920.997743	2529.807276
921.302603	2531.687626
921.607423	2533.651156
921.912204	2531.934643
922.216946	2532.721063
922.521647	2534.868594
922.826310	2530.303829
923.130932	2530.586134
923.435516	2532.068233
923.740059	2531.170908
924.044564	2531.773326
924.349028	2530.790301
924.653454	2526.802748
924.957840	2527.735362
925.262186	2529.212420
925.566493	2525.759229
925.870761	2525.078673
926.174989	2530.480270
926.479178	2529.900537
926.783328	2529.996319
927.087438	2530.235774
927.391509	2529.081350
927.695541	2528.299971
927.999533	2531.274252
928.303486	2528.204189
928.607400	2529.222502
928.911275	2527.720238
929.215110	2530.853315
929.518906	2529.003212
929.822663	2529.451874
930.126381	2529.482121
930.430060	2529.136802
930.733699	2529.724097
931.037299	2529.809796
931.340861	2528.509179
931.644383	2529.308202
931.947866	2526.283509
932.251309	2529.575383
932.554714	2527.644621
932.858080	2527.279137
933.161407	2527.269055
933.464694	2526.638911
933.767943	2528.635207
934.071153	2527.299302
934.374323	2530.006401
934.677455	2529.338448
934.980548	2527.942049
935.283602	2526.550690
935.586617	2529.519930
935.889593	2529.824920
936.192530	2527.924405
936.495428	2526.351565
936.798287	2528.572193
937.101108	2528.655372
937.403890	2530.109745
937.706632	2527.760567
938.009336	2528.766278
938.312002	2530.248377
938.614628	2530.046731
938.917216	2530.434899
939.219765	2531.289375
939.522275	2532.960518
939.824747	2528.050434
940.127179	2528.337779
940.429573	2524.982892
940.731929	2526.112110
941.034246	2523.737727
941.336524	2530.102183
941.638763	2530.591175
941.940964	2529.401463
942.243126	2529.272913
942.545250	2530.142513
942.847335	2529.527492
943.149381	2528.912471
943.451389	2529.255269
943.753359	2527.241328
944.055290	2526.467511
944.357182	2530.311391
944.659036	2529.035979
944.960851	2528.146216
945.262628	2528.680578
945.564367	2529.106555
945.866067	2527.067409
946.167729	2528.925074
946.469352	2529.197296
946.770937	2525.323169
947.072484	2528.584796
947.373992	2528.937677
947.675462	2529.890455
947.976893	2527.163191
948.278286	2528.771319
948.579641	2530.167718
948.880958	2529.240146
949.182236	2526.253262
949.483476	2527.342152
949.784678	2529.542615
950.085841	2528.279806
950.386967	2528.680578
950.688054	2529.257790
950.989103	2528.312574
951.290114	2529.938346
951.591087	2527.180835
951.892021	2528.005063
952.192917	2529.701412
952.493776	2528.204189
952.794596	2530.681916
953.095378	2527.947090
953.396122	2528.768798
953.696828	2527.616894
953.997496	2530.203006
954.298126	2527.584127
954.598718	2530.502955
954.899272	2528.385670
955.199788	2531.143182
955.500266	2527.442975
955.800706	2526.568334
956.101108	2523.029444
956.401472	2528.431041
956.701798	2522.437109
957.002087	2525.061029
957.302337	2525.726462
957.602550	2526.583458
957.902724	2525.398787
958.202861	2528.693181
958.502960	2526.832995
958.803022	2526.868283
959.103045	2524.801410
959.403031	2527.826102
959.702979	2525.355937
960.002889	2528.138654
960.302762	2526.913653
960.602596	2524.965248
960.902393	2527.296781
961.202153	2525.353416
961.501875	2526.260824
961.801559	2528.037831
962.101205	2523.662109
962.400814	2526.286030
962.700385	2524.319980
962.999918	2529.444313
963.299414	2527.626977
963.598873	2527.846267
963.898293	2525.721421
964.197677	2528.115969
964.497022	2525.925587
964.796331	2526.674199
965.095601	2525.161853
965.394835	2529.063706
965.694030	2529.091432
965.993189	2526.898530
966.292309	2526.898530
966.591393	2524.529188
966.890439	2527.871473
967.189447	2526.422141
967.488419	2524.750998
967.787353	2526.401976
968.086249	2527.468180
968.385108	2527.372398
968.683930	2521.890144
968.982714	2528.758716
969.281462	2526.638911
969.580172	2526.026410
969.878844	2527.634538
970.177480	2525.247552
970.476078	2525.388704
970.774639	2528.874662
971.073162	2526.026410
971.371649	2526.187727
971.670098	2523.122706
971.968510	2525.106400
972.266885	2519.460308
972.565223	2527.294261
972.863524	2523.921729
973.161788	2527.029600
973.460014	2525.224867
973.758204	2524.178827
974.056356	2525.416431
974.354471	2527.107738
974.652550	2525.217305
974.950591	2527.029600
975.248595	2525.224867
975.546563	2526.102028
975.844493	2526.154960
976.142386	2526.432223
976.440243	2527.100176
976.738062	2527.281658
977.035845	2527.405166
977.333590	2525.960875
977.631299	2525.650844
977.928971	2525.857532
978.226606	2524.831657
978.524204	2526.709487
978.821765	2524.078004
979.119290	2524.728313
979.416777	2526.903571
979.714228	2523.931811
980.011642	2526.850639
980.309020	2528.869621
980.606360	2524.408200
980.903664	2525.776873
981.200931	2525.880217
981.498162	2526.601102
981.795356	2526.981709
982.092513	2527.500948
982.389633	2528.302491
982.686717	2527.863911
982.983764	2526.344003
983.280775	2529.179652
983.577749	2528.632687
983.874686	2526.228057
984.171587	2531.513706
984.468451	2526.580937
984.765279	2527.750485
985.062070	2526.096987
985.358824	2527.997502
985.655543	2525.570186
985.952224	2528.489014
986.248869	2526.676719
986.545478	2522.265710
986.842050	2523.112623
987.138586	2520.488703
987.435086	2524.322500
987.731549	2524.256965
988.027975	2525.199661
988.324366	2528.017666
988.620719	2524.662778
988.917037	2527.818541
989.213318	2524.201513
989.509563	2526.301153
989.805772	2526.585978
990.101944	2524.617408
990.398080	2525.784435
990.694180	2527.810979
990.990244	2525.940711
991.286271	2525.769312
991.582262	2525.277799
991.878217	2524.882068
992.174136	2525.524816
992.470019	2525.030782
992.765865	2526.953983
993.061676	2524.435926
993.357450	2526.427182
993.653188	2524.839219
993.948890	2522.608508
994.244556	2528.461288
994.540186	2526.780063
994.835780	2524.624970
995.131337	2525.988602
995.426859	2526.628828
995.722345	2524.730834
996.017795	2523.531039
996.313208	2525.413910
996.608586	2525.827285
996.903928	2525.580268
997.199234	2526.918695
997.494504	2527.364837
997.789738	2524.534229
998.084936	2524.057840
998.380099	2524.221677
998.675225	2524.299815
998.970316	2525.930628
999.265371	2524.020031
999.560390	2525.814682
999.855373	2524.781245
1000.150320	2525.570186
1000.445232	2523.160514
1000.740108	2525.187058
1001.034948	2525.441637
1001.329752	2524.509023
1001.624521	2525.524816
1001.919254	2520.188754
1002.213951	2525.522295
1002.508613	2522.187572
1002.803239	2524.080525
1003.097829	2519.772859
1003.392384	2524.491379
1003.686903	2524.219157
1003.981386	2525.703777
1004.275834	2523.578930
1004.570246	2525.081194
1004.864623	2522.237983
1005.158964	2525.766791
1005.453270	2524.198992
1005.747540	2523.687315
1006.041775	2521.315452
1006.335974	2525.199661
1006.630138	2522.686646
1006.924266	2523.044568
1007.218359	2522.883251
1007.512416	2522.510206
1007.806438	2522.283354
1008.100425	2524.584640
1008.394376	2524.322500
1008.688292	2527.392563
1008.982172	2524.418282
1009.276017	2526.001205
1009.569827	2525.161853
1009.863602	2526.626308
1010.157341	2523.427696
1010.451045	2523.725124
1010.744714	2523.011800
1011.038347	2524.342665
1011.331945	2523.493231
1011.625508	2525.592871
1011.919036	2522.275792
1012.212528	2525.101359
1012.505986	2523.470545
1012.799408	2524.083046
1013.092795	2523.084897
1013.386147	2524.468694
1013.679464	2523.830988
1013.972745	2525.360978
1014.265992	2523.682274
1014.559204	2526.598581
1014.852380	2524.214116
1015.145521	2525.902902
1015.438628	2521.726306
1015.731699	2527.715197
1016.024736	2523.881399
1016.317737	2525.855011
1016.610703	2526.845598
1016.903635	2522.104393
1017.196531	2518.787313
1017.489393	2523.906605
1017.782219	2520.934845
1018.075011	2522.492562
1018.367768	2522.300998
1018.660490	2527.049765
1018.953177	2527.049765
1019.245829	2527.049765
