Dividing Wavelength (nm)	Counts (n)	Blue Motor Position (mm): 0.000000	Red Motor Position (mm): 6.500000	
326.493990	2127.772736
326.888308	2127.772736
327.282561	2127.772736
327.676750	2093.689495
328.070874	2093.734865
328.464933	2097.989599
328.858929	2103.030753
329.252859	2114.033071
329.646726	2124.226284
330.040528	2136.287245
330.434265	2153.122178
330.827938	2171.098933
331.221547	2188.022086
331.615091	2208.166537
332.008571	2227.627911
332.401986	2247.505181
332.795338	2265.434045
333.188625	2284.461880
333.581847	2305.357463
333.975006	2321.688280
334.368100	2339.042453
334.761129	2357.727489
335.154095	2375.641229
335.546996	2390.666388
335.939833	2407.168606
336.332606	2421.563620
336.725315	2433.251536
337.117960	2443.787547
337.510540	2452.602005
337.903056	2464.269755
338.295508	2470.949284
338.687896	2478.720223
339.080220	2486.629793
339.472480	2493.440392
339.864676	2494.536843
340.256807	2503.391630
340.648875	2503.464726
341.040879	2509.161230
341.432818	2508.064779
341.824694	2510.640809
342.216506	2512.455624
342.608253	2513.514267
342.999937	2511.039060
343.391557	2509.468741
343.783113	2510.234996
344.174605	2508.631909
344.566033	2508.510921
344.957397	2505.788698
345.348697	2505.103101
345.739934	2503.492453
346.131106	2502.161588
346.522215	2500.891217
346.913260	2496.313850
347.304241	2493.803355
347.695159	2494.758654
348.086012	2491.930566
348.476802	2490.695484
348.867528	2491.081132
349.258191	2486.849083
349.648789	2486.528970
350.039324	2486.594505
350.429796	2485.150214
350.820203	2485.457725
351.210548	2479.370532
351.600828	2480.973618
351.991045	2481.021509
352.381198	2478.269039
352.771288	2481.702065
353.161314	2476.860037
353.551276	2481.316417
353.941175	2479.995635
354.331010	2478.248875
354.720782	2477.679224
355.110490	2478.531179
355.500135	2478.044708
355.889717	2477.717033
356.279235	2478.697538
356.668689	2480.729122
357.058080	2478.591673
357.447408	2476.998669
357.836672	2475.730818
358.225873	2477.543113
358.615010	2475.423308
359.004084	2480.252733
359.393095	2481.414719
359.782043	2482.979998
360.170927	2483.542086
360.559748	2482.561582
360.948505	2483.920173
361.337199	2483.390852
361.725830	2483.990749
362.114398	2486.924701
362.502903	2485.125009
362.891344	2485.629124
363.279722	2486.657519
363.668037	2489.702376
364.056289	2487.217088
364.444478	2490.337562
364.832603	2484.966212
365.220665	2488.154742
365.608665	2487.035606
365.996601	2491.166832
366.384474	2491.880155
366.772284	2490.632469
367.160031	2495.227481
367.547715	2495.482059
367.935336	2496.853253
368.322893	2500.361896
368.710388	2502.310302
369.097820	2510.794564
369.485189	2513.491581
369.872495	2518.348733
370.259738	2520.907119
370.646918	2531.289375
371.034035	2535.730632
371.421090	2546.801005
371.808081	2557.069836
372.195010	2561.037224
372.581875	2571.910993
372.968678	2583.334247
373.355418	2585.640575
373.742096	2603.634974
374.128710	2612.154524
374.515262	2620.462345
374.901751	2627.177162
375.288177	2632.760240
375.674540	2648.246665
376.060841	2654.215391
376.447079	2660.806700
376.833254	2670.367248
377.219367	2667.781136
377.605417	2686.256965
377.991404	2680.847807
378.377329	2687.401307
378.763191	2690.428520
379.148991	2702.010571
379.534727	2706.973587
379.920402	2710.943495
380.306013	2705.713298
380.691563	2717.822150
381.077049	2714.232848
381.462474	2710.310830
381.847835	2713.353167
382.233134	2707.074410
382.618371	2696.971937
383.003545	2710.212528
383.388657	2694.658048
383.773706	2690.607481
384.158693	2683.454083
384.543618	2677.813032
384.928480	2672.852537
385.313280	2671.821621
385.698017	2655.135402
386.082692	2652.400576
386.467305	2640.334574
386.851856	2636.765437
387.236344	2625.566514
387.620770	2619.045781
388.005133	2609.102105
388.389435	2600.088522
388.773674	2592.284816
389.157851	2584.856676
389.541965	2579.273598
389.926018	2566.340518
390.310008	2562.592420
390.693936	2557.488252
391.077802	2551.237221
391.461606	2545.404606
391.845348	2538.583925
392.229027	2540.814635
392.612645	2530.467667
392.996200	2532.733666
393.379694	2525.033303
393.763125	2527.248890
394.146494	2522.192613
394.529801	2521.645648
394.913047	2519.104906
395.296230	2517.214473
395.679351	2514.401510
396.062410	2515.036695
396.445408	2514.933351
396.828343	2514.961078
397.211217	2508.450428
397.594028	2512.856396
397.976778	2504.183091
398.359466	2509.251971
398.742092	2507.180057
399.124656	2511.848165
399.507158	2513.307579
399.889598	2511.394461
400.271977	2513.383197
400.654294	2512.816067
401.036549	2508.735253
401.418742	2509.408247
401.800874	2510.769358
402.182944	2513.300017
402.564952	2513.529390
402.946898	2512.284225
403.328783	2513.073166
403.710606	2512.846314
404.092367	2512.949657
404.474067	2512.117867
404.855705	2513.466376
405.237282	2515.263547
405.618797	2513.874709
406.000250	2511.185253
406.381642	2513.136180
406.762972	2511.880933
407.144240	2511.764986
407.525447	2515.140039
407.906593	2513.436129
408.287677	2514.431757
408.668700	2515.014010
409.049661	2515.830677
409.430560	2513.889833
409.811399	2518.326048
410.192176	2513.736077
410.572891	2514.121726
410.953545	2513.390758
411.334138	2517.363188
411.714669	2513.983094
412.095139	2513.758762
412.475547	2516.291942
412.855894	2515.573578
413.236180	2516.710358
413.616405	2515.681963
413.996568	2516.884278
414.376670	2514.852693
414.756711	2516.201202
415.136691	2517.529546
415.516609	2516.831346
415.896466	2518.315966
416.276262	2516.707838
416.655997	2515.863444
417.035670	2515.671880
417.415283	2516.049967
417.794834	2512.735408
418.174324	2517.970647
418.553753	2520.130781
418.933121	2521.418796
419.312428	2516.785975
419.691674	2517.070801
420.070859	2517.368229
420.449983	2519.024248
420.829045	2517.327899
421.208047	2518.784793
421.586988	2516.375121
421.965867	2520.496265
422.344686	2518.404186
422.723444	2519.490554
423.102141	2518.212622
423.480777	2519.120030
423.859352	2518.583147
424.237866	2520.372756
424.616319	2522.900895
424.994712	2521.207067
425.373044	2520.428209
425.751314	2522.081707
426.129524	2518.794875
426.507673	2525.038344
426.885762	2519.601460
427.263789	2523.720083
427.641756	2518.817560
428.019662	2522.764784
428.397508	2521.320493
428.775292	2524.388035
429.153016	2523.309228
429.530679	2522.391738
429.908282	2522.217819
430.285824	2524.365350
430.663305	2520.695390
431.040726	2520.687828
431.418086	2522.674043
431.795385	2522.724455
432.172624	2519.548528
432.549802	2520.987777
432.926920	2521.050792
433.303977	2521.491892
433.680974	2525.073632
434.057910	2523.740247
434.434786	2523.019362
434.811601	2525.161853
435.188355	2520.405524
435.565050	2523.243693
435.941683	2524.065402
436.318257	2522.757222
436.694770	2520.657582
437.071222	2520.098013
437.447614	2518.741943
437.823946	2521.491892
438.200218	2523.326873
438.576429	2524.319980
438.952580	2524.244362
439.328670	2525.459281
439.704700	2522.333765
440.080670	2525.943231
440.456580	2522.860566
440.832429	2526.613705
441.208218	2522.169928
441.583947	2523.825947
441.959616	2525.706297
442.335224	2524.582120
442.710773	2525.723941
443.086261	2525.504651
443.461689	2525.514733
443.837057	2528.030269
444.212365	2526.487676
444.587612	2523.876358
444.962800	2524.907274
445.337927	2523.904085
445.712995	2524.839219
446.088002	2525.434075
446.462949	2525.706297
446.837837	2526.593540
447.212664	2524.987933
447.587431	2527.095135
447.962139	2527.846267
448.336786	2528.350382
448.711374	2526.467511
449.085901	2528.037831
449.460369	2524.788807
449.834776	2524.108251
450.209124	2526.409538
450.583412	2529.618232
450.957640	2529.436751
451.331808	2525.386184
451.705917	2528.723428
452.079965	2526.059178
452.453954	2527.574045
452.827883	2529.419107
453.201752	2528.670496
453.575562	2529.204858
453.949311	2528.446164
454.323001	2528.131092
454.696632	2525.973478
455.070202	2526.858201
455.443713	2528.423479
455.817164	2526.961544
456.190556	2525.978519
456.563888	2525.945752
456.937160	2521.804444
457.310373	2527.962213
457.683526	2525.544980
458.056619	2529.469518
458.429653	2528.874662
458.802628	2528.380629
459.175542	2527.377440
459.548398	2528.310053
459.921194	2527.879034
460.293930	2527.594209
460.666607	2527.579086
461.039224	2528.925074
461.411782	2530.437420
461.784280	2531.619571
462.156719	2528.345341
462.529099	2529.101514
462.901419	2532.388347
463.273680	2530.790301
463.645882	2531.183511
464.018024	2527.392563
464.390106	2529.436751
464.762130	2534.029242
465.134094	2531.117976
465.505999	2533.167205
465.877845	2531.372554
466.249631	2534.931609
466.621358	2530.805424
466.993026	2532.224509
467.364634	2534.571166
467.736184	2530.775177
468.107674	2531.493542
468.479105	2527.649662
468.850477	2530.472708
469.221790	2531.856505
469.593043	2533.764582
469.964238	2531.433048
470.335373	2529.560259
470.706449	2531.148223
471.077467	2528.579755
471.448425	2531.843902
471.819324	2531.314581
472.190164	2534.450178
472.560945	2532.955476
472.931667	2530.031607
473.302330	2532.277441
473.672934	2530.941535
474.043479	2531.390198
474.413965	2530.490352
474.784393	2527.374919
475.154761	2530.926412
475.525070	2528.463808
475.895321	2527.206040
476.265513	2529.237625
476.635645	2530.306350
477.005719	2531.727955
477.375734	2531.284334
477.745691	2532.302647
478.115588	2533.121834
478.485427	2531.438089
478.855207	2533.482277
479.224928	2532.448840
479.594591	2532.978162
479.964194	2529.187214
480.333739	2537.190046
480.703226	2536.101156
481.072653	2533.293234
481.442022	2534.515713
481.811333	2534.130065
482.180584	2530.475229
482.549777	2533.913296
482.918912	2534.795497
483.287988	2535.292051
483.657005	2533.073943
484.025964	2535.707946
484.394864	2534.757689
484.763706	2534.185518
485.132489	2534.475384
485.501213	2532.332894
485.869879	2536.869932
486.238487	2534.205682
486.607036	2533.731814
486.975527	2534.087215
487.343959	2533.575538
487.712333	2533.530168
488.080648	2534.450178
488.448905	2536.065868
488.817104	2536.080992
489.185244	2534.125024
489.553326	2534.876156
489.921350	2534.782895
490.289315	2534.762730
490.657222	2535.924716
491.025070	2535.075282
491.392861	2534.750127
491.760593	2536.086033
492.128267	2536.638039
492.495883	2535.019829
492.863440	2536.494366
493.230939	2535.864222
493.598380	2535.201310
493.965763	2531.473377
494.333088	2533.928419
494.700354	2529.698891
495.067563	2533.462112
495.434713	2529.822399
495.801805	2536.441434
496.168839	2534.092257
496.535815	2536.310364
496.902733	2533.376413
497.269593	2537.185004
497.636395	2533.865405
498.003139	2537.910931
498.369825	2535.103008
498.736453	2537.212731
499.103023	2534.782895
499.469535	2534.866074
499.835989	2535.337422
500.202385	2536.517052
500.568723	2536.408667
500.935003	2535.715508
501.301226	2537.003523
501.667390	2535.861702
502.033497	2538.755324
502.399546	2537.948739
502.765537	2534.518234
503.131470	2536.398584
503.497345	2536.706095
503.863163	2538.223482
504.228923	2534.999664
504.594625	2534.838347
504.960269	2535.866743
505.325856	2537.578214
505.691385	2535.987730
506.056856	2537.558050
506.422270	2535.957483
506.787625	2537.202648
507.152924	2536.433873
507.518164	2535.675179
507.883347	2536.990920
508.248472	2538.019315
508.613540	2535.039993
508.978550	2538.709953
509.343503	2536.307844
509.708398	2535.990251
510.073236	2535.655014
510.438016	2537.341280
510.802738	2532.416073
511.167403	2536.756506
511.532010	2536.494366
511.896561	2537.535365
512.261053	2538.420087
512.625488	2532.945394
512.989866	2532.789118
513.354186	2532.244674
513.718449	2533.668800
514.082655	2539.181301
514.446803	2540.345808
514.810894	2536.940508
515.174927	2537.066537
515.538904	2536.138965
515.902822	2534.515713
516.266684	2539.201466
516.630488	2535.276928
516.994235	2537.742052
517.357925	2538.566281
517.721558	2538.576363
518.085133	2536.290200
518.448651	2538.478060
518.812112	2538.064686
519.175516	2539.720705
519.538863	2536.925385
519.902152	2537.774819
520.265385	2539.188863
520.628560	2540.489481
520.991678	2538.485622
521.354739	2536.678368
521.717743	2535.813811
522.080690	2536.920344
522.443580	2536.779192
522.806413	2539.970242
523.169189	2540.139121
523.531908	2538.359593
523.894569	2542.909235
524.257174	2537.774819
524.619722	2535.750796
524.982213	2537.812628
525.344647	2537.989068
525.707025	2537.447144
526.069345	2536.209541
526.431608	2537.053934
526.793815	2535.339942
527.155964	2539.786240
527.518057	2539.481250
527.880093	2538.586445
528.242072	2539.776158
528.603995	2538.528472
528.965860	2537.938657
529.327669	2538.800694
529.689421	2538.934285
530.051117	2539.433359
530.412755	2538.236085
530.774337	2537.179963
531.135862	2541.041487
531.497331	2535.733152
531.858743	2534.142668
532.220098	2536.774150
532.581396	2536.685930
532.942638	2536.527134
533.303824	2539.685417
533.664953	2539.256919
534.026025	2539.410674
534.387040	2540.219779
534.747999	2537.489994
535.108902	2540.093750
535.469748	2538.737680
535.830537	2537.565612
536.191270	2538.704912
536.551947	2540.207176
536.912567	2540.648277
537.273131	2540.728936
537.633638	2539.045190
537.994089	2539.710622
538.354483	2541.109543
538.714821	2538.830941
539.075103	2537.953780
539.435328	2538.152906
539.795497	2536.504449
540.155609	2539.569470
540.515665	2539.390509
540.875665	2540.746580
541.235609	2540.018133
541.595496	2538.548637
541.955328	2539.612320
542.315102	2538.256250
542.674821	2540.340767
543.034483	2539.483771
543.394090	2538.442772
543.753640	2540.645757
544.113134	2538.011754
544.472571	2538.783050
544.831953	2540.537372
545.191278	2540.320602
545.550548	2540.199614
545.909761	2538.851106
546.268918	2538.490663
546.628019	2538.737680
546.987064	2540.824718
547.346053	2540.965870
547.704986	2541.873278
548.063863	2539.690458
548.422684	2537.679038
548.781449	2538.566281
549.140158	2539.909748
549.498811	2538.568801
549.857408	2538.205838
550.215949	2536.625436
550.574434	2537.739531
550.932864	2536.590148
551.291237	2535.433203
551.649555	2536.650642
552.007817	2539.451003
552.366022	2541.681714
552.724173	2538.369676
553.082267	2542.395037
553.440305	2538.765406
553.798288	2539.917310
554.156215	2539.536703
554.514086	2539.390509
554.871902	2540.154244
555.229661	2542.500901
555.587365	2538.543595
555.945014	2540.857485
556.302606	2539.501415
556.660143	2537.963863
557.017625	2540.436549
557.375050	2541.001158
557.732421	2538.727598
558.089735	2540.592824
558.446994	2540.285314
558.804197	2541.167516
559.161345	2541.958977
559.518437	2541.154913
559.875474	2538.672145
560.232455	2538.571322
560.589381	2539.486291
560.946251	2541.180119
561.303065	2538.465457
561.659825	2540.645757
562.016528	2538.362114
562.373177	2539.425797
562.729770	2539.703061
563.086307	2541.285983
563.442789	2539.188863
563.799216	2540.577701
564.155587	2540.333205
564.511904	2542.052238
564.868164	2540.053421
565.224370	2540.053421
565.580520	2540.013092
565.936615	2538.830941
566.292654	2540.181970
566.648638	2541.099460
567.004567	2538.684748
567.360441	2538.011754
567.716260	2541.250695
568.072023	2539.314892
568.427732	2534.868594
568.783385	2539.912269
569.138982	2533.129396
569.494525	2539.012423
569.850013	2538.074768
570.205445	2538.374717
570.560823	2537.500077
570.916145	2539.430838
571.271412	2538.997299
571.626625	2538.157947
571.981782	2540.161806
572.336884	2539.622402
572.691931	2537.495035
573.046923	2540.703730
573.401860	2539.982845
573.756743	2540.940664
574.111570	2539.539223
574.466342	2540.139121
574.821059	2540.101312
575.175722	2539.972763
575.530330	2540.227341
575.884882	2541.991745
576.239380	2543.259595
576.593823	2538.334387
576.948211	2540.852444
577.302544	2540.519728
577.656823	2538.566281
578.011047	2539.594676
578.365216	2540.040818
578.719330	2538.346990
579.073389	2537.905889
579.427394	2541.137269
579.781344	2541.185160
580.135239	2540.766744
580.489080	2538.324305
580.842866	2539.831610
581.196597	2542.155582
581.550273	2541.540561
581.903895	2540.055942
582.257463	2540.328164
582.610975	2538.919161
582.964434	2540.852444
583.317837	2539.982845
583.671186	2541.059131
584.024481	2539.929913
584.377721	2539.120807
584.730906	2538.684748
585.084037	2540.154244
585.437113	2541.820345
585.790135	2539.665252
586.143103	2540.015612
586.496016	2542.155582
586.848874	2535.115611
587.201679	2537.210210
587.554428	2534.535878
587.907124	2538.616692
588.259765	2537.086702
588.612352	2538.379758
588.964884	2540.996117
589.317362	2538.236085
589.669786	2538.485622
590.022155	2542.861344
590.374470	2539.511497
590.726731	2541.618699
591.078937	2540.653318
591.431090	2541.585932
591.783188	2538.029398
592.135232	2542.324461
592.487222	2541.800181
592.839157	2540.199614
593.191038	2539.841693
593.542866	2541.454862
593.894639	2539.201466
594.246358	2542.190870
594.598022	2538.530992
594.949633	2540.033256
595.301190	2538.959491
595.652692	2538.909079
596.004141	2538.289017
596.355535	2540.683565
596.706876	2539.259439
597.058162	2540.464275
597.409395	2539.571991
597.760573	2539.975283
598.111698	2540.166847
598.462768	2541.147351
598.813785	2538.054603
599.164748	2538.178112
599.515657	2539.713143
599.866511	2538.818338
600.217312	2538.601569
600.568060	2539.710623
600.918753	2542.266488
601.269392	2538.520910
601.619978	2538.246167
601.970510	2535.831455
602.320988	2538.856147
602.671412	2542.586601
603.021783	2539.234233
603.372100	2540.701209
603.722363	2537.308513
604.072572	2538.982176
604.422728	2540.895294
604.772830	2539.025026
605.122878	2533.641073
605.472872	2537.479912
605.822813	2533.981351
606.172701	2535.939839
606.522534	2537.691640
606.872314	2537.774819
607.222041	2536.801877
607.571714	2539.599717
607.921333	2539.052752
608.270899	2538.767927
608.620411	2539.037628
608.969870	2539.960160
609.319276	2539.927392
609.668627	2544.414019
610.017926	2544.484595
610.367171	2546.443083
610.716362	2547.199257
611.065500	2545.535676
611.414585	2545.258412
611.763616	2542.369831
612.112594	2541.318751
612.461518	2542.347146
612.810389	2541.747249
613.159207	2541.424615
613.507971	2537.840354
613.856682	2540.620551
614.205340	2539.703061
614.553945	2543.158772
614.902496	2538.982176
615.250994	2539.771116
615.599439	2541.520397
615.947830	2541.563247
616.296169	2540.759182
616.644454	2539.617361
616.992686	2539.082999
617.340864	2538.047042
617.688990	2539.861857
618.037063	2538.898997
618.385082	2540.557536
618.733048	2539.251877
619.080961	2540.983514
619.428821	2539.854295
619.776628	2537.971424
620.124382	2540.093750
620.472083	2540.295396
620.819731	2540.635674
621.167326	2539.577032
621.514868	2541.182639
621.862357	2541.752290
622.209793	2540.101312
622.557176	2540.610468
622.904506	2538.203318
623.251783	2534.661907
623.599007	2537.827752
623.946179	2532.418593
624.293297	2533.807431
624.640363	2540.066024
624.987376	2538.901517
625.334336	2537.946219
625.681243	2537.915972
626.028097	2537.580735
626.374899	2539.682896
626.721647	2537.618544
627.068343	2538.258770
627.414987	2537.852957
627.761577	2541.374203
628.108115	2538.853626
628.454600	2537.971424
628.801032	2538.888914
629.147412	2538.266332
629.493739	2536.953111
629.840014	2538.815818
630.186236	2536.388502
630.532405	2541.079296
630.878521	2535.539068
631.224585	2539.521579
631.570597	2537.371527
631.916556	2538.848585
632.262462	2536.330529
632.608316	2541.326312
632.954117	2537.721887
633.299866	2536.771630
633.645562	2539.299768
633.991206	2537.694161
634.336797	2534.399767
634.682336	2537.522762
635.027823	2535.927237
635.373257	2537.656352
635.718639	2537.535365
636.063968	2536.499408
636.409245	2535.896990
636.754470	2537.311033
637.099642	2538.311702
637.444762	2538.248688
637.789829	2539.569470
638.134845	2537.220293
638.479808	2536.728780
638.824719	2538.561239
639.169577	2538.198276
639.514383	2538.747762
639.859137	2538.190715
640.203839	2540.668442
640.548489	2539.549306
640.893086	2534.316588
641.237632	2535.181146
641.582125	2533.343645
641.926566	2532.990764
642.270955	2537.880684
642.615292	2535.758358
642.959576	2535.639891
643.303809	2538.581404
643.647990	2538.354552
643.992118	2537.575694
644.336195	2538.042001
644.680219	2536.328008
645.024192	2536.191897
645.368112	2536.491846
645.711981	2537.013605
646.055797	2535.954963
646.399562	2537.747093
646.743274	2538.750283
647.086935	2538.011754
647.430544	2537.679038
647.774101	2538.846065
648.117606	2538.558719
648.461059	2538.097453
648.804460	2538.218441
649.147810	2539.496373
649.491108	2534.016639
649.834354	2538.767927
650.177548	2535.256763
650.520690	2538.697351
650.863781	2536.219623
651.206820	2540.323123
651.549807	2537.323636
651.892742	2540.111394
652.235626	2537.928575
652.578458	2534.664428
652.921238	2536.217103
653.263967	2539.077958
653.606644	2537.066537
653.949269	2537.560570
654.291843	2534.130065
654.634365	2535.402957
654.976836	2537.492515
655.319255	2539.128369
655.661622	2535.092926
656.003938	2536.622916
656.346203	2537.547967
656.688416	2537.258101
657.030577	2538.132741
657.372687	2537.248019
657.714746	2538.321785
658.056753	2538.823379
658.398708	2530.087060
658.740612	2536.330529
659.082465	2535.975127
659.424266	2533.966228
659.766016	2529.988757
660.107715	2537.502597
660.449362	2534.916485
660.790958	2534.949253
661.132503	2536.504449
661.473996	2536.005374
661.815438	2536.504449
662.156829	2535.100487
662.498168	2536.343132
662.839456	2535.087884
663.180693	2537.603420
663.521879	2538.762886
663.863013	2533.192411
664.204097	2537.134593
664.545129	2537.553009
664.886110	2538.178112
665.227040	2534.581248
665.567918	2538.674665
665.908746	2534.598892
666.249522	2537.227854
666.590248	2534.798018
666.930922	2533.797349
667.271545	2536.834644
667.612118	2537.404295
667.952639	2537.326157
668.293109	2538.019315
668.633528	2534.939170
668.973896	2535.251722
669.314213	2535.889428
669.654480	2536.827082
669.994695	2535.090405
670.334859	2533.371372
670.674973	2536.393543
671.015035	2535.861702
671.355047	2535.821372
671.695008	2536.365817
672.034918	2535.589479
672.374777	2538.180632
672.714585	2532.345497
673.054342	2536.050745
673.394049	2536.774150
673.733705	2534.535878
674.073310	2537.293389
674.412864	2537.394212
674.752368	2536.597710
675.091820	2535.675179
675.431223	2536.320447
675.770574	2537.873122
676.109875	2533.512524
676.449125	2532.703419
676.788324	2534.039324
677.127473	2536.025539
677.466571	2533.326001
677.805619	2538.803215
678.144616	2534.838347
678.483562	2538.634336
678.822458	2537.086702
679.161303	2538.248688
679.500098	2535.428162
679.838842	2535.851619
680.177535	2536.287679
680.516179	2537.048893
680.854771	2534.268697
681.193314	2534.966897
681.531805	2536.842206
681.870247	2535.876825
682.208638	2536.653163
682.546978	2536.446475
682.885268	2537.424459
683.223508	2536.713657
683.561697	2534.127545
683.899836	2535.213913
684.237925	2536.438914
684.575963	2535.642411
684.913951	2534.392205
685.251889	2535.160981
685.589776	2532.879859
685.927614	2538.886394
686.265401	2535.007226
686.603137	2535.188708
686.940824	2539.894625
687.278460	2538.140303
687.616046	2534.934129
687.953582	2535.576876
688.291068	2538.054603
688.628504	2537.142155
688.965889	2535.619726
689.303224	2534.737524
689.640510	2534.901362
689.977745	2536.877494
690.314930	2536.597710
690.652065	2534.944212
690.989150	2534.792977
691.326185	2536.867412
691.663170	2534.780374
692.000105	2536.983358
692.336990	2533.930940
692.673825	2537.210210
693.010610	2535.413039
693.347345	2531.276772
693.684030	2532.804242
694.020665	2534.041845
694.357251	2528.461288
694.693786	2532.602596
695.030272	2535.405477
695.366707	2534.760209
695.703093	2532.287523
696.039429	2534.798018
696.375716	2533.998995
696.711952	2536.295241
697.048139	2535.415559
697.384276	2535.818852
697.720363	2531.037317
698.056400	2536.922864
698.392388	2534.190559
698.728326	2537.991589
699.064214	2535.198790
699.400053	2538.097453
699.735842	2535.566794
700.071581	2538.155427
700.407270	2537.593338
700.742910	2535.929757
701.078501	2535.342463
701.414042	2536.229706
701.749533	2534.941691
702.084974	2535.095446
702.420366	2533.328522
702.755709	2534.004036
703.091002	2535.813811
703.426246	2535.652494
703.761440	2535.942360
704.096584	2535.448327
704.431679	2537.069058
704.766725	2537.878163
705.101721	2534.359438
705.436668	2532.383305
705.771565	2535.211393
706.106413	2533.817514
706.441212	2535.584438
706.775961	2535.029911
707.110661	2535.609644
707.445311	2535.622247
707.779913	2535.115611
708.114465	2538.599048
708.448967	2534.908923
708.783421	2533.943543
709.117825	2535.574356
709.452180	2533.814993
709.786485	2533.590662
710.120742	2536.441434
710.454949	2534.261135
710.789107	2533.704088
711.123216	2532.582431
711.457275	2534.921526
711.791286	2528.395753
712.125247	2529.993798
712.459159	2533.225178
712.793023	2536.786753
713.126837	2532.252235
713.460602	2536.040663
713.794318	2534.293903
714.127985	2537.328677
714.461602	2534.664428
714.795171	2533.545291
715.128691	2535.423121
715.462162	2536.895138
715.795584	2536.927906
716.128957	2532.920188
716.462281	2536.441434
716.795556	2535.624767
717.128782	2534.883718
717.461960	2534.359438
717.795088	2535.022349
718.128167	2535.007226
718.461198	2533.777184
718.794180	2538.437731
719.127113	2533.406660
719.459997	2536.509490
719.792833	2533.414221
720.125619	2535.859181
720.458357	2532.932791
720.791046	2534.775333
721.123686	2532.955476
721.456278	2536.088553
721.788821	2535.065199
722.121315	2538.566281
722.453761	2535.735673
722.786158	2536.161650
723.118506	2532.332894
723.450805	2535.778522
723.783056	2533.628470
724.115259	2535.561753
724.447412	2533.489839
724.779518	2535.478574
725.111574	2534.765251
725.443582	2534.830786
725.775542	2534.341794
726.107453	2534.462781
726.439315	2533.469674
726.771129	2537.933616
727.102895	2536.887576
727.434612	2537.633667
727.766281	2535.334901
728.097901	2533.986392
728.429473	2529.908099
728.760996	2535.337422
729.092471	2530.066895
729.423897	2533.477236
729.755276	2536.980838
730.086606	2533.131917
730.417887	2536.610313
730.749120	2533.096629
731.080305	2533.867925
731.411442	2532.763913
731.742530	2534.233409
732.073570	2535.095446
732.404562	2534.631660
732.735506	2534.046886
733.066401	2536.459078
733.397249	2531.445651
733.728048	2533.935981
734.058798	2536.363296
734.389501	2531.480939
734.720156	2534.944212
735.050762	2531.211237
735.381320	2532.174098
735.711831	2531.599406
736.042293	2534.215765
736.372707	2535.551671
736.703073	2534.182997
737.033391	2534.359438
737.363661	2532.892462
737.693883	2533.913296
738.024056	2534.608975
738.354182	2531.465815
738.684260	2530.941535
739.014290	2534.034283
739.344272	2535.491177
739.674207	2532.748789
740.004093	2535.266845
740.333931	2534.114942
740.663722	2533.139478
740.993464	2531.455733
741.323159	2536.285158
741.652806	2532.554705
741.982405	2532.121165
742.311956	2534.273738
742.641460	2535.188708
742.970915	2536.806918
743.300323	2535.776002
743.629683	2533.830117
743.958996	2535.400436
744.288260	2532.602596
744.617477	2531.942204
744.946647	2529.371216
745.275768	2533.000847
745.604842	2529.061185
745.933869	2532.683254
746.262847	2528.355423
746.591778	2534.271217
746.920662	2533.726773
747.249498	2532.365661
747.578286	2532.574869
747.907027	2535.324819
748.235720	2532.116124
748.564365	2535.960004
748.892963	2536.093595
749.221514	2532.302647
749.550017	2532.589993
749.878473	2533.182328
750.206881	2533.923378
750.535242	2532.852133
750.863555	2532.995806
751.191821	2534.540919
751.520039	2534.351876
751.848210	2532.627801
752.176334	2533.154602
752.504411	2532.191742
752.832440	2532.547143
753.160421	2534.379602
753.488356	2532.098480
753.816243	2533.232740
754.144082	2536.426311
754.471875	2535.259284
754.799620	2534.200641
755.127318	2534.919006
755.454969	2532.854653
755.782572	2534.215765
756.110129	2531.836340
756.437638	2533.784746
756.765100	2531.533871
757.092515	2532.698378
757.419882	2532.632843
757.747203	2534.087215
758.074477	2533.583100
758.401703	2535.743234
758.728882	2532.279962
759.056014	2532.463964
759.383099	2536.002854
759.710138	2534.135106
760.037129	2534.309026
760.364073	2536.068389
760.690970	2532.642925
761.017820	2535.972607
761.344623	2532.791639
761.671379	2531.571680
761.998088	2531.269210
762.324751	2532.393388
762.651366	2531.556556
762.977935	2533.809952
763.304456	2532.380785
763.630931	2535.546629
763.957359	2534.717360
764.283740	2534.571166
764.610074	2533.046217
764.936362	2538.193235
765.262602	2533.237781
765.588796	2533.961187
765.914943	2533.414221
766.241044	2534.485467
766.567097	2531.896834
766.893104	2533.013450
767.219064	2530.951618
767.544978	2533.613347
767.870845	2533.683923
768.196665	2535.387833
768.522438	2532.524458
768.848165	2535.420601
769.173846	2534.611495
769.499479	2533.840199
769.825066	2531.551515
770.150607	2531.990095
770.476101	2532.063192
770.801548	2532.164015
771.126949	2533.295754
771.452303	2534.820703
771.777611	2531.491021
772.102872	2531.458254
772.428087	2532.153933
772.753256	2533.933460
773.078378	2529.898017
773.403453	2535.239119
773.728482	2531.377595
774.053465	2531.957328
774.378401	2531.934643
774.703291	2532.814324
775.028135	2536.229706
775.352932	2530.039169
775.677683	2533.119314
776.002388	2535.400436
776.327046	2534.041845
776.651658	2532.201824
776.976224	2530.606299
777.300743	2529.318284
777.625216	2531.796011
777.949643	2530.470187
778.274024	2531.768285
778.598359	2529.015815
778.922647	2529.411545
779.246889	2526.911133
779.571086	2529.323325
779.895236	2532.547143
780.219339	2529.835002
780.543397	2531.738038
780.867409	2534.520755
781.191374	2531.765764
781.515294	2531.080167
781.839167	2529.580424
782.162995	2532.647966
782.486776	2534.440096
782.810511	2533.252904
783.134201	2532.027904
783.457844	2530.482790
783.781441	2532.337935
784.104993	2531.692667
784.428498	2529.030938
784.751958	2530.989426
785.075372	2533.588141
785.398739	2530.245856
785.722061	2530.318953
786.045337	2533.653676
786.368568	2532.940353
786.691752	2533.825075
787.014891	2535.004705
787.337983	2535.045035
787.661030	2533.956145
787.984031	2532.728624
788.306987	2531.697708
788.629897	2531.609488
788.952760	2531.798532
789.275579	2532.625281
789.598351	2533.625950
789.921078	2530.061854
790.243759	2531.869108
790.566395	2532.181659
790.888984	2532.995806
791.211529	2531.780887
791.534027	2533.250384
791.856480	2535.188708
792.178888	2533.699047
792.501249	2529.575383
792.823566	2535.750796
793.145836	2530.845753
793.468062	2535.027391
793.790241	2530.843233
794.112375	2531.465815
794.434464	2530.565969
794.756507	2533.295754
795.078505	2532.108563
795.400457	2530.442461
795.722364	2528.070598
796.044226	2532.532019
796.366042	2528.622605
796.687812	2528.935156
797.009538	2534.114942
797.331218	2531.138140
797.652852	2529.275434
797.974442	2531.017153
798.295986	2532.416073
798.617484	2533.446989
798.938938	2530.800383
799.260346	2532.562266
799.581709	2533.467153
799.903026	2532.713501
800.224299	2531.556556
800.545526	2532.894983
800.866708	2532.663089
801.187845	2533.678882
801.508936	2532.821886
801.829983	2533.378933
802.150984	2532.249715
802.471940	2532.884900
802.792851	2534.719880
803.113717	2532.418593
803.434538	2530.417255
803.755314	2533.026052
804.076045	2533.562935
804.396731	2532.161495
804.717372	2530.686957
805.037967	2531.175949
805.358518	2532.128727
805.679024	2532.043028
805.999485	2531.304498
806.319901	2529.681247
806.640272	2532.317770
806.960598	2530.334076
807.280879	2529.295599
807.601115	2533.883049
807.921306	2531.450692
808.241453	2532.963038
808.561554	2532.158974
808.881611	2531.813655
809.201623	2533.096629
809.521590	2530.636546
809.841513	2531.480939
810.161390	2528.640249
810.481223	2532.753830
810.801011	2532.131248
811.120755	2531.123017
811.440453	2533.497400
811.760107	2532.877338
812.079716	2529.154446
812.399281	2528.892306
812.718801	2528.562111
813.038276	2525.756709
813.357707	2533.368851
813.677093	2531.796011
813.996434	2530.071936
814.315731	2531.191072
814.634983	2532.975641
814.954191	2530.550846
815.273354	2531.443130
815.592473	2530.543284
815.911547	2531.541433
816.230577	2530.732328
816.549562	2532.332894
816.868502	2533.164684
817.187399	2532.418593
817.506250	2531.838861
817.825058	2533.699047
818.143821	2532.839530
818.462539	2530.818027
818.781213	2535.024870
819.099843	2532.869777
819.418429	2531.508665
819.736970	2531.894313
820.055466	2531.929602
820.373919	2532.378264
820.692327	2534.246012
821.010691	2531.264169
821.329011	2529.832482
821.647286	2539.057793
821.965517	2537.893287
822.283704	2537.121990
822.601847	2539.695499
822.919945	2538.702392
823.237999	2537.111908
823.556010	2536.300282
823.873976	2534.213244
824.191897	2534.225847
824.509775	2531.642256
824.827609	2532.837009
825.145398	2531.790970
825.463144	2532.693336
825.780845	2535.191228
826.098502	2532.741227
826.416116	2533.638553
826.733685	2534.828265
827.051210	2533.757020
827.368692	2534.372041
827.686129	2533.953625
828.003522	2533.583100
828.320872	2528.335259
828.638177	2527.954652
828.955439	2526.621267
829.272656	2528.748633
829.589830	2526.840557
829.906960	2531.957328
830.224046	2528.501617
830.541088	2533.530168
830.858086	2529.411545
831.175041	2530.399611
831.491952	2529.731658
831.808819	2531.450692
832.125642	2532.988244
832.442421	2534.724921
832.759157	2532.589993
833.075849	2530.354241
833.392497	2531.327184
833.709101	2533.184849
834.025662	2531.412883
834.342179	2532.637884
834.658653	2528.428520
834.975083	2533.782226
835.291469	2534.679551
835.607811	2532.600075
835.924110	2533.618388
836.240366	2532.615198
836.556578	2530.306350
836.872746	2531.947246
837.188871	2529.751823
837.504952	2527.715197
837.820990	2528.405835
838.136984	2530.767616
838.452935	2527.722759
838.768842	2530.364323
839.084706	2529.018335
839.400526	2529.734179
839.716303	2528.970444
840.032037	2530.061854
840.347727	2530.134951
840.663373	2529.686288
840.978977	2529.409025
841.294537	2529.812317
841.610054	2529.996319
841.925527	2528.294930
842.240957	2528.027748
842.556344	2528.352903
842.871687	2530.046731
843.186987	2531.347348
843.502244	2529.116638
843.817458	2529.048582
844.132629	2531.596885
844.447756	2532.070754
844.762840	2525.897861
845.077881	2526.664116
845.392879	2526.724610
845.707833	2528.534384
846.022745	2526.651513
846.337613	2528.693181
846.652438	2531.745599
846.967221	2530.301309
847.281960	2530.581093
847.596656	2532.847092
847.911309	2530.283665
848.225919	2529.061185
848.540485	2527.626977
848.855009	2529.620753
849.169490	2530.114786
849.483928	2530.835671
849.798323	2528.801566
850.112675	2529.653521
850.426984	2529.794673
850.741251	2528.163860
851.055474	2529.421627
851.369654	2530.941535
851.683792	2530.271062
851.997887	2529.300640
852.311938	2531.236443
852.625947	2529.862728
852.939914	2528.272244
853.253837	2532.053110
853.567718	2525.421472
853.881555	2529.590506
854.195350	2530.263500
854.509103	2527.868952
854.822812	2528.388191
855.136479	2527.989940
855.450103	2531.700229
855.763685	2528.226874
856.077224	2529.288037
856.390720	2531.085208
856.704173	2527.742923
857.017584	2529.184693
857.330953	2528.388191
857.644278	2530.268541
857.957561	2534.354397
858.270802	2530.928932
858.584000	2528.667975
858.897155	2531.919519
859.210268	2527.591689
859.523339	2528.920033
859.836367	2529.318284
860.149352	2528.496576
860.462295	2529.227543
860.775195	2525.116482
861.088054	2526.651513
861.400869	2525.973478
861.713642	2522.404341
862.026373	2529.519930
862.339062	2532.070754
862.651708	2531.677544
862.964312	2530.717204
863.276873	2531.732997
863.589392	2531.934643
863.901869	2529.038500
864.214303	2529.872811
864.526696	2529.197296
864.839045	2529.189734
865.151353	2527.992460
865.463619	2529.472039
865.775842	2529.414066
866.088023	2528.768798
866.400162	2527.942049
866.712258	2529.928263
867.024313	2531.256607
867.336325	2531.591844
867.648296	2530.641587
867.960224	2529.993798
868.272110	2529.129241
868.583954	2527.735362
868.895755	2530.457585
869.207515	2530.762574
869.519233	2529.532533
869.830909	2530.787780
870.142542	2528.930115
870.454134	2532.282482
870.765684	2526.470032
871.077191	2529.736700
871.388657	2532.912627
871.700081	2529.106555
872.011463	2529.177132
872.322803	2530.550846
872.634101	2530.268541
872.945357	2528.718387
873.256571	2529.522451
873.567744	2528.189065
873.878874	2531.191073
874.189963	2525.950793
874.501010	2530.772657
874.812015	2529.330887
875.122979	2529.290557
875.433900	2530.021525
875.744780	2531.238963
876.055618	2527.967255
876.366415	2533.111752
876.677169	2531.024714
876.987882	2526.265865
877.298554	2526.321318
877.609183	2526.245701
877.919771	2526.454908
878.230317	2527.594209
878.540822	2529.076308
878.851285	2529.640918
879.161707	2529.436751
879.472087	2529.582944
879.782425	2530.412214
880.092722	2532.327853
880.402977	2532.431196
880.713191	2531.054961
881.023363	2531.629653
881.333494	2532.753830
881.643583	2530.124868
881.953631	2531.251566
882.263637	2533.275590
882.573602	2531.049920
882.883526	2532.153933
883.193408	2531.990095
883.503248	2529.598068
883.813048	2528.231915
884.122806	2528.405835
884.432522	2530.603778
884.742197	2528.433561
885.051831	2529.683767
885.361424	2527.884076
885.670975	2529.091432
885.980485	2533.746937
886.289954	2528.781401
886.599382	2529.898017
886.908768	2530.555887
887.218113	2528.552028
887.527417	2532.526978
887.836680	2529.900537
888.145901	2529.227543
888.455082	2528.670496
888.764221	2528.128572
889.073319	2529.290557
889.382376	2531.569159
889.691392	2529.328366
890.000366	2526.681760
890.309300	2530.860877
890.618193	2527.629497
890.927044	2526.354085
891.235855	2526.538088
891.544625	2530.341638
891.853353	2528.584796
892.162041	2531.115455
892.470687	2530.979344
892.779293	2529.323325
893.087858	2526.782583
893.396381	2525.749147
893.704864	2525.769312
894.013306	2521.880061
894.321707	2531.498583
894.630068	2529.469518
894.938387	2531.274252
895.246665	2530.013963
895.554903	2528.105886
895.863100	2527.828623
896.171256	2528.501617
896.479371	2531.042358
896.787446	2530.838192
897.095480	2527.596730
897.403473	2530.467667
897.711425	2528.824251
898.019336	2526.603622
898.327207	2529.872811
898.635038	2528.236956
898.942827	2532.171577
899.250576	2527.395084
899.558284	2528.715866
899.865952	2529.482121
900.173579	2529.023376
900.481165	2529.419107
900.788711	2528.121010
901.096216	2528.736031
901.403681	2527.432892
901.711105	2530.954138
902.018489	2531.654859
902.325832	2531.357431
902.633135	2527.561442
902.940397	2527.276617
903.247619	2529.058664
903.554800	2529.217461
903.861941	2527.773170
904.169041	2529.802235
904.476101	2526.694363
904.783121	2530.659231
905.090100	2526.258303
905.397039	2531.019673
905.703938	2526.326359
906.010796	2530.218130
906.317614	2528.748633
906.624391	2527.279137
906.931129	2526.928777
907.237826	2527.611853
907.544483	2529.666123
907.851099	2529.620753
908.157675	2526.832995
908.464211	2527.352234
908.770707	2525.703777
909.077163	2525.650844
909.383578	2522.890813
909.689954	2528.443644
909.996289	2524.483817
910.302584	2528.549508
910.608839	2525.837367
910.915054	2525.388704
911.221229	2527.919364
911.527363	2528.957841
911.833458	2526.772501
912.139513	2527.044723
912.445527	2526.583458
912.751502	2529.129241
913.057436	2526.598581
913.363331	2532.257277
913.669186	2525.610515
913.975000	2527.052285
914.280775	2529.144364
914.586510	2527.926925
914.892205	2530.087060
915.197859	2527.740403
915.503475	2528.753675
915.809050	2530.278624
916.114585	2528.420958
916.420081	2530.545805
916.725536	2528.942718
917.030952	2531.559077
917.336328	2532.363141
917.641665	2528.322656
917.946961	2528.340300
918.252218	2529.908099
918.557435	2530.984385
918.862612	2528.846936
919.167750	2526.298633
919.472848	2527.032121
919.777906	2530.127389
920.082925	2528.604961
920.387904	2527.523633
920.692843	2529.146885
920.997743	2526.543129
921.302603	2528.257121
921.607423	2530.160157
921.912204	2527.768129
922.216946	2528.577234
922.521647	2526.843077
922.826310	2528.194107
923.130932	2528.680578
923.435516	2525.487007
923.740059	2527.218643
924.044564	2526.099507
924.349028	2529.903058
924.653454	2524.410721
924.957840	2528.143695
925.262186	2522.769825
925.566493	2525.393746
925.870761	2525.456760
926.174989	2528.395753
926.479178	2527.841226
926.783328	2527.334590
927.087438	2528.115969
927.391509	2530.495393
927.695541	2527.039682
927.999533	2526.432223
928.303486	2525.663447
928.607400	2527.740403
928.911275	2525.328211
929.215110	2526.772501
929.518906	2528.000022
929.822663	2526.643952
930.126381	2528.173942
930.430060	2528.161339
930.733699	2527.216123
931.037299	2527.977337
931.340861	2526.681760
931.644383	2528.665454
931.947866	2525.406348
932.251309	2528.234436
932.554714	2529.857687
932.858080	2526.994312
933.161407	2529.819879
933.464694	2526.548170
933.767943	2524.849301
934.071153	2530.041689
934.374323	2527.566483
934.677455	2523.848632
934.980548	2527.329549
935.283602	2524.529188
935.586617	2525.255114
935.889593	2526.344003
936.192530	2528.922553
936.495428	2526.691843
936.798287	2527.291740
937.101108	2525.925587
937.403890	2528.191586
937.706632	2527.271575
938.009336	2527.349713
938.312002	2526.175124
938.614628	2527.054806
938.917216	2529.983716
939.219765	2526.336441
939.522275	2526.827954
939.824747	2525.025741
940.127179	2525.570186
940.429573	2525.892820
940.731929	2526.802748
941.034246	2522.835360
941.336524	2528.549508
941.638763	2524.095648
941.940964	2528.625125
942.243126	2526.197810
942.545250	2526.810310
942.847335	2524.864424
943.149381	2528.778880
943.451389	2526.217974
943.753359	2529.507327
944.055290	2527.511030
944.357182	2525.194620
944.659036	2529.134282
944.960851	2528.037831
945.262628	2527.004394
945.564367	2528.378109
945.866067	2525.925587
946.167729	2525.320649
946.469352	2526.996832
946.770937	2527.503468
947.072484	2526.502799
947.373992	2525.907943
947.675462	2525.182017
947.976893	2528.007584
948.278286	2527.115300
948.579641	2526.805269
948.880958	2529.472039
949.182236	2527.359796
949.483476	2527.821061
949.784678	2525.789476
950.085841	2527.889117
950.386967	2528.461288
950.688054	2526.119672
950.989103	2528.083201
951.290114	2525.703777
951.591087	2528.110928
951.892021	2524.791328
952.192917	2527.594209
952.493776	2528.415917
952.794596	2526.233098
953.095378	2526.117151
953.396122	2529.832482
953.696828	2526.210413
953.997496	2525.643283
954.298126	2524.496420
954.598718	2526.578417
954.899272	2527.178314
955.199788	2524.998015
955.500266	2527.294261
955.800706	2522.535411
956.101108	2520.544156
956.401472	2524.556914
956.701798	2523.848632
957.002087	2524.554393
957.302337	2526.129754
957.602550	2525.358457
957.902724	2525.124044
958.202861	2525.073632
958.502960	2524.902233
958.803022	2526.233098
959.103045	2524.143539
959.403031	2525.229908
959.702979	2525.633200
960.002889	2529.272913
960.302762	2527.173273
960.602596	2527.115300
960.902393	2524.209074
961.202153	2525.663447
961.501875	2525.267717
961.801559	2526.462470
962.101205	2524.256965
962.400814	2527.871473
962.700385	2528.115969
962.999918	2529.383819
963.299414	2526.084384
963.598873	2528.801566
963.898293	2523.440298
964.197677	2528.025228
964.497022	2525.905423
964.796331	2527.576565
965.095601	2528.070598
965.394835	2528.617563
965.694030	2526.533046
965.993189	2525.587830
966.292309	2526.147398
966.591393	2528.720907
966.890439	2525.691174
967.189447	2526.832995
967.488419	2527.773170
967.787353	2525.484486
968.086249	2526.200330
968.385108	2527.039682
968.683930	2526.051616
968.982714	2526.356606
969.281462	2526.157480
969.580172	2525.754188
969.878844	2527.062368
970.177480	2526.777542
970.476078	2527.276617
970.774639	2525.053468
971.073162	2526.351565
971.371649	2525.993643
971.670098	2524.050278
971.968510	2522.517767
972.266885	2520.556758
972.565223	2524.153622
972.863524	2527.266534
973.161788	2527.241328
973.460014	2526.926256
973.758204	2527.200999
974.056356	2526.399456
974.354471	2526.444826
974.652550	2525.519774
974.950591	2527.485824
975.248595	2529.280475
975.546563	2526.470032
975.844493	2526.157480
976.142386	2524.448529
976.440243	2525.930628
976.738062	2526.444826
977.035845	2523.475587
977.333590	2526.296112
977.631299	2525.570186
977.928971	2524.360309
978.226606	2525.436595
978.524204	2525.398787
978.821765	2525.373581
979.119290	2526.890968
979.416777	2527.765608
979.714228	2527.795855
980.011642	2527.165711
980.309020	2529.227543
980.606360	2524.075484
980.903664	2525.791997
981.200931	2525.388704
981.498162	2527.485824
981.795356	2525.524816
982.092513	2524.446009
982.389633	2527.601771
982.686717	2526.160001
982.983764	2526.646472
983.280775	2528.057995
983.577749	2525.340813
983.874686	2529.119158
984.171587	2525.121523
984.468451	2525.691174
984.765279	2527.329549
985.062070	2525.860052
985.358824	2526.258303
985.655543	2526.180166
985.952224	2527.753006
986.248869	2527.732841
986.545478	2520.660102
986.842050	2526.328880
987.138586	2523.052130
987.435086	2524.430885
987.731549	2519.868641
988.027975	2524.607326
988.324366	2523.455422
988.620719	2526.081863
988.917037	2523.778056
989.213318	2527.276617
989.509563	2525.887779
989.805772	2525.126564
990.101944	2524.662778
990.398080	2524.839219
990.694180	2523.951976
990.990244	2526.916174
991.286271	2527.997502
991.582262	2524.874507
991.878217	2525.313087
992.174136	2525.970958
992.470019	2523.468025
992.765865	2528.655372
993.061676	2523.974661
993.357450	2523.478107
993.653188	2524.526667
993.948890	2525.078673
994.244556	2524.874507
994.540186	2525.045906
994.835780	2526.144877
995.131337	2528.373068
995.426859	2524.713190
995.722345	2525.083715
996.017795	2527.319466
996.313208	2525.575227
996.608586	2525.388704
996.903928	2523.243693
997.199234	2525.245032
997.494504	2526.439785
997.789738	2522.772346
998.084936	2524.503982
998.380099	2524.554393
998.675225	2525.119003
998.970316	2525.381143
999.265371	2526.288550
999.560390	2523.823426
999.855373	2525.708818
1000.150320	2525.728982
1000.445232	2525.749147
1000.740108	2523.999867
1001.034948	2525.698735
1001.329752	2523.740247
1001.624521	2527.337110
1001.919254	2521.151615
1002.213951	2525.045906
1002.508613	2520.980215
1002.803239	2522.774866
1003.097829	2517.751356
1003.392384	2526.568334
1003.686903	2524.501461
1003.981386	2528.378109
1004.275834	2523.921729
1004.570246	2528.294930
1004.864623	2522.326203
1005.158964	2526.059178
1005.453270	2525.718900
1005.747540	2525.154291
1006.041775	2524.801410
1006.335974	2523.727644
1006.630138	2526.132275
1006.924266	2523.979702
1007.218359	2523.944414
1007.512416	2523.959537
1007.806438	2524.486338
1008.100425	2524.141019
1008.394376	2522.205216
1008.688292	2524.635052
1008.982172	2525.411390
1009.276017	2523.873838
1009.569827	2527.009435
1009.863602	2526.028931
1010.157341	2526.049096
1010.451045	2526.454908
1010.744714	2522.482479
1011.038347	2527.868952
1011.331945	2523.205885
1011.625508	2523.818385
1011.919036	2523.243693
1012.212528	2524.972809
1012.505986	2523.442819
1012.799408	2523.546163
1013.092795	2523.576410
1013.386147	2523.742768
1013.679464	2525.834847
1013.972745	2525.668488
1014.265992	2527.490866
1014.559204	2527.695032
1014.852380	2526.807789
1015.145521	2524.753519
1015.438628	2522.502644
1015.731699	2526.520443
1016.024736	2522.689167
1016.317737	2526.664116
1016.610703	2525.877696
1016.903635	2522.306039
1017.196531	2519.525843
1017.489393	2521.519619
1017.782219	2520.589526
1018.075011	2522.805113
1018.367768	2524.133457
1018.660490	2523.019362
1018.953177	2523.019362
1019.245829	2523.019362
