Dividing Wavelength (nm)	Counts (n)	Blue Motor Position (mm): 0.000000	Red Motor Position (mm): 3.500000	
326.493990	2087.226736
326.888308	2087.226736
327.282561	2087.226736
327.676750	2065.166646
328.070874	2066.368962
328.464933	2074.021433
328.858929	2082.845973
329.252859	2094.554053
329.646726	2109.944695
330.040528	2124.183434
330.434265	2143.160858
330.827938	2165.513334
331.221547	2184.929338
331.615091	2205.277956
332.008571	2225.051882
332.401986	2244.906466
332.795338	2269.119128
333.188625	2284.250151
333.581847	2306.348049
333.975006	2323.868579
334.368100	2339.367607
334.761129	2359.423838
335.154095	2372.283821
335.546996	2387.429968
335.939833	2402.523182
336.332606	2419.027920
336.725315	2428.848088
337.117960	2436.571135
337.510540	2442.973401
337.903056	2451.860955
338.295508	2455.646862
338.687896	2466.913840
339.080220	2468.829479
339.472480	2477.777527
339.864676	2480.041005
340.256807	2482.894298
340.648875	2486.017293
341.040879	2487.867396
341.432818	2486.009731
341.824694	2487.577530
342.216506	2486.508805
342.608253	2488.784886
342.999937	2485.936634
343.391557	2484.278095
343.783113	2485.626603
344.174605	2481.548310
344.566033	2479.826756
344.957397	2479.756180
345.348697	2475.549337
345.739934	2476.789461
346.131106	2475.488843
346.522215	2475.176292
346.913260	2467.806125
347.304241	2470.185549
347.695159	2464.216823
348.086012	2466.767647
348.476802	2463.379992
348.867528	2466.197997
349.258191	2461.240022
349.648789	2464.657924
350.039324	2462.583489
350.429796	2463.075002
350.820203	2459.848663
351.210548	2460.317491
351.600828	2457.247428
351.991045	2455.493106
352.381198	2456.052674
352.771288	2457.358333
353.161314	2458.374126
353.551276	2458.689198
353.941175	2458.661472
354.331010	2457.832202
354.720782	2457.549897
355.110490	2458.570731
355.500135	2455.873713
355.889717	2458.056533
356.279235	2456.791203
356.668689	2458.122068
357.058080	2458.404373
357.447408	2459.634414
357.836672	2456.551749
358.225873	2458.386729
358.615010	2455.611573
359.004084	2461.514765
359.393095	2460.072995
359.782043	2463.634570
360.170927	2463.596761
360.559748	2464.090794
360.948505	2462.573407
361.337199	2465.593058
361.725830	2464.753706
362.114398	2465.053655
362.502903	2466.588686
362.891344	2467.773357
363.279722	2464.196658
363.668037	2466.515589
364.056289	2465.071299
364.444478	2470.470374
364.832603	2467.780919
365.220665	2470.427525
365.608665	2467.226392
365.996601	2471.723101
366.384474	2470.041876
366.772284	2468.116156
367.160031	2468.017853
367.547715	2471.745786
367.935336	2471.418111
368.322893	2470.480457
368.710388	2470.074644
369.097820	2476.310551
369.485189	2473.560602
369.872495	2474.011785
370.259738	2474.457927
370.646918	2475.085551
371.034035	2477.245685
371.421090	2478.281642
371.808081	2480.681232
372.195010	2480.658546
372.581875	2488.263127
372.968678	2492.117089
373.355418	2495.436689
373.742096	2502.673265
374.128710	2506.686024
374.515262	2516.307066
374.901751	2526.966586
375.288177	2535.208872
375.674540	2547.421067
376.060841	2560.649055
376.447079	2574.345870
376.833254	2588.917325
377.219367	2597.910744
377.605417	2618.403034
377.991404	2627.343520
378.377329	2645.834473
378.763191	2660.854591
379.148991	2681.377128
379.534727	2700.009232
379.920402	2713.993393
380.306013	2730.843450
380.691563	2749.606625
381.077049	2767.164963
381.462474	2780.471089
381.847835	2797.389201
382.233134	2817.503405
382.618371	2827.653768
383.003545	2847.394927
383.388657	2861.414376
383.773706	2880.580843
384.158693	2888.928993
384.543618	2906.842734
384.928480	2912.493867
385.313280	2928.065991
385.698017	2942.403033
386.082692	2957.506330
386.467305	2957.828964
386.851856	2968.319605
387.236344	2989.787358
387.620770	2982.535659
388.005133	2990.178048
388.389435	3002.647342
388.773674	2999.413442
389.157851	3001.823113
389.541965	3003.673217
389.926018	2988.237204
390.310008	2996.408914
390.693936	2993.974037
391.077802	2986.906339
391.461606	2985.444404
391.845348	2977.686069
392.229027	2970.288175
392.612645	2974.230358
392.996200	2965.249542
393.379694	2959.588326
393.763125	2956.235959
394.146494	2940.510080
394.529801	2929.595982
394.913047	2924.665733
395.296230	2897.821589
395.679351	2872.749410
396.062410	2868.255222
396.445408	2831.651403
396.828343	2816.401913
397.211217	2799.821558
397.594028	2771.187804
397.976778	2757.508633
398.359466	2743.678228
398.742092	2718.936245
399.124656	2705.642722
399.507158	2695.066381
399.889598	2677.714730
400.271977	2664.259890
400.654294	2648.881850
401.036549	2637.745941
401.418742	2623.703807
401.800874	2612.706530
402.182944	2600.224633
402.564952	2596.226998
402.946898	2578.073803
403.328783	2569.271949
403.710606	2560.704508
404.092367	2556.185113
404.474067	2553.616645
404.855705	2542.319420
405.237282	2537.038811
405.618797	2530.825589
406.000250	2531.959848
406.381642	2530.273582
406.762972	2522.069105
407.144240	2519.356964
407.525447	2521.784279
407.906593	2517.068280
408.287677	2517.078362
408.668700	2515.813033
409.049661	2515.114833
409.430560	2513.118536
409.811399	2510.182064
410.192176	2510.086282
410.572891	2509.178874
410.953545	2509.251971
411.334138	2507.832886
411.714669	2506.461692
412.095139	2505.541682
412.475547	2503.638646
412.855894	2507.205262
413.236180	2506.673421
413.616405	2505.478667
413.996568	2505.680313
414.376670	2507.182577
414.756711	2505.055210
415.136691	2505.639984
415.516609	2502.872391
415.896466	2503.255518
416.276262	2504.198214
416.655997	2501.556650
417.035670	2500.026659
417.415283	2502.592607
417.794834	2499.855260
418.174324	2503.895745
418.553753	2505.445900
418.933121	2504.694768
419.312428	2503.857936
419.691674	2507.394306
420.070859	2506.789367
420.449983	2506.471775
420.829045	2503.976403
421.208047	2505.718122
421.586988	2505.541682
421.965867	2505.282062
422.344686	2504.175529
422.723444	2507.495129
423.102141	2505.760972
423.480777	2506.149141
423.859352	2506.749038
424.237866	2507.616117
424.616319	2510.645850
424.994712	2507.994203
425.373044	2506.373472
425.751314	2510.587877
426.129524	2507.815242
426.507673	2511.071828
426.885762	2508.881446
427.263789	2512.092661
427.641756	2509.993021
428.019662	2508.556292
428.397508	2509.418329
428.775292	2508.026971
429.153016	2511.013854
429.530679	2511.066786
429.908282	2513.083248
430.285824	2511.124760
430.663305	2510.539986
431.040726	2512.286746
431.418086	2509.456138
431.795385	2509.826662
432.172624	2511.709533
432.549802	2512.889163
432.926920	2513.776407
433.303977	2515.510563
433.680974	2510.981087
434.057910	2514.595594
434.434786	2507.351456
434.811601	2513.766324
435.188355	2511.717095
435.565050	2513.143742
435.941683	2513.247085
436.318257	2513.668022
436.694770	2508.677279
437.071222	2515.329082
437.447614	2508.057217
437.823946	2513.423526
438.200218	2512.405213
438.576429	2513.262209
438.952580	2513.441170
439.328670	2516.085255
439.704700	2514.169617
440.080670	2514.872858
440.456580	2516.057529
440.832429	2516.145749
441.208218	2514.353619
441.583947	2515.475275
441.959616	2513.415964
442.335224	2516.012158
442.710773	2513.521828
443.086261	2516.707838
443.461689	2515.409740
443.837057	2517.648013
444.212365	2515.334123
444.587612	2517.496778
444.962800	2514.860255
445.337927	2517.824453
445.712995	2515.419823
446.088002	2518.850328
446.462949	2516.498630
446.837837	2517.428723
447.212664	2516.440656
447.587431	2518.746984
447.962139	2520.370236
448.336786	2523.838550
448.711374	2523.664630
449.085901	2519.296470
449.460369	2520.208919
449.834776	2520.377797
450.209124	2520.690349
450.583412	2521.207067
450.957640	2521.628004
451.331808	2518.399145
451.705917	2519.888806
452.079965	2521.703621
452.453954	2517.872344
452.827883	2518.782272
453.201752	2520.360153
453.575562	2517.582478
453.949311	2519.533404
454.323001	2521.401152
454.696632	2518.600791
455.070202	2523.004239
455.443713	2520.012314
455.817164	2520.571882
456.190556	2519.803106
456.563888	2516.667508
456.937160	2515.356808
457.310373	2522.149763
457.683526	2520.188754
458.056619	2519.961902
458.429653	2519.183044
458.802628	2519.135153
459.175542	2520.647499
459.548398	2521.259999
459.921194	2519.672036
460.293930	2522.653878
460.666607	2522.091790
461.039224	2524.057840
461.411782	2521.375946
461.784280	2524.002387
462.156719	2525.184538
462.529099	2523.967099
462.901419	2520.264372
463.273680	2521.113806
463.645882	2523.740247
464.018024	2523.818385
464.390106	2522.326203
464.762130	2526.780063
465.134094	2527.153108
465.505999	2529.421628
465.877845	2530.424817
466.249631	2530.828109
466.621358	2531.831299
466.993026	2532.312729
467.364634	2532.423635
467.736184	2528.027748
468.107674	2528.776360
468.479105	2527.876514
468.850477	2525.224867
469.221790	2528.945238
469.593043	2523.710000
469.964238	2524.882068
470.335373	2524.088087
470.706449	2525.759229
471.077467	2526.265865
471.448425	2526.220495
471.819324	2530.336597
472.190164	2529.716535
472.560945	2525.439116
472.931667	2524.393077
473.302330	2523.473066
473.672934	2524.360309
474.043479	2523.263858
474.413965	2523.742768
474.784393	2521.005421
475.154761	2522.263189
475.525070	2519.525843
475.895321	2519.304032
476.265513	2515.916376
476.635645	2522.462315
477.005719	2523.591533
477.375734	2524.526667
477.745691	2523.266379
478.115588	2527.523633
478.485427	2522.207736
478.855207	2524.466173
479.224928	2527.586648
479.594591	2527.034641
479.964194	2527.790814
480.333739	2525.892820
480.703226	2528.017666
481.072653	2527.967255
481.442022	2526.447347
481.811333	2528.168901
482.180584	2526.338962
482.549777	2526.709487
482.918912	2524.703107
483.287988	2526.497758
483.657005	2527.087573
484.025964	2526.528005
484.394864	2523.757891
484.763706	2527.546318
485.132489	2524.677902
485.501213	2529.545136
485.869879	2526.628828
486.238487	2524.529188
486.607036	2523.278982
486.975527	2526.283509
487.343959	2527.788294
487.712333	2524.299815
488.080648	2524.622449
488.448905	2526.712007
488.817104	2526.621267
489.185244	2526.404497
489.553326	2525.960875
489.921350	2528.294930
490.289315	2528.446164
490.657222	2528.758716
491.025070	2525.902902
491.392861	2528.403314
491.760593	2526.858201
492.128267	2528.546987
492.495883	2523.972140
492.863440	2525.234949
493.230939	2525.234949
493.598380	2523.798220
493.965763	2520.818898
494.333088	2522.464835
494.700354	2521.847294
495.067563	2523.462984
495.434713	2521.285205
495.801805	2524.098169
496.168839	2523.629342
496.535815	2525.267717
496.902733	2521.325534
497.269593	2527.576565
497.636395	2525.532377
498.003139	2523.152953
498.369825	2519.488034
498.736453	2523.253776
499.103023	2520.619773
499.469535	2522.318642
499.835989	2525.648324
500.202385	2522.575741
500.568723	2521.257479
500.935003	2525.577748
501.301226	2522.759743
501.667390	2522.590864
502.033497	2524.125895
502.399546	2522.535411
502.765537	2522.008611
503.131470	2522.132119
503.497345	2521.323014
503.863163	2524.556914
504.228923	2521.297808
504.594625	2524.408200
504.960269	2522.300998
505.325856	2522.936183
505.691385	2522.490041
506.056856	2518.734381
506.422270	2523.427696
506.787625	2521.605318
507.152924	2521.078518
507.518164	2523.468025
507.883347	2519.856038
508.248472	2524.050278
508.613540	2521.754032
508.978550	2523.929290
509.343503	2524.471214
509.708398	2523.251255
510.073236	2522.437109
510.438016	2524.506502
510.802738	2521.527181
511.167403	2523.538601
511.532010	2519.858559
511.896561	2522.056502
512.261053	2524.325021
512.625488	2518.076511
512.989866	2519.919053
513.354186	2523.026924
513.718449	2515.876047
514.082655	2520.967613
514.446803	2522.807634
514.810894	2522.495082
515.174927	2523.601615
515.538904	2522.724455
515.902822	2522.845442
516.266684	2521.582633
516.630488	2523.843591
516.994235	2523.818385
517.357925	2522.994156
517.721558	2524.866945
518.085133	2523.253776
518.448651	2521.413755
518.812112	2520.697911
519.175516	2521.416275
519.538863	2522.769825
519.902152	2519.256141
520.265385	2524.831657
520.628560	2522.237983
520.991678	2522.699249
521.354739	2523.105062
521.717743	2523.382325
522.080690	2522.704290
522.443580	2521.759074
522.806413	2521.766635
523.169189	2524.340144
523.531908	2522.515247
523.894569	2523.387366
524.257174	2522.686646
524.619722	2518.792355
524.982213	2522.996677
525.344647	2519.780421
525.707025	2522.578261
526.069345	2521.272602
526.431608	2520.468538
526.793815	2521.307890
527.155964	2521.083559
527.518057	2521.645648
527.880093	2523.551204
528.242072	2524.829136
528.603995	2524.193951
528.965860	2520.163548
529.327669	2523.392407
529.689421	2520.314783
530.051117	2522.684125
530.412755	2520.707993
530.774337	2523.019362
531.135862	2521.315452
531.497331	2523.122706
531.858743	2520.705472
532.220098	2520.158507
532.581396	2516.309586
532.942638	2518.310924
533.303824	2521.930473
533.664953	2522.674043
534.026025	2521.202026
534.387040	2521.784279
534.747999	2521.096162
535.108902	2520.135822
535.469748	2522.081707
535.830537	2521.625483
536.191270	2521.343178
536.551947	2523.538601
536.912567	2521.832170
537.273131	2522.376615
537.633638	2523.710000
537.994089	2524.025072
538.354483	2523.931811
538.714821	2523.720083
539.075103	2520.740761
539.435328	2521.691018
539.795497	2521.781759
540.155609	2523.825947
540.515665	2522.116996
540.875665	2522.321162
541.235609	2520.453415
541.595496	2520.942407
541.955328	2520.856707
542.315102	2520.909639
542.674821	2521.822088
543.034483	2520.150946
543.394090	2520.592047
543.753640	2519.926614
544.113134	2520.120699
544.472571	2522.406862
544.831953	2520.597088
545.191278	2522.114475
545.550548	2521.650689
545.909761	2522.038858
546.268918	2520.019876
546.628019	2520.839063
546.987064	2521.290246
547.346053	2519.692201
547.704986	2518.275636
548.063863	2523.052130
548.422684	2522.338806
548.781449	2522.789990
549.140158	2523.677233
549.498811	2522.331245
549.857408	2522.243024
550.215949	2520.317304
550.574434	2518.704134
550.932864	2516.947292
551.291237	2516.695235
551.649555	2520.289577
552.007817	2520.728158
552.366022	2519.719927
552.724173	2523.430216
553.082267	2522.973992
553.440305	2523.238652
553.798288	2521.922911
554.156215	2522.237983
554.514086	2523.052130
554.871902	2523.543642
555.229661	2519.830832
555.587365	2519.727489
555.945014	2521.007942
556.302606	2520.773528
556.660143	2522.026255
557.017625	2520.707993
557.375050	2520.801254
557.732421	2521.033147
558.089735	2523.231091
558.446994	2519.677077
558.804197	2522.152284
559.161345	2522.071625
559.518437	2520.503826
559.875474	2521.857376
560.232455	2522.376615
560.589381	2523.934332
560.946251	2523.331914
561.303065	2518.484844
561.659825	2521.433919
562.016528	2518.031140
562.373177	2521.912829
562.729770	2520.836543
563.086307	2523.558766
563.442789	2521.275123
563.799216	2521.040709
564.155587	2520.995339
564.511904	2520.224042
564.868164	2519.954341
565.224370	2519.198168
565.580520	2522.154804
565.936615	2523.170597
566.292654	2520.587005
566.648638	2518.177334
567.004567	2519.472910
567.360441	2522.311080
567.716260	2522.782428
568.072023	2519.934176
568.427732	2517.726151
568.783385	2518.391583
569.138982	2516.987622
569.494525	2517.889988
569.850013	2516.813702
570.205445	2521.423837
570.560823	2520.655061
570.916145	2521.229753
571.271412	2519.888806
571.626625	2524.325021
571.981782	2517.968126
572.336884	2522.973992
572.691931	2522.958868
573.046923	2521.098683
573.401860	2519.508198
573.756743	2519.629186
574.111570	2522.137160
574.466342	2520.627335
574.821059	2522.016173
575.175722	2524.720752
575.530330	2521.658251
575.884882	2518.941069
576.239380	2519.425019
576.593823	2522.805113
576.948211	2519.903929
577.302544	2521.572551
577.656823	2520.219001
578.011047	2521.464166
578.365216	2522.147243
578.719330	2521.791841
579.073389	2522.540453
579.427394	2520.037520
579.781344	2519.205729
580.135239	2521.590195
580.489080	2518.782272
580.842866	2519.548528
581.196597	2524.098169
581.550273	2519.661954
581.903895	2519.856038
582.257463	2523.999867
582.610975	2517.267406
582.964434	2520.060205
583.317837	2520.458456
583.671186	2519.760256
584.024481	2520.765966
584.377721	2519.031809
584.730906	2519.881244
585.084037	2519.251100
585.437113	2520.899557
585.790135	2520.231604
586.143103	2519.029289
586.496016	2522.542973
586.848874	2517.201871
587.201679	2521.254958
587.554428	2516.201202
587.907124	2517.847138
588.259765	2514.381345
588.612352	2520.561800
588.964884	2520.055164
589.317362	2519.682118
589.669786	2519.235976
590.022155	2521.950638
590.374470	2523.097500
590.726731	2521.083559
591.078937	2519.167921
591.431090	2522.812675
591.783188	2520.995339
592.135232	2521.459125
592.487222	2520.612211
592.839157	2520.559279
593.191038	2518.497447
593.542866	2520.987777
593.894639	2521.534742
594.246358	2520.929804
594.598022	2520.949968
594.949633	2516.309586
595.301190	2519.523322
595.652692	2518.298322
596.004141	2520.261851
596.355535	2520.395442
596.706876	2520.294618
597.058162	2519.359484
597.409395	2516.937210
597.760573	2520.375277
598.111698	2517.000224
598.462768	2520.392921
598.813785	2518.736902
599.164748	2520.302180
599.515657	2519.495596
599.866511	2521.204547
600.217312	2520.060205
600.568060	2519.586336
600.918753	2523.518436
601.269392	2517.549710
601.619978	2520.342509
601.970510	2520.760925
602.320988	2516.682632
602.671412	2517.584998
603.021783	2523.904085
603.372100	2520.849145
603.722363	2517.824453
604.072572	2519.896367
604.422728	2521.781759
604.772830	2516.836387
605.122878	2517.794206
605.472872	2516.029802
605.822813	2517.184227
606.172701	2519.067098
606.522534	2519.427540
606.872314	2519.482993
607.222041	2518.076511
607.571714	2519.682118
607.921333	2521.282685
608.270899	2515.883609
608.620411	2519.977026
608.969870	2521.615401
609.319276	2520.430730
609.668627	2522.084228
610.017926	2517.395955
610.367171	2519.195647
610.716362	2517.816891
611.065500	2520.518950
611.414585	2517.917714
611.763616	2518.948630
612.112594	2516.579288
612.461518	2519.568692
612.810389	2517.128774
613.159207	2519.775380
613.507971	2521.343178
613.856682	2516.768331
614.205340	2517.239679
614.553945	2520.390400
614.902496	2516.475944
615.250994	2518.552900
615.599439	2519.417458
615.947830	2518.711696
616.296169	2520.518950
616.644454	2518.016017
616.992686	2519.639268
617.340864	2520.450894
617.688990	2519.286388
618.037063	2519.079700
618.385082	2518.517612
618.733048	2519.051974
619.080961	2520.282016
619.428821	2520.100534
619.776628	2520.922242
620.124382	2519.591377
620.472083	2518.908301
620.819731	2520.707993
621.167326	2519.493075
621.514868	2520.181193
621.862357	2518.046264
622.209793	2520.551717
622.557176	2517.345543
622.904506	2517.791686
623.251783	2515.389576
623.599007	2516.057529
623.946179	2516.826305
624.293297	2517.315297
624.640363	2518.565503
624.987376	2519.399814
625.334336	2520.183713
625.681243	2519.074659
626.028097	2517.116171
626.374899	2519.172962
626.721647	2520.327386
627.068343	2519.019207
627.414987	2517.431243
627.761577	2517.708507
628.108115	2516.158352
628.454600	2518.552900
628.801032	2517.847138
629.147412	2521.340658
629.493739	2519.341840
629.840014	2521.010462
630.186236	2517.307735
630.532405	2517.201871
630.878521	2517.859741
631.224585	2517.514422
631.570597	2517.393434
631.916556	2521.307890
632.262462	2518.774711
632.608316	2517.292611
632.954117	2517.753877
633.299866	2518.298322
633.645562	2518.777231
633.991206	2521.577592
634.336797	2517.746315
634.682336	2519.490554
635.027823	2516.082734
635.373257	2518.709176
635.718639	2517.494258
636.063968	2518.013496
636.409245	2518.079031
636.754470	2516.927128
637.099642	2518.416789
637.444762	2519.782941
637.789829	2515.969308
638.134845	2519.127591
638.479808	2518.757067
638.824719	2518.928466
639.169577	2518.187416
639.514383	2517.920235
639.859137	2518.837725
640.203839	2517.133815
640.548489	2518.812519
640.893086	2514.030985
641.237632	2511.414626
641.582125	2515.941582
641.926566	2512.780779
642.270955	2515.155162
642.615292	2516.569206
642.959576	2517.925276
643.303809	2518.540297
643.647990	2515.071983
643.992118	2519.709845
644.336195	2518.023579
644.680219	2518.005935
645.024192	2515.374452
645.368112	2516.327230
645.711981	2518.005935
646.055797	2519.626666
646.399562	2512.848834
646.743274	2515.901253
647.086935	2518.137005
647.430544	2516.493588
647.774101	2518.636079
648.117606	2520.193795
648.461059	2517.307735
648.804460	2521.204547
649.147810	2515.770183
649.491108	2516.443177
649.834354	2519.578775
650.177548	2516.642302
650.520690	2518.361336
650.863781	2515.825636
651.206820	2521.645648
651.549807	2517.668177
651.892742	2517.262364
652.235626	2517.254803
652.578458	2514.966119
652.921238	2513.673063
653.263967	2518.459638
653.606644	2517.358146
653.949269	2519.185565
654.291843	2514.761952
654.634365	2518.109278
654.976836	2517.259844
655.319255	2519.964423
655.661622	2518.867972
656.003938	2519.808147
656.346203	2516.909484
656.688416	2516.939731
657.030577	2516.980060
657.372687	2517.907632
657.714746	2515.586181
658.056753	2516.309586
658.398708	2515.059380
658.740612	2516.496109
659.082465	2513.652898
659.424266	2513.065604
659.766016	2511.558299
660.107715	2517.390914
660.449362	2515.918897
660.790958	2516.791017
661.132503	2512.952178
661.473996	2516.385204
661.815438	2516.975019
662.156829	2514.860255
662.498168	2518.096675
662.839456	2517.169103
663.180693	2518.008455
663.521879	2516.112981
663.863013	2517.204391
664.204097	2516.380163
664.545129	2517.920235
664.886110	2518.620955
665.227040	2517.721109
665.567918	2515.868485
665.908746	2517.521984
666.249522	2516.102899
666.590248	2516.382683
666.930922	2516.304545
667.271545	2516.763290
667.612118	2517.539628
667.952639	2516.211284
668.293109	2516.160872
668.633528	2516.707838
668.973896	2515.976870
669.314213	2515.190450
669.654480	2514.923269
669.994695	2517.161541
670.334859	2516.813702
670.674973	2516.722961
671.015035	2518.205060
671.355047	2516.886798
671.695008	2515.752539
672.034918	2513.254647
672.374777	2519.170441
672.714585	2516.604494
673.054342	2515.480317
673.394049	2516.377642
673.733705	2515.571057
674.073310	2516.992663
674.412864	2516.365039
674.752368	2513.852024
675.091820	2517.191788
675.431223	2517.393434
675.770574	2517.947961
676.109875	2512.112826
676.449125	2512.967301
676.788324	2511.812877
677.127473	2514.547703
677.466571	2513.796571
677.805619	2514.109123
678.144616	2516.216325
678.483562	2515.974350
678.822458	2515.674401
679.161303	2515.654236
679.500098	2517.693383
679.838842	2515.475275
680.177535	2515.097189
680.516179	2515.618948
680.854771	2515.969308
681.193314	2517.411078
681.531805	2515.888650
681.870247	2517.373270
682.208638	2516.634741
682.546978	2516.526356
682.885268	2516.614576
683.223508	2513.355470
683.561697	2515.744977
683.899836	2516.423012
684.237925	2517.002745
684.575963	2516.070132
684.913951	2517.151459
685.251889	2516.894360
685.589776	2515.329082
685.927614	2515.646675
686.265401	2515.825636
686.603137	2514.454442
686.940824	2518.303363
687.278460	2514.630882
687.616046	2515.392096
687.953582	2516.944772
688.291068	2514.184740
688.628504	2515.470234
688.965889	2514.998886
689.303224	2514.499812
689.640510	2514.522497
689.977745	2515.518125
690.314930	2518.850328
690.652065	2518.275636
690.989150	2514.472086
691.326185	2513.947806
691.663170	2513.461334
692.000105	2515.543331
692.336990	2513.763804
692.673825	2517.953003
693.010610	2515.157683
693.347345	2513.143742
693.684030	2507.908503
694.020665	2513.300018
694.357251	2510.655932
694.693786	2514.174658
695.030272	2514.114164
695.366707	2514.802281
695.703093	2512.579133
696.039429	2514.933351
696.375716	2516.377642
696.711952	2515.145080
697.048139	2514.240193
697.384276	2515.787827
697.720363	2512.732888
698.056400	2513.461334
698.392388	2512.458145
698.728326	2516.748167
699.064214	2516.055008
699.400053	2517.131294
699.735842	2514.686335
700.071581	2513.030316
700.407270	2513.783968
700.742910	2515.601304
701.078501	2513.728516
701.414042	2515.124915
701.749533	2513.274812
702.084974	2516.085255
702.420366	2515.311438
702.755709	2515.795389
703.091002	2513.300018
703.426246	2513.657939
703.761440	2514.817405
704.096584	2514.164575
704.431679	2514.827487
704.766725	2513.786489
705.101721	2512.291787
705.436668	2516.803619
705.771565	2513.234482
706.106413	2513.859586
706.441212	2512.523680
706.775961	2514.093999
707.110661	2513.796571
707.445311	2515.243382
707.779913	2512.309431
708.114465	2515.250944
708.448967	2514.651047
708.783421	2513.902435
709.117825	2514.192302
709.452180	2515.170286
709.786485	2515.243382
710.120742	2514.189781
710.454949	2513.773886
710.789107	2515.026613
711.123216	2512.067455
711.457275	2514.686335
711.791286	2512.324554
712.125247	2511.580984
712.459159	2513.128618
712.793023	2516.125584
713.126837	2512.503515
713.460602	2516.211284
713.794318	2513.715913
714.127985	2513.899915
714.461602	2515.871006
714.795171	2514.560306
715.128691	2514.431757
715.462162	2516.158352
715.795584	2512.700120
716.128957	2510.923113
716.462281	2511.281035
716.795556	2513.811695
717.128782	2514.487209
717.461960	2514.610718
717.795088	2514.255316
718.128167	2513.332785
718.461198	2513.393279
718.794180	2514.648526
719.127113	2517.637930
719.459997	2516.012158
719.792833	2513.569719
720.125619	2512.596777
720.458357	2513.277332
720.791046	2512.992507
721.123686	2511.311282
721.456278	2514.366222
721.788821	2514.454442
722.121315	2513.904956
722.453761	2514.827487
722.786158	2514.305728
723.118506	2513.897394
723.450805	2514.910666
723.783056	2513.501664
724.115259	2512.967301
724.447412	2513.544513
724.779518	2514.076355
725.111574	2513.675583
725.443582	2516.846469
725.775542	2514.383866
726.107453	2512.364883
726.439315	2511.497805
726.771129	2517.544669
727.102895	2511.523011
727.434612	2513.791530
727.766281	2515.916376
728.097901	2510.965963
728.429473	2509.753566
728.760996	2511.175171
729.092471	2511.487723
729.423897	2512.765655
729.755276	2514.237672
730.086606	2512.553927
730.417887	2515.008969
730.749120	2513.904956
731.080305	2511.641478
731.411442	2510.189626
731.742530	2514.391427
732.073570	2513.010151
732.404562	2514.782117
732.735506	2513.398320
733.066401	2513.443690
733.397249	2512.480830
733.728048	2515.026613
734.058798	2514.719102
734.389501	2514.502333
734.720156	2515.848321
735.050762	2513.000069
735.381320	2515.034174
735.711831	2512.032167
736.042293	2514.444359
736.372707	2515.598784
736.703073	2512.276663
737.033391	2512.478309
737.363661	2513.239524
737.693883	2512.606859
738.024056	2516.876716
738.354182	2513.055522
738.684260	2513.978053
739.014290	2512.760614
739.344272	2512.654750
739.674207	2511.512928
740.004093	2512.652229
740.333931	2513.751201
740.663722	2512.493433
740.993464	2514.623320
741.323159	2514.759432
741.652806	2512.102743
741.982405	2514.320851
742.311956	2513.357991
742.641460	2511.636437
742.970915	2515.011489
743.300323	2513.536952
743.629683	2513.242044
743.958996	2514.030985
744.288260	2513.962929
744.617477	2510.277846
744.946647	2508.107629
745.275768	2509.040242
745.604842	2509.735922
745.933869	2511.593587
746.262847	2510.330778
746.591778	2510.164420
746.920662	2511.633916
747.249498	2511.757424
747.578286	2510.618124
747.907027	2514.787158
748.235720	2514.507374
748.564365	2513.509225
748.892963	2512.221211
749.221514	2512.395130
749.550017	2510.454286
749.878473	2510.572753
750.206881	2511.533093
750.535242	2512.201046
750.863555	2512.090141
751.191821	2513.380676
751.520039	2511.293638
751.848210	2513.670542
752.176334	2511.074348
752.504411	2511.964112
752.832440	2510.643329
753.160421	2513.577281
753.488356	2510.726508
753.816243	2513.196674
754.144082	2511.265912
754.471875	2514.507374
754.799620	2510.207270
755.127318	2512.432939
755.454969	2510.880264
755.782572	2512.276663
756.110129	2512.506036
756.437638	2514.658608
756.765100	2511.386900
757.092515	2510.469410
757.419882	2513.700789
757.747203	2511.817918
758.074477	2512.596777
758.401703	2513.234482
758.728882	2512.571571
759.056014	2511.989318
759.383099	2514.847652
759.710138	2509.738442
760.037129	2510.945799
760.364073	2510.960922
760.690970	2512.135511
761.017820	2509.539317
761.344623	2511.888494
761.671379	2510.797085
761.998088	2509.935047
762.324751	2509.483864
762.651366	2507.810201
762.977935	2513.037878
763.304456	2508.954543
763.630931	2509.367917
763.957359	2511.727178
764.283740	2512.364883
764.610074	2513.237003
764.936362	2512.432939
765.262602	2513.357991
765.588796	2513.310100
765.914943	2513.113495
766.241044	2512.105264
766.567097	2511.109636
766.893104	2512.243896
767.219064	2513.554596
767.544978	2514.976201
767.870845	2512.503515
768.196665	2515.253465
768.522438	2513.781448
768.848165	2511.016375
769.173846	2511.621313
769.499479	2511.195336
769.825066	2512.352281
770.150607	2511.812877
770.476101	2512.077538
770.801548	2513.297497
771.126949	2512.006962
771.452303	2512.664832
771.777611	2510.935716
772.102872	2511.759945
772.428087	2509.375479
772.753256	2511.439832
773.078378	2513.761283
773.403453	2512.014523
773.728482	2509.972856
774.053465	2512.448062
774.378401	2511.041581
774.703291	2512.748011
775.028135	2512.755573
775.352932	2509.990500
775.677683	2513.307579
776.002388	2513.055522
776.327046	2509.493946
776.651658	2515.374452
776.976224	2511.250788
777.300743	2510.061076
777.625216	2508.004285
777.949643	2513.869668
778.274024	2512.377486
778.598359	2507.916065
778.922647	2506.973369
779.246889	2508.977228
779.571086	2509.347753
779.895236	2510.005623
780.219339	2509.924965
780.543397	2509.811539
780.867409	2509.869512
781.191374	2509.735922
781.515294	2511.149965
781.839167	2507.956394
782.162995	2512.097702
782.486776	2512.049811
782.810511	2509.284738
783.134201	2512.034688
783.457844	2508.132835
783.781441	2512.107785
784.104993	2510.953360
784.428498	2510.466889
784.751958	2512.269102
785.075372	2511.742301
785.398739	2512.019564
785.722061	2511.268433
786.045337	2513.277332
786.368568	2513.083248
786.691752	2510.751714
787.014891	2513.431088
787.337983	2509.078051
787.661030	2510.701303
787.984031	2512.158196
788.306987	2512.574091
788.629897	2512.382528
788.952760	2510.557630
789.275579	2510.623165
789.598351	2514.167096
789.921078	2508.808349
790.243759	2511.273474
790.566395	2510.771879
790.888984	2511.437311
791.211529	2509.393123
791.534027	2509.451097
791.856480	2510.928155
792.178888	2507.769872
792.501249	2513.781448
792.823566	2511.586025
793.145836	2511.933865
793.468062	2510.484533
793.790241	2509.907321
794.112375	2508.334481
794.434464	2510.814729
794.756507	2510.418998
795.078505	2511.268432
795.400457	2507.543020
795.722364	2504.997237
796.044226	2507.149810
796.366042	2506.028153
796.687812	2508.578977
797.009538	2512.349760
797.331218	2511.190295
797.652852	2507.422032
797.974442	2512.649709
798.295986	2512.173320
798.617484	2509.672907
798.938938	2511.991838
799.260346	2512.460665
799.581709	2511.734739
799.903026	2513.612569
800.224299	2506.078565
800.545526	2509.430932
800.866708	2509.234327
801.187845	2510.434122
801.508936	2510.124091
801.829983	2513.239524
802.150984	2511.013854
802.471940	2511.346570
802.792851	2508.924296
803.113717	2510.872702
803.434538	2509.362876
803.755314	2510.784482
804.076045	2511.046622
804.396731	2510.933196
804.717372	2511.086951
805.037967	2511.863289
805.358518	2509.924965
805.679024	2511.182733
805.999485	2512.291787
806.319901	2512.112826
806.640272	2508.629388
806.960598	2509.125942
807.280879	2510.676097
807.601115	2512.364883
807.921306	2510.310613
808.241453	2510.252640
808.561554	2509.907321
808.881611	2512.332116
809.201623	2510.182064
809.521590	2509.907321
809.841513	2511.225583
810.161390	2508.977228
810.481223	2509.967815
810.801011	2507.772392
811.120755	2509.796416
811.440453	2510.759276
811.760107	2510.978566
812.079716	2506.532268
812.399281	2506.426404
812.718801	2505.755931
813.038276	2504.162926
813.357707	2510.671056
813.677093	2510.325737
813.996434	2509.748525
814.315731	2511.321365
814.634983	2510.479492
814.954191	2505.463544
815.273354	2510.333298
815.592473	2509.065448
815.911547	2506.552433
816.230577	2510.696262
816.549562	2510.303052
816.868502	2508.586539
817.187399	2511.497805
817.506250	2508.775582
817.825058	2508.271467
818.143821	2510.184584
818.462539	2509.078051
818.781213	2510.202228
819.099843	2510.688700
819.418429	2510.638288
819.736970	2514.164575
820.055466	2510.040912
820.373919	2509.778772
820.692327	2512.407733
821.010691	2513.393279
821.329011	2511.991838
821.647286	2515.099709
821.965517	2516.100378
822.283704	2513.342867
822.601847	2516.410409
822.919945	2515.006448
823.237999	2515.445028
823.556010	2514.882940
823.873976	2510.048473
824.191897	2513.055522
824.509775	2510.792043
824.827609	2514.640964
825.145398	2510.648371
825.463144	2510.207270
825.780845	2510.605521
826.098502	2511.759945
826.416116	2509.751045
826.733685	2512.929493
827.051210	2511.903618
827.368692	2512.337157
827.686129	2514.766993
828.003522	2510.666015
828.320872	2507.711898
828.638177	2508.725170
828.955439	2507.696775
829.272656	2508.140397
829.589830	2503.583193
829.906960	2512.163237
830.224046	2509.067969
830.541088	2510.701303
830.858086	2510.083761
831.175041	2509.330109
831.491952	2508.324399
831.808819	2508.578977
832.125642	2509.897239
832.442421	2510.469410
832.759157	2510.124091
833.075849	2511.545696
833.392497	2510.199708
833.709101	2509.204080
834.025662	2513.053001
834.342179	2509.919924
834.658653	2509.307424
834.975083	2509.569564
835.291469	2514.978722
835.607811	2508.324399
835.924110	2509.355315
836.240366	2510.303052
836.556578	2509.219203
836.872746	2508.896570
837.188871	2506.703668
837.504952	2507.948833
837.820990	2509.468741
838.136984	2506.653256
838.452935	2507.653925
838.768842	2508.647032
839.084706	2507.311127
839.400526	2509.982938
839.716303	2507.669049
840.032037	2510.539986
840.347727	2508.203411
840.663373	2510.164420
840.978977	2508.478154
841.294537	2510.955881
841.610054	2510.456807
841.925527	2509.940088
842.240957	2505.934892
842.556344	2508.271467
842.871687	2510.028309
843.186987	2512.387569
843.502244	2511.429749
843.817458	2509.093175
844.132629	2510.439163
844.447756	2508.710047
844.762840	2506.544871
845.077881	2506.633092
845.392879	2505.385406
845.707833	2506.421363
846.022745	2504.472957
846.337613	2510.182064
846.652438	2505.972700
846.967221	2509.025119
847.281960	2506.451610
847.596656	2509.219203
847.911309	2507.595952
848.225919	2508.589059
848.540485	2510.187105
848.855009	2507.928668
849.169490	2506.658297
849.483928	2509.685510
849.798323	2509.473782
850.112675	2509.677948
850.426984	2506.791888
850.741251	2508.964625
851.055474	2506.938081
851.369654	2510.229955
851.683792	2507.064110
851.997887	2508.997393
852.311938	2508.193329
852.625947	2508.894049
852.939914	2508.253822
853.253837	2510.129132
853.567718	2507.197701
853.881555	2507.520335
854.195350	2510.681138
854.509103	2507.086795
854.822812	2510.229955
855.136479	2509.723319
855.450103	2511.870850
855.763685	2508.185767
856.077224	2508.276508
856.390720	2507.674090
856.704173	2506.292814
857.017584	2508.639471
857.330953	2508.518483
857.644278	2508.226096
857.957561	2514.832528
858.270802	2510.766838
858.584000	2508.488236
858.897155	2508.914214
859.210268	2509.405726
859.523339	2508.024450
859.836367	2507.795078
860.149352	2508.210973
860.462295	2508.576456
860.775195	2506.464213
861.088054	2505.702999
861.400869	2507.848010
861.713642	2504.472957
862.026373	2504.394819
862.339062	2508.160561
862.651708	2511.999400
862.964312	2507.414470
863.276873	2511.147445
863.589392	2509.302383
863.901869	2508.337002
864.214303	2508.873884
864.526696	2505.420694
864.839045	2509.831704
865.151353	2507.963956
865.463619	2508.962105
865.775842	2508.720129
866.088023	2510.197187
866.400162	2506.386075
866.712258	2508.483195
867.024313	2507.868174
867.336325	2509.408247
867.648296	2508.064779
867.960224	2506.519666
868.272110	2507.043946
868.583954	2508.841117
868.895755	2509.821621
869.207515	2511.260871
869.519233	2508.402537
869.830909	2508.210973
870.142542	2509.080572
870.454134	2507.505211
870.765684	2508.457989
871.077191	2509.274656
871.388657	2507.686693
871.700081	2506.963287
872.011463	2507.911024
872.322803	2510.270284
872.634101	2512.135511
872.945357	2508.926817
873.256571	2508.563853
873.567744	2509.199039
873.878874	2510.676097
874.189963	2509.907321
874.501010	2506.330622
874.812015	2508.657115
875.122979	2509.309944
875.433900	2506.315499
875.744780	2510.590397
876.055618	2508.762979
876.366415	2509.723319
876.677169	2508.213493
876.987882	2504.442710
877.298554	2502.731238
877.609183	2503.079078
877.919771	2503.439521
878.230317	2505.181239
878.540822	2509.695592
878.851285	2507.633761
879.161707	2508.163082
879.472087	2510.822290
879.782425	2509.720798
880.092722	2509.927486
880.402977	2506.267608
880.713191	2510.096364
881.023363	2509.015037
881.333494	2510.666015
881.643583	2511.459996
881.953631	2509.811539
882.263637	2512.385048
882.573602	2509.574605
882.883526	2509.826663
883.193408	2508.699965
883.503248	2507.265756
883.813048	2512.294307
884.122806	2508.785664
884.432522	2509.141066
884.742197	2510.136693
885.051831	2506.219717
885.361424	2510.164420
885.670975	2509.012516
885.980485	2507.457320
886.289954	2508.717609
886.599382	2511.407064
886.908768	2508.246261
887.218113	2505.813904
887.527417	2507.880777
887.836680	2508.402537
888.145901	2506.686024
888.455082	2505.975221
888.764221	2508.921775
889.073319	2509.476302
889.382376	2508.311796
889.691392	2508.871364
890.000366	2507.797598
890.309300	2508.261384
890.618193	2508.878926
890.927044	2504.193173
891.235855	2509.244409
891.544625	2505.584532
891.853353	2507.792557
892.162041	2508.210973
892.470687	2506.975890
892.779293	2506.272649
893.087858	2507.540499
893.396381	2506.582680
893.704864	2507.185098
894.013306	2501.107987
894.321707	2507.900942
894.630068	2504.364572
894.938387	2507.666528
895.246665	2508.679800
895.554903	2504.944305
895.863100	2506.323061
896.171256	2509.151148
896.479371	2504.243585
896.787446	2506.839779
897.095480	2508.503360
897.403473	2506.565036
897.711425	2507.863133
898.019336	2509.577125
898.327207	2506.534789
898.635038	2507.031343
898.942827	2507.081754
899.250576	2508.795747
899.558284	2505.390447
899.865952	2506.411281
900.173579	2504.137720
900.481165	2506.996055
900.788711	2505.750890
901.096216	2507.623678
901.403681	2506.373472
901.711105	2506.572598
902.018489	2510.345901
902.325832	2510.151817
902.633135	2505.067813
902.940397	2505.360200
903.247619	2510.635768
903.554800	2505.123266
903.861941	2506.146620
904.169041	2507.724501
904.476101	2509.057887
904.783121	2508.594100
905.090100	2509.309944
905.397039	2509.879595
905.703938	2507.837927
906.010796	2507.774913
906.317614	2505.612258
906.624391	2507.227948
906.931129	2506.542351
907.237826	2506.454131
907.544483	2505.932371
907.851099	2506.766682
908.157675	2506.267608
908.464211	2509.259533
908.770707	2499.837616
909.077163	2504.523369
909.383578	2505.617299
909.689954	2504.954387
909.996289	2500.709736
910.302584	2503.996568
910.608839	2506.456651
910.915054	2506.005468
911.221229	2505.859274
911.527363	2506.292814
911.833458	2507.381703
912.139513	2509.859430
912.445527	2505.826507
912.751502	2505.138389
913.057436	2507.164933
913.363331	2506.945643
913.669186	2505.909686
913.975000	2508.699965
914.280775	2506.033194
914.586510	2506.237361
914.892205	2505.811383
915.197859	2504.208297
915.503475	2508.823473
915.809050	2509.864471
916.114585	2509.761127
916.420081	2506.905314
916.725536	2505.738287
917.030952	2507.986641
917.336328	2508.447907
917.641665	2508.470592
917.946961	2507.356497
918.252218	2505.299706
918.557435	2508.261384
918.862612	2505.864316
919.167750	2506.559995
919.472848	2507.404388
919.777906	2507.437156
920.082925	2506.759120
920.387904	2504.440190
920.692843	2507.830366
920.997743	2508.750376
921.302603	2506.864985
921.607423	2509.859430
921.912204	2507.323730
922.216946	2505.695437
922.521647	2509.188957
922.826310	2506.035715
923.130932	2505.884480
923.435516	2504.775426
923.740059	2509.158710
924.044564	2506.602845
924.349028	2505.014881
924.653454	2504.213338
924.957840	2503.515138
925.262186	2505.239213
925.566493	2504.646877
925.870761	2503.643687
926.174989	2506.169305
926.479178	2505.493791
926.783328	2507.059069
927.087438	2504.586383
927.391509	2506.239882
927.695541	2505.191322
927.999533	2505.609737
928.303486	2503.192504
928.607400	2506.068482
928.911275	2505.095540
929.215110	2505.942453
929.518906	2506.353308
929.822663	2504.951867
930.126381	2502.577483
930.430060	2506.822135
930.733699	2506.171826
931.037299	2507.830366
931.340861	2507.389265
931.644383	2505.536641
931.947866	2503.721825
932.251309	2506.416322
932.554714	2506.055879
932.858080	2508.707526
933.161407	2508.568895
933.464694	2506.262567
933.767943	2506.249964
934.071153	2505.670231
934.374323	2503.817607
934.677455	2505.927330
934.980548	2506.060921
935.283602	2504.178050
935.586617	2504.803153
935.889593	2505.143431
936.192530	2506.076044
936.495428	2507.578308
936.798287	2504.427587
937.101108	2504.556136
937.403890	2507.157372
937.706632	2505.967659
938.009336	2505.748369
938.312002	2507.505211
938.614628	2504.828358
938.917216	2505.846672
939.219765	2507.101919
939.522275	2505.085457
939.824747	2507.893380
940.127179	2504.092350
940.429573	2501.811228
940.731929	2502.585045
941.034246	2501.264263
941.336524	2506.451610
941.638763	2504.261229
941.940964	2504.639315
942.243126	2506.139058
942.545250	2503.250477
942.847335	2506.197032
943.149381	2509.015037
943.451389	2505.655108
943.753359	2507.326250
944.055290	2505.652587
944.357182	2508.379851
944.659036	2503.615961
944.960851	2506.300375
945.262628	2506.330622
945.564367	2506.383554
945.866067	2505.226610
946.167729	2505.196363
946.469352	2506.527227
946.770937	2505.463544
947.072484	2505.889521
947.373992	2504.707371
947.675462	2506.053359
947.976893	2507.250633
948.278286	2505.657628
948.579641	2507.396826
948.880958	2505.569408
949.182236	2504.997237
949.483476	2507.500170
949.784678	2504.760303
950.085841	2505.171157
950.386967	2504.293996
950.688054	2506.965808
950.989103	2505.662669
951.290114	2506.930520
951.591087	2505.334994
951.892021	2506.217196
952.192917	2507.994203
952.493776	2506.028153
952.794596	2503.694099
953.095378	2506.428925
953.396122	2505.937412
953.696828	2505.561846
953.997496	2505.760972
954.298126	2505.791219
954.598718	2507.474964
954.899272	2506.181908
955.199788	2504.851044
955.500266	2504.992196
955.800706	2504.006650
956.101108	2502.940446
956.401472	2502.895076
956.701798	2502.784171
957.002087	2502.358193
957.302337	2506.076044
957.602550	2504.790550
957.902724	2506.295334
958.202861	2506.852382
958.502960	2505.140910
958.803022	2505.518997
959.103045	2504.205776
959.403031	2504.513286
959.702979	2505.884480
960.002889	2506.068482
960.302762	2505.955056
960.602596	2506.499501
960.902393	2503.719305
961.202153	2506.585201
961.501875	2505.405571
961.801559	2504.951867
962.101205	2506.323061
962.400814	2505.319871
962.700385	2506.784326
962.999918	2506.925478
963.299414	2504.049500
963.598873	2505.909686
963.898293	2502.322905
964.197677	2507.263236
964.497022	2505.544202
964.796331	2507.122083
965.095601	2506.176867
965.394835	2505.589573
965.694030	2504.662000
965.993189	2506.605365
966.292309	2504.538492
966.591393	2503.152175
966.890439	2505.468585
967.189447	2506.083606
967.488419	2504.152844
967.787353	2505.372803
968.086249	2505.292145
968.385108	2506.590242
968.683930	2507.989162
968.982714	2506.754079
969.281462	2506.857423
969.580172	2505.027484
969.878844	2504.041938
970.177480	2503.908348
970.476078	2505.957577
970.774639	2506.539830
971.073162	2507.296003
971.371649	2500.593789
971.670098	2501.932216
971.968510	2503.063955
972.266885	2503.245436
972.565223	2503.341218
972.863524	2503.192504
973.161788	2507.059069
973.460014	2505.012361
973.758204	2504.311640
974.056356	2505.334994
974.354471	2503.885663
974.652550	2503.961280
974.950591	2504.659480
975.248595	2505.307268
975.546563	2504.929182
975.844493	2506.381034
976.142386	2505.632423
976.440243	2505.599655
976.738062	2506.839779
977.035845	2503.893224
977.333590	2504.341887
977.631299	2505.196363
977.928971	2503.270642
978.226606	2504.147803
978.524204	2504.326764
978.821765	2500.896258
979.119290	2506.413801
979.416777	2505.274501
979.714228	2505.329953
980.011642	2505.773575
980.309020	2505.327433
980.606360	2503.381547
980.903664	2504.140241
981.200931	2498.897441
981.498162	2505.660149
981.795356	2503.840292
982.092513	2506.502022
982.389633	2502.809376
982.686717	2504.644356
982.983764	2502.418687
983.280775	2505.055210
983.577749	2503.618482
983.874686	2505.672752
984.171587	2503.462206
984.468451	2506.645694
984.765279	2502.481701
985.062070	2507.008658
985.358824	2505.488750
985.655543	2503.000940
985.952224	2504.152844
986.248869	2502.572442
986.545478	2502.519510
986.842050	2501.171001
987.138586	2503.399191
987.435086	2501.027328
987.731549	2501.065137
988.027975	2503.805004
988.324366	2504.523369
988.620719	2503.615961
988.917037	2503.812566
989.213318	2504.432628
989.509563	2505.423215
989.805772	2503.096722
990.101944	2503.252998
990.398080	2502.738800
990.694180	2503.351300
990.990244	2503.747031
991.286271	2505.750890
991.582262	2503.666373
991.878217	2502.975734
992.174136	2503.941115
992.470019	2503.656290
992.765865	2505.067813
993.061676	2505.219048
993.357450	2507.684172
993.653188	2503.058913
993.948890	2503.331136
994.244556	2502.937926
994.540186	2504.251146
994.835780	2508.384893
995.131337	2503.593276
995.426859	2505.501352
995.722345	2502.832062
996.017795	2506.121414
996.313208	2505.362721
996.608586	2504.344408
996.903928	2501.654952
997.199234	2502.753924
997.494504	2505.196363
997.789738	2503.918430
998.084936	2504.306599
998.380099	2506.577639
998.675225	2506.028153
998.970316	2504.001609
999.265371	2505.150992
999.560390	2504.901455
999.855373	2508.604183
1000.150320	2503.237874
1000.445232	2504.493122
1000.740108	2504.956908
1001.034948	2503.615961
1001.329752	2501.841475
1001.624521	2502.932885
1001.919254	2500.361896
1002.213951	2500.117400
1002.508613	2499.189828
1002.803239	2504.442710
1003.097829	2496.646566
1003.392384	2504.052021
1003.686903	2503.605879
1003.981386	2504.722494
1004.275834	2503.734428
1004.570246	2504.218379
1004.864623	2503.512617
1005.158964	2503.530261
1005.453270	2506.141579
1005.747540	2506.774244
1006.041775	2503.989006
1006.335974	2504.939264
1006.630138	2501.337359
1006.924266	2505.755931
1007.218359	2502.516989
1007.512416	2501.707884
1007.806438	2503.855416
1008.100425	2503.202586
1008.394376	2501.291989
1008.688292	2503.255518
1008.982172	2506.081085
1009.276017	2505.234171
1009.569827	2501.770899
1009.863602	2506.071003
1010.157341	2502.690909
1010.451045	2502.887514
1010.744714	2502.524551
1011.038347	2502.295179
1011.331945	2502.151506
1011.625508	2504.881291
1011.919036	2506.212155
1012.212528	2503.976403
1012.505986	2506.260046
1012.799408	2505.108142
1013.092795	2502.844664
1013.386147	2506.595283
1013.679464	2506.020591
1013.972745	2504.019253
1014.265992	2506.028153
1014.559204	2507.076713
1014.852380	2502.396002
1015.145521	2504.561177
1015.438628	2503.895745
1015.731699	2505.357680
1016.024736	2504.059583
1016.317737	2503.956239
1016.610703	2504.634274
1016.903635	2500.747544
1017.196531	2499.618326
1017.489393	2500.253511
1017.782219	2503.043790
1018.075011	2504.230982
1018.367768	2504.228461
1018.660490	2503.996568
1018.953177	2503.996568
1019.245829	2503.996568
