Dividing Wavelength (nm)	Counts (n)	Blue Motor Position (mm): 35.000000	Red Motor Position (mm): 0.000000	
326.493990	2230.123283
326.888308	2230.123283
327.282561	2230.123283
327.676750	2189.552076
328.070874	2185.493948
328.464933	2183.227949
328.858929	2188.763136
329.252859	2194.830164
329.646726	2202.396936
330.040528	2216.073587
330.434265	2229.034393
330.827938	2248.304204
331.221547	2261.348189
331.615091	2279.660181
332.008571	2301.198511
332.401986	2317.738536
332.795338	2333.010712
333.188625	2353.114833
333.581847	2374.726260
333.975006	2392.423231
334.368100	2414.725295
334.761129	2430.667944
335.154095	2448.876592
335.546996	2474.588997
335.939833	2513.249606
336.332606	2526.031452
336.725315	2539.655170
337.117960	2553.667057
337.510540	2564.250959
337.903056	2573.927454
338.295508	2584.229052
338.687896	2594.084508
339.080220	2601.275714
339.472480	2610.937085
339.864676	2615.017899
340.256807	2617.717437
340.648875	2623.756739
341.040879	2624.318828
341.432818	2629.067595
341.824694	2633.042545
342.216506	2631.469705
342.608253	2633.793677
342.999937	2630.960548
343.391557	2631.426855
343.783113	2632.200672
344.174605	2632.293933
344.566033	2630.607667
344.957397	2629.662451
345.348697	2629.370064
345.739934	2625.863942
346.131106	2626.186576
346.522215	2623.671040
346.913260	2622.481327
347.304241	2621.067284
347.695159	2620.316152
348.086012	2619.086110
348.476802	2615.166613
348.867528	2610.402723
349.258191	2607.955243
349.648789	2606.458020
350.039324	2604.645725
350.429796	2609.790223
350.820203	2604.953236
351.210548	2604.252515
351.600828	2602.979624
351.991045	2602.326794
352.381198	2601.658842
352.771288	2602.780498
353.161314	2600.557349
353.551276	2599.725559
353.941175	2598.286310
354.331010	2598.170363
354.720782	2599.619695
355.110490	2597.991402
355.500135	2597.530137
355.889717	2598.979468
356.279235	2602.271342
356.668689	2600.960642
357.058080	2600.068357
357.447408	2601.116917
357.836672	2599.385281
358.225873	2599.811259
358.615010	2602.354521
359.004084	2600.680858
359.393095	2601.807556
359.782043	2601.694130
360.170927	2601.497525
360.559748	2603.554315
360.948505	2605.109511
361.337199	2602.684716
361.725830	2606.190839
362.114398	2600.446444
362.502903	2605.296034
362.891344	2608.265274
363.279722	2606.533637
363.668037	2609.510439
364.056289	2606.619337
364.444478	2607.985490
364.832603	2609.810387
365.220665	2608.693772
365.608665	2609.820470
365.996601	2610.818618
366.384474	2612.630913
366.772284	2613.389607
367.160031	2610.896756
367.547715	2610.667383
367.935336	2612.290635
368.322893	2610.591766
368.710388	2609.386930
369.097820	2610.397682
369.485189	2612.509925
369.872495	2614.244082
370.259738	2612.930862
370.646918	2616.197529
371.034035	2615.143928
371.421090	2617.626696
371.808081	2614.022271
372.195010	2618.642489
372.581875	2615.857251
372.968678	2617.024278
373.355418	2614.657457
373.742096	2616.946141
374.128710	2617.215842
374.515262	2618.370267
374.901751	2617.054525
375.288177	2617.891357
375.674540	2620.490072
376.060841	2618.816409
376.447079	2618.178703
376.833254	2619.305401
377.219367	2619.580143
377.605417	2622.965278
377.991404	2621.059722
378.377329	2621.992336
378.763191	2621.321862
379.148991	2623.015690
379.534727	2623.464352
379.920402	2621.745319
380.306013	2625.233797
380.691563	2628.129940
381.077049	2625.453088
381.462474	2626.005094
381.847835	2625.692542
382.233134	2624.344034
382.618371	2625.569034
383.003545	2627.829992
383.388657	2627.588016
383.773706	2624.817902
384.158693	2630.642956
384.543618	2628.107255
384.928480	2629.566669
385.313280	2628.321504
385.698017	2630.768984
386.082692	2630.910137
386.467305	2634.265025
386.851856	2636.258801
387.236344	2634.043214
387.620770	2632.329222
388.005133	2630.337966
388.389435	2630.564818
388.773674	2631.472225
389.157851	2635.159829
389.541965	2634.938019
389.926018	2636.125210
390.310008	2636.561270
390.693936	2637.279635
391.077802	2639.429687
391.461606	2638.741569
391.845348	2641.481436
392.229027	2643.722229
392.612645	2641.362969
392.996200	2642.744245
393.379694	2642.774492
393.763125	2644.652322
394.146494	2642.396406
394.529801	2645.529483
394.913047	2643.676859
395.296230	2644.765748
395.679351	2647.475368
396.062410	2646.343629
396.445408	2648.639875
396.828343	2650.255565
397.211217	2649.690955
397.594028	2649.995945
397.976778	2651.064670
398.359466	2651.294042
398.742092	2652.413178
399.124656	2651.573826
399.507158	2653.817140
399.889598	2653.983498
400.271977	2655.208498
400.654294	2654.038951
401.036549	2658.008859
401.418742	2659.649755
401.800874	2660.030362
402.182944	2660.889879
402.564952	2663.957421
402.946898	2665.552946
403.328783	2671.874553
403.710606	2675.451252
404.092367	2682.846624
404.474067	2689.944569
404.855705	2699.474870
405.237282	2706.376210
405.618797	2726.084601
406.000250	2741.455079
406.381642	2765.640014
406.762972	2788.236987
407.144240	2815.048363
407.525447	2847.848631
407.906593	2880.235524
408.287677	2931.534305
408.668700	2971.170377
409.049661	3031.054244
409.430560	3087.421906
409.811399	3124.769294
410.192176	3216.939230
410.572891	3290.444294
410.953545	3391.685787
411.334138	3415.031371
411.714669	3522.773431
412.095139	3551.366856
412.475547	3680.493491
412.855894	3778.196094
413.236180	3914.851692
413.616405	3911.040580
413.996568	4060.301583
414.376670	4151.362466
414.756711	4205.708625
415.136691	4322.693641
415.516609	4492.043643
415.896466	4586.585442
416.276262	4764.155045
416.655997	4844.155636
417.035670	5033.516498
417.415283	5298.487106
417.794834	5420.203245
418.174324	5456.988545
418.553753	5514.450137
418.933121	5800.195340
419.312428	5951.412311
419.691674	5921.016674
420.070859	6316.442261
420.449983	6226.160237
420.829045	6550.797942
421.208047	6505.097361
421.586988	6805.524925
421.965867	6912.430154
422.344686	7086.644869
422.723444	7203.592077
423.102141	6809.804864
423.480777	7467.864485
423.859352	7174.030750
424.237866	7762.119155
424.616319	7724.713794
424.994712	8132.507852
425.373044	7854.568876
425.751314	8308.486971
426.129524	8258.065350
426.507673	8445.288763
426.885762	8635.723390
427.263789	8613.996017
427.641756	8595.512627
428.019662	8739.694668
428.397508	8996.813679
428.775292	8766.773226
429.153016	9158.516250
429.530679	9044.530720
429.908282	9122.472000
430.285824	8877.310606
430.663305	9559.025841
431.040726	9056.505981
431.418086	9077.835103
431.795385	9403.801152
432.172624	9499.212550
432.549802	9447.848234
432.926920	9545.099653
433.303977	9436.593858
433.680974	9653.950768
434.057910	9743.781609
434.434786	9816.933792
434.811601	9685.021919
435.188355	10247.148382
435.565050	9987.639864
435.941683	9922.934134
436.318257	10421.050546
436.694770	10547.563342
437.071222	10617.065731
437.447614	10472.712290
437.823946	10363.031906
438.200218	10520.983859
438.576429	10334.511578
438.952580	10575.897148
439.328670	10634.613987
439.704700	10416.105174
440.080670	10415.943857
440.456580	10980.830351
440.832429	10728.117309
441.208218	10335.605508
441.583947	10671.369040
441.959616	10804.659668
442.335224	10605.962589
442.710773	10759.828687
443.086261	10957.424274
443.461689	10254.460576
443.837057	10886.913655
444.212365	11174.040134
444.587612	10819.044601
444.962800	11059.502598
445.337927	10835.229225
445.712995	10411.137117
446.088002	11496.391675
446.462949	11144.062912
446.837837	11125.229162
447.212664	11124.851075
447.587431	11626.163578
447.962139	12331.405878
448.336786	14587.533953
448.711374	15154.560417
449.085901	13009.231862
449.460369	12614.007921
449.834776	12071.385683
450.209124	12933.057507
450.583412	13327.636180
450.957640	14293.619560
451.331808	13455.789873
451.705917	12431.039243
452.079965	11745.094480
452.453954	12650.016883
452.827883	12281.989967
453.201752	12562.247874
453.575562	12075.106055
453.949311	12499.926610
454.323001	12452.963221
454.696632	12680.253724
455.070202	12961.908031
455.443713	13219.400087
455.817164	13665.151513
456.190556	13667.495649
456.563888	14036.740004
456.937160	14210.929513
457.310373	13537.038149
457.683526	13613.424233
458.056619	13173.926358
458.429653	13311.849807
458.802628	12758.169798
459.175542	13120.452319
459.548398	14068.327874
459.921194	14395.839036
460.293930	14459.980157
460.666607	15352.077865
461.039224	16389.393572
461.411782	17085.279490
461.784280	16964.735419
462.156719	17014.340373
462.529099	16705.685646
462.901419	15628.335617
463.273680	15419.271405
463.645882	15285.282577
464.018024	15029.300346
464.390106	15237.298354
464.762130	15970.357741
465.134094	16723.929582
465.505999	18706.570019
465.877845	21967.296712
466.249631	24809.975639
466.621358	24497.663556
466.993026	23054.534965
467.364634	22500.058453
467.736184	21029.790811
468.107674	20222.588654
468.479105	20365.114676
468.850477	19828.693057
469.221790	19409.687473
469.593043	18733.736798
469.964238	18166.571702
470.335373	17825.232654
470.706449	18272.085572
471.077467	17812.831416
471.448425	19650.490789
471.819324	23666.006762
472.190164	25714.295625
472.560945	22162.593533
472.931667	19786.440626
473.302330	19143.131422
473.672934	18676.612963
474.043479	18996.769082
474.413965	18813.923911
474.784393	18432.341333
475.154761	19125.111818
475.525070	19127.246746
475.895321	18780.095248
476.265513	19365.695844
476.635645	19951.510688
477.005719	19735.832482
477.375734	19915.950389
477.745691	20399.250849
478.115588	20923.160324
478.485427	21444.009819
478.855207	22505.563393
479.224928	24262.284521
479.594591	26481.002193
479.964194	26531.015480
480.333739	26733.581645
480.703226	26292.853728
481.072653	25972.165768
481.442022	26543.555350
481.811333	27457.655174
482.180584	27369.306433
482.549777	26423.006238
482.918912	26077.014206
483.287988	26203.897528
483.657005	25866.997216
484.025964	25619.955472
484.394864	25534.094540
484.763706	25212.720982
485.132489	24651.353213
485.501213	24816.700539
485.869879	24742.845114
486.238487	24557.028183
486.607036	24694.384502
486.975527	24399.318206
487.343959	24729.445727
487.712333	24658.952752
488.080648	24327.448996
488.448905	24813.020496
488.817104	24557.696136
489.185244	25228.542643
489.553326	25204.226638
489.921350	26194.836054
490.289315	28478.042686
490.657222	30261.623082
491.025070	30752.273544
491.392861	30556.762475
491.760593	29691.771051
492.128267	28782.334294
492.495883	27747.947498
492.863440	26871.558025
493.230939	26000.421435
493.598380	25845.358063
493.965763	25450.597908
494.333088	24991.439534
494.700354	24930.363434
495.067563	24801.975328
495.434713	24549.320259
495.801805	24701.212745
496.168839	24511.110834
496.535815	24351.351627
496.902733	24567.095368
497.269593	24238.812909
497.636395	24407.590739
498.003139	24382.644590
498.369825	24149.735720
498.736453	24340.581202
499.103023	24209.332241
499.469535	24231.838472
499.835989	24433.121663
500.202385	24469.551561
500.568723	23979.664833
500.935003	24204.278484
501.301226	23829.667821
501.667390	24673.758621
502.033497	24906.198663
502.399546	24625.487053
502.765537	24194.589387
503.131470	24587.867442
503.497345	24724.681837
503.863163	23941.190747
504.228923	24531.479616
504.594625	24740.579116
504.960269	24272.462611
505.325856	24753.189562
505.691385	24163.787937
506.056856	24772.275370
506.422270	24749.393573
506.787625	24316.441637
507.152924	24725.586724
507.518164	24751.634366
507.883347	24570.785492
508.248472	24238.553289
508.613540	25032.469485
508.978550	24816.491331
509.343503	24814.938655
509.708398	25058.418824
510.073236	25223.488887
510.438016	25438.320178
510.802738	25105.614107
511.167403	25366.428283
511.532010	25069.471554
511.896561	25836.553688
512.261053	25806.218545
512.625488	25629.561391
512.989866	25535.916917
513.354186	25379.552927
513.718449	25480.706200
514.082655	25864.282555
514.446803	25597.456802
514.810894	26064.169346
515.174927	25558.960031
515.538904	25585.829381
515.902822	26078.793733
516.266684	25835.331208
516.630488	25741.318730
516.994235	25712.087600
517.357925	26003.622568
517.721558	26183.982449
518.085133	26294.028317
518.448651	26195.199017
518.812112	25940.789626
519.175516	26142.529041
519.538863	26301.456458
519.902152	26078.168630
520.265385	26358.182041
520.628560	26155.913305
520.991678	26150.771328
521.354739	26231.923823
521.717743	26302.426880
522.080690	26095.069098
522.443580	26416.961895
522.806413	26412.545844
523.169189	26516.363367
523.531908	26556.397690
523.894569	26159.006053
524.257174	26249.242707
524.619722	26417.486175
524.982213	26115.901667
525.344647	26166.237588
525.707025	26314.414743
526.069345	26286.451463
526.431608	26250.167758
526.793815	26427.656703
527.155964	25896.727421
527.518057	26072.056231
527.880093	25978.419319
528.242072	26215.963529
528.603995	25927.148264
528.965860	25726.162501
529.327669	25766.307730
529.689421	25755.272644
530.051117	25603.120539
530.412755	25779.757528
530.774337	25573.274387
531.135862	25441.574243
531.497331	25651.883620
531.858743	25206.626227
532.220098	25679.063001
532.581396	25366.791246
532.942638	25289.349041
533.303824	25396.070268
533.664953	25402.475054
534.026025	25072.826442
534.387040	25308.064325
534.747999	25358.453178
535.108902	25534.197883
535.469748	25023.221488
535.830537	25194.693816
536.191270	25336.894683
536.551947	25191.396901
536.912567	24843.337996
537.273131	25205.476844
537.633638	24887.271651
537.994089	25109.168120
538.354483	24636.723785
538.714821	25145.040971
539.075103	25182.930283
539.435328	24978.755991
539.795497	24530.229410
540.155609	24924.215747
540.515665	25221.033845
540.875665	24446.589106
541.235609	24767.740852
541.595496	24716.542894
541.955328	25060.387395
542.315102	25000.138045
542.674821	24527.424007
543.034483	24407.164762
543.394090	24569.563012
543.753640	24374.077149
544.113134	25012.967781
544.472571	24602.708599
544.831953	24907.728654
545.191278	24519.542163
545.550548	24436.794144
545.909761	24628.496622
546.268918	24880.942483
546.628019	24841.016544
546.987064	24541.289701
547.346053	24291.082112
547.704986	24412.687346
548.063863	24559.485746
548.422684	24577.344033
548.781449	24102.842907
549.140158	24513.903633
549.498811	24085.672737
549.857408	23840.022351
550.215949	24250.279013
550.574434	23941.447846
550.932864	24140.366736
551.291237	24307.349916
551.649555	24175.185985
552.007817	24229.385951
552.366022	24083.068981
552.724173	24131.837103
553.082267	24079.799793
553.440305	24562.180243
553.798288	23810.919770
554.156215	24321.772657
554.514086	24423.878707
554.871902	23789.109218
555.229661	24085.156019
555.587365	23943.895326
555.945014	23807.335510
556.302606	24056.658376
556.660143	24009.296736
557.017625	24254.876545
557.375050	23787.100318
557.732421	24172.418392
558.089735	23988.791842
558.446994	24036.047619
558.804197	24087.588376
559.161345	24023.054045
559.518437	23774.202526
559.875474	23964.261588
560.232455	24159.356762
560.589381	23982.240863
560.946251	23961.879643
561.303065	24275.691470
561.659825	24369.439287
562.016528	23965.511794
562.373177	23704.253996
562.729770	24059.957811
563.086307	23933.568523
563.442789	24095.223203
563.799216	23924.885135
564.155587	23924.615433
564.511904	23916.980606
564.868164	23844.529143
565.224370	23822.418642
565.580520	23737.281115
565.936615	23878.536767
566.292654	23566.386000
566.648638	23841.443957
567.004567	23672.015817
567.360441	23617.924236
567.716260	23352.167208
568.072023	23672.945910
568.427732	23438.663326
568.783385	23223.786664
569.138982	23464.781544
569.494525	23490.181398
569.850013	23243.048913
570.205445	23348.056147
570.560823	23142.737513
570.916145	22900.013517
571.271412	23085.759872
571.626625	22829.984328
571.981782	22953.477474
572.336884	22761.432198
572.691931	22900.484865
573.046923	22625.880612
573.401860	22514.980269
573.756743	22525.463348
574.111570	22425.308224
574.466342	22346.197397
574.821059	22437.379267
575.175722	22148.498466
575.530330	22126.050208
575.884882	22152.042398
576.239380	22065.203481
576.593823	21954.277932
576.948211	21938.340324
577.302544	21781.341149
577.656823	21635.099797
578.011047	21743.870253
578.365216	21614.267229
578.719330	21482.241930
579.073389	21380.188812
579.427394	21544.464892
579.781344	21298.943056
580.135239	21186.053977
580.489080	21147.731125
580.842866	20920.352402
581.196597	21118.915890
581.550273	21086.859193
581.903895	20976.266360
582.257463	21294.968106
582.610975	20818.574026
582.964434	21136.665793
583.317837	20830.516520
583.671186	20926.371539
584.024481	20891.020448
584.377721	20668.801345
584.730906	20729.166642
585.084037	20742.578632
585.437113	20650.645630
585.790135	20866.754854
586.143103	20321.344858
586.496016	20333.327680
586.848874	20573.843651
587.201679	20504.240440
587.554428	20193.780980
587.907124	20522.108810
588.259765	20286.500402
588.612352	20358.684684
588.964884	19930.015208
589.317362	20107.438618
589.669786	20153.844959
590.022155	20190.385763
590.374470	20394.542412
590.726731	20185.374856
591.078937	19953.839701
591.431090	20043.287414
591.783188	19792.563107
592.135232	19769.640981
592.487222	19869.375168
592.839157	19884.357478
593.191038	19768.458830
593.542866	19660.434465
593.894639	19367.684579
594.246358	19581.779862
594.598022	19486.479369
594.949633	19242.923583
595.301190	19208.442091
595.652692	19386.651920
596.004141	19615.732033
596.355535	18939.824208
596.706876	18960.162743
597.058162	18849.650568
597.409395	19084.026414
597.760573	19141.225866
598.111698	18927.183515
598.462768	18859.412763
598.813785	18833.221448
599.164748	18639.169793
599.515657	18687.668213
599.866511	18471.518660
600.217312	18842.902984
600.568060	18356.398870
600.918753	18662.994286
601.269392	18568.283608
601.619978	18350.339403
601.970510	18554.334735
602.320988	18502.622579
602.671412	18711.419609
603.021783	18634.952867
603.372100	18343.112909
603.722363	18491.209407
604.072572	18419.206606
604.422728	18576.140246
604.772830	18324.833686
605.122878	18292.865208
605.472872	18271.667157
605.822813	18261.070651
606.172701	18227.914982
606.522534	18426.642308
606.872314	18447.605946
607.222041	18283.511348
607.571714	18499.033277
607.921333	18334.343822
608.270899	18401.925531
608.620411	18574.814422
608.969870	18355.514148
609.319276	18347.067695
609.668627	18386.749137
610.017926	18511.948713
610.367171	18630.700654
610.716362	18677.404424
611.065500	18488.610692
611.414585	18640.571233
611.763616	18611.874465
612.112594	18547.458601
612.461518	18522.290641
612.810389	18707.021203
613.159207	18576.074711
613.507971	18482.490731
613.856682	18759.832330
614.205340	18680.711421
614.553945	18833.637343
614.902496	18570.151355
615.250994	18804.128949
615.599439	18746.732892
615.947830	18730.954081
616.296169	18793.660993
616.644454	18753.230939
616.992686	18726.666579
617.340864	18940.401420
617.688990	18694.214151
618.037063	18862.200521
618.385082	18717.736175
618.733048	18996.532148
619.080961	18871.332571
619.428821	18907.008817
619.776628	18790.308626
620.124382	18719.205672
620.472083	18765.206200
620.819731	18773.128374
621.167326	18481.369074
621.514868	18516.107665
621.862357	18285.910937
622.209793	18294.927040
622.557176	18123.797511
622.904506	17949.895348
623.251783	17865.934930
623.599007	17620.934853
623.946179	17568.998366
624.293297	17498.449938
624.640363	17252.781909
624.987376	17269.659692
625.334336	17070.723158
625.681243	16908.269455
626.028097	16926.568843
626.374899	16858.349429
626.721647	16710.832664
627.068343	16543.420986
627.414987	16481.830689
627.761577	16465.769573
628.108115	16489.362173
628.454600	16216.842437
628.801032	16318.255329
629.147412	16254.701503
629.493739	16262.384221
629.840014	16074.928915
630.186236	16165.672205
630.532405	15937.484376
630.878521	16136.042823
631.224585	16031.012904
631.570597	15855.071593
631.916556	15883.838938
632.262462	15857.572006
632.608316	15774.556805
632.954117	15717.374997
633.299866	15708.805035
633.645562	15632.557583
633.991206	15383.141455
634.336797	15254.990283
634.682336	15227.470625
635.027823	15107.642398
635.373257	14981.318644
635.718639	14895.629111
636.063968	14837.653321
636.409245	14587.637296
636.754470	14612.434732
637.099642	14460.867400
637.444762	14229.075147
637.789829	14280.986428
638.134845	14116.760759
638.479808	14140.239933
638.824719	14083.829422
639.169577	13939.516311
639.514383	13976.755314
639.859137	13808.542093
640.203839	13899.834868
640.548489	13733.096184
640.893086	13723.036562
641.237632	13591.288527
641.582125	13744.801743
641.926566	13566.072675
642.270955	13587.774842
642.615292	13543.589129
642.959576	13555.438361
643.303809	13584.747629
643.647990	13517.692722
643.992118	13575.008120
644.336195	13344.017410
644.680219	13557.613619
645.024192	13485.630983
645.368112	13718.595305
645.711981	13772.172688
646.055797	13958.803765
646.399562	13933.650928
646.743274	14198.140106
647.086935	14482.554444
647.430544	14431.225416
647.774101	14467.993071
648.117606	14610.927427
648.461059	14588.496813
648.804460	14567.152568
649.147810	14292.664261
649.491108	14203.045149
649.834354	14216.563003
650.177548	13901.420311
650.520690	13715.414337
650.863781	13641.747956
651.206820	13677.789685
651.549807	13512.545703
651.892742	13305.752532
652.235626	13240.852717
652.578458	13251.280344
652.921238	12944.090072
653.263967	13138.560144
653.606644	12968.297693
653.949269	12947.961678
654.291843	12744.651944
654.634365	12908.237386
654.976836	12758.870518
655.319255	12761.247422
655.661622	12719.577245
656.003938	12640.257209
656.346203	12565.675859
656.688416	12644.600163
657.030577	12602.325047
657.372687	12511.445646
657.714746	12492.664828
658.056753	12686.230012
658.398708	12494.361176
658.740612	12498.784788
659.082465	12603.129111
659.424266	12570.366653
659.766016	12593.477822
660.107715	12500.420643
660.449362	12581.121954
660.790958	12532.583204
661.132503	12479.333496
661.473996	12542.345399
661.815438	12565.108729
662.156829	12581.837798
662.498168	12555.838047
662.839456	12553.657748
663.180693	12573.807240
663.521879	12671.217456
663.863013	12642.296356
664.204097	12618.834826
664.545129	12748.823499
664.886110	12716.151781
665.227040	12804.772745
665.567918	12817.930156
665.908746	12835.362466
666.249522	12821.337976
666.590248	12875.432077
666.930922	12978.727840
667.271545	12968.650574
667.612118	13051.864900
667.952639	12946.310701
668.293109	12968.108650
668.633528	12912.749219
668.973896	12896.778843
669.314213	12970.414978
669.654480	12703.700131
669.994695	12781.303653
670.334859	12809.881954
670.674973	12755.313984
671.015035	12783.627625
671.355047	12729.205848
671.695008	12697.859954
672.034918	12713.666492
672.374777	12753.098397
672.714585	12670.763752
673.054342	12699.999924
673.394049	12647.874393
673.733705	12749.199065
674.073310	12653.475115
674.412864	12670.436077
674.752368	12531.517000
675.091820	12558.101525
675.431223	12539.424050
675.770574	12414.458888
676.109875	12335.552227
676.449125	12290.431379
676.788324	12237.423647
677.127473	12065.429560
677.466571	12058.094681
677.805619	11951.000409
678.144616	11870.674663
678.483562	11844.095180
678.822458	11711.843029
679.161303	11694.745956
679.500098	11677.429592
679.838842	11637.017183
680.177535	11662.180102
680.516179	11731.833725
680.854771	11672.126298
681.193314	11883.703525
681.531805	12046.497507
681.870247	12474.418371
682.208638	12883.742420
682.546978	13190.904965
682.885268	13235.022623
683.223508	12923.358327
683.561697	12772.189247
683.899836	12673.148218
684.237925	12475.913073
684.575963	12385.769681
684.913951	12306.555510
685.251889	12262.364755
685.589776	12362.179602
685.927614	12278.488886
686.265401	12248.768763
686.603137	12298.638378
686.940824	12451.256790
687.278460	12581.681522
687.616046	12627.878656
687.953582	12788.162143
688.291068	12717.356616
688.628504	12951.550980
688.965889	12957.484418
689.303224	12919.113676
689.640510	12817.511740
689.977745	12499.848472
690.314930	12275.451591
690.652065	12185.509844
690.989150	11887.285265
691.326185	11663.553816
691.663170	11456.730398
692.000105	11212.836854
692.336990	11102.606984
692.673825	10849.455361
693.010610	10731.948586
693.347345	10521.006544
693.684030	10323.547068
694.020665	10263.287636
694.357251	10068.396628
694.693786	10000.525053
695.030272	9848.607362
695.366707	9727.581861
695.703093	9658.732302
696.039429	9655.206015
696.375716	9571.971524
696.711952	9441.118293
697.048139	9492.613680
697.384276	9442.781874
697.720363	9462.903640
698.056400	9394.802692
698.392388	9348.172019
698.728326	9303.981265
699.064214	9243.096729
699.400053	9280.625599
699.735842	9097.092311
700.071581	9061.426148
700.407270	8986.650712
700.742910	8908.618692
701.078501	8819.231473
701.414042	8686.830608
701.749533	8628.494376
702.084974	8486.056574
702.420366	8604.387578
702.755709	8482.913414
703.091002	8346.424174
703.426246	8377.502888
703.761440	8326.867018
704.096584	8286.036192
704.431679	8214.998773
704.766725	8208.162968
705.101721	8156.292016
705.436668	8201.143161
705.771565	8090.106707
706.106413	8177.543000
706.441212	8213.993062
706.775961	8177.497629
707.110661	8210.612969
707.445311	8351.077159
707.779913	8251.511850
708.114465	8380.525059
708.448967	8420.231708
708.783421	8571.325171
709.117825	8750.170186
709.452180	8783.656050
709.786485	8869.607723
710.120742	9159.370726
710.454949	9155.408379
710.789107	9256.231456
711.123216	9477.926278
711.457275	9644.503645
711.791286	9797.409403
712.125247	9798.641965
712.459159	9781.093709
712.793023	10026.111430
713.126837	9601.066543
713.460602	9758.274926
713.794318	9572.813397
714.127985	9605.270866
714.461602	9282.311865
714.795171	9230.236746
715.128691	8976.434814
715.462162	8730.088749
715.795584	8680.766100
716.128957	8522.975464
716.462281	8359.107717
716.795556	8413.390862
717.128782	8203.154582
717.461960	7936.994262
717.795088	8007.830035
718.128167	7912.169099
718.461198	7750.244717
718.794180	7692.178187
719.127113	7683.424223
719.459997	7524.348093
719.792833	7296.092208
720.125619	7363.038732
720.458357	7215.547173
720.791046	7207.098199
721.123686	7203.599638
721.456278	7046.464352
721.788821	7061.529841
722.121315	6960.159798
722.453761	7025.193204
722.786158	6965.039635
723.118506	6970.484082
723.450805	6946.052129
723.783056	7014.339599
724.115259	6920.629591
724.447412	6920.289313
724.779518	6967.250181
725.111574	6968.029040
725.443582	7048.132974
725.775542	7032.812908
726.107453	7225.692495
726.439315	7131.158257
726.771129	7191.732762
727.102895	7367.059052
727.434612	7475.627862
727.766281	7505.552151
728.097901	7585.835046
728.429473	7576.433294
728.760996	7558.113741
729.092471	7535.521810
729.423897	7478.357646
729.755276	7489.327197
730.086606	7413.009169
730.417887	7520.297526
730.749120	7723.007363
731.080305	7913.958709
731.411442	8028.166049
731.742530	8019.404524
732.073570	8129.682285
732.404562	8214.562713
732.735506	8070.655415
733.066401	8199.676186
733.397249	8130.196483
733.728048	7891.162611
734.058798	7553.052423
734.389501	7331.317271
734.720156	7150.647358
735.050762	6922.635970
735.381320	6833.021898
735.711831	6776.891171
736.042293	6671.707496
736.372707	6684.784249
736.703073	6547.657303
737.033391	6584.669454
737.363661	6600.763338
737.693883	6636.585777
738.024056	6716.785494
738.354182	6755.972903
738.684260	6790.865249
739.014290	6906.448825
739.344272	7021.195569
739.674207	7046.721451
740.004093	7118.328521
740.333931	7129.595500
740.663722	7136.028012
740.993464	7218.632359
741.323159	7200.532096
741.652806	6953.704601
741.982405	6974.219577
742.311956	7027.565067
742.641460	6853.027718
742.970915	6661.098388
743.300323	6653.909702
743.629683	6608.340192
743.958996	6465.952802
744.288260	6381.720162
744.617477	6332.662173
744.946647	6328.349466
745.275768	6163.745711
745.604842	6121.178208
745.933869	6105.890909
746.262847	6060.243261
746.591778	6053.707405
746.920662	6009.677967
747.249498	6005.360219
747.578286	6049.833278
747.907027	6124.979238
748.235720	6184.482497
748.564365	6154.893445
748.892963	6192.906265
749.221514	6336.526218
749.550017	6168.219735
749.878473	6045.170211
750.206881	6101.575681
750.535242	6042.674840
750.863555	5971.750846
751.191821	5992.054093
751.520039	5993.606769
751.848210	5896.141100
752.176334	5927.358445
752.504411	5967.758252
752.832440	5896.463734
753.160421	5822.666283
753.488356	5874.781731
753.816243	5902.515639
754.144082	5754.681282
754.471875	5728.696655
754.799620	5774.664416
755.127318	5783.055417
755.454969	5739.010855
755.782572	5699.828487
756.110129	5747.280868
756.437638	5726.828907
756.765100	5671.179610
757.092515	5673.516185
757.419882	5725.150203
757.747203	5700.753539
758.074477	5767.563951
758.401703	5749.488894
758.728882	5698.094330
759.056014	5763.896511
759.383099	5890.187498
759.710138	5900.708386
760.037129	5885.683227
760.364073	5887.747579
760.690970	5974.662113
761.017820	5951.835768
761.344623	5909.109468
761.671379	6012.364902
761.998088	6137.572040
762.324751	6383.923146
762.651366	7002.324009
762.977935	8330.778953
763.304456	9975.871291
763.630931	10857.952226
763.957359	10432.783831
764.283740	9485.205704
764.610074	8636.691292
764.936362	7642.971484
765.262602	7048.228756
765.588796	6506.334965
765.914943	6179.595099
766.241044	6012.173338
766.567097	5804.278674
766.893104	5548.722421
767.219064	5370.192478
767.544978	5311.016894
767.870845	5231.548145
768.196665	5127.924707
768.522438	5054.475095
768.848165	5020.258263
769.173846	4952.116987
769.499479	4908.508486
769.825066	4858.898491
770.150607	4794.170075
770.476101	4769.576806
770.801548	4768.233339
771.126949	4690.269374
771.452303	4636.530674
771.777611	4601.270323
772.102872	4618.566522
772.428087	4575.257969
772.753256	4541.701529
773.078378	4489.318899
773.403453	4419.239299
773.728482	4408.166405
774.053465	4356.814691
774.378401	4351.604658
774.703291	4349.920913
775.028135	4274.056589
775.352932	4226.624372
775.677683	4213.640881
776.002388	4234.256679
776.327046	4243.913009
776.651658	4167.632790
776.976224	4105.578707
777.300743	4114.173874
777.625216	4134.146926
777.949643	4126.174341
778.274024	4083.533741
778.598359	4041.049417
778.922647	4062.524732
779.246889	4057.032395
779.571086	4048.366652
779.895236	4032.870145
780.219339	4019.037219
780.543397	4010.908358
780.867409	4067.954055
781.191374	4078.411929
781.515294	4017.998741
781.839167	4010.636136
782.162995	4031.065412
782.486776	4017.224924
782.810511	4027.324876
783.134201	4021.842621
783.457844	3973.898727
783.781441	3922.277312
784.104993	3930.156635
784.428498	3947.762865
784.751958	3946.681537
785.075372	3922.816715
785.398739	3885.696179
785.722061	3896.970719
786.045337	3946.159778
786.368568	3973.220692
786.691752	3887.100140
787.014891	3938.333387
787.337983	4066.955907
787.661030	4224.852407
787.984031	4390.096389
788.306987	4554.964805
788.629897	4643.585769
788.952760	4596.367801
789.275579	4531.140312
789.598351	4464.367708
789.921078	4318.885049
790.243759	4119.048670
790.566395	4098.390021
790.888984	4094.984722
791.211529	3989.818691
791.534027	3931.275771
791.856480	3918.509049
792.178888	3855.933207
792.501249	3805.607368
792.823566	3820.745953
793.145836	3846.816280
793.468062	3792.354174
793.790241	3748.874222
794.112375	3782.783544
794.434464	3841.893593
794.756507	3868.465515
795.078505	3846.692772
795.400457	3883.301631
795.722364	4024.080893
796.044226	4127.416985
796.366042	4202.124365
796.687812	4174.372813
797.009538	4185.178526
797.331218	4142.101866
797.652852	4119.121767
797.974442	4095.239300
798.295986	4094.168055
798.617484	4011.956918
798.938938	3926.584978
799.260346	3971.882266
799.581709	3962.339361
799.903026	3888.236920
800.224299	3853.112681
800.545526	3845.538347
800.866708	3802.517140
801.187845	3747.876074
801.508936	3784.973925
801.829983	3778.077627
802.150984	3699.029814
802.471940	3691.400027
802.792851	3700.832026
803.113717	3701.988971
803.434538	3704.063406
803.755314	3642.974703
804.076045	3619.760190
804.396731	3644.514776
804.717372	3669.390350
805.037967	3650.032319
805.358518	3639.196359
805.679024	3670.539733
805.999485	3680.790919
806.319901	3686.956250
806.640272	3696.579813
806.960598	3708.983572
807.280879	3688.183771
807.601115	3701.096687
807.921306	3721.001683
808.241453	3758.429729
808.561554	3732.238415
808.881611	3662.811644
809.201623	3705.608519
809.521590	3716.923389
809.841513	3689.933052
810.161390	3717.654357
810.481223	3695.453115
810.801011	3638.573776
811.120755	3637.860453
811.440453	3669.594516
811.760107	3670.212058
812.079716	3626.737147
812.399281	3595.885285
812.718801	3621.136425
813.038276	3596.119699
813.357707	3589.034357
813.677093	3609.030094
813.996434	3553.592525
814.315731	3564.052919
814.634983	3569.449475
814.954191	3582.768203
815.273354	3610.769292
815.592473	3607.744600
815.911547	3609.385495
816.230577	3655.305366
816.549562	3706.105073
816.868502	3747.402205
817.187399	3772.050927
817.506250	3767.092952
817.825058	3745.128645
818.143821	3838.846216
818.462539	3937.012604
818.781213	3985.445490
819.099843	4042.090415
819.418429	4296.441833
819.736970	4537.688770
820.055466	4786.129435
820.373919	5157.745652
820.692327	5564.221449
821.010691	6025.479464
821.329011	7441.234589
821.647286	10241.373740
821.965517	14858.102762
822.283704	18887.837309
822.601847	20993.948207
822.919945	19125.744482
823.237999	16511.318919
823.556010	14004.852185
823.873976	11891.018240
824.191897	9801.729672
824.509775	8453.430226
824.827609	7325.179666
825.145398	6788.931967
825.463144	6673.663464
825.780845	6786.426513
826.098502	6993.764130
826.416116	7893.050523
826.733685	9233.836130
827.051210	10340.868473
827.368692	10350.665956
827.686129	9066.053927
828.003522	7546.196454
828.320872	6531.311361
828.638177	5826.560574
828.955439	5261.096868
829.272656	4759.986011
829.589830	4485.613651
829.906960	4305.536074
830.224046	4118.615131
830.541088	3999.822861
830.858086	3949.275211
831.175041	3872.130434
831.491952	3856.863299
831.808819	3872.453068
832.125642	3943.344294
832.442421	4095.466152
832.759157	4374.123493
833.075849	4939.221715
833.392497	5814.348379
833.709101	6591.843016
834.025662	6921.479025
834.342179	6536.589449
834.658653	5865.949630
834.975083	5216.522986
835.291469	4631.403820
835.607811	4234.304570
835.924110	4093.190071
836.240366	3890.828073
836.556578	3686.878112
836.872746	3578.493305
837.188871	3538.043086
837.504952	3468.429793
837.820990	3387.234448
838.136984	3344.863550
838.452935	3368.940101
838.768842	3361.784183
839.084706	3384.174468
839.400526	3550.600600
839.716303	3895.314700
840.032037	4428.600722
840.347727	4682.203528
840.663373	4390.920617
840.978977	4006.638501
841.294537	3698.235832
841.610054	3472.858446
841.925527	3367.518496
842.240957	3296.407979
842.556344	3244.456368
842.871687	3185.361442
843.186987	3134.791108
843.502244	3097.327773
843.817458	3060.943245
844.132629	3030.056095
844.447756	3040.355173
844.762840	3023.520239
845.077881	2992.184427
845.392879	2975.513331
845.707833	2974.041314
846.022745	2971.724904
846.337613	2971.445120
846.652438	2958.890127
846.967221	2956.248562
847.281960	2941.014195
847.596656	2940.328598
847.911309	2938.425563
848.225919	2932.101435
848.540485	2926.367123
848.855009	2929.442226
849.169490	2919.203643
849.483928	2908.259298
849.798323	2906.709143
850.112675	2903.828124
850.426984	2914.490164
850.741251	2910.613517
851.055474	2901.995664
851.369654	2896.906619
851.683792	2900.768143
851.997887	2910.058990
852.311938	2909.338105
852.625947	2901.360479
852.939914	2904.775861
853.253837	2908.811304
853.567718	2895.953841
853.881555	2893.355127
854.195350	2909.413722
854.509103	2902.519944
854.822812	2897.163718
855.136479	2891.434447
855.450103	2894.567524
855.763685	2887.361195
856.077224	2884.616286
856.390720	2899.001219
856.704173	2906.706623
857.017584	2899.102042
857.330953	2895.104407
857.644278	2908.183681
857.957561	2918.840680
858.270802	2920.204312
858.584000	2919.357398
858.897155	2904.695202
859.210268	2903.810480
859.523339	2901.428534
859.836367	2899.898544
860.149352	2898.590365
860.462295	2891.315980
860.775195	2898.081208
861.088054	2900.460633
861.400869	2883.023282
861.713642	2880.164948
862.026373	2893.392935
862.339062	2895.515261
862.651708	2902.698905
862.964312	2904.806108
863.276873	2899.250756
863.589392	2907.750141
863.901869	2922.233376
864.214303	2944.749690
864.526696	2956.092286
864.839045	2953.075156
865.151353	2953.123047
865.463619	2953.685135
865.775842	2953.284363
866.088023	2972.148361
866.400162	2981.003148
866.712258	2950.725978
867.024313	2937.195521
867.336325	2948.001234
867.648296	2970.835141
867.960224	2961.607308
868.272110	2948.349074
868.583954	2956.384673
868.895755	2968.281796
869.207515	2953.475927
869.519233	2962.318111
869.830909	2969.718525
870.142542	2979.523569
870.454134	2978.873260
870.765684	2982.023982
871.077191	2979.647078
871.388657	2986.341730
871.700081	3004.996520
872.011463	3015.088910
872.322803	3011.935668
872.634101	3011.653363
872.945357	3032.737989
873.256571	3056.254972
873.567744	3051.014693
873.878874	3044.370452
874.189963	3066.748134
874.501010	3068.595717
874.812015	3056.912842
875.122979	3055.866803
875.433900	3054.291443
875.744780	3059.798903
876.055618	3068.620922
876.366415	3064.633370
876.677169	3074.362797
876.987882	3073.278948
877.298554	3064.598082
877.609183	3089.511464
877.919771	3113.630864
878.230317	3137.399905
878.540822	3193.051723
878.851285	3231.104872
879.161707	3276.306378
879.472087	3377.550392
879.782425	3618.757000
880.092722	4061.629927
880.402977	4593.690948
880.713191	5240.619701
881.023363	6421.857829
881.333494	7707.094961
881.643583	8245.654029
881.953631	7933.422604
882.263637	7290.756147
882.573602	6694.574170
882.883526	6110.700170
883.193408	5536.676584
883.503248	5074.082663
883.813048	4764.535652
884.122806	4458.179692
884.432522	4140.904592
884.742197	3903.095721
885.051831	3710.977348
885.361424	3574.349476
885.670975	3501.948425
885.980485	3413.876946
886.289954	3337.569001
886.599382	3293.947896
886.908768	3254.576485
887.218113	3207.396326
887.527417	3150.194353
887.836680	3101.932867
888.145901	3099.122424
888.455082	3081.841348
888.764221	3032.874100
889.073319	3005.485512
889.382376	3002.796056
889.691392	3010.826614
890.000366	3005.298989
890.309300	2992.335662
890.618193	3008.399298
890.927044	3019.996473
891.235855	3020.392203
891.544625	3009.011799
891.853353	3018.428674
892.162041	3038.691592
892.470687	3076.003692
892.779293	3130.581744
893.087858	3179.352387
893.396381	3252.837287
893.704864	3378.551061
894.013306	3621.912763
894.321707	3926.116150
894.630068	4132.856390
894.938387	4125.075369
895.246665	4080.899738
895.554903	3955.178402
895.863100	3754.870675
896.171256	3582.178388
896.479371	3446.029426
896.787446	3318.188285
897.095480	3214.466544
897.403473	3151.812564
897.711425	3115.975001
898.019336	3103.442693
898.327207	3075.610482
898.635038	3040.007333
898.942827	3025.952596
899.250576	3013.763086
899.558284	2984.179075
899.865952	2964.579069
900.173579	2943.232303
900.481165	2933.296188
900.788711	2920.468973
901.096216	2896.503327
901.403681	2884.918756
901.711105	2893.622308
902.018489	2892.190620
902.325832	2889.516288
902.633135	2902.668658
902.940397	2937.157712
903.247619	3019.593181
903.554800	3220.105075
903.861941	3570.508117
904.169041	4005.640352
904.476101	4301.593892
904.783121	4246.005088
905.090100	3995.058970
905.397039	3719.668298
905.703938	3467.620688
906.010796	3284.042029
906.317614	3171.533557
906.624391	3074.309864
906.931129	3002.319667
907.237826	2940.840275
907.544483	2894.171793
907.851099	2863.957638
908.157675	2843.611541
908.464211	2819.116574
908.770707	2809.845892
909.077163	2794.271248
909.383578	2780.541665
909.689954	2767.049017
909.996289	2767.669079
910.302584	2769.655293
910.608839	2769.625047
910.915054	2764.505755
911.221229	2756.265989
911.527363	2760.689601
911.833458	2764.493152
912.139513	2773.602517
912.445527	2774.041097
912.751502	2783.324382
913.057436	2793.212605
913.363331	2805.815490
913.669186	2828.815754
913.975000	2863.335055
914.280775	2924.607760
914.586510	2996.913029
914.892205	3075.088723
915.197859	3211.283056
915.503475	3405.707757
915.809050	3624.219091
916.114585	3770.404990
916.420081	3787.890233
916.725536	3725.730285
917.030952	3605.218982
917.336328	3470.511789
917.641665	3341.919516
917.946961	3239.228692
918.252218	3167.384688
918.557435	3087.810074
918.862612	3027.091897
919.167750	2978.598518
919.472848	2938.939760
919.777906	2913.555030
920.082925	2886.262223
920.387904	2853.318283
920.692843	2836.989985
920.997743	2825.639827
921.302603	2814.672797
921.607423	2803.274748
921.912204	2791.236473
922.216946	2781.943106
922.521647	2769.698143
922.826310	2760.094745
923.130932	2757.362440
923.435516	2744.815008
923.740059	2738.271590
924.044564	2730.059551
924.349028	2725.623335
924.653454	2719.130329
924.957840	2712.662529
925.262186	2707.361755
925.566493	2704.014429
925.870761	2699.800025
926.174989	2695.862883
926.479178	2691.945907
926.783328	2686.529187
927.087438	2685.783096
927.391509	2685.669670
927.695541	2679.753876
927.999533	2677.956705
928.303486	2673.480160
928.607400	2675.524348
928.911275	2672.696261
929.215110	2671.531754
929.518906	2671.002433
929.822663	2669.336332
930.126381	2672.915551
930.430060	2672.638288
930.733699	2672.058555
931.037299	2673.424708
931.340861	2673.641477
931.644383	2673.802794
931.947866	2672.479491
932.251309	2670.538647
932.554714	2672.242557
932.858080	2668.565035
933.161407	2666.261228
933.464694	2666.667041
933.767943	2661.348624
934.071153	2665.938594
934.374323	2666.341887
934.677455	2665.240394
934.980548	2666.019253
935.283602	2664.426248
935.586617	2662.306443
935.889593	2661.998932
936.192530	2662.404745
936.495428	2662.805517
936.798287	2663.707884
937.101108	2665.714263
937.403890	2675.143741
937.706632	2675.874708
938.009336	2684.429547
938.312002	2694.834488
938.614628	2701.919830
938.917216	2708.286807
939.219765	2710.262939
939.522275	2708.105326
939.824747	2705.620037
940.127179	2702.159285
940.429573	2699.953780
940.731929	2697.460929
941.034246	2694.761391
941.336524	2691.179652
941.638763	2688.613704
941.940964	2686.209074
942.243126	2683.592715
942.545250	2683.393589
942.847335	2681.253620
943.149381	2677.704647
943.451389	2672.890345
943.753359	2672.776919
944.055290	2669.807680
944.357182	2667.095539
944.659036	2665.084119
944.960851	2665.731907
945.262628	2663.526402
945.564367	2663.788542
945.866067	2666.420024
946.167729	2668.691064
946.469352	2664.970693
946.770937	2667.811383
947.072484	2663.881803
947.373992	2663.042451
947.675462	2663.571772
947.976893	2660.330311
948.278286	2655.165648
948.579641	2655.268992
948.880958	2653.693632
949.182236	2656.856956
949.483476	2654.716986
949.784678	2658.084477
950.085841	2657.900474
950.386967	2656.766215
950.688054	2657.013231
950.989103	2660.153870
951.290114	2661.220074
951.591087	2659.342244
951.892021	2664.396001
952.192917	2666.014212
952.493776	2666.828358
952.794596	2668.582679
953.095378	2667.282062
953.396122	2668.620488
953.696828	2668.464212
953.997496	2666.430107
954.298126	2660.307625
954.598718	2660.612615
954.899272	2655.178251
955.199788	2656.471307
955.500266	2654.820329
955.800706	2650.686583
956.101108	2646.668784
956.401472	2647.271202
956.701798	2646.590646
957.002087	2641.844399
957.302337	2642.489667
957.602550	2641.620068
957.902724	2641.511683
958.202861	2637.284676
958.502960	2637.750982
958.803022	2637.698050
959.103045	2635.616054
959.403031	2636.621764
959.702979	2630.617750
960.002889	2636.077319
960.302762	2632.931639
960.602596	2632.006588
960.902393	2631.905765
961.202153	2631.207565
961.501875	2630.327883
961.801559	2629.854015
962.101205	2633.327370
962.400814	2629.400311
962.700385	2630.300157
962.999918	2627.058695
963.299414	2624.230608
963.598873	2630.095990
963.898293	2626.554580
964.197677	2630.408542
964.497022	2628.810496
964.796331	2630.300157
965.095601	2628.308901
965.394835	2628.213119
965.694030	2627.857718
965.993189	2628.704632
966.292309	2627.144395
966.591393	2627.784621
966.890439	2627.822430
967.189447	2629.488531
967.488419	2626.897378
967.787353	2631.003398
968.086249	2626.063067
968.385108	2626.915022
968.683930	2628.702111
968.982714	2628.074488
969.281462	2628.535753
969.580172	2629.392749
969.878844	2627.194806
970.177480	2628.939046
970.476078	2626.259672
970.774639	2629.070116
971.073162	2625.503499
971.371649	2630.090949
971.670098	2628.858387
971.968510	2626.922584
972.266885	2625.667337
972.565223	2629.528861
972.863524	2627.998870
973.161788	2629.927112
973.460014	2627.353603
973.758204	2625.866462
974.056356	2628.472739
974.354471	2626.310084
974.652550	2628.273613
974.950591	2628.566000
975.248595	2627.441823
975.546563	2627.600619
975.844493	2628.631535
976.142386	2627.449385
976.440243	2626.594909
976.738062	2627.671195
977.035845	2626.917543
977.333590	2629.309570
977.631299	2627.119189
977.928971	2623.708848
978.226606	2622.015021
978.524204	2622.259517
978.821765	2621.745319
979.119290	2625.569034
979.416777	2628.349231
979.714228	2624.696915
980.011642	2625.742954
980.309020	2627.535084
980.606360	2626.519292
980.903664	2624.691873
981.200931	2629.060033
981.498162	2626.912502
981.795356	2625.485855
982.092513	2630.743779
982.389633	2631.396608
982.686717	2635.053965
982.983764	2639.243164
983.280775	2640.780716
983.577749	2645.605100
983.874686	2643.583597
984.171587	2639.409522
984.468451	2637.745941
984.765279	2635.555560
985.062070	2634.199490
985.358824	2631.449540
985.655543	2630.514406
985.952224	2628.719755
986.248869	2628.475259
986.545478	2626.635238
986.842050	2626.791514
987.138586	2627.582975
987.435086	2625.732872
987.731549	2622.743467
988.027975	2624.843108
988.324366	2622.128447
988.620719	2625.654734
988.917037	2621.800772
989.213318	2622.539301
989.509563	2621.082407
989.805772	2621.891512
990.101944	2622.317490
990.398080	2624.596092
990.694180	2621.117695
990.990244	2623.844960
991.286271	2622.163735
991.582262	2622.078035
991.878217	2622.342696
992.174136	2622.705659
992.470019	2624.011318
992.765865	2618.098044
993.061676	2619.562499
993.357450	2620.782459
993.653188	2618.314814
993.948890	2625.821092
994.244556	2623.713890
994.540186	2623.807151
994.835780	2623.885289
995.131337	2623.449229
995.426859	2625.949641
995.722345	2625.057357
996.017795	2625.947121
996.313208	2626.920063
996.608586	2627.348562
996.903928	2627.217492
997.199234	2630.310239
997.494504	2629.344858
997.789738	2629.307050
998.084936	2627.310753
998.380099	2629.228912
998.675225	2626.196658
998.970316	2623.726492
999.265371	2625.286730
999.560390	2621.407562
999.855373	2621.962089
1000.150320	2622.806482
1000.445232	2624.054167
1000.740108	2622.380504
1001.034948	2623.529887
1001.329752	2621.788169
1001.624521	2620.641306
1001.919254	2620.976543
1002.213951	2621.014352
1002.508613	2618.277005
1002.803239	2620.792541
1003.097829	2620.938734
1003.392384	2622.735906
1003.686903	2618.675256
1003.981386	2620.336317
1004.275834	2621.699949
1004.570246	2622.030144
1004.864623	2620.210288
1005.158964	2620.013683
1005.453270	2622.231790
1005.747540	2618.022427
1006.041775	2621.309259
1006.335974	2619.771707
1006.630138	2619.312962
1006.924266	2622.831688
1007.218359	2622.256996
1007.512416	2616.391614
1007.806438	2616.265585
1008.100425	2617.432612
1008.394376	2614.042436
1008.688292	2618.040071
1008.982172	2620.467387
1009.276017	2618.428240
1009.569827	2621.878910
1009.863602	2622.617439
1010.157341	2619.413785
1010.451045	2619.421347
1010.744714	2620.081738
1011.038347	2618.977726
1011.331945	2617.982098
1011.625508	2618.861779
1011.919036	2621.556276
1012.212528	2617.604011
1012.505986	2618.798765
1012.799408	2620.033847
1013.092795	2617.851028
1013.386147	2619.378497
1013.679464	2618.234155
1013.972745	2620.464866
1014.265992	2617.238527
1014.559204	2620.089300
1014.852380	2616.847838
1015.145521	2621.581482
1015.438628	2617.190637
1015.731699	2620.139712
1016.024736	2618.917232
1016.317737	2619.229783
1016.610703	2618.715586
1016.903635	2619.048302
1017.196531	2616.857920
1017.489393	2619.769187
1017.782219	2619.542335
1018.075011	2617.588888
1018.367768	2619.023096
1018.660490	2618.067797
1018.953177	2618.067797
1019.245829	2618.067797
