Dividing Wavelength (nm)	Counts (n)	Blue Motor Position (mm): 0.000000	Red Motor Position (mm): 10.900000	
326.493990	2130.484877
326.888308	2130.484877
327.282561	2130.484877
327.676750	2095.398446
328.070874	2094.228898
328.464933	2097.626636
328.858929	2102.451020
329.252859	2112.941661
329.646726	2125.635287
330.040528	2137.484519
330.434265	2155.930101
330.827938	2170.105825
331.221547	2189.698270
331.615091	2209.094109
332.008571	2225.903837
332.401986	2247.532907
332.795338	2266.349014
333.188625	2287.904988
333.581847	2305.284366
333.975006	2322.973775
334.368100	2342.541013
334.761129	2360.837881
335.154095	2376.704913
335.546996	2395.899106
335.939833	2406.296486
336.332606	2422.163518
336.725315	2432.737338
337.117960	2444.382403
337.510540	2451.150152
337.903056	2466.394602
338.295508	2471.405508
338.687896	2483.088383
339.080220	2489.077273
339.472480	2494.698160
339.864676	2499.567914
340.256807	2505.438338
340.648875	2506.207114
341.040879	2509.045284
341.432818	2513.789009
341.824694	2511.407064
342.216506	2514.366222
342.608253	2514.015861
342.999937	2513.181550
343.391557	2514.099040
343.783113	2510.482013
344.174605	2513.778927
344.566033	2508.768020
344.957397	2507.764831
345.348697	2507.331291
345.739934	2505.866836
346.131106	2502.212000
346.522215	2504.684686
346.913260	2498.468943
347.304241	2496.291164
347.695159	2493.019456
348.086012	2495.761843
348.476802	2492.391832
348.867528	2492.152377
349.258191	2492.961482
349.648789	2490.209012
350.039324	2487.272540
350.429796	2486.118116
350.820203	2486.229021
351.210548	2483.025368
351.600828	2482.012096
351.991045	2482.455718
352.381198	2480.993783
352.771288	2481.334061
353.161314	2480.033443
353.551276	2481.024030
353.941175	2481.623927
354.331010	2480.855151
354.720782	2482.186016
355.110490	2482.198619
355.500135	2481.732312
355.889717	2482.211222
356.279235	2482.062508
356.668689	2480.056128
357.058080	2482.367498
357.447408	2481.946561
357.836672	2479.983032
358.225873	2479.052939
358.615010	2481.649133
359.004084	2484.484782
359.393095	2486.400421
359.782043	2487.640544
360.170927	2483.426140
360.559748	2485.175420
360.948505	2486.846563
361.337199	2488.048878
361.725830	2486.763384
362.114398	2490.551811
362.502903	2489.394866
362.891344	2490.698004
363.279722	2491.033241
363.668037	2490.864362
364.056289	2489.765391
364.444478	2491.983498
364.832603	2489.755308
365.220665	2493.326966
365.608665	2491.171873
365.996601	2493.294198
366.384474	2494.572131
366.772284	2497.561535
367.160031	2497.170846
367.547715	2497.266628
367.935336	2504.961949
368.322893	2504.029336
368.710388	2506.950684
369.097820	2513.635254
369.485189	2518.936027
369.872495	2524.055319
370.259738	2531.153264
370.646918	2534.974458
371.034035	2540.464275
371.421090	2554.536656
371.808081	2565.591906
372.195010	2570.764130
372.581875	2583.112437
372.968678	2598.389653
373.355418	2608.781992
373.742096	2628.006432
374.128710	2639.991775
374.515262	2657.358550
374.901751	2671.367917
375.288177	2682.849145
375.674540	2709.151365
376.060841	2723.753067
376.447079	2742.453227
376.833254	2767.701846
377.219367	2779.162910
377.605417	2815.068528
377.991404	2826.146463
378.377329	2844.808815
378.763191	2862.094932
379.148991	2901.408370
379.534727	2927.458532
379.920402	2952.303859
380.306013	2963.747278
380.691563	3010.614886
381.077049	3032.004501
381.462474	3047.236348
381.847835	3082.869744
382.233134	3101.229626
382.618371	3098.088987
383.003545	3159.185251
383.388657	3158.814726
383.773706	3186.188192
384.158693	3193.016435
384.543618	3210.355483
384.928480	3233.368351
385.313280	3264.472270
385.698017	3250.084817
386.082692	3288.074952
386.467305	3279.268056
386.851856	3289.988070
387.236344	3297.143988
387.620770	3303.924340
388.005133	3307.339722
388.389435	3313.074034
388.773674	3302.288485
389.157851	3314.651915
389.541965	3301.839823
389.926018	3256.214860
390.310008	3283.363994
390.693936	3269.868825
391.077802	3274.015174
391.461606	3241.746748
391.845348	3250.173037
392.229027	3224.322000
392.612645	3202.559339
392.996200	3216.856051
393.379694	3209.692572
393.763125	3211.625854
394.146494	3160.929490
394.529801	3158.494613
394.913047	3148.215700
395.296230	3098.451950
395.679351	3089.587081
396.062410	3065.142526
396.445408	3029.274717
396.828343	3006.518948
397.211217	2981.068683
397.594028	2929.694284
397.976778	2913.431522
398.359466	2895.611043
398.742092	2869.432331
399.124656	2832.669717
399.507158	2822.360557
399.889598	2805.011426
400.271977	2791.670012
400.654294	2763.396701
401.036549	2743.630337
401.418742	2719.848693
401.800874	2712.181098
402.182944	2695.678881
402.564952	2682.700431
402.946898	2670.233657
403.328783	2652.082983
403.710606	2631.147071
404.092367	2625.866462
404.474067	2618.067797
404.855705	2605.114552
405.237282	2593.401432
405.618797	2586.356419
406.000250	2579.142528
406.381642	2572.563822
406.762972	2564.767678
407.144240	2559.025803
407.525447	2554.108158
407.906593	2550.755791
408.287677	2549.417364
408.668700	2541.376724
409.049661	2537.532844
409.430560	2535.428162
409.811399	2534.470343
410.192176	2535.455889
410.572891	2534.379602
410.953545	2529.605630
411.334138	2527.669827
411.714669	2528.199148
412.095139	2526.724610
412.475547	2526.510361
412.855894	2524.642614
413.236180	2527.321987
413.616405	2526.757378
413.996568	2525.000536
414.376670	2521.096162
414.756711	2524.713190
415.136691	2526.759898
415.516609	2522.464835
415.896466	2526.202851
416.276262	2522.837881
416.655997	2520.985257
417.035670	2521.023065
417.415283	2524.085566
417.794834	2521.751512
418.174324	2522.941224
418.553753	2524.307377
418.933121	2525.628159
419.312428	2522.028775
419.691674	2524.587161
420.070859	2524.932480
420.449983	2524.209074
420.829045	2523.440298
421.208047	2523.926770
421.586988	2522.968951
421.965867	2524.231760
422.344686	2524.624970
422.723444	2523.263858
423.102141	2523.664630
423.480777	2523.455422
423.859352	2523.331914
424.237866	2524.103210
424.616319	2526.036493
424.994712	2527.137985
425.373044	2526.336441
425.751314	2526.109589
426.129524	2525.744106
426.507673	2525.973478
426.885762	2524.251924
427.263789	2530.734848
427.641756	2524.998015
428.019662	2526.628828
428.397508	2525.038344
428.775292	2527.621936
429.153016	2526.906092
429.530679	2527.314425
429.908282	2527.937008
430.285824	2530.442461
430.663305	2525.313087
431.040726	2527.153108
431.418086	2526.008766
431.795385	2526.263345
432.172624	2523.145391
432.549802	2526.772501
432.926920	2528.007584
433.303977	2528.113448
433.680974	2529.414066
434.057910	2529.804755
434.434786	2530.238294
434.811601	2526.621267
435.188355	2526.391894
435.565050	2528.441123
435.941683	2532.894983
436.318257	2524.546832
436.694770	2525.819723
437.071222	2528.040351
437.447614	2525.366019
437.823946	2525.055988
438.200218	2528.615043
438.576429	2529.950949
438.952580	2527.251411
439.328670	2530.802904
439.704700	2528.756195
440.080670	2532.022863
440.456580	2530.407173
440.832429	2532.017822
441.208218	2531.949766
441.583947	2530.707122
441.959616	2529.197296
442.335224	2531.659900
442.710773	2530.883562
443.086261	2528.854498
443.461689	2530.528161
443.837057	2530.777698
444.212365	2530.258459
444.587612	2531.128058
444.962800	2531.491021
445.337927	2531.178470
445.712995	2528.388191
446.088002	2532.708460
446.462949	2531.541433
446.837837	2532.521937
447.212664	2532.461443
447.587431	2532.282482
447.962139	2533.749458
448.336786	2537.124511
448.711374	2534.296423
449.085901	2533.814993
449.460369	2532.501773
449.834776	2533.671320
450.209124	2533.590662
450.583412	2534.916485
450.957640	2533.421783
451.331808	2534.465302
451.705917	2534.387164
452.079965	2536.728780
452.453954	2534.563604
452.827883	2535.211393
453.201752	2533.822555
453.575562	2531.241484
453.949311	2532.647966
454.323001	2535.743234
454.696632	2534.631660
455.070202	2535.443286
455.443713	2534.314067
455.817164	2534.137627
456.190556	2533.051258
456.563888	2533.104190
456.937160	2530.999509
457.310373	2537.338760
457.683526	2533.245343
458.056619	2535.266845
458.429653	2534.049407
458.802628	2535.448327
459.175542	2535.486136
459.548398	2538.556198
459.921194	2537.348842
460.293930	2537.686599
460.666607	2537.260622
461.039224	2539.025026
461.411782	2539.095602
461.784280	2541.089378
462.156719	2539.393030
462.529099	2537.353883
462.901419	2539.025026
463.273680	2538.253729
463.645882	2540.078627
464.018024	2540.076106
464.390106	2538.732639
464.762130	2537.878163
465.134094	2540.204656
465.505999	2541.641384
465.877845	2543.579708
466.249631	2548.441901
466.621358	2549.414844
466.993026	2546.281767
467.364634	2547.952909
467.736184	2542.158103
468.107674	2541.114584
468.479105	2542.861344
468.850477	2544.159441
469.221790	2544.217414
469.593043	2541.727084
469.964238	2541.021322
470.335373	2541.164995
470.706449	2543.173895
471.077467	2539.927392
471.448425	2545.782692
471.819324	2544.721529
472.190164	2545.896118
472.560945	2543.670449
472.931667	2542.175747
473.302330	2542.558874
473.672934	2543.201622
474.043479	2542.132897
474.413965	2540.045859
474.784393	2539.017464
475.154761	2539.718184
475.525070	2538.009233
475.895321	2540.446631
476.265513	2540.655839
476.635645	2540.827238
477.005719	2542.783206
477.375734	2542.105171
477.745691	2542.621889
478.115588	2540.038297
478.485427	2541.238092
478.855207	2542.027033
479.224928	2541.422094
479.594591	2547.295038
479.964194	2546.024668
480.333739	2546.085162
480.703226	2545.631458
481.072653	2546.634647
481.442022	2541.759852
481.811333	2547.269833
482.180584	2547.126160
482.549777	2546.949719
482.918912	2546.170861
483.287988	2547.148845
483.657005	2545.283618
484.025964	2545.518032
484.394864	2545.681869
484.763706	2546.301931
485.132489	2543.597352
485.501213	2544.595501
485.869879	2543.967877
486.238487	2545.250851
486.607036	2543.166333
486.975527	2545.525593
487.343959	2545.921324
487.712333	2545.129863
488.080648	2543.201622
488.448905	2542.984852
488.817104	2547.174051
489.185244	2544.361087
489.553326	2548.036088
489.921350	2547.668084
490.289315	2550.518856
490.657222	2547.489123
491.025070	2548.207487
491.392861	2550.932231
491.760593	2547.060625
492.128267	2546.284287
492.495883	2547.461397
492.863440	2545.500388
493.230939	2547.416026
493.598380	2545.260933
493.965763	2542.556354
494.333088	2544.179605
494.700354	2542.130376
495.067563	2545.601211
495.434713	2542.752959
495.801805	2546.349822
496.168839	2544.754297
496.535815	2546.319575
496.902733	2547.998279
497.269593	2548.666232
497.636395	2545.691952
498.003139	2546.770758
498.369825	2547.358053
498.736453	2545.558361
499.103023	2546.448125
499.469535	2545.712116
499.835989	2544.875285
500.202385	2545.124822
500.568723	2546.480892
500.935003	2544.555171
501.301226	2544.056097
501.667390	2546.632127
502.033497	2550.259237
502.399546	2545.707075
502.765537	2545.611293
503.131470	2547.169010
503.497345	2547.577343
503.863163	2547.693290
504.228923	2546.488454
504.594625	2545.502908
504.960269	2543.216745
505.325856	2547.496685
505.691385	2547.247148
506.056856	2546.995090
506.422270	2548.411654
506.787625	2547.766386
507.152924	2545.092054
507.518164	2548.325954
507.883347	2545.240768
508.248472	2547.766386
508.613540	2546.919473
508.978550	2547.287477
509.343503	2546.906870
509.708398	2547.748742
510.073236	2547.872251
510.438016	2551.038095
510.802738	2547.584905
511.167403	2546.609442
511.532010	2548.293187
511.896561	2547.204298
512.261053	2549.528270
512.625488	2545.770089
512.989866	2545.949050
513.354186	2541.966539
513.718449	2542.021992
514.082655	2547.695810
514.446803	2546.823691
514.810894	2547.335368
515.174927	2548.547765
515.538904	2547.355532
515.902822	2546.483413
516.266684	2545.422250
516.630488	2547.713454
516.994235	2547.668084
517.357925	2547.075748
517.721558	2548.245296
518.085133	2549.140101
518.448651	2548.688918
518.812112	2547.569781
519.175516	2546.944678
519.538863	2546.601880
519.902152	2550.967519
520.265385	2549.780327
520.628560	2548.441901
520.991678	2549.800492
521.354739	2549.739998
521.717743	2546.586756
522.080690	2549.818136
522.443580	2546.606921
522.806413	2550.349978
523.169189	2547.935265
523.531908	2547.141283
523.894569	2548.590615
524.257174	2550.995245
524.619722	2548.026006
524.982213	2549.528270
525.344647	2550.284443
525.707025	2549.233362
526.069345	2549.130018
526.431608	2551.035575
526.793815	2549.583722
527.155964	2549.712272
527.518057	2548.051212
527.880093	2551.206974
528.242072	2548.981304
528.603995	2550.163455
528.965860	2548.094061
529.327669	2551.585060
529.689421	2550.849052
530.051117	2548.870399
530.412755	2548.472148
530.774337	2550.145811
531.135862	2550.100441
531.497331	2549.251006
531.858743	2545.676828
532.220098	2544.885367
532.581396	2544.736653
532.942638	2543.872095
533.303824	2550.450801
533.664953	2548.376366
534.026025	2549.513146
534.387040	2548.656150
534.747999	2550.105482
535.108902	2547.484082
535.469748	2551.262427
535.830537	2549.049360
536.191270	2548.177240
536.551947	2550.470965
536.912567	2550.725544
537.273131	2551.108671
537.633638	2547.002652
537.994089	2551.902653
538.354483	2546.082641
538.714821	2550.372663
539.075103	2551.721172
539.435328	2549.354350
539.795497	2552.207643
540.155609	2549.581202
540.515665	2550.160934
540.875665	2552.734443
541.235609	2549.003990
541.595496	2554.085473
541.955328	2549.437529
542.315102	2551.625390
542.674821	2544.295552
543.034483	2550.165976
543.394090	2552.285781
543.753640	2551.219577
544.113134	2551.189330
544.472571	2550.551624
544.831953	2549.994576
545.191278	2549.082127
545.550548	2550.077755
545.909761	2551.325441
546.268918	2548.565409
546.628019	2550.241593
546.987064	2546.881664
547.346053	2551.953065
547.704986	2547.688248
548.063863	2550.065152
548.422684	2550.642365
548.781449	2548.986346
549.140158	2549.324103
549.498811	2552.494989
549.857408	2547.461397
550.215949	2547.627755
550.574434	2545.359235
550.932864	2548.633465
551.291237	2544.824873
551.649555	2551.310317
552.007817	2550.430636
552.366022	2552.210163
552.724173	2549.291335
553.082267	2549.608928
553.440305	2550.349978
553.798288	2548.777138
554.156215	2549.500543
554.514086	2551.728733
554.871902	2550.327292
555.229661	2551.242262
555.587365	2550.075235
555.945014	2552.434495
556.302606	2550.879299
556.660143	2549.918959
557.017625	2552.653785
557.375050	2549.797971
557.732421	2549.636654
558.089735	2549.893753
558.446994	2552.747046
558.804197	2550.418033
559.161345	2555.688560
559.518437	2550.201264
559.875474	2552.333672
560.232455	2549.306459
560.589381	2549.959288
560.946251	2550.677653
561.303065	2548.525080
561.659825	2552.200081
562.016528	2549.455173
562.373177	2551.416182
562.729770	2553.719989
563.086307	2551.103630
563.442789	2548.988866
563.799216	2551.640513
564.155587	2552.290822
564.511904	2548.111705
564.868164	2549.545914
565.224370	2551.542211
565.580520	2552.114382
565.936615	2548.210008
566.292654	2547.148845
566.648638	2550.521377
567.004567	2547.983156
567.360441	2551.403579
567.716260	2548.777138
568.072023	2550.904505
568.427732	2544.204811
568.783385	2547.105995
569.138982	2543.932589
569.494525	2547.650440
569.850013	2547.060625
570.205445	2549.374514
570.560823	2548.996428
570.916145	2550.717982
571.271412	2551.461552
571.626625	2549.303938
571.981782	2549.813095
572.336884	2550.148332
572.691931	2549.329144
573.046923	2550.972560
573.401860	2549.336706
573.756743	2550.193702
574.111570	2550.690256
574.466342	2552.260575
574.821059	2548.948537
575.175722	2554.236707
575.530330	2550.743188
575.884882	2550.271840
576.239380	2549.755122
576.593823	2552.484906
576.948211	2550.027344
577.302544	2549.782848
577.656823	2547.753783
578.011047	2550.070194
578.365216	2550.536500
578.719330	2550.549103
579.073389	2551.212015
579.427394	2548.746891
579.781344	2551.325441
580.135239	2550.922149
580.489080	2549.195553
580.842866	2547.249668
581.196597	2549.780327
581.550273	2548.487271
581.903895	2550.501212
582.257463	2547.174051
582.610975	2548.031047
582.964434	2548.275543
583.317837	2549.997097
583.671186	2548.910728
584.024481	2550.743188
584.377721	2551.053219
584.730906	2552.202602
585.084037	2548.507436
585.437113	2550.372663
585.790135	2553.548590
586.143103	2549.908877
586.496016	2548.552806
586.848874	2547.292518
587.201679	2548.283105
587.554428	2543.141128
587.907124	2547.554658
588.259765	2545.263453
588.612352	2547.968032
588.964884	2547.418547
589.317362	2549.566078
589.669786	2548.686397
590.022155	2548.696479
590.374470	2550.654967
590.726731	2551.885009
591.078937	2548.383928
591.431090	2551.597663
591.783188	2548.204967
592.135232	2549.460214
592.487222	2547.526932
592.839157	2550.155893
593.191038	2548.278063
593.542866	2548.318393
593.894639	2548.126829
594.246358	2548.328475
594.598022	2549.341747
594.949633	2547.842004
595.301190	2547.005172
595.652692	2548.797302
596.004141	2548.076417
596.355535	2551.305276
596.706876	2549.513146
597.058162	2548.482230
597.409395	2545.598690
597.760573	2546.415357
598.111698	2547.869730
598.462768	2548.986346
598.813785	2546.906870
599.164748	2549.916438
599.515657	2548.278063
599.866511	2548.643547
600.217312	2547.005172
600.568060	2547.784030
600.918753	2550.886861
601.269392	2551.000287
601.619978	2549.354350
601.970510	2548.499874
602.320988	2547.531973
602.671412	2547.715975
603.021783	2546.737991
603.372100	2546.942158
603.722363	2547.751263
604.072572	2549.881150
604.422728	2547.300080
604.772830	2545.497867
605.122878	2544.623227
605.472872	2545.321427
605.822813	2545.548279
606.172701	2545.666746
606.522534	2545.215563
606.872314	2549.039278
607.222041	2549.374514
607.571714	2547.710934
607.921333	2546.672456
608.270899	2543.695655
608.620411	2548.414175
608.969870	2550.165976
609.319276	2548.734288
609.668627	2551.910215
610.017926	2554.367777
610.367171	2558.153684
610.716362	2553.266285
611.065500	2551.383414
611.414585	2553.788045
611.763616	2550.433157
612.112594	2551.806871
612.461518	2551.453990
612.810389	2548.141952
613.159207	2549.102292
613.507971	2550.667570
613.856682	2549.407282
614.205340	2551.544731
614.553945	2550.770914
614.902496	2545.734801
615.250994	2547.768907
615.599439	2547.509287
615.947830	2547.020296
616.296169	2549.505584
616.644454	2548.661191
616.992686	2548.260419
617.340864	2549.500543
617.688990	2548.819988
618.037063	2546.556509
618.385082	2547.577343
618.733048	2548.111705
619.080961	2550.007179
619.428821	2547.894936
619.776628	2546.347302
620.124382	2551.096068
620.472083	2547.675646
620.819731	2550.372663
621.167326	2546.765717
621.514868	2548.071376
621.862357	2545.518032
622.209793	2548.749411
622.557176	2546.647250
622.904506	2544.920655
623.251783	2541.291024
623.599007	2545.334030
623.946179	2540.098791
624.293297	2543.804039
624.640363	2545.923845
624.987376	2546.342260
625.334336	2546.390151
625.681243	2547.723537
626.028097	2547.811757
626.374899	2545.850748
626.721647	2547.826880
627.068343	2546.024668
627.414987	2545.500388
627.761577	2544.235058
628.108115	2545.714637
628.454600	2545.422250
628.801032	2546.977446
629.147412	2546.198588
629.493739	2545.898639
629.840014	2547.907539
630.186236	2547.413506
630.532405	2546.858979
630.878521	2546.248999
631.224585	2547.751263
631.570597	2547.791592
631.916556	2544.887887
632.262462	2546.392672
632.608316	2548.255378
632.954117	2545.696993
633.299866	2546.947199
633.645562	2546.248999
633.991206	2546.347302
634.336797	2544.182126
634.682336	2544.459389
635.027823	2541.989224
635.373257	2546.012065
635.718639	2543.350336
636.063968	2543.839328
636.409245	2547.169010
636.754470	2543.463762
637.099642	2544.388813
637.444762	2545.679349
637.789829	2543.196580
638.134845	2545.689431
638.479808	2544.744215
638.824719	2544.401416
639.169577	2543.186498
639.514383	2546.337219
639.859137	2545.301262
640.203839	2543.327650
640.548489	2542.352187
640.893086	2539.879501
641.237632	2540.892773
641.582125	2541.759852
641.926566	2537.210210
642.270955	2543.166333
642.615292	2543.849410
642.959576	2544.507280
643.303809	2543.307486
643.647990	2545.283618
643.992118	2545.104657
644.336195	2542.538710
644.680219	2545.233207
645.024192	2540.159285
645.368112	2542.011909
645.711981	2545.898639
646.055797	2546.112888
646.399562	2542.500901
646.743274	2545.936448
647.086935	2545.888557
647.430544	2544.136756
647.774101	2546.705223
648.117606	2543.491488
648.461059	2543.814122
648.804460	2542.460572
649.147810	2547.136242
649.491108	2541.863195
649.834354	2542.248843
650.177548	2545.402085
650.520690	2545.719678
650.863781	2545.359235
651.206820	2543.662887
651.549807	2545.608772
651.892742	2544.116591
652.235626	2543.630120
652.578458	2542.783206
652.921238	2540.229861
653.263967	2542.571477
653.606644	2543.453679
653.949269	2543.141128
654.291843	2540.945705
654.634365	2544.676159
654.976836	2543.168854
655.319255	2544.877805
655.661622	2541.036446
656.003938	2541.800181
656.346203	2542.727753
656.688416	2542.561395
657.030577	2541.845551
657.372687	2541.089378
657.714746	2541.396888
658.056753	2542.052238
658.398708	2538.553678
658.740612	2542.032074
659.082465	2540.272711
659.424266	2539.861857
659.766016	2538.989737
660.107715	2539.413194
660.449362	2542.551313
660.790958	2543.685572
661.132503	2542.263967
661.473996	2544.046015
661.815438	2541.142310
662.156829	2541.953936
662.498168	2540.401261
662.839456	2543.589790
663.180693	2541.583411
663.521879	2540.164326
663.863013	2545.523073
664.204097	2541.999306
664.545129	2542.395037
664.886110	2542.989893
665.227040	2541.149872
665.567918	2545.833104
665.908746	2540.665921
666.249522	2543.841848
666.590248	2540.701209
666.930922	2541.701878
667.271545	2545.124822
667.612118	2543.819163
667.952639	2542.679862
668.293109	2542.760521
668.633528	2540.945705
668.973896	2542.074924
669.314213	2544.575336
669.654480	2540.260108
669.994695	2539.677855
670.334859	2541.535520
670.674973	2539.715664
671.015035	2540.686086
671.355047	2542.810932
671.695008	2544.933258
672.034918	2542.135417
672.374777	2541.137269
672.714585	2543.239430
673.054342	2540.938143
673.394049	2542.188350
673.733705	2541.306148
674.073310	2544.890408
674.412864	2540.028215
674.752368	2542.649615
675.091820	2543.405788
675.431223	2540.005530
675.770574	2543.856972
676.109875	2537.994110
676.449125	2543.443597
676.788324	2537.837834
677.127473	2540.988555
677.466571	2536.353214
677.805619	2541.543082
678.144616	2542.354708
678.483562	2540.141641
678.822458	2541.291024
679.161303	2542.884029
679.500098	2545.003834
679.838842	2542.163144
680.177535	2543.307486
680.516179	2542.316899
680.854771	2544.514842
681.193314	2543.138607
681.531805	2541.296065
681.870247	2542.599204
682.208638	2542.916796
682.546978	2544.277908
682.885268	2541.021323
683.223508	2542.120294
683.561697	2539.544264
683.899836	2544.502239
684.237925	2541.018802
684.575963	2542.596683
684.913951	2540.628113
685.251889	2543.932589
685.589776	2543.191539
685.927614	2542.896632
686.265401	2540.872608
686.603137	2540.398740
686.940824	2542.896632
687.278460	2541.240613
687.616046	2542.480737
687.953582	2541.170037
688.291068	2543.390665
688.628504	2542.014430
688.965889	2540.416384
689.303224	2542.480737
689.640510	2541.487629
689.977745	2541.011240
690.314930	2541.260777
690.652065	2543.398227
690.989150	2538.069727
691.326185	2540.300437
691.663170	2538.157947
692.000105	2538.611651
692.336990	2541.061652
692.673825	2541.512835
693.010610	2544.477033
693.347345	2536.249870
693.684030	2538.155427
694.020665	2538.911600
694.357251	2533.779705
694.693786	2541.296065
695.030272	2541.109543
695.366707	2541.827907
695.703093	2541.313709
696.039429	2540.996117
696.375716	2539.060314
696.711952	2540.658359
697.048139	2540.340767
697.384276	2541.754810
697.720363	2539.047711
698.056400	2539.541744
698.392388	2541.580891
698.728326	2538.233564
699.064214	2541.379244
699.400053	2538.939326
699.735842	2538.720036
700.071581	2540.335726
700.407270	2540.340767
700.742910	2540.270191
701.078501	2537.232895
701.414042	2537.978986
701.749533	2538.835982
702.084974	2539.582073
702.420366	2541.331353
702.755709	2540.098791
703.091002	2538.818338
703.426246	2536.378420
703.761440	2539.445962
704.096584	2538.140303
704.431679	2537.817669
704.766725	2537.442103
705.101721	2538.732639
705.436668	2540.033256
705.771565	2539.372865
706.106413	2540.169367
706.441212	2537.174922
706.775961	2541.790098
707.110661	2538.505787
707.445311	2539.793802
707.779913	2538.694830
708.114465	2542.669780
708.448967	2539.267001
708.783421	2538.299099
709.117825	2539.539223
709.452180	2539.057793
709.786485	2538.422608
710.120742	2538.651980
710.454949	2540.103833
710.789107	2537.048893
711.123216	2537.961342
711.457275	2539.387989
711.791286	2539.519059
712.125247	2538.364634
712.459159	2538.319264
712.793023	2540.653318
713.126837	2537.999151
713.460602	2540.071065
713.794318	2537.550488
714.127985	2536.116280
714.461602	2539.627443
714.795171	2540.391178
715.128691	2540.776827
715.462162	2539.259439
715.795584	2539.438400
716.128957	2538.838503
716.462281	2537.963863
716.795556	2541.086857
717.128782	2538.949408
717.461960	2539.279604
717.795088	2539.841693
718.128167	2537.643749
718.461198	2537.333718
718.794180	2538.709953
719.127113	2538.120138
719.459997	2537.898328
719.792833	2539.440921
720.125619	2537.671476
720.458357	2536.645601
720.791046	2538.788091
721.123686	2538.838503
721.456278	2539.927392
721.788821	2538.503266
722.121315	2540.108874
722.453761	2536.358255
722.786158	2540.479398
723.118506	2537.943698
723.450805	2539.120808
723.783056	2537.938657
724.115259	2538.523431
724.447412	2541.260777
724.779518	2537.817669
725.111574	2532.781557
725.443582	2537.893287
725.775542	2535.972607
726.107453	2536.948070
726.439315	2536.186856
726.771129	2539.556867
727.102895	2537.137113
727.434612	2539.577032
727.766281	2537.149716
728.097901	2537.668955
728.429473	2534.493028
728.760996	2537.984027
729.092471	2534.664428
729.423897	2536.733821
729.755276	2538.019315
730.086606	2540.338246
730.417887	2537.542926
730.749120	2538.664583
731.080305	2536.320447
731.411442	2539.193904
731.742530	2538.157947
732.073570	2540.408822
732.404562	2537.928575
732.735506	2538.306661
733.066401	2539.506456
733.397249	2538.883873
733.728048	2537.295910
734.058798	2538.820859
734.389501	2536.045704
734.720156	2539.035108
735.050762	2538.369676
735.381320	2539.191384
735.711831	2536.993441
736.042293	2537.648791
736.372707	2538.820859
736.703073	2538.772968
737.033391	2539.592155
737.363661	2538.289017
737.693883	2538.823379
738.024056	2540.242464
738.354182	2536.375899
738.684260	2538.798174
739.014290	2536.015457
739.344272	2535.886907
739.674207	2536.849768
740.004093	2536.852288
740.333931	2537.379089
740.663722	2539.534182
740.993464	2538.495704
741.323159	2538.392361
741.652806	2537.520241
741.982405	2538.775488
742.311956	2536.348173
742.641460	2537.837834
742.970915	2536.209541
743.300323	2536.885056
743.629683	2535.491177
743.958996	2534.913965
744.288260	2537.159799
744.617477	2539.866898
744.946647	2532.801721
745.275768	2535.029911
745.604842	2533.938501
745.933869	2535.397915
746.262847	2533.550333
746.591778	2538.488143
746.920662	2536.363296
747.249498	2535.655014
747.578286	2538.044521
747.907027	2535.975128
748.235720	2536.552340
748.564365	2538.382278
748.892963	2537.064017
749.221514	2535.385313
749.550017	2534.936650
749.878473	2537.449665
750.206881	2535.241640
750.535242	2535.188708
750.863555	2538.944367
751.191821	2537.268183
751.520039	2536.186856
751.848210	2538.110056
752.176334	2536.396064
752.504411	2540.174409
752.832440	2535.891948
753.160421	2537.812628
753.488356	2535.844058
753.816243	2536.423790
754.144082	2536.111239
754.471875	2537.195087
754.799620	2536.411187
755.127318	2537.071578
755.454969	2537.399253
755.782572	2537.384130
756.110129	2535.841537
756.437638	2536.590148
756.765100	2534.417411
757.092515	2534.135106
757.419882	2535.435724
757.747203	2536.229706
758.074477	2536.171732
758.401703	2537.399253
758.728882	2536.053265
759.056014	2537.356404
759.383099	2536.547298
759.710138	2535.367668
760.037129	2537.142155
760.364073	2535.977648
760.690970	2536.300282
761.017820	2540.779347
761.344623	2534.392205
761.671379	2537.172402
761.998088	2531.589324
762.324751	2533.923378
762.651366	2535.168543
762.977935	2536.285158
763.304456	2534.838347
763.630931	2538.082330
763.957359	2537.588297
764.283740	2537.840354
764.610074	2536.627957
764.936362	2539.629964
765.262602	2537.116949
765.588796	2538.082330
765.914943	2533.507483
766.241044	2537.464788
766.567097	2534.883718
766.893104	2538.079809
767.219064	2536.832124
767.544978	2537.449665
767.870845	2534.132586
768.196665	2536.171733
768.522438	2534.976979
768.848165	2536.542257
769.173846	2537.081661
769.499479	2538.105015
769.825066	2534.044366
770.150607	2534.608975
770.476101	2535.718029
770.801548	2536.522093
771.126949	2535.798687
771.452303	2537.023688
771.777611	2532.486649
772.102872	2536.698533
772.428087	2533.847761
772.753256	2535.143337
773.078378	2536.196938
773.403453	2535.695343
773.728482	2532.567308
774.053465	2533.774664
774.378401	2534.427493
774.703291	2533.845240
775.028135	2535.539068
775.352932	2533.663758
775.677683	2534.109901
776.002388	2536.259953
776.327046	2536.438914
776.651658	2537.386651
776.976224	2534.901362
777.300743	2535.103008
777.625216	2535.586959
777.949643	2534.432534
778.274024	2537.797505
778.598359	2532.403470
778.922647	2530.661751
779.246889	2533.167205
779.571086	2528.128572
779.895236	2533.073943
780.219339	2535.823893
780.543397	2536.136444
780.867409	2535.942360
781.191374	2537.139634
781.515294	2537.482433
781.839167	2534.432534
782.162995	2534.813142
782.486776	2538.445293
782.810511	2533.525127
783.134201	2535.735673
783.457844	2532.189221
783.781441	2532.680733
784.104993	2534.619057
784.428498	2531.491021
784.751958	2533.996475
785.075372	2536.290200
785.398739	2532.632842
785.722061	2535.707946
786.045337	2533.820034
786.368568	2534.427493
786.691752	2533.018491
787.014891	2534.921526
787.337983	2533.512524
787.661030	2538.157947
787.984031	2534.450178
788.306987	2533.003367
788.629897	2533.421783
788.952760	2536.151568
789.275579	2535.143337
789.598351	2536.043183
789.921078	2533.275590
790.243759	2531.934643
790.566395	2533.976310
790.888984	2533.671320
791.211529	2533.888090
791.534027	2536.559901
791.856480	2533.426824
792.178888	2532.960518
792.501249	2536.761547
792.823566	2535.203831
793.145836	2534.712318
793.468062	2535.972607
793.790241	2532.405991
794.112375	2535.193749
794.434464	2532.164015
794.756507	2535.647453
795.078505	2534.457740
795.400457	2531.017153
795.722364	2530.651669
796.044226	2531.201155
796.366042	2532.390867
796.687812	2532.383305
797.009538	2533.515044
797.331218	2535.874304
797.652852	2530.956659
797.974442	2537.008564
798.295986	2535.223996
798.617484	2532.532019
798.938938	2534.427493
799.260346	2535.004705
799.581709	2532.957997
799.903026	2533.116793
800.224299	2534.064530
800.545526	2534.745086
800.866708	2534.288862
801.187845	2533.303316
801.508936	2533.061341
801.829983	2534.036804
802.150984	2533.250384
802.471940	2532.244674
802.792851	2531.974972
803.113717	2535.982689
803.434538	2531.886752
803.755314	2533.580579
804.076045	2534.298944
804.396731	2533.411701
804.717372	2534.102339
805.037967	2534.626619
805.358518	2534.717360
805.679024	2534.437576
805.999485	2535.186187
806.319901	2533.131917
806.640272	2534.976979
806.960598	2533.220137
807.280879	2531.775846
807.601115	2532.390867
807.921306	2532.269879
808.241453	2534.046886
808.561554	2530.437420
808.881611	2535.458409
809.201623	2531.211237
809.521590	2533.814993
809.841513	2534.172915
810.161390	2531.924560
810.481223	2531.470857
810.801011	2530.838192
811.120755	2533.189890
811.440453	2531.569159
811.760107	2533.615868
812.079716	2531.440610
812.399281	2529.676206
812.718801	2532.053110
813.038276	2530.180321
813.357707	2535.904551
813.677093	2531.475898
813.996434	2534.087215
814.315731	2533.648635
814.634983	2532.373223
814.954191	2531.821217
815.273354	2534.135106
815.592473	2532.027904
815.911547	2536.201979
816.230577	2533.474715
816.549562	2534.152750
816.868502	2534.848430
817.187399	2534.674510
817.506250	2533.099149
817.825058	2532.320291
818.143821	2532.721063
818.462539	2535.082843
818.781213	2534.480425
819.099843	2535.352545
819.418429	2535.496218
819.736970	2537.001002
820.055466	2536.552340
820.373919	2536.932947
820.692327	2534.220806
821.010691	2537.313554
821.329011	2538.848585
821.647286	2545.843186
821.965517	2546.798485
822.283704	2550.523897
822.601847	2551.073383
822.919945	2547.335368
823.237999	2546.876623
823.556010	2544.257743
823.873976	2537.013605
824.191897	2539.410674
824.509775	2535.292051
824.827609	2535.637370
825.145398	2536.181815
825.463144	2536.711136
825.780845	2536.968235
826.098502	2538.452855
826.416116	2537.379089
826.733685	2540.307999
827.051210	2543.655325
827.368692	2538.563760
827.686129	2537.195087
828.003522	2536.385982
828.320872	2531.778367
828.638177	2530.858356
828.955439	2532.511855
829.272656	2533.048738
829.589830	2530.051772
829.906960	2535.889428
830.224046	2534.356917
830.541088	2532.675692
830.858086	2534.372041
831.175041	2532.509334
831.491952	2532.945394
831.808819	2533.683923
832.125642	2531.453213
832.442421	2535.899510
832.759157	2534.354397
833.075849	2536.358255
833.392497	2533.555374
833.709101	2536.257432
834.025662	2533.784746
834.342179	2538.785571
834.658653	2533.394057
834.975083	2534.334232
835.291469	2536.088553
835.607811	2537.237937
835.924110	2531.433048
836.240366	2534.924047
836.556578	2530.296268
836.872746	2533.855322
837.188871	2532.985723
837.504952	2533.368851
837.820990	2533.981351
838.136984	2530.434899
838.452935	2532.315250
838.768842	2533.837678
839.084706	2531.276772
839.400526	2534.485467
839.716303	2529.656041
840.032037	2531.465815
840.347727	2531.546474
840.663373	2534.039324
840.978977	2531.715353
841.294537	2531.417924
841.610054	2531.657379
841.925527	2534.500590
842.240957	2535.337422
842.556344	2531.347348
842.871687	2531.634694
843.186987	2533.003367
843.502244	2531.758202
843.817458	2532.521937
844.132629	2529.920702
844.447756	2531.886752
844.762840	2527.563962
845.077881	2530.583613
845.392879	2527.463139
845.707833	2530.802904
846.022745	2527.342152
846.337613	2531.881711
846.652438	2531.402801
846.967221	2533.721732
847.281960	2533.789787
847.596656	2530.979344
847.911309	2533.812473
848.225919	2531.246525
848.540485	2529.330887
848.855009	2532.128727
849.169490	2530.792821
849.483928	2533.182328
849.798323	2533.227699
850.112675	2532.685775
850.426984	2531.725435
850.741251	2531.919519
851.055474	2534.644263
851.369654	2533.469674
851.683792	2530.228212
851.997887	2531.700229
852.311938	2529.219981
852.625947	2530.414735
852.939914	2533.300795
853.253837	2532.360620
853.567718	2530.447502
853.881555	2531.896834
854.195350	2532.007739
854.509103	2535.191228
854.822812	2533.739376
855.136479	2528.065557
855.450103	2530.760054
855.763685	2530.734848
856.077224	2531.440610
856.390720	2532.025383
856.704173	2529.908099
857.017584	2530.490352
857.330953	2532.106042
857.644278	2529.018335
857.957561	2534.240971
858.270802	2531.541433
858.584000	2532.673172
858.897155	2531.944725
859.210268	2531.869108
859.523339	2534.586290
859.836367	2529.703932
860.149352	2529.555218
860.462295	2533.373892
860.775195	2526.971627
861.088054	2528.799045
861.400869	2529.101514
861.713642	2526.502799
862.026373	2528.305012
862.339062	2533.315919
862.651708	2534.556043
862.964312	2532.925229
863.276873	2531.178470
863.589392	2534.631660
863.901869	2527.626977
864.214303	2530.704601
864.526696	2530.596216
864.839045	2531.173428
865.151353	2532.368182
865.463619	2531.571680
865.775842	2530.636546
866.088023	2531.838861
866.400162	2533.187369
866.712258	2530.379447
867.024313	2531.491021
867.336325	2531.906916
867.648296	2529.025897
867.960224	2532.307688
868.272110	2532.748789
868.583954	2530.573531
868.895755	2532.710980
869.207515	2533.391536
869.519233	2530.712163
869.830909	2529.955990
870.142542	2533.003367
870.454134	2532.579910
870.765684	2530.034128
871.077191	2531.284334
871.388657	2531.120496
871.700081	2532.330373
872.011463	2532.101001
872.322803	2530.056813
872.634101	2531.669982
872.945357	2530.528161
873.256571	2533.535209
873.567744	2530.240815
873.878874	2530.961700
874.189963	2531.677544
874.501010	2532.310209
874.812015	2531.874149
875.122979	2532.695857
875.433900	2528.577234
875.744780	2532.232071
876.055618	2529.507327
876.366415	2530.959179
876.677169	2532.451361
876.987882	2528.441123
877.298554	2527.440454
877.609183	2528.836854
877.919771	2530.346679
878.230317	2530.238294
878.540822	2531.992616
878.851285	2531.244005
879.161707	2531.057482
879.472087	2534.913965
879.782425	2531.238963
880.092722	2534.792977
880.402977	2535.960004
880.713191	2536.718698
881.023363	2539.917310
881.333494	2541.112063
881.643583	2541.059131
881.953631	2540.882691
882.263637	2536.801877
882.573602	2538.765406
882.883526	2537.522762
883.193408	2538.203318
883.503248	2533.993954
883.813048	2533.696526
884.122806	2535.221475
884.432522	2534.364479
884.742197	2534.934129
885.051831	2531.470857
885.361424	2532.998326
885.670975	2533.986392
885.980485	2529.204858
886.289954	2531.291896
886.599382	2534.278779
886.908768	2530.956659
887.218113	2534.356917
887.527417	2533.532688
887.836680	2530.112266
888.145901	2530.321473
888.455082	2530.765095
888.764221	2532.491690
889.073319	2530.674354
889.382376	2531.012112
889.691392	2529.502286
890.000366	2531.732997
890.309300	2532.612678
890.618193	2528.879703
890.927044	2532.259797
891.235855	2530.147554
891.544625	2530.112266
891.853353	2528.436082
892.162041	2532.524458
892.470687	2531.485980
892.779293	2530.636546
893.087858	2527.616894
893.396381	2524.982892
893.704864	2527.480783
894.013306	2526.611184
894.321707	2531.995137
894.630068	2532.602596
894.938387	2532.723583
895.246665	2534.132586
895.554903	2535.539068
895.863100	2532.554705
896.171256	2533.043697
896.479371	2530.810465
896.787446	2534.293903
897.095480	2529.673685
897.403473	2531.876669
897.711425	2530.596216
898.019336	2531.566638
898.327207	2530.560928
898.635038	2529.774508
898.942827	2528.675537
899.250576	2530.152595
899.558284	2531.831299
899.865952	2529.966072
900.173579	2531.370033
900.481165	2529.812317
900.788711	2531.382636
901.096216	2531.153264
901.403681	2530.739889
901.711105	2530.117307
902.018489	2531.047400
902.325832	2533.303316
902.633135	2530.631504
902.940397	2530.593696
903.247619	2531.329704
903.554800	2530.044210
903.861941	2532.108563
904.169041	2536.776671
904.476101	2533.424304
904.783121	2536.907741
905.090100	2534.450178
905.397039	2535.503780
905.703938	2532.022863
906.010796	2533.497400
906.317614	2532.040507
906.624391	2533.971269
906.931129	2529.492204
907.237826	2530.172759
907.544483	2528.652852
907.851099	2529.615712
908.157675	2529.671165
908.464211	2529.288037
908.770707	2527.160670
909.077163	2528.821730
909.383578	2522.311080
909.689954	2527.422810
909.996289	2526.265865
910.302584	2529.361134
910.608839	2528.494055
910.915054	2529.683767
911.221229	2526.341483
911.527363	2534.515713
911.833458	2528.534384
912.139513	2529.950949
912.445527	2530.407173
912.751502	2530.513037
913.057436	2530.734848
913.363331	2533.590662
913.669186	2528.811648
913.975000	2529.073788
914.280775	2530.533202
914.586510	2529.083870
914.892205	2532.743748
915.197859	2533.008408
915.503475	2530.709642
915.809050	2535.052596
916.114585	2532.852133
916.420081	2535.952442
916.725536	2533.446989
917.030952	2536.348173
917.336328	2532.335414
917.641665	2534.182997
917.946961	2531.864067
918.252218	2530.868439
918.557435	2532.826927
918.862612	2533.527647
919.167750	2529.696370
919.472848	2535.113090
919.777906	2527.299302
920.082925	2530.414735
920.387904	2531.478418
920.692843	2533.192411
920.997743	2531.690147
921.302603	2531.959848
921.607423	2531.859025
921.912204	2529.499765
922.216946	2529.845084
922.521647	2528.642769
922.826310	2531.773326
923.130932	2529.313243
923.435516	2528.010104
923.740059	2531.473377
924.044564	2531.443130
924.349028	2531.470857
924.653454	2525.388704
924.957840	2527.695032
925.262186	2523.979702
925.566493	2525.456760
925.870761	2522.142201
926.174989	2530.747451
926.479178	2527.319466
926.783328	2528.932636
927.087438	2528.481452
927.391509	2531.017153
927.695541	2528.849457
927.999533	2530.727286
928.303486	2531.054961
928.607400	2528.660413
928.911275	2523.488189
929.215110	2530.719725
929.518906	2529.348531
929.822663	2529.477080
930.126381	2530.576052
930.430060	2528.831813
930.733699	2530.424817
931.037299	2527.495907
931.340861	2527.069929
931.644383	2529.285516
931.947866	2529.177132
932.251309	2527.722759
932.554714	2529.078829
932.858080	2530.263500
933.161407	2529.204858
933.464694	2526.031452
933.767943	2531.236443
934.071153	2528.645290
934.374323	2528.559590
934.677455	2531.977493
934.980548	2527.410207
935.283602	2529.850126
935.586617	2527.967255
935.889593	2529.250228
936.192530	2528.912471
936.495428	2528.552028
936.798287	2529.628315
937.101108	2525.822244
937.403890	2529.353572
937.706632	2529.242667
938.009336	2530.465146
938.312002	2531.465815
938.614628	2527.117820
938.917216	2529.098994
939.219765	2529.106555
939.522275	2530.303829
939.824747	2528.683098
940.127179	2525.842408
940.429573	2524.619928
940.731929	2525.139167
941.034246	2524.476256
941.336524	2528.234436
941.638763	2526.853160
941.940964	2528.950280
942.243126	2527.808458
942.545250	2529.454395
942.847335	2531.047400
943.149381	2529.101514
943.451389	2528.491535
943.753359	2526.273427
944.055290	2528.244518
944.357182	2528.241997
944.659036	2529.025897
944.960851	2529.156967
945.262628	2528.166380
945.564367	2530.402132
945.866067	2529.076308
946.167729	2530.755013
946.469352	2528.252080
946.770937	2526.875845
947.072484	2527.269055
947.373992	2526.737213
947.675462	2527.700073
947.976893	2527.437933
948.278286	2527.614374
948.579641	2528.443644
948.880958	2529.955990
949.182236	2529.509848
949.483476	2525.940711
949.784678	2527.032121
950.085841	2528.103366
950.386967	2530.553367
950.688054	2527.710156
950.989103	2525.943231
951.290114	2528.284847
951.591087	2528.935156
951.892021	2528.516740
952.192917	2529.968593
952.493776	2527.866432
952.794596	2533.605785
953.095378	2526.154960
953.396122	2529.018335
953.696828	2525.171935
953.997496	2531.090249
954.298126	2526.835516
954.598718	2529.144364
954.899272	2526.565814
955.199788	2527.445495
955.500266	2528.912471
955.800706	2526.802748
956.101108	2524.072963
956.401472	2527.548839
956.701798	2526.167563
957.002087	2526.475073
957.302337	2528.297450
957.602550	2527.742923
957.902724	2527.216123
958.202861	2530.674354
958.502960	2526.346524
958.803022	2529.041020
959.103045	2529.162008
959.403031	2530.515558
959.702979	2526.018849
960.002889	2530.722245
960.302762	2527.453057
960.602596	2527.493386
960.902393	2527.856349
961.202153	2526.757378
961.501875	2527.606812
961.801559	2528.869621
962.101205	2526.878365
962.400814	2527.916843
962.700385	2528.874662
962.999918	2529.477080
963.299414	2526.717048
963.598873	2528.947759
963.898293	2528.368026
964.197677	2532.128727
964.497022	2526.394415
964.796331	2528.236956
965.095601	2526.757378
965.394835	2529.111597
965.694030	2525.466842
965.993189	2528.355423
966.292309	2528.045393
966.591393	2530.082019
966.890439	2527.450536
967.189447	2528.105886
967.488419	2528.045393
967.787353	2528.350382
968.086249	2528.110927
968.385108	2527.992460
968.683930	2528.330218
968.982714	2526.951462
969.281462	2527.483304
969.580172	2529.436751
969.878844	2525.386184
970.177480	2530.273583
970.476078	2526.520443
970.774639	2528.660413
971.073162	2528.993129
971.371649	2526.979188
971.670098	2522.611029
971.968510	2524.998015
972.266885	2520.342509
972.565223	2527.780732
972.863524	2526.033972
973.161788	2528.307532
973.460014	2528.645290
973.758204	2529.434230
974.056356	2527.553880
974.354471	2525.696215
974.652550	2528.410876
974.950591	2526.689322
975.248595	2526.500279
975.546563	2527.972296
975.844493	2528.259642
976.142386	2530.717204
976.440243	2528.680578
976.738062	2528.030269
977.035845	2527.475742
977.333590	2527.153108
977.631299	2525.542460
977.928971	2528.370547
978.226606	2526.737213
978.524204	2529.950949
978.821765	2527.309384
979.119290	2528.660413
979.416777	2527.722759
979.714228	2529.892975
980.011642	2527.591689
980.309020	2529.043541
980.606360	2527.879034
980.903664	2527.896678
981.200931	2525.355937
981.498162	2526.759898
981.795356	2527.405166
982.092513	2526.843077
982.389633	2527.334590
982.686717	2527.143026
982.983764	2527.485824
983.280775	2530.087060
983.577749	2529.116638
983.874686	2527.463139
984.171587	2527.727800
984.468451	2528.423479
984.765279	2529.098994
985.062070	2526.704446
985.358824	2526.603623
985.655543	2531.765764
985.952224	2526.838036
986.248869	2525.741585
986.545478	2520.082890
986.842050	2528.426000
987.138586	2523.246214
987.435086	2523.563807
987.731549	2520.700431
988.027975	2526.187727
988.324366	2525.696215
988.620719	2526.217974
988.917037	2525.008097
989.213318	2528.526823
989.509563	2525.570186
989.805772	2530.513037
990.101944	2523.246214
990.398080	2528.136133
990.694180	2524.766122
990.990244	2528.635208
991.286271	2526.628828
991.582262	2527.448016
991.878217	2527.926925
992.174136	2526.464991
992.470019	2528.821730
992.765865	2527.644621
993.061676	2527.309384
993.357450	2527.664785
993.653188	2525.043385
993.948890	2527.102697
994.244556	2526.331400
994.540186	2530.258459
994.835780	2528.410876
995.131337	2529.542615
995.426859	2527.432892
995.722345	2525.227387
996.017795	2525.827285
996.313208	2530.523120
996.608586	2528.816689
996.903928	2528.254600
997.199234	2528.017666
997.494504	2527.508510
997.789738	2527.619415
998.084936	2527.105217
998.380099	2527.218643
998.675225	2526.951462
998.970316	2524.435926
999.265371	2526.787625
999.560390	2527.294261
999.855373	2526.628828
1000.150320	2526.580937
1000.445232	2526.162522
1000.740108	2526.835516
1001.034948	2525.786956
1001.329752	2530.187883
1001.624521	2528.163860
1001.919254	2523.881399
1002.213951	2524.914836
1002.508613	2523.581451
1002.803239	2526.777542
1003.097829	2522.613549
1003.392384	2523.891482
1003.686903	2526.359127
1003.981386	2527.218643
1004.275834	2523.374763
1004.570246	2526.712007
1004.864623	2525.640762
1005.158964	2528.040351
1005.453270	2525.877696
1005.747540	2528.846936
1006.041775	2526.273427
1006.335974	2528.678057
1006.630138	2525.028262
1006.924266	2529.093953
1007.218359	2526.505320
1007.512416	2530.329035
1007.806438	2524.153622
1008.100425	2527.702594
1008.394376	2527.180835
1008.688292	2525.769312
1008.982172	2526.752337
1009.276017	2529.411545
1009.569827	2525.560104
1009.863602	2526.548170
1010.157341	2527.674868
1010.451045	2527.158149
1010.744714	2526.684281
1011.038347	2527.765608
1011.331945	2525.003056
1011.625508	2525.605474
1011.919036	2528.231915
1012.212528	2524.826616
1012.505986	2527.904240
1012.799408	2526.477594
1013.092795	2526.028931
1013.386147	2527.964734
1013.679464	2524.438447
1013.972745	2526.810310
1014.265992	2528.466329
1014.559204	2529.330887
1014.852380	2528.000022
1015.145521	2527.102697
1015.438628	2527.581606
1015.731699	2524.950124
1016.024736	2526.528005
1016.317737	2525.655886
1016.610703	2529.451874
1016.903635	2521.403672
1017.196531	2522.663961
1017.489393	2523.425175
1017.782219	2521.764115
1018.075011	2527.105217
1018.367768	2523.654548
1018.660490	2529.671165
1018.953177	2529.671165
1019.245829	2529.671165
