Dividing Wavelength (nm)	Counts (n)	Blue Motor Position (mm): 0.000000	Red Motor Position (mm): 38.000000	
326.493990	2078.535786
326.888308	2078.535786
327.282561	2078.535786
327.676750	2053.997970
328.070874	2055.001160
328.464933	2062.373847
328.858929	2075.422874
329.252859	2086.682291
329.646726	2100.374065
330.040528	2113.871754
330.434265	2134.064096
330.827938	2154.823568
331.221547	2172.699499
331.615091	2193.143898
332.008571	2214.750284
332.401986	2236.545713
332.795338	2253.781418
333.188625	2275.294542
333.581847	2294.576955
333.975006	2312.468010
334.368100	2332.244457
334.761129	2344.776765
335.154095	2362.249404
335.546996	2391.712428
335.939833	2435.610796
336.332606	2448.289298
336.725315	2461.913016
337.117960	2467.357462
337.510540	2478.029585
337.903056	2487.307828
338.295508	2489.805720
338.687896	2497.911895
339.080220	2507.505211
339.472480	2508.689882
339.864676	2515.538290
340.256807	2518.326048
340.648875	2519.747653
341.040879	2521.625483
341.432818	2522.989115
341.824694	2523.556245
342.216506	2523.513395
342.608253	2524.561955
342.999937	2521.741430
343.391557	2519.931655
343.783113	2518.212622
344.174605	2520.120699
344.566033	2517.327899
344.957397	2515.528207
345.348697	2514.605676
345.739934	2513.652898
346.131106	2509.720798
346.522215	2507.351456
346.913260	2510.726508
347.304241	2508.730212
347.695159	2505.067813
348.086012	2504.208297
348.476802	2501.226454
348.867528	2503.847854
349.258191	2498.105980
349.648789	2500.334170
350.039324	2498.466422
350.429796	2498.136227
350.820203	2496.659169
351.210548	2499.288130
351.600828	2497.992554
351.991045	2496.150012
352.381198	2494.960300
352.771288	2496.518016
353.161314	2497.243943
353.551276	2498.640342
353.941175	2497.306957
354.331010	2494.851915
354.720782	2499.333501
355.110490	2498.718480
355.500135	2499.880466
355.889717	2500.530775
356.279235	2496.076915
356.668689	2499.686382
357.058080	2496.639004
357.447408	2498.642863
357.836672	2498.368120
358.225873	2499.525065
358.615010	2496.996926
359.004084	2502.000271
359.393095	2502.141423
359.782043	2502.816938
360.170927	2504.200735
360.559748	2509.688031
360.948505	2507.996724
361.337199	2509.932527
361.725830	2510.000582
362.114398	2509.163751
362.502903	2510.638288
362.891344	2512.705161
363.279722	2510.577794
363.668037	2514.552744
364.056289	2512.382528
364.444478	2515.185409
364.832603	2516.876716
365.220665	2515.180368
365.608665	2518.071470
365.996601	2517.325379
366.384474	2517.211953
366.772284	2520.171110
367.160031	2522.046419
367.547715	2522.616070
367.935336	2522.497603
368.322893	2521.537263
368.710388	2525.343334
369.097820	2527.901720
369.485189	2530.061854
369.872495	2527.332069
370.259738	2528.667975
370.646918	2531.695188
371.034035	2532.171577
371.421090	2536.403626
371.808081	2538.369676
372.195010	2543.204142
372.581875	2547.098433
372.968678	2553.682180
373.355418	2561.203582
373.742096	2570.323029
374.128710	2579.560944
374.515262	2593.562748
374.901751	2601.588265
375.288177	2618.004783
375.674540	2631.106742
376.060841	2653.481903
376.447079	2672.761796
376.833254	2698.222143
377.219367	2718.290977
377.605417	2750.241810
377.991404	2773.017743
378.377329	2810.304637
378.763191	2843.619103
379.148991	2886.816750
379.534727	2933.195365
379.920402	2977.741521
380.306013	3021.344982
380.691563	3078.347829
381.077049	3136.926036
381.462474	3187.322451
381.847835	3255.861979
382.233134	3322.201043
382.618371	3381.109446
383.003545	3462.420737
383.388657	3536.883621
383.773706	3628.415851
384.158693	3689.522198
384.543618	3780.099129
384.928480	3857.889174
385.313280	3951.566416
385.698017	4054.942837
386.082692	4170.135723
386.467305	4227.531780
386.851856	4344.579811
387.236344	4491.622707
387.620770	4552.918096
388.005133	4670.762629
388.389435	4809.505265
388.773674	4887.131473
389.157851	5013.132592
389.541965	5141.094721
389.926018	5168.077497
390.310008	5338.224001
390.693936	5453.684068
391.077802	5568.216563
391.461606	5693.305234
391.845348	5801.989990
392.229027	5924.169916
392.612645	6134.431401
392.996200	6249.614205
393.379694	6418.926398
393.763125	6622.770495
394.146494	6724.657255
394.529801	6853.768767
394.913047	7084.900630
395.296230	7083.368119
395.679351	7139.521532
396.062410	7383.778038
396.445408	7287.996115
396.828343	7441.900022
397.211217	7574.394148
397.594028	7463.266952
397.976778	7663.988054
398.359466	7825.446130
398.742092	7805.462996
399.124656	7947.346271
399.507158	8131.297975
399.889598	8156.468456
400.271977	8366.709777
400.654294	8394.930156
401.036549	8600.178215
401.418742	8626.614025
401.800874	8920.893902
402.182944	9003.931788
402.564952	9353.992032
402.946898	9199.150471
403.328783	9245.665197
403.710606	9442.250033
404.092367	9697.143374
404.474067	10048.473988
404.855705	9851.052321
405.237282	9813.639398
405.618797	10223.611235
406.000250	10472.659358
406.381642	10822.691875
406.762972	10778.801069
407.144240	10596.321383
407.525447	10835.698052
407.906593	10792.762545
408.287677	11048.611185
408.668700	11194.179543
409.049661	11188.120077
409.430560	11342.659168
409.811399	11323.023874
410.192176	11487.730973
410.572891	11559.388454
410.953545	12027.179805
411.334138	11521.985613
411.714669	12097.589601
412.095139	11452.475664
412.475547	11928.658015
412.855894	11799.748149
413.236180	12112.909667
413.616405	11805.394242
413.996568	12083.239956
414.376670	12064.869992
414.756711	11958.297479
415.136691	12227.094323
415.516609	12398.624623
415.896466	12482.527067
416.276262	12770.318979
416.655997	13229.321078
417.035670	13274.351184
417.415283	13891.821954
417.794834	13971.056290
418.174324	13722.542529
418.553753	13636.366524
418.933121	14116.869144
419.312428	13950.206077
419.691674	13850.842415
420.070859	14323.765660
420.449983	13977.967712
420.829045	14531.209141
421.208047	14288.933807
421.586988	14735.189349
421.965867	14982.261340
422.344686	14991.597557
422.723444	15561.157201
423.102141	14258.384415
423.480777	15452.195181
423.859352	14946.764055
424.237866	16049.647529
424.616319	15767.635300
424.994712	16408.481901
425.373044	16209.724328
425.751314	16894.028195
426.129524	16023.710792
426.507673	17098.613342
426.885762	16828.243658
427.263789	17011.880290
427.641756	17197.407354
428.019662	17250.233605
428.397508	17307.236453
428.775292	17596.817973
429.153016	17578.077484
429.530679	17639.226680
429.908282	17678.061209
430.285824	17420.130572
430.663305	18119.598230
431.040726	17746.298267
431.418086	17579.826764
431.795385	18210.550728
432.172624	18659.934305
432.549802	18217.777222
432.926920	18434.360315
433.303977	18310.967992
433.680974	18563.045849
434.057910	18867.564309
434.434786	18909.393283
434.811601	18833.808742
435.188355	19889.638086
435.565050	19547.389111
435.941683	19512.136322
436.318257	20411.526059
436.694770	20216.201512
437.071222	20807.191101
437.447614	19882.640965
437.823946	19908.141642
438.200218	20080.942313
438.576429	19849.989411
438.952580	20169.323822
439.328670	20144.758280
439.704700	20555.755991
440.080670	20121.584095
440.456580	20751.534242
440.832429	20903.872870
441.208218	19922.980278
441.583947	20356.786690
441.959616	20486.074642
442.335224	20741.356152
442.710773	20879.486288
443.086261	21433.693098
443.461689	20764.472363
443.837057	20935.536357
444.212365	21581.693813
444.587612	21585.567940
444.962800	21183.314110
445.337927	21615.104060
445.712995	20335.523103
446.088002	22214.580432
446.462949	22429.832660
446.837837	22611.788067
447.212664	22643.209578
447.587431	25594.396822
447.962139	28573.285206
448.336786	30878.609901
448.711374	29207.893378
449.085901	25472.209335
449.460369	25489.331614
449.834776	25492.948642
450.209124	28044.102684
450.583412	27522.038271
450.957640	28023.887657
451.331808	26665.331983
451.705917	25283.319821
452.079965	25329.330432
452.453954	25707.976539
452.827883	25639.623534
453.201752	25433.069817
453.575562	25589.751399
453.949311	26729.568886
454.323001	26794.929966
454.696632	26573.209938
455.070202	28193.744294
455.443713	28370.262817
455.817164	28950.166908
456.190556	29524.132521
456.563888	28933.430278
456.937160	29382.932322
457.310373	27654.247572
457.683526	28091.585312
458.056619	28099.726775
458.429653	28075.297344
458.802628	28694.794657
459.175542	28823.868361
459.548398	30211.735823
459.921194	31834.243791
460.293930	32576.989755
460.666607	34677.436917
461.039224	36485.003122
461.411782	36821.996695
461.784280	35526.352101
462.156719	34979.475129
462.529099	34409.260135
462.901419	33074.758327
463.273680	32014.152490
463.645882	32164.943484
464.018024	32161.500376
464.390106	33096.770525
464.762130	36026.419439
465.134094	40366.492458
465.505999	45866.504730
465.877845	50396.150339
466.249631	51407.075605
466.621358	49548.399662
466.993026	47313.275555
467.364634	45169.313153
467.736184	43197.276783
468.107674	41928.763679
468.479105	41126.975721
468.850477	40398.213918
469.221790	38950.069379
469.593043	37173.526435
469.964238	36265.475995
470.335373	36211.109672
470.706449	38083.290867
471.077467	40858.062931
471.448425	45530.950407
471.819324	48303.902615
472.190164	46311.560477
472.560945	42661.893642
472.931667	39500.825519
473.302330	38399.426665
473.672934	37550.322438
474.043479	38094.968699
474.413965	37298.874725
474.784393	36920.379853
475.154761	37852.257306
475.525070	37913.822398
475.895321	37418.902078
476.265513	38063.363185
476.635645	39063.117254
477.005719	38899.592306
477.375734	39418.115308
477.745691	40144.149847
478.115588	41505.831036
478.485427	43624.824602
478.855207	47125.273284
479.224928	49792.152053
479.594591	51329.494768
479.964194	50215.462783
480.333739	50362.193127
480.703226	50431.476225
481.072653	51080.698703
481.442022	51560.142680
481.811333	51771.719907
482.180584	50484.751139
482.549777	49949.841866
482.918912	49420.215722
483.287988	49126.034148
483.657005	48262.673538
484.025964	47593.994727
484.394864	47590.909541
484.763706	47139.534708
485.132489	46250.587721
485.501213	46101.203209
485.869879	46231.794299
486.238487	45834.546335
486.607036	46014.253387
486.975527	45459.232431
487.343959	45698.402414
487.712333	45748.897131
488.080648	45652.490105
488.448905	46094.821108
488.817104	45913.470640
489.185244	46921.474557
489.553326	48689.828147
489.921350	51455.624438
490.289315	54285.390449
490.657222	54806.275232
491.025070	55026.954263
491.392861	54103.916473
491.760593	52834.589222
492.128267	51121.637913
492.495883	49586.959447
492.863440	48147.899068
493.230939	46769.546783
493.598380	45690.891095
493.965763	45338.635428
494.333088	44508.634653
494.700354	44016.058470
495.067563	43711.804671
495.434713	43564.504676
495.801805	43635.879853
496.168839	43244.459462
496.535815	42899.858788
496.902733	42901.025815
497.269593	42470.133190
497.636395	42401.601224
498.003139	42810.789162
498.369825	42236.142993
498.736453	42549.319635
499.103023	42078.853952
499.469535	41936.554782
499.835989	42022.766075
500.202385	41674.240862
500.568723	41686.609333
500.935003	41884.648542
501.301226	41669.797085
501.667390	42290.312712
502.033497	42528.802139
502.399546	41952.457102
502.765537	41247.925605
503.131470	41617.366565
503.497345	41967.951088
503.863163	40612.916661
504.228923	41244.825295
504.594625	41655.820486
504.960269	40915.123752
505.325856	41608.796603
505.691385	40971.831691
506.056856	41109.056940
506.422270	41532.544110
506.787625	41094.803078
507.152924	41304.688997
507.518164	41395.991855
507.883347	40583.773750
508.248472	40817.461478
508.613540	41316.394557
508.978550	41603.810902
509.343503	41349.255318
509.708398	41555.209138
510.073236	42086.592123
510.438016	42074.420258
510.802738	41520.059693
511.167403	42149.722493
511.532010	42361.866850
511.896561	42657.074298
512.261053	43497.641332
512.625488	43054.919639
512.989866	42922.864094
513.354186	42750.733896
513.718449	42732.585742
514.082655	43410.721757
514.446803	43066.663007
514.810894	43613.252634
515.174927	43502.354811
515.538904	43398.963266
515.902822	44064.652672
516.266684	43506.135676
516.630488	43933.254998
516.994235	43776.996872
517.357925	44368.488056
517.721558	44534.410073
518.085133	44823.242983
518.448651	44936.815138
518.812112	44711.392382
519.175516	44794.306760
519.538863	45141.354914
519.902152	45079.320995
520.265385	45561.272947
520.628560	45582.844044
520.991678	45355.845928
521.354739	45593.798472
521.717743	45890.417443
522.080690	45763.836591
522.443580	46327.200657
522.806413	46347.851743
523.169189	46301.107644
523.531908	46475.246742
523.894569	46322.734194
524.257174	46465.519836
524.619722	46757.024557
524.982213	46742.745489
525.344647	46663.009558
525.707025	46715.140130
526.069345	47097.645240
526.431608	47011.111314
526.793815	47311.871593
527.155964	46848.818927
527.518057	46993.726895
527.880093	46777.048020
528.242072	47301.292732
528.603995	46986.623909
528.965860	46959.726833
529.327669	47069.500478
529.689421	46953.818600
530.051117	46895.777275
530.412755	47044.430820
530.774337	47103.598843
531.135862	46917.998682
531.497331	47072.936024
531.858743	46963.679097
532.220098	47296.831311
532.581396	46997.409457
532.942638	46648.995151
533.303824	46970.081362
533.664953	46910.086591
534.026025	46629.168292
534.387040	47082.481449
534.747999	47018.912499
535.108902	47168.649892
535.469748	46665.862851
535.830537	46770.250024
536.191270	46947.338197
536.551947	46584.506190
536.912567	46887.199752
537.273131	46992.486771
537.633638	46475.453429
537.994089	46783.452806
538.354483	46361.546038
538.714821	46921.656039
539.075103	47236.851662
539.435328	46986.596182
539.795497	46852.052828
540.155609	46820.245667
540.515665	47282.625339
540.875665	46688.671552
541.235609	46986.772623
541.595496	46951.577807
541.955328	47611.651368
542.315102	46921.565298
542.674821	46690.710699
543.034483	46698.544652
543.394090	46660.141142
543.753640	46577.496466
544.113134	47551.671720
544.472571	46520.022271
544.831953	47731.474554
545.191278	46911.021725
545.550548	46608.489479
545.909761	47036.491003
546.268918	47196.477061
546.628019	47462.564285
546.987064	46981.187024
547.346053	46229.792961
547.704986	47058.677121
548.063863	46576.480673
548.422684	46711.959162
548.781449	46503.109199
549.140158	46873.654172
549.498811	46682.970007
549.857408	46056.173102
550.215949	46847.513268
550.574434	46725.585401
550.932864	46445.468646
551.291237	47105.222094
551.649555	46666.142635
552.007817	46852.163733
552.366022	46436.064374
552.724173	46551.307671
553.082267	46876.434368
553.440305	47089.014785
553.798288	46360.709206
554.156215	46617.500542
554.514086	46748.068947
554.871902	46422.990141
555.229661	46390.394041
555.587365	46132.692777
555.945014	46159.972981
556.302606	46032.822478
556.660143	46174.289857
557.017625	46173.165680
557.375050	45892.837197
557.732421	46147.687689
558.089735	46060.989925
558.446994	45898.795841
558.804197	46281.671476
559.161345	46121.783720
559.518437	45319.738663
559.875474	45543.215534
560.232455	45622.280991
560.589381	45704.282920
560.946251	45328.212843
561.303065	45871.056892
561.659825	45572.915492
562.016528	45178.921592
562.373177	44791.713086
562.729770	45184.171954
563.086307	44624.901305
563.442789	44955.147294
563.799216	44882.572322
564.155587	44607.791629
564.511904	44518.497671
564.868164	44461.162108
565.224370	44587.354791
565.580520	44238.393519
565.936615	44333.444475
566.292654	43936.146099
566.648638	44069.751800
567.004567	43911.210032
567.360441	43834.692878
567.716260	43580.323817
568.072023	43723.595930
568.427732	43581.289198
568.783385	43033.756876
569.138982	43271.424594
569.494525	43083.384515
569.850013	42731.338056
570.205445	42582.704676
570.560823	42404.850248
570.916145	42139.052891
571.271412	42050.240363
571.626625	41669.045953
571.981782	41569.112640
572.336884	41145.237301
572.691931	41279.679833
573.046923	40802.630403
573.401860	40511.496207
573.756743	40350.045693
574.111570	40295.195419
574.466342	40012.570690
574.821059	39958.809305
575.175722	39397.938090
575.530330	39259.732337
575.884882	38849.039615
576.239380	38657.548866
576.593823	38480.911876
576.948211	38267.781974
577.302544	37703.233237
577.656823	37542.233907
578.011047	37580.014834
578.365216	37193.002933
578.719330	36825.033990
579.073389	36558.863588
579.427394	36445.356967
579.781344	36249.291371
580.135239	35801.830994
580.489080	35693.373089
580.842866	35094.541986
581.196597	35275.451353
581.550273	35077.129840
581.903895	34790.593176
582.257463	34919.495480
582.610975	34241.793004
582.964434	34290.379645
583.317837	33817.978159
583.671186	33518.168137
584.024481	33501.416383
584.377721	32953.879019
584.730906	32993.023579
585.084037	32851.117619
585.437113	32450.582822
585.790135	32277.598149
586.143103	31797.718111
586.496016	31703.715715
586.848874	31527.134178
587.201679	31351.109689
587.554428	30794.425152
587.907124	30737.485319
588.259765	30372.967047
588.612352	30347.078201
588.964884	29743.515974
589.317362	29744.705687
589.669786	29530.592759
590.022155	29181.732310
590.374470	29276.347206
590.726731	28764.178578
591.078937	28239.197858
591.431090	28133.230284
591.783188	27712.036839
592.135232	27324.919073
592.487222	27305.094736
592.839157	27172.600610
593.191038	26780.164427
593.542866	26436.203979
593.894639	25890.131071
594.246358	25877.855862
594.598022	25675.511508
594.949633	25260.775781
595.301190	25057.597116
595.652692	24776.371308
596.004141	24797.080368
596.355535	24038.474934
596.706876	23833.360467
597.058162	23556.039032
597.409395	23650.250635
597.760573	23514.676364
598.111698	23107.661165
598.462768	22940.191513
598.813785	22785.203759
599.164748	22312.293117
599.515657	22349.645546
599.866511	21894.381463
600.217312	22056.494888
600.568060	21342.075168
600.918753	21570.293244
601.269392	21366.353365
601.619978	21024.479955
601.970510	20950.927000
602.320988	20877.265660
602.671412	20859.934173
603.021783	20573.642005
603.372100	20220.673015
603.722363	20110.533886
604.072572	19986.987808
604.422728	19826.593416
604.772830	19568.821576
605.122878	19449.280695
605.472872	19254.906406
605.822813	19219.300736
606.172701	18978.162183
606.522534	18928.204348
606.872314	18879.882368
607.222041	18615.458725
607.571714	18619.355537
607.921333	18209.746664
608.270899	18177.453032
608.620411	18174.309873
608.969870	17911.025531
609.319276	17753.242457
609.668627	17627.624465
610.017926	17649.971900
610.367171	17558.855564
610.716362	17440.244776
611.065500	17249.580776
611.414585	17170.822829
611.763616	17137.815875
612.112594	16957.198894
612.461518	16890.985859
612.810389	16851.813573
613.159207	16647.034342
613.507971	16524.556989
613.856682	16547.821914
614.205340	16359.224787
614.553945	16458.049046
614.902496	16113.188753
615.250994	16135.309336
615.599439	16010.291241
615.947830	15933.000270
616.296169	15813.194728
616.644454	15713.359718
616.992686	15620.431088
617.340864	15647.315561
617.688990	15416.929789
618.037063	15474.114118
618.385082	15313.765096
618.733048	15273.564415
619.080961	15145.844262
619.428821	15017.627555
619.776628	14913.699127
620.124382	14715.997676
620.472083	14622.600219
620.819731	14530.977247
621.167326	14294.617708
621.514868	14160.591072
621.862357	13892.023600
622.209793	13774.262247
622.557176	13549.729254
622.904506	13343.639323
623.251783	13127.550264
623.599007	12937.786109
623.946179	12747.061615
624.293297	12609.153290
624.640363	12334.052484
624.987376	12209.538504
625.334336	12039.717155
625.681243	11847.989471
626.028097	11726.169988
626.374899	11587.505490
626.721647	11477.804941
627.068343	11347.687719
627.414987	11188.535972
627.761577	11038.365040
628.108115	11016.088181
628.454600	10799.298401
628.801032	10744.750596
629.147412	10634.009049
629.493739	10543.868177
629.840014	10380.534792
630.186236	10353.688127
630.532405	10194.601915
630.878521	10154.953240
631.224585	10039.994768
631.570597	9892.929186
631.916556	9840.357513
632.262462	9753.029605
632.608316	9672.920630
632.954117	9562.753774
633.299866	9490.874482
633.645562	9387.704748
633.991206	9213.878202
634.336797	9047.426863
634.682336	8957.588461
635.027823	8831.126075
635.373257	8720.371925
635.718639	8602.040921
636.063968	8500.055858
636.409245	8326.773756
636.754470	8257.778004
637.099642	8148.500912
637.444762	7999.139086
637.789829	7952.458001
638.134845	7837.527255
638.479808	7753.486179
638.824719	7672.724374
639.169577	7550.176445
639.514383	7494.847261
639.859137	7382.923563
640.203839	7363.641149
640.548489	7252.186279
640.893086	7198.278700
641.237632	7110.464321
641.582125	7062.588483
641.926566	6995.440314
642.270955	6935.654750
642.615292	6887.756226
642.959576	6825.858419
643.303809	6777.291943
643.647990	6740.322641
643.992118	6685.845412
644.336195	6633.384644
644.680219	6594.272852
645.024192	6587.018632
645.368112	6599.165292
645.711981	6557.245577
646.055797	6613.567869
646.399562	6572.303504
646.743274	6638.332537
647.086935	6646.431151
647.430544	6592.861329
647.774101	6561.023922
648.117606	6536.229007
648.461059	6517.221336
648.804460	6430.097595
649.147810	6311.590150
649.491108	6228.257357
649.834354	6147.084698
650.177548	6007.532956
650.520690	5919.587507
650.863781	5877.103183
651.206820	5821.463968
651.549807	5735.345937
651.892742	5651.357793
652.235626	5593.092137
652.578458	5546.373243
652.921238	5453.918482
653.263967	5447.833809
653.606644	5382.407194
653.949269	5349.034756
654.291843	5277.392398
654.634365	5275.471718
654.976836	5216.379313
655.319255	5181.880176
655.661622	5148.280886
656.003938	5098.731385
656.346203	5058.276125
656.688416	5041.249628
657.030577	4994.029140
657.372687	4954.473726
657.714746	4944.978713
658.056753	4919.767903
658.398708	4847.419783
658.740612	4827.484540
659.082465	4814.168332
659.424266	4780.538795
659.766016	4760.283439
660.107715	4731.773193
660.449362	4714.449268
660.790958	4692.716854
661.132503	4669.472094
661.473996	4645.768588
661.815438	4630.566989
662.156829	4615.556953
662.498168	4578.983382
662.839456	4555.123601
663.180693	4540.438720
663.521879	4523.379455
663.863013	4497.742667
664.204097	4479.218947
664.545129	4480.645594
664.886110	4463.649344
665.227040	4442.733597
665.567918	4429.102317
665.908746	4413.600768
666.249522	4406.729676
666.590248	4381.279411
666.930922	4371.406311
667.271545	4351.753373
667.612118	4333.504396
667.952639	4299.912667
668.293109	4283.982621
668.633528	4254.055811
668.973896	4231.559662
669.314213	4211.417732
669.654480	4176.616126
669.994695	4158.125174
670.334859	4134.242708
670.674973	4107.874952
671.015035	4099.385649
671.355047	4079.606682
671.695008	4060.044485
672.034918	4042.738203
672.374777	4030.694887
672.714585	4009.060775
673.054342	4007.639170
673.394049	3978.413080
673.733705	3973.195486
674.073310	3941.262297
674.412864	3928.989608
674.752368	3895.619690
675.091820	3891.831263
675.431223	3857.737940
675.770574	3828.925225
676.109875	3806.666010
676.449125	3779.403450
676.788324	3757.930655
677.127473	3724.079307
677.466571	3701.623487
677.805619	3679.860826
678.144616	3665.266686
678.483562	3650.566681
678.822458	3627.836118
679.161303	3611.946402
679.500098	3594.146087
679.838842	3578.763006
680.177535	3568.952921
680.516179	3570.621543
680.854771	3570.462747
681.193314	3593.856221
681.531805	3625.618011
681.870247	3644.189622
682.208638	3656.769821
682.546978	3651.300169
682.885268	3644.345897
683.223508	3616.115436
683.561697	3594.322528
683.899836	3576.955753
684.237925	3551.997000
684.575963	3540.793036
684.913951	3518.942154
685.251889	3516.882843
685.589776	3506.659383
685.927614	3497.975995
686.265401	3497.426510
686.603137	3489.214470
686.940824	3501.822396
687.278460	3511.433356
687.616046	3508.186853
687.953582	3524.994059
688.291068	3514.422760
688.628504	3514.274046
688.965889	3500.872138
689.303224	3479.989158
689.640510	3458.574337
689.977745	3427.483021
690.314930	3390.780900
690.652065	3367.321891
690.989150	3337.306861
691.326185	3300.912250
691.663170	3273.659773
692.000105	3246.142634
692.336990	3218.872513
692.673825	3201.382229
693.010610	3180.408509
693.347345	3155.227945
693.684030	3134.919657
694.020665	3122.422637
694.357251	3101.080912
694.693786	3095.810386
695.030272	3085.087851
695.366707	3067.247208
695.703093	3054.782955
696.039429	3049.759445
696.375716	3043.591593
696.711952	3037.252343
697.048139	3029.466280
697.384276	3021.783562
697.720363	3023.462266
698.056400	3014.874661
698.392388	3005.172960
698.728326	3001.084584
699.064214	2993.469921
699.400053	2989.384066
699.735842	2974.613485
700.071581	2965.723411
700.407270	2953.705300
700.742910	2947.718930
701.078501	2938.246602
701.414042	2927.909716
701.749533	2921.515012
702.084974	2911.926737
702.420366	2909.123856
702.755709	2899.996847
703.091002	2890.877399
703.426246	2888.182903
703.761440	2883.597973
704.096584	2878.571943
704.431679	2872.396529
704.766725	2869.777650
705.101721	2870.768237
705.436668	2869.225644
705.771565	2856.751308
706.106413	2861.449664
706.441212	2859.937318
706.775961	2860.562421
707.110661	2861.353882
707.445311	2861.973944
707.779913	2859.879344
708.114465	2863.682895
708.448967	2863.730786
708.783421	2871.189173
709.117825	2877.062117
709.452180	2881.170658
709.786485	2882.957747
710.120742	2894.381001
710.454949	2898.494583
710.789107	2902.993813
711.123216	2914.538055
711.457275	2915.914290
711.791286	2925.227822
712.125247	2925.217739
712.459159	2922.014086
712.793023	2931.269645
713.126837	2913.555030
713.460602	2916.516708
713.794318	2908.047569
714.127985	2898.708832
714.461602	2881.710061
714.795171	2878.619834
715.128691	2857.373891
715.462162	2849.265195
715.795584	2839.432424
716.128957	2836.306909
716.462281	2824.563541
716.795556	2823.260403
717.128782	2813.223466
717.461960	2804.351035
717.795088	2801.795170
718.128167	2795.236629
718.461198	2788.058026
718.794180	2784.347736
719.127113	2779.709875
719.459997	2774.704009
719.792833	2770.295520
720.125619	2770.333329
720.458357	2762.373347
720.791046	2759.141967
721.123686	2757.775814
721.456278	2753.548807
721.788821	2752.008734
722.121315	2749.069742
722.453761	2745.873650
722.786158	2747.600245
723.118506	2746.100502
723.450805	2743.471540
723.783056	2744.303331
724.115259	2743.819380
724.447412	2741.102198
724.779518	2745.626634
725.111574	2746.097982
725.443582	2750.146028
725.775542	2748.295925
726.107453	2754.244486
726.439315	2752.273395
726.771129	2758.756319
727.102895	2765.125817
727.434612	2763.893255
727.766281	2767.941301
728.097901	2769.138575
728.429473	2767.422062
728.760996	2769.627567
729.092471	2765.728235
729.423897	2767.190169
729.755276	2767.540529
730.086606	2766.728904
730.417887	2774.494801
730.749120	2781.262550
731.080305	2782.963940
731.411442	2788.163890
731.742530	2787.828653
732.073570	2790.830660
732.404562	2793.484828
732.735506	2792.002728
733.066401	2787.881585
733.397249	2779.732560
733.728048	2770.794594
734.058798	2758.191710
734.389501	2746.327354
734.720156	2741.434914
735.050762	2731.478635
735.381320	2729.280692
735.711831	2725.686350
736.042293	2720.778786
736.372707	2719.427757
736.703073	2716.607232
737.033391	2720.362891
737.363661	2718.812736
737.693883	2716.566902
738.024056	2723.075032
738.354182	2724.751216
738.684260	2726.918912
739.014290	2730.160374
739.344272	2733.865622
739.674207	2739.718401
740.004093	2738.798391
740.333931	2740.023391
740.663722	2737.321333
740.993464	2738.632033
741.323159	2734.687330
741.652806	2732.534757
741.982405	2730.031824
742.311956	2722.500340
742.641460	2723.969837
742.970915	2716.859289
743.300323	2711.331664
743.629683	2707.742362
743.958996	2704.952084
744.288260	2700.548636
744.617477	2697.153419
744.946647	2694.385825
745.275768	2691.078828
745.604842	2685.871317
745.933869	2686.030113
746.262847	2682.234124
746.591778	2685.715041
746.920662	2687.323169
747.249498	2683.741429
747.578286	2687.209743
747.907027	2688.580937
748.235720	2690.388190
748.564365	2691.746781
748.892963	2688.974147
749.221514	2692.994467
749.550017	2689.064887
749.878473	2687.736543
750.206881	2683.824608
750.535242	2684.240503
750.863555	2682.201357
751.191821	2680.986438
751.520039	2678.959895
751.848210	2678.286901
752.176334	2679.660615
752.504411	2680.021057
752.832440	2675.012671
753.160421	2676.900583
753.488356	2675.156344
753.816243	2674.276663
754.144082	2671.360355
754.471875	2670.722649
754.799620	2670.679799
755.127318	2669.202741
755.454969	2671.506549
755.782572	2668.675941
756.110129	2669.926147
756.437638	2667.647545
756.765100	2667.788698
757.092515	2669.343894
757.419882	2668.323060
757.747203	2671.302382
758.074477	2669.164933
758.401703	2668.882628
758.728882	2671.914882
759.056014	2671.854388
759.383099	2675.426046
759.710138	2677.293793
760.037129	2677.621468
760.364073	2676.255316
760.690970	2674.014523
761.017820	2677.820594
761.344623	2678.516273
761.671379	2684.371573
761.998088	2689.866431
762.324751	2712.927189
762.651366	2754.277254
762.977935	2808.036118
763.304456	2836.342197
763.630931	2845.839731
763.957359	2832.846157
764.283740	2805.349183
764.610074	2779.924124
764.936362	2753.352202
765.262602	2729.888151
765.588796	2707.291179
765.914943	2693.112934
766.241044	2680.041222
766.567097	2670.349604
766.893104	2658.573468
767.219064	2656.990546
767.544978	2650.505102
767.870845	2643.356746
768.196665	2640.034625
768.522438	2636.157978
768.848165	2635.280817
769.173846	2633.123203
769.499479	2629.743110
769.825066	2629.259159
770.150607	2625.906792
770.476101	2625.203551
770.801548	2623.108951
771.126949	2619.502006
771.452303	2617.644340
771.777611	2618.297170
772.102872	2617.795575
772.428087	2613.167796
772.753256	2611.443721
773.078378	2613.467744
773.403453	2609.512959
773.728482	2608.464399
774.053465	2606.515993
774.378401	2606.490787
774.703291	2601.923502
775.028135	2602.130189
775.352932	2600.058275
775.677683	2600.690940
776.002388	2598.679520
776.327046	2598.810590
776.651658	2600.088522
776.976224	2592.960331
777.300743	2595.748089
777.625216	2592.783890
777.949643	2597.429313
778.274024	2594.951586
778.598359	2590.374219
778.922647	2592.733479
779.246889	2590.459918
779.571086	2590.442274
779.895236	2590.843046
780.219339	2590.943869
780.543397	2591.445464
780.867409	2590.825402
781.191374	2596.179107
781.515294	2591.619384
781.839167	2596.600044
782.162995	2594.697008
782.486776	2594.681885
782.810511	2593.086359
783.134201	2593.887903
783.457844	2592.042841
783.781441	2591.921853
784.104993	2590.127202
784.428498	2591.034610
784.751958	2591.364805
785.075372	2590.354054
785.398739	2587.326841
785.722061	2589.857500
786.045337	2589.547469
786.368568	2591.833633
786.691752	2591.508478
787.014891	2596.557194
787.337983	2603.171188
787.661030	2610.516149
787.984031	2613.795419
788.306987	2620.485031
788.629897	2622.188941
788.952760	2622.531739
789.275579	2618.904629
789.598351	2614.773403
789.921078	2608.716457
790.243759	2603.077926
790.566395	2601.605909
790.888984	2596.990733
791.211529	2595.438058
791.534027	2594.500403
791.856480	2592.088211
792.178888	2590.790114
792.501249	2585.620411
792.823566	2585.754001
793.145836	2586.454722
793.468062	2584.302149
793.790241	2584.148394
794.112375	2587.505802
794.434464	2586.197623
794.756507	2587.253744
795.078505	2590.873293
795.400457	2591.997470
795.722364	2597.305805
796.044226	2600.529623
796.366042	2602.120107
796.687812	2603.297217
797.009538	2606.747886
797.331218	2606.621857
797.652852	2601.265632
797.974442	2600.413677
798.295986	2600.325456
798.617484	2595.556525
798.938938	2596.715990
799.260346	2595.080136
799.581709	2591.175762
799.903026	2592.002511
800.224299	2589.751636
800.545526	2587.586461
800.866708	2585.585122
801.187845	2586.613518
801.508936	2584.982705
801.829983	2586.580750
802.150984	2578.545151
802.471940	2583.402303
802.792851	2580.687642
803.113717	2579.727302
803.434538	2582.189905
803.755314	2577.741087
804.076045	2580.549010
804.396731	2579.749987
804.717372	2580.657395
805.037967	2579.903742
805.358518	2579.281160
805.679024	2582.318455
805.999485	2582.268043
806.319901	2586.300966
806.640272	2580.924576
806.960598	2585.249886
807.280879	2584.171079
807.601115	2585.224680
807.921306	2581.549679
808.241453	2583.674525
808.561554	2584.455904
808.881611	2585.222159
809.201623	2582.978846
809.521590	2582.867941
809.841513	2584.362643
810.161390	2582.817529
810.481223	2579.424832
810.801011	2580.362487
811.120755	2581.393403
811.440453	2577.854513
811.760107	2576.264029
812.079716	2576.316961
812.399281	2575.268401
812.718801	2577.741087
813.038276	2573.735890
813.357707	2576.485840
813.677093	2577.972980
813.996434	2577.090778
814.315731	2576.132959
814.634983	2578.383834
814.954191	2576.931982
815.273354	2580.710327
815.592473	2579.661767
815.911547	2582.086562
816.230577	2582.431881
816.549562	2585.486820
816.868502	2588.841708
817.187399	2588.108220
817.506250	2586.520257
817.825058	2593.842532
818.143821	2594.346648
818.462539	2602.084819
818.781213	2607.683020
819.099843	2613.313989
819.418429	2630.489200
819.736970	2643.258443
820.055466	2660.473983
820.373919	2680.520132
820.692327	2715.271326
821.010691	2775.465223
821.329011	2908.251736
821.647286	3116.892491
821.965517	3332.774863
822.283704	3458.246662
822.601847	3493.118844
822.919945	3397.941859
823.237999	3291.971764
823.556010	3185.573171
823.873976	3085.372677
824.191897	2994.999912
824.509775	2924.771597
824.827609	2866.752958
825.145398	2829.012359
825.463144	2810.617189
825.780845	2817.614311
826.098502	2841.978207
826.416116	2891.885630
826.733685	2938.549071
827.051210	2953.233952
827.368692	2926.472987
827.686129	2874.087837
828.003522	2820.765032
828.320872	2766.723862
828.638177	2734.369737
828.955439	2700.969572
829.272656	2677.492919
829.589830	2658.462563
829.906960	2642.774492
830.224046	2627.341000
830.541088	2618.571913
830.858086	2613.195522
831.175041	2608.809718
831.491952	2604.726384
831.808819	2605.167485
832.125642	2615.393465
832.442421	2626.085752
832.759157	2655.455515
833.075849	2696.745085
833.392497	2738.924420
833.709101	2763.885693
834.025662	2758.360588
834.342179	2737.003740
834.658653	2707.714636
834.975083	2682.707992
835.291469	2664.532112
835.607811	2641.733494
835.924110	2625.813530
836.240366	2614.904473
836.556578	2602.916609
836.872746	2598.029211
837.188871	2587.510843
837.504952	2582.875502
837.820990	2573.924934
838.136984	2572.057186
838.452935	2573.350242
838.768842	2571.716908
839.084706	2582.628486
839.400526	2601.038780
839.716303	2622.904784
840.032037	2638.749131
840.347727	2632.780405
840.663373	2621.531070
840.978977	2606.541199
841.294537	2595.090218
841.610054	2583.190574
841.925527	2580.803588
842.240957	2572.359655
842.556344	2567.537792
842.871687	2563.018397
843.186987	2558.619991
843.502244	2554.161090
843.817458	2550.604556
844.132629	2549.593805
844.447756	2549.203115
844.762840	2544.444266
845.077881	2542.906714
845.392879	2541.611138
845.707833	2542.173226
846.022745	2540.459234
846.337613	2544.005686
846.652438	2540.837320
846.967221	2545.155069
847.281960	2542.573998
847.596656	2539.922351
847.911309	2540.181970
848.225919	2540.587783
848.540485	2540.623071
848.855009	2540.955788
849.169490	2538.982176
849.483928	2540.373534
849.798323	2539.980324
850.112675	2539.282124
850.426984	2538.596527
850.741251	2539.801363
851.055474	2538.556198
851.369654	2540.134079
851.683792	2539.198945
851.997887	2540.280273
852.311938	2539.960160
852.625947	2540.673483
852.939914	2537.497556
853.253837	2539.738349
853.567718	2539.269522
853.881555	2540.567619
854.195350	2538.588966
854.509103	2539.337577
854.822812	2539.322454
855.136479	2540.328164
855.450103	2538.306661
855.763685	2539.403112
856.077224	2540.784388
856.390720	2540.008051
856.704173	2539.589635
857.017584	2541.278421
857.330953	2539.085519
857.644278	2539.478729
857.957561	2540.771785
858.270802	2539.445962
858.584000	2540.870088
858.897155	2541.906045
859.210268	2539.025026
859.523339	2538.561239
859.836367	2539.990407
860.149352	2539.632485
860.462295	2539.519059
860.775195	2537.500077
861.088054	2535.912113
861.400869	2536.035621
861.713642	2536.728780
862.026373	2539.057793
862.339062	2538.979655
862.651708	2538.029398
862.964312	2540.658359
863.276873	2541.863195
863.589392	2543.030222
863.901869	2541.250695
864.214303	2543.347815
864.526696	2543.665408
864.839045	2545.543237
865.151353	2546.697662
865.463619	2546.407795
865.775842	2546.594318
866.088023	2547.685728
866.400162	2547.078269
866.712258	2544.114070
867.024313	2546.047353
867.336325	2547.804195
867.648296	2545.444935
867.960224	2547.869730
868.272110	2546.327137
868.583954	2545.666746
868.895755	2548.303269
869.207515	2545.041643
869.519233	2550.138249
869.830909	2550.977601
870.142542	2550.617159
870.454134	2547.214380
870.765684	2549.500543
871.077191	2552.217725
871.388657	2550.854093
871.700081	2550.891902
872.011463	2553.725030
872.322803	2551.514484
872.634101	2555.171841
872.945357	2555.376008
873.256571	2554.332489
873.567744	2555.451625
873.878874	2556.137222
874.189963	2557.558828
874.501010	2556.273333
874.812015	2558.473797
875.122979	2560.028993
875.433900	2559.081256
875.744780	2558.572100
876.055618	2561.576627
876.366415	2560.644014
876.677169	2561.851370
876.987882	2558.672923
877.298554	2560.588561
877.609183	2564.223233
877.919771	2563.283058
878.230317	2568.992165
878.540822	2580.475913
878.851285	2582.270564
879.161707	2592.791452
879.472087	2613.036726
879.782425	2636.233595
880.092722	2681.495595
880.402977	2747.859865
880.713191	2824.059426
881.023363	2901.426014
881.333494	2943.938064
881.643583	2964.508493
881.953631	2954.821915
882.263637	2935.756272
882.573602	2901.050448
882.883526	2873.498022
883.193408	2839.071982
883.503248	2807.894966
883.813048	2776.536468
884.122806	2748.094278
884.432522	2722.054198
884.742197	2698.385981
885.051831	2675.985614
885.361424	2657.948365
885.670975	2641.536889
885.980485	2627.247738
886.289954	2618.476131
886.599382	2608.502208
886.908768	2599.440734
887.218113	2590.722058
887.527417	2587.304156
887.836680	2579.215625
888.145901	2577.257136
888.455082	2572.205900
888.764221	2572.405026
889.073319	2569.037535
889.382376	2569.087947
889.691392	2565.488563
890.000366	2566.244736
890.309300	2566.814386
890.618193	2563.739282
890.927044	2563.688871
891.235855	2564.112328
891.544625	2564.008984
891.853353	2566.925292
892.162041	2568.299006
892.470687	2574.955850
892.779293	2580.148238
893.087858	2584.120667
893.396381	2596.784046
893.704864	2612.840121
894.013306	2635.179994
894.321707	2665.086639
894.630068	2677.422343
894.938387	2679.932837
895.246665	2677.508042
895.554903	2666.230981
895.863100	2649.002838
896.171256	2640.100160
896.479371	2632.833337
896.787446	2620.003600
897.095480	2612.799792
897.403473	2607.052876
897.711425	2600.080960
898.019336	2592.831781
898.327207	2587.873806
898.635038	2585.330544
898.942827	2574.847465
899.250576	2572.407546
899.558284	2566.285065
899.865952	2569.700447
900.173579	2565.851526
900.481165	2561.183417
900.788711	2561.437996
901.096216	2558.793910
901.403681	2560.749878
901.711105	2561.009497
902.018489	2558.642676
902.325832	2561.995043
902.633135	2564.366906
902.940397	2573.022567
903.247619	2590.633838
903.554800	2624.578447
903.861941	2668.255004
904.169041	2694.491690
904.476101	2705.168853
904.783121	2697.329859
905.090100	2681.664474
905.397039	2666.503203
905.703938	2649.688435
906.010796	2635.459778
906.317614	2620.855555
906.624391	2612.784668
906.931129	2600.728749
907.237826	2592.665423
907.544483	2584.317272
907.851099	2574.441652
908.157675	2568.442679
908.464211	2559.605536
908.770707	2549.941644
909.077163	2547.254709
909.383578	2542.178267
909.689954	2541.585932
909.996289	2538.170550
910.302584	2541.064172
910.608839	2542.445448
910.915054	2541.744728
911.221229	2539.665252
911.527363	2542.387475
911.833458	2543.178936
912.139513	2542.642053
912.445527	2538.636857
912.751502	2546.586756
913.057436	2546.417878
913.363331	2549.924000
913.669186	2557.818447
913.975000	2563.840105
914.280775	2574.164388
914.586510	2588.791296
914.892205	2604.764192
915.197859	2627.993829
915.503475	2658.331493
915.809050	2680.200018
916.114585	2694.592513
916.420081	2697.297092
916.725536	2697.975127
917.030952	2688.023889
917.336328	2678.730522
917.641665	2670.768020
917.946961	2657.477017
918.252218	2647.561068
918.557435	2636.173101
918.862612	2626.690691
919.167750	2617.709875
919.472848	2608.061107
919.777906	2599.380240
920.082925	2590.991760
920.387904	2583.122519
920.692843	2577.572208
920.997743	2569.922257
921.302603	2566.955538
921.607423	2562.262224
921.912204	2560.457491
922.216946	2554.965154
922.521647	2553.505740
922.826310	2548.620862
923.130932	2546.284287
923.435516	2544.285470
923.740059	2546.367466
924.044564	2540.050900
924.349028	2542.021992
924.653454	2536.292720
924.957840	2535.201310
925.262186	2530.863398
925.566493	2533.230219
925.870761	2530.596216
926.174989	2533.036135
926.479178	2532.733666
926.783328	2528.713345
927.087438	2530.134951
927.391509	2529.419107
927.695541	2529.714014
927.999533	2526.868283
928.303486	2527.664785
928.607400	2524.945083
928.911275	2526.220495
929.215110	2525.779394
929.518906	2526.217974
929.822663	2524.090607
930.126381	2525.875176
930.430060	2524.287212
930.733699	2525.257634
931.037299	2524.438447
931.340861	2526.896009
931.644383	2526.500279
931.947866	2528.342821
932.251309	2526.054137
932.554714	2525.665968
932.858080	2525.239990
933.161407	2522.338806
933.464694	2527.747964
933.767943	2524.718231
934.071153	2524.319980
934.374323	2524.355268
934.677455	2523.833508
934.980548	2523.576410
935.283602	2523.420134
935.586617	2525.600433
935.889593	2525.809641
936.192530	2525.590351
936.495428	2525.171935
936.798287	2525.703777
937.101108	2524.181348
937.403890	2528.846936
937.706632	2530.795342
938.009336	2530.475229
938.312002	2535.350024
938.614628	2533.454551
938.917216	2535.186187
939.219765	2534.624098
939.522275	2537.936136
939.824747	2540.943185
940.127179	2534.198121
940.429573	2534.180477
940.731929	2534.661907
941.034246	2532.917668
941.336524	2538.480581
941.638763	2533.827596
941.940964	2535.531506
942.243126	2533.378933
942.545250	2534.051927
942.847335	2534.412370
943.149381	2531.092770
943.451389	2529.363654
943.753359	2530.893644
944.055290	2529.419107
944.357182	2529.635877
944.659036	2528.846936
944.960851	2528.899868
945.262628	2528.685619
945.564367	2526.558252
945.866067	2529.247708
946.167729	2527.286699
946.469352	2527.962213
946.770937	2527.082532
947.072484	2527.553880
947.373992	2528.199148
947.675462	2526.162522
947.976893	2529.908099
948.278286	2525.902902
948.579641	2525.449198
948.880958	2524.564476
949.182236	2526.321318
949.483476	2525.093797
949.784678	2524.773684
950.085841	2525.734023
950.386967	2528.652852
950.688054	2527.705115
950.989103	2525.522295
951.290114	2524.236801
951.591087	2528.753675
951.892021	2527.420289
952.192917	2527.730320
952.493776	2531.783408
952.794596	2529.466998
953.095378	2529.754344
953.396122	2529.421628
953.696828	2531.128058
953.997496	2529.560259
954.298126	2530.656710
954.598718	2528.673016
954.899272	2525.066071
955.199788	2526.719569
955.500266	2525.532377
955.800706	2521.655730
956.101108	2519.248579
956.401472	2519.369567
956.701798	2519.556089
957.002087	2519.644310
957.302337	2519.505678
957.602550	2518.414268
957.902724	2515.893691
958.202861	2519.901408
958.502960	2515.452590
958.803022	2517.219515
959.103045	2512.818587
959.403031	2515.802950
959.702979	2513.915038
960.002889	2514.898063
960.302762	2514.782117
960.602596	2512.906807
960.902393	2516.594412
961.202153	2512.974863
961.501875	2512.987466
961.801559	2512.495953
962.101205	2512.395130
962.400814	2513.320182
962.700385	2514.270440
962.999918	2513.834380
963.299414	2509.403206
963.598873	2512.609379
963.898293	2512.707682
964.197677	2512.816067
964.497022	2510.907990
964.796331	2511.510408
965.095601	2512.180881
965.394835	2511.921262
965.694030	2510.418998
965.993189	2513.310100
966.292309	2508.621827
966.591393	2510.648371
966.890439	2510.391272
967.189447	2509.708195
967.488419	2511.727177
967.787353	2510.497136
968.086249	2510.353463
968.385108	2511.674245
968.683930	2511.875892
968.982714	2512.712723
969.281462	2510.232475
969.580172	2513.239524
969.878844	2513.020233
970.177480	2511.666684
970.476078	2513.461334
970.774639	2514.164575
971.073162	2513.032836
971.371649	2510.199708
971.670098	2510.635768
971.968510	2510.161899
972.266885	2508.813391
972.565223	2514.063752
972.863524	2512.599297
973.161788	2511.137362
973.460014	2514.759432
973.758204	2510.885305
974.056356	2514.673732
974.354471	2512.868999
974.652550	2514.769514
974.950591	2514.257837
975.248595	2510.325737
975.546563	2513.781448
975.844493	2513.897394
976.142386	2512.296828
976.440243	2514.436798
976.738062	2512.861437
977.035845	2514.179699
977.333590	2511.517970
977.631299	2512.556447
977.928971	2510.827332
978.226606	2510.388751
978.524204	2509.882115
978.821765	2511.679287
979.119290	2509.481343
979.416777	2508.178205
979.714228	2512.168278
980.011642	2511.412105
980.309020	2513.478978
980.606360	2509.766169
980.903664	2514.335975
981.200931	2513.970491
981.498162	2515.316479
981.795356	2519.475431
982.092513	2521.116327
982.389633	2522.711852
982.686717	2524.398118
982.983764	2530.976823
983.280775	2530.203006
983.577749	2529.935825
983.874686	2530.099663
984.171587	2529.275434
984.468451	2527.780732
984.765279	2525.149250
985.062070	2526.709487
985.358824	2521.091121
985.655543	2520.718075
985.952224	2517.048115
986.248869	2516.670029
986.545478	2511.069307
986.842050	2509.564522
987.138586	2508.737773
987.435086	2506.819614
987.731549	2503.777278
988.027975	2508.740294
988.324366	2505.163595
988.620719	2509.433453
988.917037	2506.612927
989.213318	2507.830366
989.509563	2507.137207
989.805772	2506.270128
990.101944	2506.186949
990.398080	2507.621158
990.694180	2506.164264
990.990244	2507.679131
991.286271	2508.856240
991.582262	2505.997906
991.878217	2508.059738
992.174136	2507.958915
992.470019	2506.126456
992.765865	2508.044615
993.061676	2506.854902
993.357450	2505.985303
993.653188	2505.541682
993.948890	2508.125273
994.244556	2509.476302
994.540186	2508.021929
994.835780	2512.175840
995.131337	2511.618793
995.426859	2514.507374
995.722345	2515.450070
996.017795	2518.643641
996.313208	2519.291429
996.608586	2517.612725
996.903928	2518.767149
997.199234	2516.765811
997.494504	2520.345030
997.789738	2518.489885
998.084936	2514.093999
998.380099	2516.072652
998.675225	2511.649040
998.970316	2513.935203
999.265371	2513.468896
999.560390	2509.183915
999.855373	2511.149965
1000.150320	2509.589728
1000.445232	2507.071672
1000.740108	2508.218534
1001.034948	2505.887001
1001.329752	2506.766682
1001.624521	2503.184942
1001.919254	2504.195694
1002.213951	2502.587566
1002.508613	2502.244767
1002.803239	2502.040600
1003.097829	2501.833913
1003.392384	2505.531599
1003.686903	2502.887514
1003.981386	2502.675786
1004.275834	2504.818276
1004.570246	2504.929182
1004.864623	2504.593945
1005.158964	2500.901300
1005.453270	2504.488081
1005.747540	2502.879952
1006.041775	2502.509428
1006.335974	2502.794253
1006.630138	2500.132524
1006.924266	2502.484222
1007.218359	2501.826351
1007.512416	2503.429438
1007.806438	2499.809890
1008.100425	2502.259891
1008.394376	2501.715446
1008.688292	2502.660662
1008.982172	2503.368944
1009.276017	2503.353821
1009.569827	2501.866681
1009.863602	2505.140910
1010.157341	2503.719305
1010.451045	2502.040600
1010.744714	2501.675117
1011.038347	2502.660662
1011.331945	2502.380878
1011.625508	2502.736280
1011.919036	2502.426249
1012.212528	2502.267452
1012.505986	2500.755106
1012.799408	2500.729900
1013.092795	2502.605210
1013.386147	2500.866012
1013.679464	2501.138234
1013.972745	2500.326608
1014.265992	2500.253511
1014.559204	2501.022287
1014.852380	2499.020949
1015.145521	2501.372647
1015.438628	2503.124448
1015.731699	2502.796773
1016.024736	2502.219561
1016.317737	2501.806187
1016.610703	2501.745693
1016.903635	2500.863491
1017.196531	2498.847029
1017.489393	2500.951711
1017.782219	2493.594147
1018.075011	2500.712256
1018.367768	2501.291989
1018.660490	2500.092194
1018.953177	2500.092194
1019.245829	2500.092194
