Dividing Wavelength (nm)	Counts (n)	Blue Motor Position (mm): 0.000000	Red Motor Position (mm): 31.000000	
326.493990	2128.095370
326.888308	2128.095370
327.282561	2128.095370
327.676750	2096.174784
328.070874	2093.271079
328.464933	2094.397777
328.858929	2103.325660
329.252859	2111.822525
329.646726	2124.858949
330.040528	2134.779940
330.434265	2154.632004
330.827938	2171.250167
331.221547	2189.365554
331.615091	2207.826259
332.008571	2228.996585
332.401986	2248.278998
332.795338	2265.696185
333.188625	2284.227466
333.581847	2302.738583
333.975006	2323.233394
334.368100	2340.474140
334.761129	2359.285206
335.154095	2375.895808
335.546996	2394.041441
335.939833	2413.563309
336.332606	2427.648293
336.725315	2438.920313
337.117960	2446.729060
337.510540	2458.074177
337.903056	2471.738225
338.295508	2476.030767
338.687896	2486.501244
339.080220	2494.867038
339.472480	2500.913903
339.864676	2502.660662
340.256807	2506.743997
340.648875	2508.735253
341.040879	2511.530573
341.432818	2512.039729
341.824694	2513.857065
342.216506	2517.496778
342.608253	2517.176665
342.999937	2517.771521
343.391557	2514.870337
343.783113	2515.946623
344.174605	2517.673218
344.566033	2514.865296
344.957397	2512.874040
345.348697	2511.530572
345.739934	2510.237517
346.131106	2509.458658
346.522215	2504.863647
346.913260	2502.068327
347.304241	2502.670745
347.695159	2501.516320
348.086012	2499.666217
348.476802	2494.491472
348.867528	2495.285454
349.258191	2492.333859
349.648789	2492.853097
350.039324	2491.229846
350.429796	2490.445947
350.820203	2488.653816
351.210548	2491.499548
351.600828	2484.857828
351.991045	2485.006542
352.381198	2483.650471
352.771288	2486.521408
353.161314	2486.907057
353.551276	2488.346306
353.941175	2485.724906
354.331010	2484.865389
354.720782	2484.555358
355.110490	2484.479741
355.500135	2486.808754
355.889717	2488.321100
356.279235	2486.387818
356.668689	2487.706079
357.058080	2484.252889
357.447408	2483.650471
357.836672	2482.075111
358.225873	2485.112406
358.615010	2484.162148
359.004084	2489.561224
359.393095	2488.469814
359.782043	2489.914105
360.170927	2492.767398
360.559748	2491.239928
360.948505	2496.439878
361.337199	2495.966010
361.725830	2491.892758
362.114398	2495.635814
362.502903	2496.308808
362.891344	2496.444920
363.279722	2495.587923
363.668037	2494.967862
364.056289	2495.565238
364.444478	2498.370640
364.832603	2499.588079
365.220665	2499.015908
365.608665	2498.163953
365.996601	2499.308295
366.384474	2501.481032
366.772284	2505.062772
367.160031	2505.077896
367.547715	2506.048318
367.935336	2509.562002
368.322893	2510.691220
368.710388	2516.503671
369.097820	2520.796213
369.485189	2520.639938
369.872495	2529.971113
370.259738	2539.236754
370.646918	2545.931406
371.034035	2550.244113
371.421090	2563.421690
371.808081	2571.883266
372.195010	2580.470872
372.581875	2596.605085
372.968678	2608.908021
373.355418	2618.322376
373.742096	2636.329377
374.128710	2649.398568
374.515262	2663.894406
374.901751	2680.235307
375.288177	2694.221988
375.674540	2716.574464
376.060841	2736.292937
376.447079	2754.221801
376.833254	2777.703496
377.219367	2787.662295
377.605417	2824.666885
377.991404	2834.829851
378.377329	2858.225846
378.763191	2874.057590
379.148991	2911.074782
379.534727	2934.558998
379.920402	2963.248204
380.306013	2978.177581
380.691563	3021.511340
381.077049	3047.758107
381.462474	3062.211095
381.847835	3105.670882
382.233134	3126.609315
382.618371	3128.474542
383.003545	3196.772094
383.388657	3200.036241
383.773706	3234.815162
384.158693	3252.476844
384.543618	3278.307717
384.928480	3311.715443
385.313280	3360.332331
385.698017	3359.112372
386.082692	3410.330495
386.467305	3415.487595
386.851856	3451.221814
387.236344	3471.220071
387.620770	3501.285513
388.005133	3528.318700
388.389435	3556.289542
388.773674	3567.155750
389.157851	3607.406842
389.541965	3622.996611
389.926018	3585.140066
390.310008	3663.298115
390.693936	3675.059127
391.077802	3718.861713
391.461606	3706.127758
391.845348	3772.318108
392.229027	3771.355248
392.612645	3781.515693
392.996200	3862.574927
393.379694	3901.805186
393.763125	3968.098880
394.146494	3936.909261
394.529801	3995.391687
394.913047	4040.182338
395.296230	4007.568594
395.679351	4066.030855
396.062410	4087.733022
396.445408	4069.993202
396.828343	4101.739868
397.211217	4127.386738
397.594028	4048.502763
397.976778	4115.771920
398.359466	4140.750837
398.742092	4169.891227
399.124656	4088.383331
399.507158	4165.883510
399.889598	4196.226215
400.271977	4257.864403
400.654294	4230.183427
401.036549	4236.482349
401.418742	4207.795663
401.800874	4309.637053
402.182944	4332.448274
402.564952	4394.094024
402.946898	4378.592476
403.328783	4377.435531
403.710606	4290.216008
404.092367	4480.736335
404.474067	4448.306592
404.855705	4459.813026
405.237282	4388.231162
405.618797	4493.296370
406.000250	4526.295763
406.381642	4607.833906
406.762972	4570.481476
407.144240	4578.544802
407.525447	4577.100511
407.906593	4643.978979
408.287677	4680.635729
408.668700	4609.366416
409.049661	4660.753418
409.430560	4702.894944
409.811399	4633.087566
410.192176	4789.827121
410.572891	4724.455959
410.953545	4832.855890
411.334138	4712.972210
411.714669	4781.665493
412.095139	4675.392929
412.475547	4818.067665
412.855894	4796.988080
413.236180	4808.169359
413.616405	4762.771248
413.996568	4848.942212
414.376670	4792.564468
414.756711	4745.530502
415.136691	4775.162405
415.516609	4857.794478
415.896466	4893.914345
416.276262	4930.871044
416.655997	4908.281634
417.035670	5087.555147
417.415283	5177.791801
417.794834	5126.956805
418.174324	5075.163991
418.553753	4982.353828
418.933121	5167.701931
419.312428	5236.899329
419.691674	5175.306512
420.070859	5301.622704
420.449983	5213.861256
420.829045	5331.027754
421.208047	5237.146346
421.586988	5310.505217
421.965867	5320.494263
422.344686	5453.464778
422.723444	5308.629908
423.102141	5121.686279
423.480777	5423.482516
423.859352	5196.171848
424.237866	5450.624088
424.616319	5442.401966
424.994712	5551.807607
425.373044	5429.862096
425.751314	5577.270475
426.129524	5373.809506
426.507673	5567.147838
426.885762	5648.927957
427.263789	5582.909006
427.641756	5465.382066
428.019662	5584.476805
428.397508	5590.692547
428.775292	5539.537439
429.153016	5639.538808
429.530679	5564.395368
429.908282	5649.938708
430.285824	5520.877608
430.663305	5798.332633
431.040726	5529.742477
431.418086	5530.312127
431.795385	5639.672398
432.172624	5652.701260
432.549802	5644.819416
432.926920	5655.378113
433.303977	5663.527138
433.680974	5706.568510
434.057910	5725.472837
434.434786	5726.725563
434.811601	5692.838927
435.188355	5931.827428
435.565050	5803.046112
435.941683	5785.303771
436.318257	5996.407130
436.694770	5981.797866
437.071222	6017.000243
437.447614	5948.085149
437.823946	5864.911152
438.200218	6018.104256
438.576429	5880.957145
438.952580	5980.711497
439.328670	6021.209607
439.704700	5930.582263
440.080670	5917.956693
440.456580	6188.570873
440.832429	6069.950003
441.208218	5917.233288
441.583947	6072.752884
441.959616	6080.165901
442.335224	6007.792576
442.710773	6139.558255
443.086261	6170.279046
443.461689	5961.532427
443.837057	6108.837463
444.212365	6261.188694
444.587612	6156.773795
444.962800	6310.372712
445.337927	6290.780267
445.712995	5901.192336
446.088002	6478.994267
446.462949	6308.570499
446.837837	6239.350416
447.212664	6408.647485
447.587431	6551.987654
447.962139	7101.564164
448.336786	8019.031479
448.711374	7763.991944
449.085901	6838.204205
449.460369	6761.374499
449.834776	6694.453182
450.209124	7084.956082
450.583412	7239.354022
450.957640	7383.551187
451.331808	7145.742316
451.705917	6701.409974
452.079965	6625.296113
452.453954	6832.353946
452.827883	6709.017076
453.201752	6800.430839
453.575562	6601.869871
453.949311	6810.719834
454.323001	6693.291196
454.696632	6766.256857
455.070202	6913.188848
455.443713	7058.363996
455.817164	7160.303688
456.190556	7244.037254
456.563888	7316.592061
456.937160	7357.992537
457.310373	7020.860332
457.683526	7042.653240
458.056619	6931.034532
458.429653	6921.668068
458.802628	6856.274221
459.175542	6963.524769
459.548398	7322.018863
459.921194	7481.115158
460.293930	7482.685477
460.666607	8016.311776
461.039224	8319.017941
461.411782	8442.480840
461.784280	8466.353224
462.156719	8355.755350
462.529099	8237.290755
462.901419	7823.835481
463.273680	7717.096610
463.645882	7727.798980
464.018024	7593.364010
464.390106	7763.409691
464.762130	8148.057291
465.134094	8611.278835
465.505999	9631.154670
465.877845	10846.468478
466.249631	11495.748928
466.621358	11113.352203
466.993026	10483.545730
467.364634	10224.190967
467.736184	9864.789466
468.107674	9530.775215
468.479105	9563.353671
468.850477	9319.097165
469.221790	9093.422351
469.593043	8765.386908
469.964238	8625.719221
470.335373	8628.723748
470.706449	8688.887399
471.077467	8666.184562
471.448425	9960.679773
471.819324	11024.219562
472.190164	11051.061186
472.560945	9802.664806
472.931667	9019.014920
473.302330	8876.766162
473.672934	8516.179989
474.043479	8862.224953
474.413965	8798.953431
474.784393	8677.234772
475.154761	8819.503695
475.525070	8899.448833
475.895321	8723.278150
476.265513	8884.390907
476.635645	9044.165237
477.005719	9030.024800
477.375734	9136.786356
477.745691	9357.266261
478.115588	9469.855391
478.485427	9701.877017
478.855207	10195.879847
479.224928	10958.934099
479.594591	11551.151209
479.964194	11356.900428
480.333739	11286.248657
480.703226	11186.960611
481.072653	11251.416804
481.442022	11436.805237
481.811333	11602.208015
482.180584	11399.656974
482.549777	11088.569891
482.918912	10898.772969
483.287988	10896.915304
483.657005	10876.344876
484.025964	10549.816738
484.394864	10646.092694
484.763706	10589.830897
485.132489	10337.387556
485.501213	10273.740468
485.869879	10308.610130
486.238487	10126.170772
486.607036	10199.764056
486.975527	9952.591242
487.343959	10099.208161
487.712333	10100.549107
488.080648	9999.726031
488.448905	9993.676646
488.817104	9899.613756
489.185244	10094.066184
489.553326	10173.852526
489.921350	10580.930740
490.289315	11391.328988
490.657222	11630.040226
491.025070	11496.419402
491.392861	11334.305976
491.760593	10978.188786
492.128267	10649.802984
492.495883	10311.861674
492.863440	9988.466613
493.230939	9654.984204
493.598380	9544.882884
493.965763	9371.353765
494.333088	9247.202749
494.700354	9113.208880
495.067563	9114.030588
495.434713	8911.749249
495.801805	8943.450545
496.168839	8825.578285
496.535815	8704.217548
496.902733	8654.829363
497.269593	8528.467801
497.636395	8549.060915
498.003139	8454.221687
498.369825	8308.751631
498.736453	8339.137186
499.103023	8227.329435
499.469535	8179.471241
499.835989	8103.775795
500.202385	8006.002617
500.568723	7838.260743
500.935003	7924.454391
501.301226	7699.129938
501.667390	7806.698079
502.033497	7791.239380
502.399546	7636.891853
502.765537	7503.424784
503.131470	7471.058056
503.497345	7497.098136
503.863163	7209.160031
504.228923	7304.473127
504.594625	7273.500277
504.960269	7064.738535
505.325856	7108.314269
505.691385	6922.935918
506.056856	6934.142403
506.422270	6863.276383
506.787625	6745.930925
507.152924	6720.215999
507.518164	6643.817312
507.883347	6533.068203
508.248472	6423.841523
508.613540	6454.400998
508.978550	6329.035063
509.343503	6245.619091
509.708398	6226.823148
510.073236	6203.162493
510.438016	6134.529704
510.802738	6037.389190
511.167403	5992.270863
511.532010	5869.095310
511.896561	5905.668881
512.261053	5854.402867
512.625488	5728.205142
512.989866	5652.360982
513.354186	5583.055199
513.718449	5470.531604
514.082655	5482.426207
514.446803	5372.244228
514.810894	5352.167833
515.174927	5238.358743
515.538904	5191.271846
515.902822	5163.971477
516.266684	5069.838012
516.630488	4988.478830
516.994235	4952.401812
517.357925	4901.965068
517.721558	4862.797823
518.085133	4804.632990
518.448651	4755.287656
518.812112	4667.823636
519.175516	4605.693936
519.538863	4581.256943
519.902152	4513.965100
520.265385	4479.460923
520.628560	4416.474226
520.991678	4353.348898
521.354739	4322.912931
521.717743	4258.055967
522.080690	4204.592009
522.443580	4170.153367
522.806413	4117.127990
523.169189	4078.278338
523.531908	4036.698901
523.894569	3966.011842
524.257174	3916.069131
524.619722	3890.845717
524.982213	3850.103112
525.344647	3808.387564
525.707025	3766.825771
526.069345	3734.590113
526.431608	3680.783357
526.793815	3663.303156
527.155964	3598.310080
527.518057	3573.704208
527.880093	3532.540667
528.242072	3507.652490
528.603995	3461.914101
528.965860	3422.767021
529.327669	3394.430695
529.689421	3367.717621
530.051117	3334.493897
530.412755	3306.696974
530.774337	3274.363014
531.135862	3240.935122
531.497331	3221.009962
531.858743	3180.829445
532.220098	3173.285358
532.581396	3139.859988
532.942638	3115.561626
533.303824	3095.765015
533.664953	3071.940522
534.026025	3048.990669
534.387040	3035.548433
534.747999	3018.292563
535.108902	3005.573732
535.469748	2975.606593
535.830537	2963.643935
536.191270	2943.885132
536.551947	2929.336362
536.912567	2915.533683
537.273131	2900.506003
537.633638	2886.395814
537.994089	2873.888711
538.354483	2855.075125
538.714821	2853.587984
539.075103	2840.049966
539.435328	2825.498675
539.795497	2812.227838
540.155609	2808.630974
540.515665	2799.481280
540.875665	2782.606018
541.235609	2777.038063
541.595496	2766.691095
541.955328	2764.435179
542.315102	2752.485123
542.674821	2747.534710
543.034483	2739.264697
543.394090	2734.037021
543.753640	2726.591237
544.113134	2725.020917
544.472571	2719.175699
544.831953	2712.430636
545.191278	2708.259081
545.550548	2699.406815
545.909761	2699.880683
546.268918	2696.790456
546.628019	2690.811647
546.987064	2686.443488
547.346053	2682.019875
547.704986	2681.886284
548.063863	2678.019719
548.422684	2670.894048
548.781449	2668.786846
549.140158	2668.418842
549.498811	2665.663851
549.857408	2663.642349
550.215949	2659.533808
550.574434	2653.804537
550.932864	2654.969043
551.291237	2652.849238
551.649555	2655.077428
552.007817	2651.528456
552.366022	2652.634989
552.724173	2650.028713
553.082267	2649.212046
553.440305	2648.231541
553.798288	2644.919503
554.156215	2641.650315
554.514086	2643.076962
554.871902	2638.245016
555.229661	2638.751652
555.587365	2640.700057
555.945014	2638.590335
556.302606	2636.311733
556.660143	2635.326187
557.017625	2635.139665
557.375050	2635.074130
557.732421	2632.170425
558.089735	2629.382667
558.446994	2631.651186
558.804197	2631.918367
559.161345	2630.181690
559.518437	2630.259828
559.875474	2629.065074
560.232455	2627.905609
560.589381	2624.941411
560.946251	2627.673716
561.303065	2626.761267
561.659825	2622.874537
562.016528	2625.387553
562.373177	2623.323200
562.729770	2622.549383
563.086307	2622.534260
563.442789	2624.200361
563.799216	2621.291615
564.155587	2620.089300
564.511904	2619.746502
564.868164	2620.434619
565.224370	2618.952520
565.580520	2618.788682
565.936615	2616.767180
566.292654	2614.705348
566.648638	2617.467900
567.004567	2617.304062
567.360441	2616.540328
567.716260	2614.967488
568.072023	2618.619804
568.427732	2609.593618
568.783385	2613.616458
569.138982	2611.806684
569.494525	2610.042280
569.850013	2611.400871
570.205445	2614.160903
570.560823	2613.729884
570.916145	2613.208125
571.271412	2611.932713
571.626625	2613.220728
571.981782	2610.657301
572.336884	2611.481530
572.691931	2611.589915
573.046923	2610.927003
573.401860	2612.835080
573.756743	2613.734926
574.111570	2610.019595
574.466342	2606.624378
574.821059	2611.531941
575.175722	2608.222424
575.530330	2611.186622
575.884882	2609.306272
576.239380	2610.858947
576.593823	2606.775613
576.948211	2609.686879
577.302544	2607.365428
577.656823	2605.215376
578.011047	2605.016250
578.365216	2606.389964
578.719330	2608.229986
579.073389	2606.589090
579.427394	2603.398040
579.781344	2604.809563
580.135239	2606.606734
580.489080	2605.361569
580.842866	2604.055910
581.196597	2603.697988
581.550273	2606.319388
581.903895	2603.135900
582.257463	2602.747731
582.610975	2600.640528
582.964434	2600.970724
583.317837	2603.433328
583.671186	2601.323605
584.024481	2599.082812
584.377721	2602.450303
584.730906	2600.527102
585.084037	2601.971393
585.437113	2598.455188
585.790135	2598.656834
586.143103	2601.374016
586.496016	2602.183122
586.848874	2599.647421
587.201679	2597.567945
587.554428	2593.126689
587.907124	2596.584920
588.259765	2593.232553
588.612352	2601.177411
588.964884	2596.416042
589.317362	2596.869745
589.669786	2595.682554
590.022155	2599.644901
590.374470	2597.779674
590.726731	2599.705394
591.078937	2597.948552
591.431090	2596.625249
591.783188	2599.160950
592.135232	2597.172215
592.487222	2598.528285
592.839157	2597.973758
593.191038	2596.342945
593.542866	2596.627770
593.894639	2597.688933
594.246358	2593.192224
594.598022	2594.603747
594.949633	2596.269848
595.301190	2593.217429
595.652692	2594.175249
596.004141	2595.866556
596.355535	2591.752974
596.706876	2594.215578
597.058162	2590.883375
597.409395	2590.689291
597.760573	2594.966710
598.111698	2594.734817
598.462768	2594.545773
598.813785	2592.108376
599.164748	2592.126020
599.515657	2592.403283
599.866511	2591.752974
600.217312	2591.982347
600.568060	2592.335227
600.918753	2596.191710
601.269392	2591.062336
601.619978	2590.621235
601.970510	2592.504106
602.320988	2590.101996
602.671412	2592.985536
603.021783	2594.006370
603.372100	2593.003180
603.722363	2590.457398
604.072572	2591.488314
604.422728	2593.421596
604.772830	2591.624425
605.122878	2587.825915
605.472872	2588.970257
605.822813	2584.932293
606.172701	2589.988570
606.522534	2593.809765
606.872314	2589.628128
607.222041	2593.023345
607.571714	2592.562079
607.921333	2587.641913
608.270899	2588.614856
608.620411	2592.874631
608.969870	2593.877821
609.319276	2590.417068
609.668627	2594.568459
610.017926	2596.403439
610.367171	2600.595158
610.716362	2597.288161
611.065500	2598.747575
611.414585	2597.356217
611.763616	2596.806731
612.112594	2594.641555
612.461518	2595.682554
612.810389	2595.017121
613.159207	2595.478387
613.507971	2593.958479
613.856682	2596.108531
614.205340	2591.717686
614.553945	2594.215578
614.902496	2591.344641
615.250994	2595.743047
615.599439	2591.879003
615.947830	2590.812799
616.296169	2592.302460
616.644454	2591.294229
616.992686	2594.190372
617.340864	2593.290526
617.688990	2591.168200
618.037063	2592.413365
618.385082	2593.494693
618.733048	2594.117275
619.080961	2592.350351
619.428821	2596.065681
619.776628	2592.753643
620.124382	2593.154415
620.472083	2591.440423
620.819731	2591.621904
621.167326	2590.331369
621.514868	2591.513519
621.862357	2589.837336
622.209793	2590.865731
622.557176	2591.742892
622.904506	2585.524629
623.251783	2587.173086
623.599007	2585.847262
623.946179	2583.548496
624.293297	2584.821388
624.640363	2587.649475
624.987376	2586.913467
625.334336	2587.604105
625.681243	2587.692325
626.028097	2585.479258
626.374899	2585.078487
626.721647	2583.533373
627.068343	2587.195771
627.414987	2588.519074
627.761577	2586.235431
628.108115	2582.101685
628.454600	2586.185020
628.801032	2584.765935
629.147412	2585.201995
629.493739	2586.086717
629.840014	2583.641758
630.186236	2586.694176
630.532405	2584.108064
630.878521	2585.494382
631.224585	2585.655699
631.570597	2582.835173
631.916556	2584.793661
632.262462	2584.032447
632.608316	2585.237283
632.954117	2582.099165
633.299866	2583.624114
633.645562	2582.051274
633.991206	2582.820050
634.336797	2579.502970
634.682336	2578.829976
635.027823	2578.940882
635.373257	2580.642271
635.718639	2575.028946
636.063968	2582.255440
636.409245	2578.340984
636.754470	2577.541962
637.099642	2577.347877
637.444762	2577.516756
637.789829	2576.861406
638.134845	2577.680593
638.479808	2577.983062
638.824719	2574.653380
639.169577	2577.363001
639.514383	2577.516756
639.859137	2574.169430
640.203839	2576.541292
640.548489	2577.473906
640.893086	2573.635067
641.237632	2570.323029
641.582125	2571.447207
641.926566	2570.159192
642.270955	2577.083217
642.615292	2572.372258
642.959576	2577.118505
643.303809	2575.802763
643.647990	2575.144893
643.992118	2574.474419
644.336195	2574.983576
644.680219	2573.672876
645.024192	2576.253947
645.368112	2574.945767
645.711981	2575.989286
646.055797	2577.851992
646.399562	2578.167065
646.743274	2577.834348
647.086935	2580.947261
647.430544	2577.980542
647.774101	2576.679924
648.117606	2576.989955
648.461059	2580.959864
648.804460	2578.779565
649.147810	2579.056828
649.491108	2575.654049
649.834354	2579.442477
650.177548	2576.541293
650.520690	2574.832341
650.863781	2575.696899
651.206820	2577.970460
651.549807	2575.008782
651.892742	2571.096846
652.235626	2571.875705
652.578458	2571.623647
652.921238	2572.836044
653.263967	2574.262691
653.606644	2573.211610
653.949269	2571.548030
654.291843	2571.084243
654.634365	2573.791343
654.976836	2572.097515
655.319255	2571.416960
655.661622	2569.506362
656.003938	2573.408215
656.346203	2571.555591
656.688416	2569.864284
657.030577	2570.386044
657.372687	2570.703636
657.714746	2570.660787
658.056753	2573.856878
658.398708	2568.931671
658.740612	2570.058369
659.082465	2567.580642
659.424266	2569.221537
659.766016	2565.251628
660.107715	2568.551064
660.449362	2571.648853
660.790958	2571.117011
661.132503	2570.191959
661.473996	2572.357135
661.815438	2571.570715
662.156829	2569.949984
662.498168	2570.968297
662.839456	2570.716239
663.180693	2571.260684
663.521879	2570.454099
663.863013	2569.881928
664.204097	2569.269428
664.545129	2570.275138
664.886110	2572.001733
665.227040	2570.469223
665.567918	2570.648184
665.908746	2568.939232
666.249522	2571.873184
666.590248	2572.858730
666.930922	2572.044583
667.271545	2571.575756
667.612118	2573.773699
667.952639	2571.414439
668.293109	2573.723287
668.633528	2573.420818
668.973896	2571.802608
669.314213	2570.156671
669.654480	2571.709347
669.994695	2570.128945
670.334859	2571.706826
670.674973	2572.294120
671.015035	2569.390416
671.355047	2572.568863
671.695008	2570.217165
672.034918	2570.355797
672.374777	2571.293451
672.714585	2572.510890
673.054342	2569.173646
673.394049	2571.802608
673.733705	2572.957032
674.073310	2571.253122
674.412864	2571.497618
674.752368	2570.060889
675.091820	2571.868143
675.431223	2570.126424
675.770574	2569.521486
676.109875	2567.888152
676.449125	2566.345559
676.788324	2564.366906
677.127473	2568.041907
677.466571	2566.295147
677.805619	2569.771023
678.144616	2567.893193
678.483562	2569.105591
678.822458	2567.973852
679.161303	2570.398647
679.500098	2568.238512
679.838842	2567.016032
680.177535	2568.644325
680.516179	2566.912689
680.854771	2568.049469
681.193314	2567.744479
681.531805	2569.120714
681.870247	2571.096846
682.208638	2573.778740
682.546978	2573.645150
682.885268	2572.062227
683.223508	2569.859243
683.561697	2569.816393
683.899836	2571.240519
684.237925	2571.338822
684.575963	2571.021229
684.913951	2569.849161
685.251889	2569.647515
685.589776	2569.029973
685.927614	2568.485529
686.265401	2568.223389
686.603137	2570.685992
686.940824	2570.055848
687.278460	2572.399985
687.616046	2570.383523
687.953582	2569.859243
688.291068	2570.953173
688.628504	2571.545509
688.965889	2570.912844
689.303224	2567.890673
689.640510	2569.854202
689.977745	2567.205076
690.314930	2567.719273
690.652065	2566.625343
690.989150	2567.804973
691.326185	2568.447720
691.663170	2566.070816
692.000105	2564.485373
692.336990	2565.412945
692.673825	2562.189127
693.010610	2565.105435
693.347345	2562.047975
693.684030	2558.050340
694.020665	2560.696946
694.357251	2557.299208
694.693786	2561.700136
695.030272	2560.235680
695.366707	2560.830537
695.703093	2561.032183
696.039429	2559.905485
696.375716	2561.737944
696.711952	2560.817934
697.048139	2561.427913
697.384276	2562.214333
697.720363	2562.781463
698.056400	2561.911864
698.392388	2559.086297
698.728326	2560.651576
699.064214	2560.891030
699.400053	2562.562173
699.735842	2556.898437
700.071581	2559.257697
700.407270	2557.548745
700.742910	2558.952707
701.078501	2560.452450
701.414042	2557.974723
701.749533	2559.378684
702.084974	2557.533622
702.420366	2557.989846
702.755709	2557.551266
703.091002	2556.114537
703.426246	2557.712583
703.761440	2554.755946
704.096584	2558.362892
704.431679	2556.933725
704.766725	2557.153015
705.101721	2554.299722
705.436668	2557.881462
705.771565	2557.440361
706.106413	2558.231822
706.441212	2555.943138
706.775961	2559.633262
707.110661	2556.643858
707.445311	2560.386915
707.779913	2559.124106
708.114465	2557.415155
708.448967	2558.415824
708.783421	2559.199723
709.117825	2558.599826
709.452180	2560.724672
709.786485	2558.889692
710.120742	2562.849519
710.454949	2562.552091
710.789107	2559.101421
711.123216	2559.023283
711.457275	2561.238870
711.791286	2556.104455
712.125247	2558.010011
712.459159	2563.875393
712.793023	2565.029818
713.126837	2562.262224
713.460602	2561.778273
713.794318	2562.718449
714.127985	2563.341031
714.461602	2563.083932
714.795171	2559.068653
715.128691	2561.652245
715.462162	2558.733417
715.795584	2556.636297
716.128957	2556.570762
716.462281	2559.192162
716.795556	2556.918601
717.128782	2558.236863
717.461960	2556.142263
717.795088	2557.667213
718.128167	2555.083621
718.461198	2556.333827
718.794180	2556.003632
719.127113	2552.621017
719.459997	2554.362736
719.792833	2553.243600
720.125619	2555.489434
720.458357	2554.768549
720.791046	2554.322407
721.123686	2550.493651
721.456278	2555.376008
721.788821	2553.404917
722.121315	2555.542366
722.453761	2549.588763
722.786158	2551.721172
723.118506	2550.886861
723.450805	2552.855431
723.783056	2551.091027
724.115259	2555.668395
724.447412	2553.699824
724.779518	2551.832077
725.111574	2555.050854
725.443582	2553.921635
725.775542	2556.011193
726.107453	2555.209650
726.439315	2554.375339
726.771129	2557.432799
727.102895	2551.184289
727.434612	2556.444733
727.766281	2555.222253
728.097901	2554.665205
728.429473	2553.697304
728.760996	2553.513302
729.092471	2550.949875
729.423897	2557.500854
729.755276	2553.596481
730.086606	2554.791234
730.417887	2556.159907
730.749120	2557.397511
731.080305	2555.073539
731.411442	2557.954558
731.742530	2557.626883
732.073570	2559.726524
732.404562	2558.095711
732.735506	2557.548745
733.066401	2558.279713
733.397249	2558.766184
733.728048	2557.836091
734.058798	2555.809547
734.389501	2554.818961
734.720156	2553.528425
735.050762	2554.476162
735.381320	2554.607232
735.711831	2553.601522
736.042293	2554.166131
736.372707	2551.539690
736.703073	2554.697973
737.033391	2553.251162
737.363661	2552.487427
737.693883	2554.266954
738.024056	2553.117571
738.354182	2553.359547
738.684260	2554.211502
739.014290	2553.830894
739.344272	2555.330638
739.674207	2553.566234
740.004093	2554.738302
740.333931	2553.903991
740.663722	2555.900288
740.993464	2553.510781
741.323159	2555.854918
741.652806	2552.517674
741.982405	2553.407438
742.311956	2551.769063
742.641460	2552.537838
742.970915	2552.893240
743.300323	2551.940462
743.629683	2552.076573
743.958996	2553.462890
744.288260	2550.186140
744.617477	2551.504402
744.946647	2546.420398
745.275768	2548.492312
745.604842	2548.101623
745.933869	2546.755635
746.262847	2545.664225
746.591778	2548.288146
746.920662	2549.553475
747.249498	2548.772097
747.578286	2550.743188
747.907027	2550.097920
748.235720	2550.962478
748.564365	2548.414175
748.892963	2550.874258
749.221514	2550.221428
749.550017	2553.251162
749.878473	2549.810574
750.206881	2549.089689
750.535242	2548.605738
750.863555	2549.651778
751.191821	2548.509957
751.520039	2549.306459
751.848210	2551.300235
752.176334	2551.695966
752.504411	2549.437529
752.832440	2549.331665
753.160421	2550.806202
753.488356	2548.494833
753.816243	2549.195553
754.144082	2549.881150
754.471875	2549.006510
754.799620	2548.469627
755.127318	2546.054915
755.454969	2546.541386
755.782572	2550.884340
756.110129	2546.851417
756.437638	2549.487940
756.765100	2549.061963
757.092515	2550.546583
757.419882	2547.121119
757.747203	2550.987684
758.074477	2550.382745
758.401703	2549.104813
758.728882	2549.866027
759.056014	2550.395348
759.383099	2549.871068
759.710138	2547.743701
760.037129	2548.270502
760.364073	2551.224618
760.690970	2548.313352
761.017820	2549.608928
761.344623	2549.213197
761.671379	2550.907025
761.998088	2547.163968
762.324751	2553.586398
762.651366	2556.989177
762.977935	2564.626525
763.304456	2568.104922
763.630931	2572.054666
763.957359	2567.830179
764.283740	2562.841957
764.610074	2560.233160
764.936362	2557.140412
765.262602	2553.619166
765.588796	2551.648075
765.914943	2549.132539
766.241044	2550.821326
766.567097	2548.363763
766.893104	2548.666232
767.219064	2547.721016
767.544978	2545.059287
767.870845	2548.031047
768.196665	2546.601880
768.522438	2543.811601
768.848165	2546.077600
769.173846	2543.418391
769.499479	2546.344781
769.825066	2544.610624
770.150607	2546.553989
770.476101	2543.957795
770.801548	2547.962991
771.126949	2543.395706
771.452303	2546.589277
771.777611	2547.567261
772.102872	2545.583567
772.428087	2544.046015
772.753256	2546.579195
773.078378	2543.678011
773.403453	2544.905532
773.728482	2543.083154
774.053465	2544.615665
774.378401	2543.045346
774.703291	2540.814635
775.028135	2542.279090
775.352932	2541.437218
775.677683	2541.843031
776.002388	2541.071734
776.327046	2544.953423
776.651658	2543.693134
776.976224	2542.314378
777.300743	2545.107178
777.625216	2539.534182
777.949643	2540.580222
778.274024	2543.148689
778.598359	2536.224665
778.922647	2536.126362
779.246889	2539.748431
779.571086	2536.378420
779.895236	2540.418905
780.219339	2539.753472
780.543397	2539.544264
780.867409	2544.671118
781.191374	2542.284132
781.515294	2541.916127
781.839167	2539.340098
782.162995	2544.696324
782.486776	2542.400078
782.810511	2540.313040
783.134201	2540.512166
783.457844	2540.507125
783.781441	2541.679193
784.104993	2542.831097
784.428498	2542.674821
784.751958	2541.991745
785.075372	2544.991231
785.398739	2538.863709
785.722061	2540.567619
786.045337	2541.338915
786.368568	2542.634492
786.691752	2543.289842
787.014891	2542.478216
787.337983	2540.686086
787.661030	2546.523742
787.984031	2545.331509
788.306987	2545.036602
788.629897	2546.279246
788.952760	2545.820501
789.275579	2545.089534
789.598351	2541.442259
789.921078	2542.314378
790.243759	2544.124153
790.566395	2540.713812
790.888984	2543.403268
791.211529	2541.235572
791.534027	2540.207176
791.856480	2541.250695
792.178888	2539.226672
792.501249	2541.497712
792.823566	2543.395706
793.145836	2540.018133
793.468062	2541.931251
793.790241	2539.748431
794.112375	2540.373534
794.434464	2542.392516
794.756507	2542.589121
795.078505	2539.385468
795.400457	2540.222300
795.722364	2537.331198
796.044226	2539.244316
796.366042	2538.258770
796.687812	2538.672145
797.009538	2540.996117
797.331218	2543.798998
797.652852	2541.273380
797.974442	2538.745242
798.295986	2541.709440
798.617484	2539.932433
798.938938	2543.035263
799.260346	2539.483771
799.581709	2543.509132
799.903026	2540.572660
800.224299	2539.335057
800.545526	2540.539892
800.866708	2540.108874
801.187845	2541.656508
801.508936	2538.606610
801.829983	2539.317413
802.150984	2539.561908
802.471940	2536.766589
802.792851	2542.001827
803.113717	2539.642567
803.434538	2541.238092
803.755314	2541.795140
804.076045	2539.458565
804.396731	2537.479912
804.717372	2538.735159
805.037967	2537.613502
805.358518	2541.147351
805.679024	2539.768596
805.999485	2539.370345
806.319901	2540.557536
806.640272	2539.720705
806.960598	2539.750952
807.280879	2537.210210
807.601115	2539.536703
807.921306	2540.408822
808.241453	2542.039636
808.561554	2541.469985
808.881611	2541.785057
809.201623	2540.875129
809.521590	2541.437218
809.841513	2542.432846
810.161390	2538.730118
810.481223	2541.291024
810.801011	2539.299768
811.120755	2539.277083
811.440453	2541.631302
811.760107	2540.923020
812.079716	2536.244829
812.399281	2535.103008
812.718801	2534.893800
813.038276	2533.852802
813.357707	2538.740200
813.677093	2538.394881
813.996434	2542.372352
814.315731	2539.844213
814.634983	2538.369676
814.954191	2539.014943
815.273354	2536.804397
815.592473	2540.643236
815.911547	2537.379089
816.230577	2539.970242
816.549562	2541.923689
816.868502	2541.298586
817.187399	2540.688606
817.506250	2539.960160
817.825058	2542.236241
818.143821	2541.444779
818.462539	2542.296734
818.781213	2542.168185
819.099843	2544.524924
819.418429	2545.419729
819.736970	2546.559030
820.055466	2550.201264
820.373919	2553.084804
820.692327	2556.306101
821.010691	2563.668706
821.329011	2578.283011
821.647286	2607.214193
821.965517	2640.652167
822.283704	2662.944149
822.601847	2668.983451
822.919945	2656.438540
823.237999	2633.513893
823.556010	2615.421192
823.873976	2599.781012
824.191897	2588.176276
824.509775	2577.226889
824.827609	2569.208934
825.145398	2564.576114
825.463144	2565.838923
825.780845	2566.569890
826.098502	2572.894018
826.416116	2578.093968
826.733685	2590.769949
827.051210	2594.954107
827.368692	2586.890781
827.686129	2578.245202
828.003522	2569.685323
828.320872	2561.075032
828.638177	2557.016904
828.955439	2548.923331
829.272656	2545.742363
829.589830	2542.551313
829.906960	2547.917621
830.224046	2544.149358
830.541088	2543.226827
830.858086	2541.648946
831.175041	2542.911755
831.491952	2542.659698
831.808819	2541.464944
832.125642	2539.942516
832.442421	2544.184647
832.759157	2550.498692
833.075849	2554.075390
833.392497	2561.737944
833.709101	2568.379664
834.025662	2566.421176
834.342179	2562.816751
834.658653	2557.173179
834.975083	2553.493137
835.291469	2558.123437
835.607811	2548.716644
835.924110	2542.901673
836.240366	2543.451159
836.556578	2543.400747
836.872746	2540.471837
837.188871	2541.709440
837.504952	2541.538041
837.820990	2536.403626
838.136984	2535.707946
838.452935	2538.168029
838.768842	2539.539223
839.084706	2539.077958
839.400526	2542.579039
839.716303	2543.559543
840.032037	2550.428116
840.347727	2548.116747
840.663373	2546.301931
840.978977	2543.468803
841.294537	2543.988042
841.610054	2537.767258
841.925527	2537.991589
842.240957	2537.409336
842.556344	2536.958153
842.871687	2539.793802
843.186987	2540.270191
843.502244	2533.459592
843.817458	2537.782381
844.132629	2535.460930
844.447756	2536.539737
844.762840	2529.131761
845.077881	2535.597041
845.392879	2530.288706
845.707833	2532.766433
846.022745	2532.653007
846.337613	2533.018491
846.652438	2533.802390
846.967221	2534.881197
847.281960	2535.597041
847.596656	2535.564273
847.911309	2535.511341
848.225919	2534.198121
848.540485	2534.919006
848.855009	2535.859181
849.169490	2534.777853
849.483928	2536.171733
849.798323	2532.078316
850.112675	2536.645601
850.426984	2532.842050
850.741251	2536.320447
851.055474	2534.051927
851.369654	2532.090918
851.683792	2532.080836
851.997887	2534.182997
852.311938	2535.357586
852.625947	2534.757689
852.939914	2533.608306
853.253837	2536.963194
853.567718	2534.987061
853.881555	2533.376413
854.195350	2533.056299
854.509103	2534.150230
854.822812	2532.595034
855.136479	2533.227699
855.450103	2534.576207
855.763685	2532.101001
856.077224	2533.986392
856.390720	2532.975641
856.704173	2535.534027
857.017584	2532.602596
857.330953	2534.815662
857.644278	2533.878008
857.957561	2539.937474
858.270802	2532.907585
858.584000	2533.895652
858.897155	2534.989582
859.210268	2534.435055
859.523339	2535.261804
859.836367	2533.643594
860.149352	2534.150230
860.462295	2534.745086
860.775195	2528.632687
861.088054	2528.980527
861.400869	2530.563449
861.713642	2530.407173
862.026373	2532.232071
862.339062	2534.024201
862.651708	2536.683410
862.964312	2532.239632
863.276873	2532.365661
863.589392	2535.181146
863.901869	2536.857329
864.214303	2533.583100
864.526696	2536.232226
864.839045	2536.632998
865.151353	2533.716691
865.463619	2535.471012
865.775842	2534.956814
866.088023	2533.976310
866.400162	2535.221475
866.712258	2535.478574
867.024313	2533.298275
867.336325	2537.558050
867.648296	2533.557894
867.960224	2534.457740
868.272110	2535.455889
868.583954	2536.456558
868.895755	2535.181146
869.207515	2534.982020
869.519233	2535.776002
869.830909	2535.118131
870.142542	2535.372710
870.454134	2534.460261
870.765684	2533.023532
871.077191	2536.005374
871.388657	2536.343132
871.700081	2535.229037
872.011463	2536.781712
872.322803	2536.234747
872.634101	2540.224820
872.945357	2535.692823
873.256571	2538.173071
873.567744	2537.316074
873.878874	2536.569984
874.189963	2535.254243
874.501010	2539.118287
874.812015	2537.217772
875.122979	2537.716846
875.433900	2538.694830
875.744780	2535.637370
876.055618	2536.043183
876.366415	2535.912113
876.677169	2535.556712
876.987882	2535.879346
877.298554	2532.998326
877.609183	2537.699202
877.919771	2534.271218
878.230317	2537.719367
878.540822	2539.680376
878.851285	2539.950077
879.161707	2540.476878
879.472087	2544.814791
879.782425	2547.017775
880.092722	2553.982129
880.402977	2562.297512
880.713191	2581.428691
881.023363	2597.525095
881.333494	2610.564040
881.643583	2612.257867
881.953631	2611.587394
882.263637	2605.888370
882.573602	2601.021136
882.883526	2589.544949
883.193408	2583.127560
883.503248	2571.144737
883.813048	2567.280693
884.122806	2564.268603
884.432522	2556.162428
884.742197	2555.179403
885.051831	2549.566078
885.361424	2547.461397
885.670975	2546.344781
885.980485	2545.152548
886.289954	2542.866385
886.599382	2545.046684
886.908768	2540.534851
887.218113	2541.492670
887.527417	2540.323123
887.836680	2538.944367
888.145901	2537.729449
888.455082	2538.984696
888.764221	2537.679038
889.073319	2537.195087
889.382376	2538.190715
889.691392	2536.116280
890.000366	2538.704912
890.309300	2535.627288
890.618193	2538.011754
890.927044	2537.646270
891.235855	2536.839685
891.544625	2536.368337
891.853353	2538.818338
892.162041	2538.830941
892.470687	2539.710622
892.779293	2540.471837
893.087858	2541.076775
893.396381	2535.733152
893.704864	2544.431663
894.013306	2544.978628
894.321707	2555.602860
894.630068	2557.389949
894.938387	2563.288099
895.246665	2564.659293
895.554903	2559.282902
895.863100	2552.563044
896.171256	2551.219577
896.479371	2550.309648
896.787446	2547.040460
897.095480	2542.725233
897.403473	2542.274049
897.711425	2542.485778
898.019336	2543.042825
898.327207	2541.109543
898.635038	2541.101981
898.942827	2540.081147
899.250576	2539.839172
899.558284	2537.651311
899.865952	2538.596528
900.173579	2538.397402
900.481165	2536.771630
900.788711	2534.833306
901.096216	2536.322967
901.403681	2537.830272
901.711105	2534.752648
902.018489	2537.391692
902.325832	2538.737680
902.633135	2535.849099
902.940397	2540.171888
903.247619	2541.558205
903.554800	2545.477703
903.861941	2555.789383
904.169041	2562.539488
904.476101	2570.869994
904.783121	2572.319326
905.090100	2567.918399
905.397039	2562.960424
905.703938	2552.565565
906.010796	2551.494320
906.317614	2545.689431
906.624391	2542.594162
906.931129	2539.617361
907.237826	2539.957639
907.544483	2536.247350
907.851099	2536.282638
908.157675	2536.577545
908.464211	2535.574356
908.770707	2528.541946
909.077163	2535.362627
909.383578	2531.140661
909.689954	2531.231402
909.996289	2527.793335
910.302584	2532.756351
910.608839	2533.169725
910.915054	2530.679395
911.221229	2532.287523
911.527363	2533.341125
911.833458	2531.712832
912.139513	2533.280631
912.445527	2534.074612
912.751502	2534.112421
913.057436	2534.041845
913.363331	2532.942873
913.669186	2534.329191
913.975000	2538.170550
914.280775	2539.798843
914.586510	2541.969059
914.892205	2546.995090
915.197859	2549.853424
915.503475	2556.674105
915.809050	2561.339693
916.114585	2567.038718
916.420081	2571.081723
916.725536	2566.917730
917.030952	2562.935218
917.336328	2560.943963
917.641665	2555.091183
917.946961	2552.910884
918.252218	2547.970553
918.557435	2546.992569
918.862612	2545.147507
919.167750	2541.979142
919.472848	2541.527958
919.777906	2540.912938
920.082925	2540.633154
920.387904	2537.474871
920.692843	2538.745242
920.997743	2537.127031
921.302603	2535.108049
921.607423	2534.876156
921.912204	2535.833975
922.216946	2533.129396
922.521647	2534.180477
922.826310	2536.632998
923.130932	2535.014788
923.435516	2534.644263
923.740059	2533.457071
924.044564	2530.689478
924.349028	2531.864067
924.653454	2525.469363
924.957840	2532.421114
925.262186	2528.483973
925.566493	2529.343490
925.870761	2525.918026
926.174989	2528.557070
926.479178	2529.651000
926.783328	2530.210568
927.087438	2531.748120
927.391509	2530.467667
927.695541	2529.098994
927.999533	2530.177801
928.303486	2531.528830
928.607400	2530.404652
928.911275	2528.927594
929.215110	2531.359951
929.518906	2529.930784
929.822663	2531.213758
930.126381	2529.096473
930.430060	2529.519930
930.733699	2528.990609
931.037299	2531.624612
931.340861	2530.419776
931.644383	2530.429858
931.947866	2529.179652
932.251309	2531.821217
932.554714	2530.704601
932.858080	2529.749302
933.161407	2528.471370
933.464694	2529.875331
933.767943	2528.693181
934.071153	2532.842050
934.374323	2527.838705
934.677455	2530.989426
934.980548	2530.969262
935.283602	2528.804086
935.586617	2529.852646
935.889593	2530.177801
936.192530	2529.126720
936.495428	2531.982534
936.798287	2528.950280
937.101108	2529.587986
937.403890	2531.980013
937.706632	2529.739220
938.009336	2533.111752
938.312002	2530.681916
938.614628	2533.820034
938.917216	2531.274252
939.219765	2534.760209
939.522275	2532.685775
939.824747	2535.097967
940.127179	2531.377595
940.429573	2530.097142
940.731929	2528.940197
941.034246	2528.708304
941.336524	2528.756195
941.638763	2530.626463
941.940964	2531.735517
942.243126	2531.523789
942.545250	2531.833820
942.847335	2530.689478
943.149381	2529.280475
943.451389	2530.288706
943.753359	2529.945908
944.055290	2530.480270
944.357182	2528.927594
944.659036	2530.543284
944.960851	2528.907430
945.262628	2529.421628
945.564367	2529.845084
945.866067	2532.746268
946.167729	2529.323325
946.469352	2533.832637
946.770937	2528.577234
947.072484	2530.646628
947.373992	2528.907430
947.675462	2529.996319
947.976893	2532.615198
948.278286	2531.629653
948.579641	2530.102183
948.880958	2528.678057
949.182236	2528.378109
949.483476	2529.401463
949.784678	2531.677544
950.085841	2530.102183
950.386967	2531.226361
950.688054	2527.538757
950.989103	2531.460774
951.290114	2530.082019
951.591087	2530.583613
951.892021	2531.238963
952.192917	2531.710311
952.493776	2531.901875
952.794596	2531.367513
953.095378	2529.807276
953.396122	2531.022194
953.696828	2529.527492
953.997496	2529.555218
954.298126	2531.977492
954.598718	2533.494880
954.899272	2529.262831
955.199788	2529.923222
955.500266	2530.755013
955.800706	2525.522295
956.101108	2523.430216
956.401472	2525.492048
956.701798	2524.856863
957.002087	2526.903571
957.302337	2527.442975
957.602550	2526.850639
957.902724	2529.802235
958.202861	2528.133613
958.502960	2528.627646
958.803022	2528.017666
959.103045	2528.095804
959.403031	2527.143026
959.702979	2527.783253
960.002889	2526.679240
960.302762	2528.688140
960.602596	2529.222502
960.902393	2526.356606
961.202153	2526.268386
961.501875	2529.217461
961.801559	2529.542615
962.101205	2527.984899
962.400814	2526.601102
962.700385	2526.162522
962.999918	2530.205527
963.299414	2527.886596
963.598873	2529.328366
963.898293	2526.943900
964.197677	2529.381298
964.497022	2528.204189
964.796331	2525.955834
965.095601	2526.210413
965.394835	2527.417769
965.694030	2527.238808
965.993189	2530.339117
966.292309	2526.275947
966.591393	2525.749147
966.890439	2526.906092
967.189447	2529.865249
967.488419	2527.674868
967.787353	2529.862728
968.086249	2524.574558
968.385108	2528.451205
968.683930	2527.682429
968.982714	2527.175793
969.281462	2528.045393
969.580172	2525.756709
969.878844	2525.880217
970.177480	2526.959024
970.476078	2526.202851
970.774639	2527.939528
971.073162	2526.026410
971.371649	2525.981040
971.670098	2523.430216
971.968510	2525.003056
972.266885	2525.902902
972.565223	2528.153777
972.863524	2530.550846
973.161788	2529.048582
973.460014	2527.301822
973.758204	2525.522295
974.056356	2530.291227
974.354471	2526.306194
974.652550	2529.114117
974.950591	2526.691843
975.248595	2527.763088
975.546563	2528.637728
975.844493	2527.339631
976.142386	2527.342152
976.440243	2526.747295
976.738062	2526.951462
977.035845	2527.586647
977.333590	2527.818541
977.631299	2526.102028
977.928971	2526.263345
978.226606	2526.966586
978.524204	2525.839888
978.821765	2527.808458
979.119290	2526.883407
979.416777	2525.655886
979.714228	2525.179497
980.011642	2526.550690
980.309020	2530.076977
980.606360	2526.487676
980.903664	2527.904240
981.200931	2525.928108
981.498162	2524.776204
981.795356	2528.713345
982.092513	2527.435413
982.389633	2527.662265
982.686717	2525.262676
982.983764	2529.918181
983.280775	2528.073119
983.577749	2530.329035
983.874686	2526.412059
984.171587	2529.290557
984.468451	2526.109589
984.765279	2529.151926
985.062070	2526.212933
985.358824	2527.173273
985.655543	2527.294261
985.952224	2525.776873
986.248869	2525.499610
986.545478	2524.413241
986.842050	2524.836698
987.138586	2524.511544
987.435086	2523.291584
987.731549	2523.399969
988.027975	2524.012469
988.324366	2527.006915
988.620719	2526.757378
988.917037	2528.383150
989.213318	2525.020700
989.509563	2525.867614
989.805772	2526.956503
990.101944	2526.545649
990.398080	2524.713190
990.694180	2526.568334
990.990244	2524.267048
991.286271	2524.269568
991.582262	2523.861235
991.878217	2525.325690
992.174136	2528.983047
992.470019	2528.599919
992.765865	2526.550690
993.061676	2526.487676
993.357450	2525.902902
993.653188	2527.659744
993.948890	2523.674712
994.244556	2524.998015
994.540186	2527.548839
994.835780	2529.464477
995.131337	2523.596574
995.426859	2523.510875
995.722345	2525.481966
996.017795	2521.380987
996.313208	2526.021369
996.608586	2526.835516
996.903928	2526.464991
997.199234	2524.998015
997.494504	2526.832995
997.789738	2527.211082
998.084936	2526.681760
998.380099	2526.409538
998.675225	2527.745444
998.970316	2525.613036
999.265371	2527.024559
999.560390	2526.843077
999.855373	2526.545649
1000.150320	2524.534229
1000.445232	2527.155629
1000.740108	2524.496420
1001.034948	2526.318797
1001.329752	2526.820392
1001.624521	2524.877027
1001.919254	2522.336286
1002.213951	2523.611698
1002.508613	2521.678415
1002.803239	2523.470545
1003.097829	2519.984588
1003.392384	2524.350227
1003.686903	2525.945752
1003.981386	2525.393746
1004.275834	2526.172604
1004.570246	2526.591020
1004.864623	2525.673530
1005.158964	2525.119003
1005.453270	2525.436595
1005.747540	2526.712007
1006.041775	2526.535567
1006.335974	2524.559435
1006.630138	2524.408200
1006.924266	2526.399456
1007.218359	2526.689322
1007.512416	2524.181348
1007.806438	2528.448685
1008.100425	2525.686133
1008.394376	2526.641431
1008.688292	2524.546832
1008.982172	2523.578930
1009.276017	2525.461801
1009.569827	2524.536749
1009.863602	2526.767460
1010.157341	2523.954496
1010.451045	2523.752850
1010.744714	2525.116482
1011.038347	2526.228057
1011.331945	2525.388704
1011.625508	2526.182686
1011.919036	2523.894002
1012.212528	2523.742768
1012.505986	2526.691843
1012.799408	2524.146060
1013.092795	2524.710669
1013.386147	2526.031452
1013.679464	2522.006090
1013.972745	2525.441637
1014.265992	2527.566483
1014.559204	2523.722603
1014.852380	2525.502130
1015.145521	2523.964578
1015.438628	2523.762932
1015.731699	2525.643283
1016.024736	2526.812830
1016.317737	2523.891482
1016.610703	2523.813344
1016.903635	2523.982222
1017.196531	2521.224711
1017.489393	2524.443488
1017.782219	2520.125740
1018.075011	2523.321831
1018.367768	2521.711183
1018.660490	2523.896523
1018.953177	2523.896523
1019.245829	2523.896523
