Dividing Wavelength (nm)	Counts (n)	Blue Motor Position (mm): 0.000000	Red Motor Position (mm): 45.700000	
326.493990	2127.185442
326.888308	2127.185442
327.282561	2127.185442
327.676750	2097.099835
328.070874	2096.598241
328.464933	2097.435072
328.858929	2103.920517
329.252859	2115.542897
329.646726	2125.000101
330.040528	2137.300517
330.434265	2154.286685
330.827938	2169.813438
331.221547	2188.662313
331.615091	2209.232741
332.008571	2228.505072
332.401986	2248.052146
332.795338	2269.741711
333.188625	2286.690070
333.581847	2306.753862
333.975006	2323.278764
334.368100	2342.167968
334.761129	2359.010463
335.154095	2375.794985
335.546996	2398.369272
335.939833	2421.762746
336.332606	2438.713626
336.725315	2451.109823
337.117960	2460.045268
337.510540	2465.028449
337.903056	2478.805922
338.295508	2486.292036
338.687896	2495.257728
339.080220	2505.178719
339.472480	2509.942609
339.864676	2515.326561
340.256807	2518.018537
340.648875	2520.392921
341.040879	2523.430216
341.432818	2526.591020
341.824694	2526.933818
342.216506	2527.863911
342.608253	2526.868283
342.999937	2525.895340
343.391557	2527.800897
343.783113	2524.435926
344.174605	2524.466173
344.566033	2524.942562
344.957397	2523.823426
345.348697	2520.163548
345.739934	2518.560462
346.131106	2515.772703
346.522215	2516.140708
346.913260	2514.313289
347.304241	2515.069462
347.695159	2510.623165
348.086012	2510.179543
348.476802	2506.491939
348.867528	2506.260046
349.258191	2503.618482
349.648789	2503.600838
350.039324	2501.498676
350.429796	2503.747031
350.820203	2500.470281
351.210548	2498.960455
351.600828	2496.213027
351.991045	2497.964828
352.381198	2497.536329
352.771288	2497.143119
353.161314	2495.814775
353.551276	2494.289826
353.941175	2497.415342
354.331010	2499.646052
354.720782	2495.154384
355.110490	2497.916937
355.500135	2495.066164
355.889717	2498.615136
356.279235	2497.813593
356.668689	2496.238232
357.058080	2496.749909
357.447408	2495.671103
357.836672	2491.844867
358.225873	2498.610095
358.615010	2490.796307
359.004084	2499.623367
359.393095	2500.598830
359.782043	2502.103615
360.170927	2501.533964
360.559748	2501.975065
360.948505	2505.400529
361.337199	2502.935405
361.725830	2505.960097
362.114398	2504.813235
362.502903	2505.796260
362.891344	2506.658297
363.279722	2505.692916
363.668037	2507.704337
364.056289	2505.607217
364.444478	2508.314316
364.832603	2507.835407
365.220665	2509.725839
365.608665	2509.582167
365.996601	2510.242558
366.384474	2511.006293
366.772284	2511.714575
367.160031	2515.273629
367.547715	2515.127436
367.935336	2518.941069
368.322893	2520.768487
368.710388	2525.502130
369.097820	2532.791639
369.485189	2536.693492
369.872495	2541.442259
370.259738	2547.141283
370.646918	2555.373487
371.034035	2561.221226
371.421090	2570.849830
371.808081	2587.878847
372.195010	2590.157449
372.581875	2604.176898
372.968678	2617.755246
373.355418	2627.005763
373.742096	2645.032929
374.128710	2659.866524
374.515262	2674.455624
374.901751	2691.119158
375.288177	2706.766899
375.674540	2727.289437
376.060841	2747.330544
376.447079	2765.529109
376.833254	2786.013838
377.219367	2796.691002
377.605417	2834.381188
377.991404	2845.771675
378.377329	2864.953266
378.763191	2883.199722
379.148991	2920.922676
379.534727	2944.016202
379.920402	2974.905872
380.306013	2987.987667
380.691563	3036.786036
381.077049	3056.194478
381.462474	3076.598548
381.847835	3112.869650
382.233134	3136.603402
382.618371	3136.875625
383.003545	3208.228116
383.388657	3212.702140
383.773706	3244.050556
384.158693	3262.627207
384.543618	3287.964047
384.928480	3319.365394
385.313280	3367.420193
385.698017	3367.064792
386.082692	3422.585540
386.467305	3428.488731
386.851856	3456.719192
387.236344	3480.881443
387.620770	3511.216586
388.005133	3538.892521
388.389435	3566.316397
388.773674	3579.433480
389.157851	3618.628451
389.541965	3633.512458
389.926018	3599.199844
390.310008	3672.916637
390.693936	3689.809543
391.077802	3732.157756
391.461606	3718.168554
391.845348	3783.711116
392.229027	3782.166002
392.612645	3791.401396
392.996200	3873.559601
393.379694	3912.968821
393.763125	3978.894511
394.146494	3943.084674
394.529801	4004.564066
394.913047	4056.626582
395.296230	4019.899256
395.679351	4075.374633
396.062410	4097.608643
396.445408	4080.186415
396.828343	4115.756796
397.211217	4137.794200
397.594028	4058.401068
397.976778	4122.769041
398.359466	4149.177126
398.742092	4176.530427
399.124656	4102.024693
399.507158	4182.431097
399.889598	4205.484294
400.271977	4268.420579
400.654294	4239.554932
401.036549	4248.543309
401.418742	4216.849575
401.800874	4319.759690
402.182944	4343.929502
402.564952	4405.063574
402.946898	4395.813057
403.328783	4386.607910
403.710606	4301.235970
404.092367	4494.896936
404.474067	4460.279332
404.855705	4467.853666
405.237282	4394.073859
405.618797	4502.594778
406.000250	4541.875449
406.381642	4620.111636
406.762972	4577.276952
407.144240	4593.877471
407.525447	4592.667594
407.906593	4652.090195
408.287677	4695.615517
408.668700	4621.036688
409.049661	4673.948638
409.430560	4715.427252
409.811399	4641.718021
410.192176	4802.782887
410.572891	4744.050924
410.953545	4846.829968
411.334138	4722.081575
411.714669	4793.451711
412.095139	4689.750135
412.475547	4828.775076
412.855894	4813.565915
413.236180	4820.293334
413.616405	4770.075880
413.996568	4860.216752
414.376670	4800.955468
414.756711	4758.312348
415.136691	4789.512049
415.516609	4868.879975
415.896466	4903.182507
416.276262	4937.132157
416.655997	4919.185649
417.035670	5100.959575
417.415283	5192.701013
417.794834	5136.880317
418.174324	5090.252164
418.553753	5002.122713
418.933121	5179.165515
419.312428	5247.939456
419.691674	5186.407133
420.070859	5313.076205
420.449983	5221.569181
420.829045	5339.224670
421.208047	5245.360906
421.586988	5318.122400
421.965867	5329.326365
422.344686	5463.108505
422.723444	5316.970497
423.102141	5136.479545
423.480777	5434.295791
423.859352	5204.270461
424.237866	5462.072548
424.616319	5454.422597
424.994712	5561.683228
425.373044	5442.114620
425.751314	5582.530919
426.129524	5386.031784
426.507673	5584.131486
426.885762	5663.310369
427.263789	5599.209577
427.641756	5480.208099
428.019662	5599.643116
428.397508	5607.545125
428.775292	5553.566970
429.153016	5653.785108
429.530679	5575.564045
429.908282	5662.319782
430.285824	5528.484709
430.663305	5805.745650
431.040726	5542.060536
431.418086	5541.067429
431.795385	5648.242360
432.172624	5662.355070
432.549802	5654.284183
432.926920	5671.345968
433.303977	5675.063819
433.680974	5711.844077
434.057910	5732.071707
434.434786	5738.131174
434.811601	5704.975505
435.188355	5941.221618
435.565050	5815.825437
435.941683	5798.007479
436.318257	6009.330128
436.694770	5998.007696
437.071222	6031.155803
437.447614	5960.902283
437.823946	5876.145363
438.200218	6028.453745
438.576429	5894.931223
438.952580	5991.847406
439.328670	6034.944230
439.704700	5941.347647
440.080670	5929.256440
440.456580	6195.953643
440.832429	6083.651859
441.208218	5929.758035
441.583947	6081.930305
441.959616	6085.867446
442.335224	6014.020921
442.710773	6153.950749
443.086261	6180.689029
443.461689	5978.160673
443.837057	6130.804291
444.212365	6280.670233
444.587612	6171.105796
444.962800	6325.700340
445.337927	6305.893647
445.712995	5919.315284
446.088002	6491.279559
446.462949	6326.743859
446.837837	6253.644607
447.212664	6431.940137
447.587431	6570.385345
447.962139	7107.782427
448.336786	8039.178450
448.711374	7780.179089
449.085901	6852.644590
449.460369	6773.271623
449.834776	6703.865016
450.209124	7099.051149
450.583412	7251.684684
450.957640	7393.227681
451.331808	7162.564646
451.705917	6714.002777
452.079965	6636.852958
452.453954	6847.661409
452.827883	6721.607357
453.201752	6820.051010
453.575562	6618.987109
453.949311	6823.373130
454.323001	6713.826336
454.696632	6786.693695
455.070202	6922.346103
455.443713	7083.068170
455.817164	7177.909918
456.190556	7259.387567
456.563888	7334.049576
456.937160	7379.309056
457.310373	7038.816922
457.683526	7060.778709
458.056619	6946.677233
458.429653	6941.855369
458.802628	6875.566716
459.175542	6979.941286
459.548398	7336.900349
459.921194	7501.471337
460.293930	7504.765731
460.666607	8030.363992
461.039224	8336.972011
461.411782	8465.642421
461.784280	8484.224114
462.156719	8380.701500
462.529099	8256.575689
462.901419	7845.646033
463.273680	7737.384734
463.645882	7748.341682
464.018024	7618.320242
464.390106	7779.332175
464.762130	8171.057555
465.134094	8638.596848
465.505999	9659.692642
465.877845	10873.133661
466.249631	11532.072962
466.621358	11141.625515
466.993026	10524.179950
467.364634	10262.183623
467.736184	9899.429754
468.107674	9563.870390
468.479105	9596.547149
468.850477	9365.231284
469.221790	9137.091346
469.593043	8812.650246
469.964238	8673.486674
470.335373	8682.906070
470.706449	8736.717867
471.077467	8716.850679
471.448425	10021.072797
471.819324	11095.740932
472.190164	11133.635286
472.560945	9881.432835
472.931667	9093.671888
473.302330	8953.686607
473.672934	8599.850540
474.043479	8955.834139
474.413965	8899.874811
474.784393	8784.538252
475.154761	8936.755892
475.525070	9020.250003
475.895321	8850.254733
476.265513	9023.846866
476.635645	9197.537301
477.005719	9199.488228
477.375734	9311.263212
477.745691	9546.047390
478.115588	9675.413480
478.485427	9926.150390
478.855207	10460.084200
479.224928	11272.771132
479.594591	11902.121381
479.964194	11718.086498
480.333739	11658.207673
480.703226	11570.617625
481.072653	11661.262612
481.442022	11902.610373
481.811333	12087.885380
482.180584	11892.790205
482.549777	11605.560382
482.918912	11428.497415
483.287988	11450.675972
483.657005	11460.884308
484.025964	11144.836730
484.394864	11278.039138
484.763706	11250.156516
485.132489	11000.465645
485.501213	10969.949020
485.869879	11045.294106
486.238487	10878.537778
486.607036	10990.932823
486.975527	10769.074163
487.343959	10962.505757
487.712333	11013.439055
488.080648	10939.997005
488.448905	10982.325053
488.817104	10917.392471
489.185244	11181.753099
489.553326	11345.184786
489.921350	11873.202802
490.289315	12938.804423
490.657222	13285.683698
491.025070	13192.583669
491.392861	13063.686406
491.760593	12689.421062
492.128267	12340.638751
492.495883	12011.554749
492.863440	11676.706187
493.230939	11340.214209
493.598380	11276.506627
493.965763	11145.905454
494.333088	11041.888806
494.700354	10966.226128
495.067563	11019.811073
495.434713	10854.534324
495.801805	10985.261525
496.168839	10904.260265
496.535815	10836.461787
496.902733	10831.440798
497.269593	10773.160018
497.636395	10867.359019
498.003139	10855.925682
498.369825	10732.442619
498.736453	10886.354087
499.103023	10810.451954
499.469535	10837.172590
499.835989	10829.260499
500.202385	10786.531679
500.568723	10643.798969
500.935003	10866.678463
501.301226	10672.205871
501.667390	10930.827146
502.033497	11025.943637
502.399546	10885.272759
502.765537	10796.006527
503.131470	10867.492610
503.497345	11043.106245
503.863163	10655.678448
504.228923	10967.325100
504.594625	11026.606548
504.960269	10776.156984
505.325856	10991.081537
505.691385	10791.003182
506.056856	10952.128542
506.422270	10971.758795
506.787625	10863.419357
507.152924	10980.119548
507.518164	10963.178751
507.883347	10878.147088
508.248472	10791.769438
508.613540	11030.952023
508.978550	10914.574466
509.343503	10888.415919
509.708398	11002.464463
510.073236	11112.880855
510.438016	11125.400561
510.802738	11075.808210
511.167403	11120.808070
511.532010	11021.464572
511.896561	11250.335477
512.261053	11326.688793
512.625488	11191.341374
512.989866	11173.001656
513.354186	11168.920842
513.718449	11068.811088
514.082655	11264.448187
514.446803	11157.147227
514.810894	11278.901175
515.174927	11147.158181
515.538904	11165.641572
515.902822	11322.938174
516.266684	11208.619929
516.630488	11152.191773
516.994235	11205.139012
517.357925	11270.333734
517.721558	11361.772703
518.085133	11372.538087
518.448651	11383.510158
518.812112	11268.047571
519.175516	11274.331369
519.538863	11399.846017
519.902152	11317.372741
520.265385	11483.077988
520.628560	11388.001827
520.991678	11361.003927
521.354739	11428.915831
521.717743	11369.460463
522.080690	11344.355517
522.443580	11480.600261
522.806413	11432.343816
523.169189	11462.507560
523.531908	11521.058041
523.894569	11337.244969
524.257174	11342.364261
524.619722	11457.075717
524.982213	11407.987481
525.344647	11460.891870
525.707025	11412.395970
526.069345	11507.610763
526.431608	11415.055179
526.793815	11529.038188
527.155964	11323.248205
527.518057	11375.915660
527.880093	11324.591673
528.242072	11393.615151
528.603995	11304.815226
528.965860	11221.618544
529.327669	11269.191913
529.689421	11223.508977
530.051117	11192.337002
530.412755	11301.730040
530.774337	11184.802997
531.135862	11162.942034
531.497331	11191.122084
531.858743	11043.779239
532.220098	11209.008097
532.581396	11086.777761
532.942638	11065.831767
533.303824	11023.486074
533.664953	11045.208406
534.026025	10950.364138
534.387040	11049.445496
534.747999	11050.688140
535.108902	11109.147881
535.469748	10866.222239
535.830537	10975.335493
536.191270	10944.786101
536.551947	10981.957049
536.912567	10968.787034
537.273131	10899.708103
537.633638	10879.392253
537.994089	10870.529905
538.354483	10811.815586
538.714821	10961.379059
539.075103	10970.932045
539.435328	10932.704976
539.795497	10755.702503
540.155609	10916.991699
540.515665	11005.305153
540.875665	10740.357230
541.235609	10810.237705
541.595496	10805.567076
541.955328	10957.164654
542.315102	10851.202121
542.674821	10798.892588
543.034483	10796.787906
543.394090	10803.976592
543.753640	10724.633871
544.113134	10955.163316
544.472571	10799.547938
544.831953	10945.025556
545.191278	10755.195867
545.550548	10779.002716
545.909761	10922.778944
546.268918	10889.824921
546.628019	10980.784981
546.987064	10842.541419
547.346053	10756.473799
547.704986	10863.174861
548.063863	10850.488798
548.422684	10837.979174
548.781449	10754.454817
549.140158	10855.557678
549.498811	10734.796837
549.857408	10591.582698
550.215949	10815.951853
550.574434	10667.278143
550.932864	10766.404872
551.291237	10828.584984
551.649555	10777.172777
552.007817	10794.857144
552.366022	10749.385937
552.724173	10746.668755
553.082267	10732.979502
553.440305	10866.300377
553.798288	10669.471045
554.156215	10820.428397
554.514086	10799.381580
554.871902	10648.426749
555.229661	10686.184991
555.587365	10659.439149
555.945014	10552.609537
556.302606	10680.546460
556.660143	10575.647611
557.017625	10725.994983
557.375050	10625.275250
557.732421	10764.166600
558.089735	10675.598568
558.446994	10682.787253
558.804197	10705.752230
559.161345	10714.619619
559.518437	10560.761083
559.875474	10649.271142
560.232455	10683.009064
560.589381	10630.855807
560.946251	10628.816660
561.303065	10733.770963
561.659825	10667.013483
562.016528	10596.429767
562.373177	10481.413322
562.729770	10590.846689
563.086307	10502.223205
563.442789	10600.644172
563.799216	10481.551953
564.155587	10523.360763
564.511904	10479.502724
564.868164	10464.689294
565.224370	10488.216359
565.580520	10407.522609
565.936615	10416.843703
566.292654	10288.251430
566.648638	10417.395709
567.004567	10377.121931
567.360441	10356.647285
567.716260	10267.045816
568.072023	10365.139108
568.427732	10312.519544
568.783385	10218.532272
569.138982	10292.803592
569.494525	10312.902672
569.850013	10185.749649
570.205445	10265.949365
570.560823	10162.174693
570.916145	10080.450027
571.271412	10155.653960
571.626625	10095.961658
571.981782	10072.134644
572.336884	10044.864522
572.691931	10051.627230
573.046923	10003.315332
573.401860	9954.380852
573.756743	9893.087983
574.111570	9934.916957
574.466342	9922.510677
574.821059	9945.689903
575.175722	9838.514972
575.530330	9850.719605
575.884882	9840.186114
576.239380	9767.469991
576.593823	9748.711857
576.948211	9758.211912
577.302544	9641.070620
577.656823	9659.526284
578.011047	9665.273199
578.365216	9638.164394
578.719330	9549.770282
579.073389	9564.535822
579.427394	9510.658490
579.781344	9489.939348
580.135239	9439.323643
580.489080	9448.087689
580.842866	9350.354839
581.196597	9354.128143
581.550273	9396.448629
581.903895	9361.916725
582.257463	9426.942569
582.610975	9305.443199
582.964434	9332.748609
583.317837	9254.025951
583.671186	9237.639680
584.024481	9229.813289
584.377721	9148.978387
584.730906	9130.920974
585.084037	9159.884923
585.437113	9098.594575
585.790135	9115.333726
586.143103	9020.441567
586.496016	8993.110951
586.848874	9048.679590
587.201679	9043.643477
587.554428	8923.641331
587.907124	8968.636149
588.259765	8942.492725
588.612352	8937.990975
588.964884	8820.370773
589.317362	8837.508176
589.669786	8833.747475
590.022155	8884.635403
590.374470	8898.133092
590.726731	8827.660282
591.078937	8682.747273
591.431090	8801.768916
591.783188	8677.630502
592.135232	8666.489552
592.487222	8665.408225
592.839157	8718.355464
593.191038	8651.444229
593.542866	8596.135209
593.894639	8488.496492
594.246358	8549.854896
594.598022	8564.194458
594.949633	8460.636556
595.301190	8437.699306
595.652692	8462.267369
596.004141	8575.572343
596.355535	8354.404321
596.706876	8331.479673
597.058162	8264.601206
597.409395	8339.769851
597.760573	8400.961897
598.111698	8313.891088
598.462768	8301.225189
598.813785	8259.935618
599.164748	8230.931339
599.515657	8221.038075
599.866511	8130.599775
600.217312	8257.982171
600.568060	8113.381714
600.918753	8220.425575
601.269392	8190.864249
601.619978	8100.970393
601.970510	8163.805855
602.320988	8159.052047
602.671412	8223.626707
603.021783	8154.086511
603.372100	8128.074157
603.722363	8123.912684
604.072572	8108.156558
604.422728	8118.122919
604.772830	8044.842186
605.122878	8054.760657
605.472872	8047.798823
605.822813	8075.991476
606.172701	8023.112293
606.522534	8097.146678
606.872314	8097.194569
607.222041	8068.207934
607.571714	8126.052654
607.921333	8083.984225
608.270899	8081.914832
608.620411	8179.430912
608.969870	8080.616735
609.319276	8073.453255
609.668627	8091.210719
610.017926	8131.348386
610.367171	8172.864809
610.716362	8146.388669
611.065500	8139.336095
611.414585	8164.380547
611.763616	8157.832088
612.112594	8137.717884
612.461518	8155.155235
612.810389	8211.979122
613.159207	8149.010069
613.507971	8103.266639
613.856682	8214.842497
614.205340	8172.683327
614.553945	8250.246520
614.902496	8150.882857
615.250994	8200.510497
615.599439	8184.461983
615.947830	8194.698046
616.296169	8170.119901
616.644454	8183.345368
616.992686	8185.223198
617.340864	8242.745283
617.688990	8138.365672
618.037063	8239.740756
618.385082	8182.511057
618.733048	8267.877956
619.080961	8209.604738
619.428821	8225.902788
619.776628	8228.781287
620.124382	8182.563989
620.472083	8162.848036
620.819731	8195.207203
621.167326	8083.505316
621.514868	8097.262625
621.862357	7979.460942
622.209793	7997.780495
622.557176	7930.644928
622.904506	7903.813387
623.251783	7838.719488
623.599007	7791.388094
623.946179	7796.157026
624.293297	7750.983246
624.640363	7668.968714
624.987376	7651.057495
625.334336	7601.986903
625.681243	7547.996146
626.028097	7538.312089
626.374899	7515.710076
626.721647	7510.275712
627.068343	7439.898684
627.414987	7409.520691
627.761577	7363.149637
628.108115	7403.004999
628.454600	7297.115563
628.801032	7343.842018
629.147412	7310.474620
629.493739	7294.806714
629.840014	7234.801860
630.186236	7286.990405
630.532405	7171.379103
630.878521	7223.229891
631.224585	7180.150711
631.570597	7105.947447
631.916556	7137.704196
632.262462	7131.276725
632.608316	7093.331960
632.954117	7067.571663
633.299866	7057.091105
633.645562	7048.868983
633.991206	6968.923844
634.336797	6914.575165
634.682336	6874.555965
635.027823	6838.368042
635.373257	6829.185580
635.718639	6756.681185
636.063968	6774.526870
636.409245	6667.223390
636.754470	6662.802298
637.099642	6622.215968
637.444762	6567.368214
637.789829	6578.415903
638.134845	6518.826944
638.479808	6505.752711
638.824719	6507.749008
639.169577	6435.211846
639.514383	6458.733869
639.859137	6386.456326
640.203839	6398.739097
640.548489	6383.557663
640.893086	6357.671338
641.237632	6330.988510
641.582125	6351.846284
641.926566	6320.127344
642.270955	6335.540672
642.615292	6327.242933
642.959576	6346.094328
643.303809	6331.318706
643.647990	6339.775242
643.992118	6332.460527
644.336195	6281.073526
644.680219	6299.262009
645.024192	6292.544671
645.368112	6389.170987
645.711981	6408.360140
646.055797	6483.364947
646.399562	6445.856242
646.743274	6571.272588
647.086935	6622.825948
647.430544	6616.743796
647.774101	6639.174410
648.117606	6643.648434
648.461059	6634.501260
648.804460	6595.575991
649.147810	6501.694582
649.491108	6473.706096
649.834354	6457.037521
650.177548	6366.062338
650.520690	6280.491272
650.863781	6261.130721
651.206820	6279.956910
651.549807	6198.988418
651.892742	6143.129912
652.235626	6149.398587
652.578458	6133.869313
652.921238	6043.209202
653.263967	6078.298153
653.606644	6024.670359
653.949269	6024.650194
654.291843	5963.460669
654.634365	6010.731568
654.976836	5964.670546
655.319255	5968.214477
655.661622	5941.571979
656.003938	5941.088028
656.346203	5901.625876
656.688416	5935.404127
657.030577	5881.829264
657.372687	5853.261046
657.714746	5844.365930
658.056753	5884.314553
658.398708	5822.590666
658.740612	5816.924409
659.082465	5864.079362
659.424266	5853.014029
659.766016	5854.869174
660.107715	5828.110729
660.449362	5844.073543
660.790958	5840.413665
661.132503	5825.615358
661.473996	5862.829156
661.815438	5848.151836
662.156829	5848.545046
662.498168	5836.728582
662.839456	5813.972813
663.180693	5846.871383
663.521879	5848.131672
663.863013	5842.898954
664.204097	5853.790367
664.545129	5898.785185
664.886110	5893.335698
665.227040	5930.090751
665.567918	5891.389813
665.908746	5921.984575
666.249522	5923.186891
666.590248	5911.952679
666.930922	5934.683242
667.271545	5944.805879
667.612118	5950.446930
667.952639	5922.728146
668.293109	5944.047185
668.633528	5901.522532
668.973896	5904.842132
669.314213	5893.239916
669.654480	5878.663420
669.994695	5875.406834
670.334859	5863.729002
670.674973	5850.596796
671.015035	5858.894535
671.355047	5855.078382
671.695008	5841.071536
672.034918	5809.445857
672.374777	5825.385985
672.714585	5807.361340
673.054342	5812.263862
673.394049	5802.257172
673.733705	5831.190874
674.073310	5819.427342
674.412864	5779.516527
674.752368	5768.867089
675.091820	5776.451505
675.431223	5711.639911
675.770574	5712.829623
676.109875	5662.481099
676.449125	5668.222973
676.788324	5635.941944
677.127473	5578.266103
677.466571	5568.014917
677.805619	5557.473864
678.144616	5545.962389
678.483562	5523.075551
678.822458	5490.245037
679.161303	5485.060210
679.500098	5476.644003
679.838842	5455.874450
680.177535	5461.888546
680.516179	5474.400690
680.854771	5484.281352
681.193314	5565.776645
681.531805	5670.602398
681.870247	5816.674872
682.208638	5918.707825
682.546978	5929.894146
682.885268	5903.223921
683.223508	5822.769627
683.561697	5773.174755
683.899836	5736.210494
684.237925	5691.135017
684.575963	5657.099667
684.913951	5612.487976
685.251889	5670.650289
685.589776	5641.449405
685.927614	5612.934118
686.265401	5677.297050
686.603137	5665.127705
686.940824	5736.477676
687.278460	5759.951808
687.616046	5765.539928
687.953582	5830.492674
688.291068	5812.692360
688.628504	5867.061204
688.965889	5833.678683
689.303224	5781.638852
689.640510	5731.746553
689.977745	5654.919368
690.314930	5559.054266
690.652065	5502.333723
690.989150	5413.780815
691.326185	5338.294577
691.663170	5286.446310
692.000105	5208.951173
692.336990	5131.503926
692.673825	5107.926449
693.010610	5039.548239
693.347345	4972.778156
693.684030	4951.050783
694.020665	4914.610802
694.357251	4827.691228
694.693786	4834.330427
695.030272	4801.005880
695.366707	4765.173358
695.703093	4733.361157
696.039429	4753.356894
696.375716	4735.317125
696.711952	4707.893248
697.048139	4698.980488
697.384276	4674.939225
697.720363	4690.413047
698.056400	4690.244168
698.392388	4644.168022
698.728326	4623.461483
699.064214	4601.776959
699.400053	4594.469807
699.735842	4559.660639
700.071581	4539.974934
700.407270	4509.881766
700.742910	4494.128160
701.078501	4443.136889
701.414042	4437.926856
701.749533	4405.461826
702.084974	4346.782795
702.420366	4396.750712
702.755709	4339.221064
703.091002	4281.754431
703.426246	4328.969878
703.761440	4290.296666
704.096584	4256.750308
704.431679	4270.187503
704.766725	4252.742590
705.101721	4242.229264
705.436668	4269.050723
705.771565	4223.564392
706.106413	4248.200511
706.441212	4274.414511
706.775961	4279.372486
707.110661	4267.331690
707.445311	4290.457983
707.779913	4304.311074
708.114465	4319.595852
708.448967	4339.342052
708.783421	4395.354312
709.117825	4436.974078
709.452180	4437.452988
709.786485	4477.477229
710.120742	4559.632913
710.454949	4546.967014
710.789107	4606.064461
711.123216	4672.332948
711.457275	4668.254655
711.791286	4731.160693
712.125247	4741.127054
712.459159	4659.273839
712.793023	4730.051639
713.126837	4678.437786
713.460602	4673.474770
713.794318	4606.833237
714.127985	4603.115386
714.461602	4524.914487
714.795171	4500.401876
715.128691	4440.873411
715.462162	4380.704719
715.795584	4329.136236
716.128957	4307.398780
716.462281	4268.506278
716.795556	4245.780757
717.128782	4199.197975
717.461960	4132.765649
717.795088	4143.909120
718.128167	4104.268007
718.461198	4053.687590
718.794180	4049.989903
719.127113	4023.047457
719.459997	4003.424765
719.792833	3965.525371
720.125619	3956.191674
720.458357	3920.664142
720.791046	3919.280346
721.123686	3894.525760
721.456278	3858.194164
721.788821	3869.098180
722.121315	3845.379551
722.453761	3821.111436
722.786158	3830.513188
723.118506	3848.878112
723.450805	3810.703974
723.783056	3829.625945
724.115259	3838.274045
724.447412	3840.494673
724.779518	3840.756813
725.111574	3837.568283
725.443582	3863.928477
725.775542	3852.961446
726.107453	3897.207654
726.439315	3894.127509
726.771129	3909.326587
727.102895	3940.306998
727.434612	3976.573059
727.766281	3992.361953
728.097901	3992.324144
728.429473	3997.410669
728.760996	4000.221112
729.092471	3997.234228
729.423897	3982.259481
729.755276	3979.814521
730.086606	3983.620592
730.417887	4017.930685
730.749120	4077.388574
731.080305	4123.739463
731.411442	4152.355573
731.742530	4131.550731
732.073570	4130.449239
732.404562	4170.617153
732.735506	4165.644055
733.066401	4133.675578
733.397249	4076.244232
733.728048	4004.695136
734.058798	3919.325716
734.389501	3857.695090
734.720156	3806.582831
735.050762	3763.909464
735.381320	3748.362545
735.711831	3707.640104
736.042293	3679.502904
736.372707	3694.550748
736.703073	3670.839681
737.033391	3666.723579
737.363661	3683.588759
737.693883	3699.365050
738.024056	3710.281669
738.354182	3706.473077
738.684260	3757.502157
739.014290	3776.096453
739.344272	3778.485960
739.674207	3807.419662
740.004093	3815.150272
740.333931	3809.363027
740.663722	3804.531081
740.993464	3802.552428
741.323159	3778.314561
741.652806	3751.636775
741.982405	3726.057960
742.311956	3695.430430
742.641460	3689.197043
742.970915	3668.014115
743.300323	3628.287302
743.629683	3602.285030
743.958996	3587.224583
744.288260	3566.616346
744.617477	3533.190976
744.946647	3526.476159
745.275768	3498.638907
745.604842	3492.569358
745.933869	3457.034264
746.262847	3446.951957
746.591778	3472.452633
746.920662	3449.969087
747.249498	3423.341713
747.578286	3460.041313
747.907027	3475.094198
748.235720	3481.809015
748.564365	3497.693691
748.892963	3489.610201
749.221514	3477.871874
749.550017	3460.593319
749.878473	3457.329172
750.206881	3432.309925
750.535242	3425.514450
750.863555	3426.111827
751.191821	3422.580498
751.520039	3406.537026
751.848210	3388.703945
752.176334	3409.919641
752.504411	3412.495670
752.832440	3381.061555
753.160421	3372.662993
753.488356	3372.854557
753.816243	3380.801936
754.144082	3345.050073
754.471875	3333.016839
754.799620	3346.937985
755.127318	3340.122345
755.454969	3338.569670
755.782572	3341.932119
756.110129	3325.228256
756.437638	3315.375321
756.765100	3323.786486
757.092515	3331.917867
757.419882	3332.142198
757.747203	3311.798622
758.074477	3318.175682
758.401703	3325.230777
758.728882	3343.164681
759.056014	3350.610466
759.383099	3355.651619
759.710138	3354.479551
760.037129	3371.473281
760.364073	3390.491034
760.690970	3375.060062
761.017820	3358.777135
761.344623	3372.660473
761.671379	3409.355031
761.998088	3449.921196
762.324751	3558.220304
762.651366	3776.345990
762.977935	4186.184236
763.304456	4558.370104
763.630931	4619.173981
763.957359	4321.607273
764.283740	4032.494579
764.610074	3857.380018
764.936362	3681.645395
765.262602	3554.149573
765.588796	3455.852114
765.914943	3381.812687
766.241044	3312.532110
766.567097	3281.914662
766.893104	3242.079464
767.219064	3218.058366
767.544978	3193.182793
767.870845	3153.511432
768.196665	3136.119452
768.522438	3138.088022
768.848165	3132.275572
769.173846	3097.995726
769.499479	3086.703541
769.825066	3076.071748
770.150607	3063.274779
770.476101	3068.792322
770.801548	3064.283009
771.126949	3030.860159
771.452303	3017.047398
771.777611	3016.747449
772.102872	3019.225176
772.428087	3002.697753
772.753256	2991.057729
773.078378	2983.511122
773.403453	2959.706793
773.728482	2947.081224
774.053465	2960.142853
774.378401	2949.601801
774.703291	2932.366096
775.028135	2930.115220
775.352932	2923.223963
775.677683	2917.199784
776.002388	2910.114443
776.327046	2911.122673
776.651658	2900.705129
776.976224	2896.697412
777.300743	2893.755898
777.625216	2883.388765
777.949643	2880.326264
778.274024	2882.476317
778.598359	2869.830582
778.922647	2873.258567
779.246889	2873.810573
779.571086	2862.127699
779.895236	2858.883717
780.219339	2864.986033
780.543397	2874.239071
780.867409	2876.152189
781.191374	2871.786550
781.515294	2868.434182
781.839167	2870.014584
782.162995	2864.330683
782.486776	2865.384284
782.810511	2866.321939
783.134201	2854.596215
783.457844	2859.022348
783.781441	2851.105216
784.104993	2836.039728
784.428498	2835.896055
784.751958	2846.653877
785.075372	2841.988289
785.398739	2832.062257
785.722061	2842.865450
786.045337	2849.587829
786.368568	2842.101715
786.691752	2833.834223
787.014891	2870.556508
787.337983	2891.663819
787.661030	2921.547779
787.984031	2974.636171
788.306987	3010.481295
788.629897	3004.752024
788.952760	2990.591423
789.275579	2969.663072
789.598351	2926.939293
789.921078	2893.705487
790.243759	2880.994217
790.566395	2866.148019
790.888984	2850.023889
791.211529	2835.079388
791.534027	2825.594457
791.856480	2819.381235
792.178888	2809.727425
792.501249	2803.801549
792.823566	2802.919347
793.145836	2797.363996
793.468062	2792.867286
793.790241	2790.593726
794.112375	2797.863070
794.434464	2805.374389
794.756507	2810.481078
795.078505	2813.004175
795.400457	2826.431289
795.722364	2854.835670
796.044226	2873.397198
796.366042	2877.016747
796.687812	2867.446116
797.009538	2881.180740
797.331218	2868.749255
797.652852	2859.135774
797.974442	2845.378465
798.295986	2838.386385
798.617484	2834.355982
798.938938	2822.887357
799.260346	2810.675162
799.581709	2805.160140
799.903026	2798.684778
800.224299	2795.085394
800.545526	2787.067439
800.866708	2777.645522
801.187845	2773.400871
801.508936	2772.977414
801.829983	2773.511776
802.150984	2764.848553
802.471940	2759.361257
802.792851	2757.211205
803.113717	2756.891092
803.434538	2757.407810
803.755314	2750.874475
804.076045	2750.196440
804.396731	2747.701068
804.717372	2747.406161
805.037967	2750.014958
805.358518	2747.756521
805.679024	2757.851432
805.999485	2755.436719
806.319901	2759.860332
806.640272	2754.403282
806.960598	2758.635331
807.280879	2761.113058
807.601115	2767.396857
807.921306	2757.801020
808.241453	2757.952255
808.561554	2760.399735
808.881611	2758.040475
809.201623	2759.298243
809.521590	2754.536873
809.841513	2754.473859
810.161390	2755.840011
810.481223	2750.017479
810.801011	2743.708475
811.120755	2743.199318
811.440453	2740.187229
811.760107	2740.517424
812.079716	2737.139851
812.399281	2730.646845
812.718801	2724.809189
813.038276	2722.885989
813.357707	2725.585527
813.677093	2728.897565
813.996434	2727.281875
814.315731	2723.632079
814.634983	2717.416337
814.954191	2720.627552
815.273354	2729.870507
815.592473	2734.009295
815.911547	2739.778895
816.230577	2742.443145
816.549562	2750.095617
816.868502	2748.933631
817.187399	2754.748602
817.506250	2762.237236
817.825058	2757.589292
818.143821	2765.443409
818.462539	2778.099226
818.781213	2798.611681
819.099843	2826.832060
819.418429	2869.775129
819.736970	2916.877150
820.055466	2971.535861
820.373919	3039.271325
820.692327	3134.377733
821.010691	3266.995367
821.329011	3619.873616
821.647286	4360.217470
821.965517	5475.050999
822.283704	6085.063382
822.601847	6059.635802
822.919945	5498.406665
823.237999	5021.947050
823.556010	4546.142785
823.873976	4116.621354
824.191897	3801.458498
824.509775	3580.381217
824.827609	3391.592526
825.145398	3297.839667
825.463144	3291.402114
825.780845	3354.688759
826.098502	3442.581276
826.416116	3656.427022
826.733685	3909.445055
827.051210	3956.617652
827.368692	3853.268957
827.686129	3631.435502
828.003522	3395.169224
828.320872	3203.670913
828.638177	3069.651838
828.955439	2973.640543
829.272656	2913.791964
829.589830	2864.066023
829.906960	2832.755416
830.224046	2802.349697
830.541088	2776.498660
830.858086	2766.086157
831.175041	2754.884713
831.491952	2755.451842
831.808819	2760.913933
832.125642	2777.794236
832.442421	2804.570325
832.759157	2871.060624
833.075849	3003.201869
833.392497	3205.316850
833.709101	3344.576204
834.025662	3304.168836
834.342179	3186.200795
834.658653	3061.059192
834.975083	2951.489713
835.291469	2883.343395
835.607811	2819.973571
835.924110	2781.469237
836.240366	2748.903384
836.556578	2720.476317
836.872746	2706.328319
837.188871	2692.034127
837.504952	2683.070956
837.820990	2672.986127
838.136984	2663.062616
838.452935	2660.786535
838.768842	2660.605053
839.084706	2670.241219
839.400526	2723.435474
839.716303	2824.666885
840.032037	2886.718448
840.347727	2868.552650
840.663373	2817.334527
840.978977	2762.945518
841.294537	2713.300235
841.610054	2681.437622
841.925527	2665.086639
842.240957	2652.498878
842.556344	2639.202835
842.871687	2629.861577
843.186987	2620.807664
843.502244	2618.415637
843.817458	2613.195522
844.132629	2608.393823
844.447756	2604.149172
844.762840	2598.281268
845.077881	2596.864704
845.392879	2596.993254
845.707833	2594.671802
846.022745	2589.519743
846.337613	2592.577203
846.652438	2590.349013
846.967221	2592.700711
847.281960	2591.140474
847.596656	2589.905391
847.911309	2587.868765
848.225919	2586.323652
848.540485	2585.756522
848.855009	2588.254413
849.169490	2585.627972
849.483928	2582.477251
849.798323	2582.812488
850.112675	2583.916501
850.426984	2583.185533
850.741251	2580.722930
851.055474	2585.650657
851.369654	2581.000193
851.683792	2586.099320
851.997887	2585.486820
852.311938	2583.548496
852.625947	2583.495564
852.939914	2582.774679
853.253837	2583.853486
853.567718	2581.849627
853.881555	2583.399782
854.195350	2582.875502
854.509103	2583.087231
854.822812	2578.265367
855.136479	2579.394586
855.450103	2581.605132
855.763685	2582.772159
856.077224	2579.634040
856.390720	2578.068762
856.704173	2583.397262
857.017584	2584.218970
857.330953	2586.144691
857.644278	2584.778538
857.957561	2588.380442
858.270802	2584.128229
858.584000	2584.385328
858.897155	2584.874320
859.210268	2586.326172
859.523339	2583.966912
859.836367	2579.760069
860.149352	2581.158989
860.462295	2581.980697
860.775195	2574.839903
861.088054	2575.399471
861.400869	2575.371745
861.713642	2575.654049
862.026373	2578.532548
862.339062	2580.566654
862.651708	2582.220152
862.964312	2583.679566
863.276873	2581.708475
863.589392	2585.063363
863.901869	2585.075966
864.214303	2588.380442
864.526696	2590.225505
864.839045	2592.814137
865.151353	2594.253387
865.463619	2593.456884
865.775842	2594.099631
866.088023	2592.418407
866.400162	2589.000504
866.712258	2591.473190
867.024313	2591.667275
867.336325	2591.475711
867.648296	2591.208530
867.960224	2590.228025
868.272110	2591.581575
868.583954	2586.764752
868.895755	2590.349013
869.207515	2592.879672
869.519233	2595.299426
869.830909	2593.966041
870.142542	2590.616194
870.454134	2591.425299
870.765684	2596.481577
871.077191	2596.892431
871.388657	2598.583738
871.700081	2595.982502
872.011463	2598.966865
872.322803	2598.659355
872.634101	2600.675817
872.945357	2601.311002
873.256571	2612.325923
873.567744	2604.411312
873.878874	2607.713267
874.189963	2607.264605
874.501010	2609.308792
874.812015	2606.374841
875.122979	2610.652260
875.433900	2605.568256
875.744780	2609.155037
876.055618	2607.645212
876.366415	2608.494646
876.677169	2607.801487
876.987882	2602.994747
877.298554	2603.778647
877.609183	2609.487753
877.919771	2610.087651
878.230317	2615.436315
878.540822	2621.132819
878.851285	2630.032976
879.161707	2643.868423
879.472087	2666.699808
879.782425	2695.439427
880.092722	2761.533995
880.402977	2883.771893
880.713191	3082.116091
881.023363	3319.917400
881.333494	3484.286742
881.643583	3588.895726
881.953631	3561.781880
882.263637	3420.533790
882.573602	3259.481528
882.883526	3158.033347
883.193408	3069.707291
883.503248	2994.387411
883.813048	2917.489651
884.122806	2851.551358
884.432522	2795.962555
884.742197	2752.258272
885.051831	2733.396794
885.361424	2706.963504
885.670975	2685.112623
885.980485	2670.213493
886.289954	2659.984992
886.599382	2653.423930
886.908768	2644.559061
887.218113	2635.313585
887.527417	2629.420476
887.836680	2616.701645
888.145901	2615.660646
888.455082	2610.478340
888.764221	2605.227978
889.073319	2601.263111
889.382376	2598.961824
889.691392	2600.431321
890.000366	2600.930395
890.309300	2602.031887
890.618193	2602.813266
890.927044	2603.080447
891.235855	2604.673452
891.544625	2603.995416
891.853353	2608.439193
892.162041	2609.233175
892.470687	2621.674743
892.779293	2627.119189
893.087858	2635.752165
893.396381	2648.077786
893.704864	2676.545182
894.013306	2718.230483
894.321707	2775.712240
894.630068	2808.935964
894.938387	2819.948365
895.246665	2808.731797
895.554903	2780.322375
895.863100	2745.765265
896.171256	2715.127653
896.479371	2678.730522
896.787446	2659.622028
897.095480	2647.614000
897.403473	2642.141828
897.711425	2629.196144
898.019336	2625.337141
898.327207	2615.065790
898.635038	2614.463372
898.942827	2613.770214
899.250576	2609.704523
899.558284	2601.691609
899.865952	2598.848398
900.173579	2597.361258
900.481165	2596.862184
900.788711	2591.168200
901.096216	2588.514033
901.403681	2585.078487
901.711105	2584.854155
902.018489	2585.542273
902.325832	2589.086204
902.633135	2588.745926
902.940397	2596.577358
903.247619	2617.964454
903.554800	2664.098573
903.861941	2743.645460
904.169041	2826.201916
904.476101	2866.629449
904.783121	2854.845752
905.090100	2817.808395
905.397039	2762.191865
905.703938	2717.542366
906.010796	2678.816222
906.317614	2651.578868
906.624391	2630.615229
906.931129	2614.687704
907.237826	2603.564398
907.544483	2591.644589
907.851099	2583.974474
908.157675	2578.487178
908.464211	2572.281517
908.770707	2567.542833
909.077163	2561.818603
909.383578	2562.035372
909.689954	2562.337842
909.996289	2557.667212
910.302584	2564.296330
910.608839	2562.189127
910.915054	2564.462688
911.221229	2561.337172
911.527363	2565.475960
911.833458	2563.119220
912.139513	2564.560990
912.445527	2564.235836
912.751502	2569.675241
913.057436	2568.533420
913.363331	2573.244378
913.669186	2579.160172
913.975000	2587.263827
914.280775	2596.983171
914.586510	2610.291818
914.892205	2636.389871
915.197859	2674.508556
915.503475	2722.618807
915.809050	2766.053389
916.114585	2782.099382
916.420081	2787.498457
916.725536	2783.873868
917.030952	2761.702873
917.336328	2735.650190
917.641665	2708.531303
917.946961	2680.492405
918.252218	2657.141781
918.557435	2641.451189
918.862612	2628.818058
919.167750	2621.268930
919.472848	2612.267950
919.777906	2602.939295
920.082925	2595.604416
920.387904	2588.967737
920.692843	2584.697879
920.997743	2582.245358
921.302603	2579.661767
921.607423	2573.987948
921.912204	2571.923596
922.216946	2571.502659
922.521647	2564.944118
922.826310	2566.070816
923.130932	2565.861608
923.435516	2559.933211
923.740059	2562.569735
924.044564	2559.282902
924.349028	2561.125444
924.653454	2552.449618
924.957840	2553.291491
925.262186	2550.801161
925.566493	2551.748898
925.870761	2546.493495
926.174989	2549.689587
926.479178	2547.731098
926.783328	2550.193702
927.087438	2547.174051
927.391509	2549.303938
927.695541	2543.751107
927.999533	2546.962322
928.303486	2546.027188
928.607400	2547.559699
928.911275	2546.874102
929.215110	2543.126004
929.518906	2546.508618
929.822663	2545.656663
930.126381	2543.040305
930.430060	2545.427291
930.733699	2546.216232
931.037299	2547.176571
931.340861	2548.462066
931.644383	2545.195398
931.947866	2547.637837
932.251309	2545.681869
932.554714	2544.736653
932.858080	2545.200439
933.161407	2544.184647
933.464694	2546.977446
933.767943	2543.030222
934.071153	2542.006868
934.374323	2543.574667
934.677455	2545.586087
934.980548	2543.030222
935.283602	2544.938299
935.586617	2541.878319
935.889593	2543.466282
936.192530	2539.892104
936.495428	2540.910417
936.798287	2544.456869
937.101108	2545.180274
937.403890	2545.404606
937.706632	2547.317724
938.009336	2549.503064
938.312002	2550.428116
938.614628	2553.357026
938.917216	2554.692932
939.219765	2552.356357
939.522275	2556.306101
939.824747	2555.920453
940.127179	2552.192519
940.429573	2547.156407
940.731929	2550.899463
941.034246	2549.543393
941.336524	2548.197405
941.638763	2551.459032
941.940964	2550.292004
942.243126	2548.885522
942.545250	2550.922149
942.847335	2544.769420
943.149381	2549.946685
943.451389	2546.334699
943.753359	2547.365615
944.055290	2546.274205
944.357182	2543.299924
944.659036	2542.624409
944.960851	2545.195398
945.262628	2545.308824
945.564367	2543.052908
945.866067	2543.642722
946.167729	2545.586087
946.469352	2544.449307
946.770937	2546.944678
947.072484	2542.263967
947.373992	2544.845038
947.675462	2544.595501
947.976893	2543.975439
948.278286	2544.083823
948.579641	2540.028215
948.880958	2542.957126
949.182236	2543.839327
949.483476	2542.871426
949.784678	2544.000644
950.085841	2542.460572
950.386967	2543.463762
950.688054	2543.652805
950.989103	2544.466951
951.290114	2543.415871
951.591087	2543.579708
951.892021	2544.287990
952.192917	2545.933927
952.493776	2549.684545
952.794596	2548.988866
953.095378	2546.654812
953.396122	2546.674977
953.696828	2544.663556
953.997496	2544.030891
954.298126	2544.466951
954.598718	2542.916796
954.899272	2542.939482
955.199788	2541.548123
955.500266	2542.526107
955.800706	2539.040149
956.101108	2534.636701
956.401472	2536.592669
956.701798	2531.876669
957.002087	2537.704243
957.302337	2540.363452
957.602550	2538.916641
957.902724	2541.550644
958.202861	2536.761548
958.502960	2537.043852
958.803022	2536.973276
959.103045	2534.056968
959.403031	2535.193749
959.702979	2534.072092
960.002889	2535.680220
960.302762	2537.636188
960.602596	2534.533358
960.902393	2535.428162
961.202153	2535.092926
961.501875	2533.520086
961.801559	2533.164684
962.101205	2536.227185
962.400814	2535.173584
962.700385	2536.824562
962.999918	2535.140817
963.299414	2536.113759
963.598873	2533.212575
963.898293	2536.017977
964.197677	2533.560415
964.497022	2533.215096
964.796331	2533.474715
965.095601	2535.667617
965.394835	2533.250384
965.694030	2534.891279
965.993189	2534.112421
966.292309	2530.681916
966.591393	2532.463964
966.890439	2532.466484
967.189447	2533.222658
967.488419	2533.719211
967.787353	2535.551671
968.086249	2531.344828
968.385108	2537.812628
968.683930	2532.907585
968.982714	2535.135775
969.281462	2533.547812
969.580172	2537.089222
969.878844	2532.204344
970.177480	2535.622247
970.476078	2533.487318
970.774639	2535.803728
971.073162	2531.095291
971.371649	2529.562780
971.670098	2528.395753
971.968510	2531.738038
972.266885	2526.273427
972.565223	2532.098480
972.863524	2533.767102
973.161788	2533.101670
973.460014	2534.689633
973.758204	2531.344828
974.056356	2532.378264
974.354471	2535.760878
974.652550	2534.921526
974.950591	2536.784233
975.248595	2535.329860
975.546563	2532.887421
975.844493	2532.897503
976.142386	2533.338604
976.440243	2532.819365
976.738062	2533.565456
977.035845	2533.212575
977.333590	2530.553367
977.631299	2532.216947
977.928971	2535.168543
978.226606	2531.700229
978.524204	2533.429345
978.821765	2531.301978
979.119290	2532.098480
979.416777	2533.298275
979.714228	2533.898172
980.011642	2531.249046
980.309020	2534.256094
980.606360	2535.889428
980.903664	2533.535209
981.200931	2534.946732
981.498162	2532.942873
981.795356	2535.082843
982.092513	2539.241795
982.389633	2538.155427
982.686717	2539.929913
982.983764	2539.730787
983.280775	2542.321940
983.577749	2540.867567
983.874686	2539.387989
984.171587	2537.210210
984.468451	2538.493184
984.765279	2534.835827
985.062070	2534.175436
985.358824	2538.004192
985.655543	2534.545960
985.952224	2537.479912
986.248869	2533.850281
986.545478	2530.802904
986.842050	2531.601927
987.138586	2527.553880
987.435086	2530.923891
987.731549	2525.552542
988.027975	2532.305167
988.324366	2529.918181
988.620719	2530.528161
988.917037	2528.118489
989.213318	2532.874818
989.509563	2532.398429
989.805772	2531.412883
990.101944	2532.302647
990.398080	2531.279293
990.694180	2529.363654
990.990244	2532.196783
991.286271	2531.364992
991.582262	2533.694005
991.878217	2528.894827
992.174136	2532.007739
992.470019	2529.356093
992.765865	2531.642256
993.061676	2529.310722
993.357450	2530.518078
993.653188	2529.988757
993.948890	2532.010260
994.244556	2532.101001
994.540186	2531.559077
994.835780	2530.354241
995.131337	2530.996988
995.426859	2531.589324
995.722345	2532.632842
996.017795	2532.423635
996.313208	2530.520599
996.608586	2534.175436
996.903928	2532.605116
997.199234	2531.009591
997.494504	2531.753161
997.789738	2531.828778
998.084936	2532.448840
998.380099	2531.617050
998.675225	2534.210724
998.970316	2529.653521
999.265371	2531.581762
999.560390	2531.435568
999.855373	2532.592513
1000.150320	2529.716535
1000.445232	2531.246525
1000.740108	2528.683098
1001.034948	2530.203006
1001.329752	2528.857018
1001.624521	2530.906247
1001.919254	2525.073632
1002.213951	2527.069929
1002.508613	2527.962213
1002.803239	2528.572193
1003.097829	2522.981553
1003.392384	2527.453057
1003.686903	2528.405835
1003.981386	2530.812986
1004.275834	2530.659231
1004.570246	2531.130579
1004.864623	2529.716535
1005.158964	2527.652182
1005.453270	2529.472039
1005.747540	2528.042872
1006.041775	2530.273583
1006.335974	2529.721576
1006.630138	2529.635877
1006.924266	2528.867101
1007.218359	2527.531195
1007.512416	2530.006401
1007.806438	2529.015815
1008.100425	2528.829292
1008.394376	2531.453212
1008.688292	2527.440454
1008.982172	2531.037317
1009.276017	2528.673016
1009.569827	2530.729807
1009.863602	2531.027235
1010.157341	2528.829292
1010.451045	2530.076978
1010.744714	2530.311391
1011.038347	2530.313912
1011.331945	2524.940042
1011.625508	2527.727800
1011.919036	2528.234436
1012.212528	2528.990609
1012.505986	2530.291227
1012.799408	2529.930784
1013.092795	2528.612522
1013.386147	2527.004394
1013.679464	2531.251566
1013.972745	2525.257634
1014.265992	2529.109076
1014.559204	2528.186545
1014.852380	2527.528674
1015.145521	2526.704446
1015.438628	2529.540095
1015.731699	2528.539426
1016.024736	2528.191586
1016.317737	2530.467667
1016.610703	2530.770136
1016.903635	2526.417100
1017.196531	2528.194107
1017.489393	2524.405679
1017.782219	2522.623632
1018.075011	2526.185207
1018.367768	2527.304343
1018.660490	2529.517409
1018.953177	2529.517409
1019.245829	2529.517409
