Dividing Wavelength (nm)	Counts (n)	Blue Motor Position (mm): 0.000000	Red Motor Position (mm): 12.700000	
326.493990	2128.228960
326.888308	2128.228960
327.282561	2128.228960
327.676750	2094.624629
328.070874	2093.225709
328.464933	2096.507500
328.858929	2102.740887
329.252859	2113.934769
329.646726	2123.356685
330.040528	2136.617440
330.434265	2153.318783
330.827938	2171.265291
331.221547	2189.151305
331.615091	2207.155786
332.008571	2229.649414
332.401986	2247.822774
332.795338	2267.142996
333.188625	2282.127826
333.581847	2304.112298
333.975006	2321.887406
334.368100	2340.388441
334.761129	2356.772191
335.154095	2375.442104
335.546996	2391.621687
335.939833	2406.483009
336.332606	2421.795513
336.725315	2433.085178
337.117960	2443.200253
337.510540	2451.603856
337.903056	2463.858901
338.295508	2470.225878
338.687896	2482.168372
339.080220	2486.304639
339.472480	2493.518530
339.864676	2498.340393
340.256807	2502.088491
340.648875	2508.833555
341.040879	2511.228103
341.432818	2510.698782
341.824694	2511.739780
342.216506	2511.709533
342.608253	2511.611231
342.999937	2511.986797
343.391557	2512.027126
343.783113	2514.449401
344.174605	2509.340191
344.566033	2508.145438
344.957397	2507.570746
345.348697	2505.443379
345.739934	2505.173677
346.131106	2501.571773
346.522215	2502.012874
346.913260	2497.175887
347.304241	2498.683192
347.695159	2492.843015
348.086012	2490.977788
348.476802	2491.287819
348.867528	2490.995432
349.258191	2486.907057
349.648789	2487.433857
350.039324	2486.382777
350.429796	2484.162148
350.820203	2485.064515
351.210548	2480.081334
351.600828	2479.728453
351.991045	2480.101499
352.381198	2480.282980
352.771288	2481.528145
353.161314	2482.526294
353.551276	2482.362456
353.941175	2480.736684
354.331010	2480.850110
354.720782	2481.366828
355.110490	2480.320789
355.500135	2481.913794
355.889717	2482.017137
356.279235	2480.666108
356.668689	2481.485296
357.058080	2481.881026
357.447408	2479.640233
357.836672	2476.166878
358.225873	2481.087044
358.615010	2478.624441
359.004084	2484.444453
359.393095	2482.949751
359.782043	2485.016624
360.170927	2487.932931
360.559748	2485.740029
360.948505	2486.307159
361.337199	2485.787920
361.725830	2487.133908
362.114398	2488.663899
362.502903	2489.291522
362.891344	2491.396204
363.279722	2490.902171
363.668037	2492.575834
364.056289	2493.284116
364.444478	2490.834115
364.832603	2492.883344
365.220665	2489.967037
365.608665	2490.975268
365.996601	2495.812255
366.384474	2492.296050
366.772284	2495.731596
367.160031	2495.040958
367.547715	2499.555312
367.935336	2501.181084
368.322893	2505.700478
368.710388	2504.425066
369.097820	2512.684997
369.485189	2516.231448
369.872495	2521.133971
370.259738	2532.940353
370.646918	2535.319778
371.034035	2540.706250
371.421090	2553.094886
371.808081	2564.661813
372.195010	2574.015674
372.581875	2586.124526
372.968678	2601.787391
373.355418	2608.938268
373.742096	2625.584158
374.128710	2639.154944
374.515262	2657.988695
374.901751	2671.393123
375.288177	2682.445852
375.674540	2709.342929
376.060841	2724.945300
376.447079	2746.355080
376.833254	2765.145981
377.219367	2776.213835
377.605417	2814.783703
377.991404	2825.153356
378.377329	2844.161027
378.763191	2859.695342
379.148991	2897.531723
379.534727	2922.717327
379.920402	2951.030968
380.306013	2963.016311
380.691563	3016.059332
381.077049	3034.920809
381.462474	3053.177348
381.847835	3094.398863
382.233134	3112.058024
382.618371	3114.301338
383.003545	3186.336906
383.388657	3188.857483
383.773706	3220.004252
384.158693	3235.851119
384.543618	3263.839605
384.928480	3298.197589
385.313280	3344.167871
385.698017	3340.828107
386.082692	3392.676374
386.467305	3395.325500
386.851856	3423.434974
387.236344	3439.775874
387.620770	3470.347952
388.005133	3488.791013
388.389435	3507.856657
388.773674	3513.558202
389.157851	3544.526010
389.541965	3552.057494
389.926018	3504.710977
390.310008	3561.625604
390.693936	3564.118454
391.077802	3585.137545
391.461606	3560.836663
391.845348	3602.496759
392.229027	3582.742997
392.612645	3574.934250
392.996200	3617.970580
393.379694	3632.186634
393.763125	3658.614883
394.146494	3604.535905
394.529801	3628.110861
394.913047	3637.318529
395.296230	3587.514449
395.679351	3598.486521
396.062410	3579.683017
396.445408	3539.769681
396.828343	3528.369112
397.211217	3506.931605
397.594028	3426.356323
397.976778	3428.685336
398.359466	3412.805701
398.742092	3390.760735
399.124656	3315.972698
399.507158	3322.921928
399.889598	3305.068682
400.271977	3294.242804
400.654294	3245.252871
401.036549	3213.460834
401.418742	3164.536436
401.800874	3169.791839
402.182944	3143.192191
402.564952	3127.849439
402.946898	3087.900815
403.328783	3055.123233
403.710606	2997.195334
404.092367	3015.903056
404.474067	2977.355873
404.855705	2946.619958
405.237282	2902.071282
405.618797	2897.435941
406.000250	2875.869884
406.381642	2865.694315
406.762972	2830.338183
407.144240	2805.331539
407.525447	2782.422016
407.906593	2767.603544
408.287677	2753.354722
408.668700	2725.991339
409.049661	2711.540872
409.430560	2694.466484
409.811399	2674.092661
410.192176	2668.756599
410.572891	2652.690442
410.953545	2641.541930
411.334138	2623.560134
411.714669	2615.607714
412.095139	2601.253029
412.475547	2594.127358
412.855894	2586.487489
413.236180	2577.363001
413.616405	2570.577607
413.996568	2564.815569
414.376670	2559.441699
414.756711	2552.245452
415.136691	2549.588763
415.516609	2546.581715
415.896466	2545.099616
416.276262	2542.155582
416.655997	2536.635519
417.035670	2533.139478
417.415283	2533.804911
417.794834	2531.604447
418.174324	2531.763243
418.553753	2530.593696
418.933121	2532.458923
419.312428	2531.884231
419.691674	2529.870290
420.070859	2529.101514
420.449983	2527.574045
420.829045	2529.275434
421.208047	2528.670496
421.586988	2527.795855
421.965867	2528.211751
422.344686	2525.713859
422.723444	2528.113448
423.102141	2528.226874
423.480777	2528.030269
423.859352	2527.039682
424.237866	2528.252080
424.616319	2526.880886
424.994712	2528.214271
425.373044	2528.015146
425.751314	2528.206709
426.129524	2526.248221
426.507673	2527.468180
426.885762	2527.755526
427.263789	2528.872142
427.641756	2526.429703
428.019662	2528.841895
428.397508	2527.417769
428.775292	2530.921371
429.153016	2527.765608
429.530679	2528.534384
429.908282	2529.338448
430.285824	2528.083201
430.663305	2527.626977
431.040726	2527.327028
431.418086	2525.295443
431.795385	2532.385826
432.172624	2527.231246
432.549802	2526.898530
432.926920	2529.035979
433.303977	2527.871473
433.680974	2528.965403
434.057910	2530.719725
434.434786	2528.884745
434.811601	2528.635208
435.188355	2526.275947
435.565050	2528.967924
435.941683	2527.463139
436.318257	2526.341482
436.694770	2526.810310
437.071222	2527.422810
437.447614	2524.577079
437.823946	2526.714528
438.200218	2527.357275
438.576429	2530.029087
438.952580	2528.678057
439.328670	2527.790814
439.704700	2530.291227
440.080670	2529.424148
440.456580	2530.744930
440.832429	2527.831143
441.208218	2530.208047
441.583947	2532.262318
441.959616	2528.012625
442.335224	2529.711494
442.710773	2529.187214
443.086261	2531.175949
443.461689	2528.836854
443.837057	2533.449509
444.212365	2531.972451
444.587612	2533.199972
444.962800	2531.400280
445.337927	2531.440610
445.712995	2529.242667
446.088002	2534.732483
446.462949	2532.937832
446.837837	2534.135106
447.212664	2533.615868
447.587431	2533.109232
447.962139	2532.277441
448.336786	2539.128369
448.711374	2534.903882
449.085901	2534.762730
449.460369	2532.169056
449.834776	2533.391536
450.209124	2535.871784
450.583412	2536.247350
450.957640	2535.690302
451.331808	2538.208359
451.705917	2532.819365
452.079965	2535.218954
452.453954	2534.682072
452.827883	2537.588297
453.201752	2535.944881
453.575562	2537.043852
453.949311	2535.463450
454.323001	2537.434542
454.696632	2536.396064
455.070202	2535.778522
455.443713	2535.148378
455.817164	2534.051927
456.190556	2534.195600
456.563888	2536.363296
456.937160	2529.434230
457.310373	2535.957483
457.683526	2537.719367
458.056619	2534.908923
458.429653	2534.994623
458.802628	2536.264994
459.175542	2536.184335
459.548398	2540.270191
459.921194	2535.937319
460.293930	2538.102494
460.666607	2537.583256
461.039224	2541.709440
461.411782	2543.373021
461.784280	2540.890252
462.156719	2540.693648
462.529099	2540.325643
462.901419	2540.310520
463.273680	2542.518545
463.645882	2540.678524
464.018024	2541.568288
464.390106	2540.781868
464.762130	2545.883515
465.134094	2541.795140
465.505999	2544.282949
465.877845	2550.440718
466.249631	2551.932900
466.621358	2548.746891
466.993026	2549.566078
467.364634	2551.448949
467.736184	2546.082641
468.107674	2545.833104
468.479105	2545.034081
468.850477	2544.759338
469.221790	2546.402754
469.593043	2544.711447
469.964238	2545.707075
470.335373	2542.659698
470.706449	2546.012065
471.077467	2543.100798
471.448425	2549.341747
471.819324	2550.511295
472.190164	2552.429454
472.560945	2549.187992
472.931667	2546.566592
473.302330	2546.443083
473.672934	2541.893442
474.043479	2545.228165
474.413965	2545.570964
474.784393	2542.619368
475.154761	2546.803526
475.525070	2543.730943
475.895321	2541.888401
476.265513	2539.362783
476.635645	2547.297559
477.005719	2547.635316
477.375734	2547.058104
477.745691	2548.041129
478.115588	2547.839483
478.485427	2545.860830
478.855207	2549.402241
479.224928	2551.136398
479.594591	2552.469783
479.964194	2550.599515
480.333739	2553.311656
480.703226	2549.651778
481.072653	2551.320400
481.442022	2550.539021
481.811333	2552.431974
482.180584	2550.150852
482.549777	2549.498023
482.918912	2547.284956
483.287988	2555.212171
483.657005	2549.311500
484.025964	2553.863662
484.394864	2548.973743
484.763706	2552.318548
485.132489	2549.820657
485.501213	2550.160934
485.869879	2548.320913
486.238487	2546.077600
486.607036	2553.493137
486.975527	2548.691438
487.343959	2548.424257
487.712333	2547.940306
488.080648	2549.026675
488.448905	2547.640357
488.817104	2549.830739
489.185244	2550.239072
489.553326	2549.326623
489.921350	2551.698486
490.289315	2555.512119
490.657222	2553.331820
491.025070	2556.515309
491.392861	2556.444733
491.760593	2552.875596
492.128267	2553.530946
492.495883	2552.172355
492.863440	2552.575647
493.230939	2548.499874
493.598380	2553.583878
493.965763	2545.812939
494.333088	2546.763197
494.700354	2547.184133
495.067563	2548.532642
495.434713	2546.254040
495.801805	2553.881306
496.168839	2545.175233
496.535815	2549.127498
496.902733	2550.269319
497.269593	2550.821326
497.636395	2554.057746
498.003139	2550.654967
498.369825	2550.148332
498.736453	2552.172355
499.103023	2547.715975
499.469535	2549.482899
499.835989	2551.421223
500.202385	2551.050698
500.568723	2551.466593
500.935003	2549.616490
501.301226	2549.644216
501.667390	2550.823846
502.033497	2549.500543
502.399546	2549.989535
502.765537	2549.187992
503.131470	2552.575647
503.497345	2551.973229
503.863163	2549.540873
504.228923	2551.610266
504.594625	2549.371994
504.960269	2549.006510
505.325856	2549.195553
505.691385	2548.983825
506.056856	2551.758980
506.422270	2550.770914
506.787625	2551.413661
507.152924	2551.408620
507.518164	2551.343085
507.883347	2548.328475
508.248472	2549.500543
508.613540	2548.305790
508.978550	2546.987528
509.343503	2550.758311
509.708398	2553.140256
510.073236	2552.658826
510.438016	2550.518856
510.802738	2550.554144
511.167403	2551.025492
511.532010	2551.769063
511.896561	2550.264278
512.261053	2551.592622
512.625488	2549.795451
512.989866	2546.226314
513.354186	2551.413661
513.718449	2545.475182
514.082655	2549.069525
514.446803	2554.264434
514.810894	2551.358208
515.174927	2553.014228
515.538904	2551.824515
515.902822	2550.319731
516.266684	2552.651264
516.630488	2550.533980
516.994235	2551.645554
517.357925	2552.575647
517.721558	2553.848538
518.085133	2553.041954
518.448651	2553.367108
518.812112	2551.600184
519.175516	2553.626728
519.538863	2554.584547
519.902152	2553.039433
520.265385	2553.886347
520.628560	2551.985832
520.991678	2552.976419
521.354739	2549.848383
521.717743	2551.726213
522.080690	2554.377860
522.443580	2551.622869
522.806413	2555.991029
523.169189	2550.559186
523.531908	2555.683518
523.894569	2552.124464
524.257174	2553.914073
524.619722	2551.121274
524.982213	2554.821481
525.344647	2553.329300
525.707025	2551.970709
526.069345	2554.130843
526.431608	2552.684032
526.793815	2552.905843
527.155964	2550.647406
527.518057	2552.399207
527.880093	2555.993549
528.242072	2548.865358
528.603995	2554.834084
528.965860	2555.086142
529.327669	2553.299053
529.689421	2551.557334
530.051117	2552.195040
530.412755	2552.729402
530.774337	2552.613456
531.135862	2552.454659
531.497331	2552.394166
531.858743	2550.108002
532.220098	2549.520708
532.581396	2549.114895
532.942638	2551.171686
533.303824	2551.882488
533.664953	2552.525236
534.026025	2551.317879
534.387040	2554.090514
534.747999	2551.073383
535.108902	2553.651933
535.469748	2552.842828
535.830537	2553.694783
536.191270	2552.747046
536.551947	2553.445246
536.912567	2551.857283
537.273131	2552.701676
537.633638	2550.854093
537.994089	2553.699824
538.354483	2550.309648
538.714821	2551.496840
539.075103	2553.478014
539.435328	2553.357026
539.795497	2553.026830
540.155609	2554.745864
540.515665	2554.234187
540.875665	2552.134546
541.235609	2555.237376
541.595496	2553.604042
541.955328	2552.250493
542.315102	2551.050698
542.674821	2552.270657
543.034483	2553.132695
543.394090	2549.979453
543.753640	2555.391132
544.113134	2552.323589
544.472571	2551.602704
544.831953	2554.178734
545.191278	2553.783003
545.550548	2553.142777
545.909761	2554.324927
546.268918	2553.296532
546.628019	2553.064639
546.987064	2551.287632
547.346053	2553.553631
547.704986	2553.241079
548.063863	2555.186965
548.422684	2554.050185
548.781449	2554.040102
549.140158	2553.719989
549.498811	2554.342572
549.857408	2551.968188
550.215949	2552.459701
550.574434	2549.969371
550.932864	2549.951727
551.291237	2549.515667
551.649555	2553.460370
552.007817	2556.356513
552.366022	2554.922304
552.724173	2552.414330
553.082267	2554.012376
553.440305	2554.571944
553.798288	2554.992880
554.156215	2552.268137
554.514086	2554.234187
554.871902	2554.183775
555.229661	2554.065308
555.587365	2553.702345
555.945014	2555.287788
556.302606	2551.920297
556.660143	2554.622356
557.017625	2552.462221
557.375050	2553.873744
557.732421	2555.411296
558.089735	2553.092365
558.446994	2552.767211
558.804197	2553.142777
559.161345	2552.467262
559.518437	2553.457849
559.875474	2551.234700
560.232455	2554.793755
560.589381	2556.074208
560.946251	2554.634958
561.303065	2554.894578
561.659825	2552.958775
562.016528	2553.137736
562.373177	2552.416851
562.729770	2552.268137
563.086307	2555.454146
563.442789	2549.712272
563.799216	2555.330638
564.155587	2552.777293
564.511904	2552.237890
564.868164	2554.052705
565.224370	2555.388611
565.580520	2552.404248
565.936615	2551.680842
566.292654	2551.022972
566.648638	2552.487427
567.004567	2554.665205
567.360441	2553.414999
567.716260	2552.681511
568.072023	2553.145298
568.427732	2548.182282
568.783385	2550.518856
569.138982	2549.200595
569.494525	2551.101110
569.850013	2546.816129
570.205445	2552.777293
570.560823	2548.988866
570.916145	2552.857952
571.271412	2554.622356
571.626625	2553.125133
571.981782	2550.596994
572.336884	2552.608415
572.691931	2550.836449
573.046923	2554.115720
573.401860	2553.278888
573.756743	2551.895091
574.111570	2553.576316
574.466342	2554.632438
574.821059	2552.447098
575.175722	2552.232849
575.530330	2554.587067
575.884882	2552.106820
576.239380	2553.021789
576.593823	2553.949362
576.948211	2551.209494
577.302544	2550.546583
577.656823	2551.789227
578.011047	2553.210832
578.365216	2552.482386
578.719330	2549.621531
579.073389	2550.082797
579.427394	2552.217725
579.781344	2552.832746
580.135239	2550.407951
580.489080	2551.827036
580.842866	2550.153373
581.196597	2554.574465
581.550273	2553.006666
581.903895	2553.052036
582.257463	2551.718651
582.610975	2551.587581
582.964434	2550.236552
583.317837	2551.867365
583.671186	2551.022972
584.024481	2551.370811
584.377721	2550.907025
584.730906	2550.642365
585.084037	2552.366439
585.437113	2549.787889
585.790135	2552.931048
586.143103	2553.152859
586.496016	2554.130843
586.848874	2546.667415
587.201679	2553.851059
587.554428	2546.014585
587.907124	2548.537683
588.259765	2545.734801
588.612352	2551.249824
588.964884	2552.318548
589.317362	2551.867365
589.669786	2548.187323
590.022155	2550.992725
590.374470	2551.123795
590.726731	2550.765873
591.078937	2549.903836
591.431090	2548.908208
591.783188	2548.560368
592.135232	2551.471634
592.487222	2551.582540
592.839157	2552.923487
593.191038	2548.504915
593.542866	2550.753270
593.894639	2548.141952
594.246358	2550.589432
594.598022	2549.303938
594.949633	2549.319062
595.301190	2550.370142
595.652692	2552.341233
596.004141	2550.057591
596.355535	2548.774617
596.706876	2552.558003
597.058162	2549.067004
597.409395	2547.060625
597.760573	2550.450801
598.111698	2549.046839
598.462768	2550.564227
598.813785	2548.444422
599.164748	2550.226469
599.515657	2549.475338
599.866511	2548.167158
600.217312	2547.942827
600.568060	2552.610935
600.918753	2553.089845
601.269392	2549.530790
601.619978	2546.072559
601.970510	2550.987684
602.320988	2549.051881
602.671412	2551.033054
603.021783	2550.256716
603.372100	2550.599515
603.722363	2548.502395
604.072572	2552.051367
604.422728	2549.039278
604.772830	2547.746222
605.122878	2544.477033
605.472872	2546.821170
605.822813	2544.628268
606.172701	2545.823022
606.522534	2547.572302
606.872314	2550.178578
607.222041	2548.938455
607.571714	2549.019113
607.921333	2549.553475
608.270899	2549.755122
608.620411	2548.683876
608.969870	2551.464073
609.319276	2550.037426
609.668627	2555.456667
610.017926	2555.491955
610.367171	2557.715103
610.716362	2556.132181
611.065500	2554.271995
611.414585	2552.699155
611.763616	2553.757798
612.112594	2551.784186
612.461518	2551.655637
612.810389	2549.112374
613.159207	2551.085986
613.507971	2550.982643
613.856682	2549.251006
614.205340	2549.961809
614.553945	2551.373332
614.902496	2550.748229
615.250994	2549.825698
615.599439	2549.477858
615.947830	2550.692776
616.296169	2547.398382
616.644454	2548.817467
616.992686	2548.641027
617.340864	2550.478527
617.688990	2549.271171
618.037063	2547.587425
618.385082	2548.923331
618.733048	2550.743188
619.080961	2551.862324
619.428821	2549.613969
619.776628	2551.073383
620.124382	2550.496171
620.472083	2549.893753
620.819731	2550.050029
621.167326	2550.080276
621.514868	2550.372663
621.862357	2549.205636
622.209793	2548.215049
622.557176	2551.297715
622.904506	2546.705223
623.251783	2545.001313
623.599007	2547.370656
623.946179	2544.121632
624.293297	2546.115408
624.640363	2547.330327
624.987376	2550.153373
625.334336	2546.271684
625.681243	2547.658002
626.028097	2547.121119
626.374899	2549.160265
626.721647	2544.310675
627.068343	2546.019627
627.414987	2549.429967
627.761577	2549.649257
628.108115	2547.312683
628.454600	2547.642878
628.801032	2549.268650
629.147412	2550.390307
629.493739	2547.544576
629.840014	2546.493495
630.186236	2546.254040
630.532405	2548.686397
630.878521	2546.869061
631.224585	2547.804195
631.570597	2543.995603
631.916556	2547.859648
632.262462	2546.438042
632.608316	2546.627086
632.954117	2545.404606
633.299866	2548.898125
633.645562	2545.593649
633.991206	2546.064997
634.336797	2546.498536
634.682336	2546.475851
635.027823	2546.178423
635.373257	2544.507280
635.718639	2545.008875
636.063968	2547.902497
636.409245	2544.585418
636.754470	2546.934596
637.099642	2545.981818
637.444762	2547.050543
637.789829	2544.847558
638.134845	2544.555171
638.479808	2545.220604
638.824719	2544.787064
639.169577	2543.899821
639.514383	2542.992414
639.859137	2541.951415
640.203839	2543.458720
640.548489	2545.586087
640.893086	2544.376210
641.237632	2539.289686
641.582125	2539.032587
641.926566	2540.423946
642.270955	2544.179605
642.615292	2542.972249
642.959576	2544.230017
643.303809	2547.607590
643.647990	2544.189688
643.992118	2542.241282
644.336195	2542.909235
644.680219	2546.196067
645.024192	2544.794626
645.368112	2545.696993
645.711981	2544.003165
646.055797	2545.908721
646.399562	2545.293700
646.743274	2542.158103
647.086935	2543.418391
647.430544	2542.357228
647.774101	2546.737991
648.117606	2544.091385
648.461059	2543.241951
648.804460	2545.898639
649.147810	2543.907383
649.491108	2546.427960
649.834354	2544.396375
650.177548	2545.381921
650.520690	2546.039791
650.863781	2545.883515
651.206820	2547.458876
651.549807	2544.560213
651.892742	2543.277239
652.235626	2543.710778
652.578458	2544.509801
652.921238	2542.369831
653.263967	2545.903680
653.606644	2543.453679
653.949269	2544.724050
654.291843	2545.696993
654.634365	2544.925696
654.976836	2545.018957
655.319255	2543.652805
655.661622	2541.732125
656.003938	2542.453010
656.346203	2543.844369
656.688416	2544.545089
657.030577	2542.742877
657.372687	2541.961498
657.714746	2544.383772
658.056753	2542.999975
658.398708	2536.627957
658.740612	2543.151210
659.082465	2542.326981
659.424266	2540.146682
659.766016	2539.705581
660.107715	2542.828576
660.449362	2542.586601
660.790958	2543.579708
661.132503	2543.320089
661.473996	2544.144317
661.815438	2542.944523
662.156829	2544.845038
662.498168	2543.602393
662.839456	2542.891591
663.180693	2542.412681
663.521879	2543.801519
663.863013	2542.384955
664.204097	2544.285470
664.545129	2540.179450
664.886110	2543.793957
665.227040	2543.216745
665.567918	2545.394523
665.908746	2543.796478
666.249522	2543.037784
666.590248	2543.113401
666.930922	2539.319933
667.271545	2543.667928
667.612118	2543.057949
667.952639	2542.868905
668.293109	2541.606096
668.633528	2543.587270
668.973896	2541.749769
669.314213	2543.756148
669.654480	2545.865871
669.994695	2542.992414
670.334859	2540.945705
670.674973	2544.555171
671.015035	2543.718340
671.355047	2540.945705
671.695008	2543.219266
672.034918	2541.832948
672.374777	2541.732125
672.714585	2543.741025
673.054342	2544.282949
673.394049	2543.516694
673.733705	2546.521221
674.073310	2545.926365
674.412864	2544.900490
674.752368	2541.699358
675.091820	2542.032074
675.431223	2541.971580
675.770574	2540.434028
676.109875	2535.599562
676.449125	2541.482588
676.788324	2538.742721
677.127473	2541.598535
677.466571	2536.086033
677.805619	2541.086858
678.144616	2541.502753
678.483562	2545.444935
678.822458	2542.410160
679.161303	2542.228679
679.500098	2541.820345
679.838842	2541.734646
680.177535	2542.775644
680.516179	2542.500901
680.854771	2539.950077
681.193314	2542.407640
681.531805	2542.238761
681.870247	2542.155582
682.208638	2543.153731
682.546978	2543.194060
682.885268	2542.571477
683.223508	2541.926210
683.561697	2544.078782
683.899836	2540.686086
684.237925	2543.592311
684.575963	2544.154400
684.913951	2543.743546
685.251889	2541.427135
685.589776	2543.408309
685.927614	2543.975439
686.265401	2541.621220
686.603137	2539.582073
686.940824	2539.889583
687.278460	2543.095757
687.616046	2542.347146
687.953582	2543.599873
688.291068	2542.369831
688.628504	2544.109029
688.965889	2545.555840
689.303224	2542.856303
689.640510	2541.432177
689.977745	2543.148689
690.314930	2542.029553
690.652065	2543.768751
690.989150	2542.140459
691.326185	2543.136087
691.663170	2540.426466
692.000105	2542.213555
692.336990	2539.514017
692.673825	2541.192722
693.010610	2541.205325
693.347345	2535.816331
693.684030	2536.842206
694.020665	2536.713657
694.357251	2535.738193
694.693786	2540.759182
695.030272	2538.278935
695.366707	2540.106353
695.703093	2541.391847
696.039429	2538.712474
696.375716	2542.571477
696.711952	2542.281611
697.048139	2538.684748
697.384276	2543.299924
697.720363	2540.423946
698.056400	2539.629964
698.392388	2540.141641
698.728326	2538.833462
699.064214	2543.136087
699.400053	2540.451672
699.735842	2540.068544
700.071581	2540.217258
700.407270	2539.178781
700.742910	2541.661549
701.078501	2539.451003
701.414042	2540.267670
701.749533	2538.258770
702.084974	2539.587114
702.420366	2538.692309
702.755709	2539.529141
703.091002	2538.122659
703.426246	2539.945036
703.761440	2538.553678
704.096584	2539.282124
704.431679	2540.129038
704.766725	2540.950746
705.101721	2538.304141
705.436668	2538.193235
705.771565	2539.640046
706.106413	2539.382948
706.441212	2536.045704
706.775961	2541.217927
707.110661	2539.062834
707.445311	2537.978986
707.779913	2539.196425
708.114465	2538.205838
708.448967	2541.890922
708.783421	2536.159130
709.117825	2535.665097
709.452180	2538.815818
709.786485	2539.085519
710.120742	2539.597197
710.454949	2538.828421
710.789107	2537.058976
711.123216	2536.418749
711.457275	2537.827752
711.791286	2532.411032
712.125247	2536.015457
712.459159	2539.874460
712.793023	2540.101312
713.126837	2540.060983
713.460602	2541.336395
713.794318	2541.114584
714.127985	2540.499563
714.461602	2538.541075
714.795171	2539.080478
715.128691	2540.338246
715.462162	2540.761703
715.795584	2540.514687
716.128957	2538.924202
716.462281	2539.637526
716.795556	2538.992258
717.128782	2538.561239
717.461960	2541.714481
717.795088	2537.195087
718.128167	2538.548637
718.461198	2540.562578
718.794180	2539.579552
719.127113	2539.093081
719.459997	2538.624254
719.792833	2537.616023
720.125619	2539.801363
720.458357	2535.576876
720.791046	2536.063348
721.123686	2538.271373
721.456278	2538.926723
721.788821	2537.230375
722.121315	2538.732639
722.453761	2533.704088
722.786158	2539.771116
723.118506	2535.133255
723.450805	2537.890766
723.783056	2537.056455
724.115259	2539.692978
724.447412	2538.427649
724.779518	2538.639377
725.111574	2536.534696
725.443582	2537.558050
725.775542	2535.097967
726.107453	2534.606454
726.439315	2537.101825
726.771129	2540.471837
727.102895	2538.591486
727.434612	2538.727598
727.766281	2538.662062
728.097901	2537.394212
728.429473	2533.802390
728.760996	2535.738193
729.092471	2531.256607
729.423897	2540.043339
729.755276	2536.582587
730.086606	2538.624254
730.417887	2539.229192
730.749120	2538.974614
731.080305	2538.530992
731.411442	2539.221631
731.742530	2539.418236
732.073570	2543.579708
732.404562	2538.687268
732.735506	2539.776157
733.066401	2537.668955
733.397249	2535.324819
733.728048	2537.936136
734.058798	2536.385982
734.389501	2539.423277
734.720156	2537.210210
735.050762	2537.530323
735.381320	2540.451672
735.711831	2537.021167
736.042293	2537.772299
736.372707	2536.746424
736.703073	2536.718698
737.033391	2539.035108
737.363661	2538.737680
737.693883	2536.696012
738.024056	2539.599717
738.354182	2537.210210
738.684260	2537.759696
739.014290	2536.733821
739.344272	2536.766589
739.674207	2534.898841
740.004093	2536.854809
740.333931	2534.634181
740.663722	2539.798843
740.993464	2535.886907
741.323159	2539.130890
741.652806	2538.387320
741.982405	2539.768596
742.311956	2536.794315
742.641460	2536.466640
742.970915	2536.015457
743.300323	2537.187525
743.629683	2537.076620
743.958996	2536.849768
744.288260	2537.900848
744.617477	2535.120652
744.946647	2531.987575
745.275768	2535.140817
745.604842	2531.617050
745.933869	2533.018491
746.262847	2533.464633
746.591778	2537.273225
746.920662	2536.791794
747.249498	2536.759027
747.578286	2537.671476
747.907027	2536.753986
748.235720	2536.955632
748.564365	2535.992772
748.892963	2537.434542
749.221514	2537.111908
749.550017	2537.381609
749.878473	2536.683410
750.206881	2536.368338
750.535242	2537.500077
750.863555	2534.631660
751.191821	2537.255581
751.520039	2533.308357
751.848210	2536.391023
752.176334	2534.815662
752.504411	2539.629964
752.832440	2538.039480
753.160421	2534.281300
753.488356	2535.823893
753.816243	2537.469830
754.144082	2536.932947
754.471875	2537.850437
754.799620	2536.950591
755.127318	2535.163502
755.454969	2536.678368
755.782572	2536.698533
756.110129	2535.236598
756.437638	2535.140817
756.765100	2534.064530
757.092515	2534.883718
757.419882	2537.976466
757.747203	2536.297761
758.074477	2535.438245
758.401703	2536.431352
758.728882	2535.712988
759.056014	2535.478574
759.383099	2535.730632
759.710138	2536.133924
760.037129	2536.179294
760.364073	2537.772299
760.690970	2533.774664
761.017820	2535.957483
761.344623	2534.067051
761.671379	2536.900179
761.998088	2531.591844
762.324751	2533.683923
762.651366	2533.736855
762.977935	2539.057793
763.304456	2536.166691
763.630931	2541.911086
763.957359	2540.663401
764.283740	2541.200283
764.610074	2536.307844
764.936362	2537.656352
765.262602	2537.525282
765.588796	2537.946219
765.914943	2535.705426
766.241044	2535.266845
766.567097	2534.092257
766.893104	2536.549819
767.219064	2535.760878
767.544978	2533.482277
767.870845	2534.757689
768.196665	2532.146371
768.522438	2534.349355
768.848165	2534.803059
769.173846	2533.910775
769.499479	2536.224665
769.825066	2532.653007
770.150607	2537.192566
770.476101	2533.767102
770.801548	2536.312885
771.126949	2532.673172
771.452303	2534.871115
771.777611	2533.167205
772.102872	2534.311547
772.428087	2534.369520
772.753256	2533.653676
773.078378	2535.362627
773.403453	2537.278266
773.728482	2535.763399
774.053465	2533.772143
774.378401	2532.746268
774.703291	2534.480425
775.028135	2532.889941
775.352932	2535.085364
775.677683	2533.346166
776.002388	2535.559232
776.327046	2536.436393
776.651658	2533.699047
776.976224	2535.334901
777.300743	2534.651825
777.625216	2534.649304
777.949643	2534.949253
778.274024	2537.482432
778.598359	2528.027748
778.922647	2529.898017
779.246889	2531.405322
779.571086	2528.887265
779.895236	2534.588810
780.219339	2533.056299
780.543397	2533.557894
780.867409	2531.614529
781.191374	2531.730476
781.515294	2533.119314
781.839167	2533.111752
782.162995	2534.258615
782.486776	2535.256763
782.810511	2532.524458
783.134201	2534.790456
783.457844	2535.039993
783.781441	2535.745755
784.104993	2535.476053
784.428498	2537.978986
784.751958	2533.424304
785.075372	2533.948584
785.398739	2532.975641
785.722061	2532.829447
786.045337	2536.748945
786.368568	2533.620909
786.691752	2532.506814
787.014891	2533.227699
787.337983	2534.382123
787.661030	2534.286341
787.984031	2532.252235
788.306987	2534.253573
788.629897	2532.816845
788.952760	2537.253060
789.275579	2531.312060
789.598351	2533.724252
789.921078	2535.420601
790.243759	2532.985723
790.566395	2532.877338
790.888984	2534.843388
791.211529	2532.993285
791.534027	2533.749458
791.856480	2532.421114
792.178888	2533.068902
792.501249	2530.944056
792.823566	2538.513348
793.145836	2534.266176
793.468062	2531.884231
793.790241	2532.141330
794.112375	2532.123686
794.434464	2532.927750
794.756507	2532.131248
795.078505	2536.549819
795.400457	2532.587472
795.722364	2529.719056
796.044226	2531.697708
796.366042	2531.871628
796.687812	2529.640918
797.009538	2532.093439
797.331218	2532.736186
797.652852	2532.393388
797.974442	2531.775846
798.295986	2531.669982
798.617484	2531.959848
798.938938	2531.165867
799.260346	2533.245343
799.581709	2529.159488
799.903026	2535.954963
800.224299	2528.317615
800.545526	2532.758871
800.866708	2530.901206
801.187845	2535.130734
801.508936	2531.072605
801.829983	2531.042358
802.150984	2532.791639
802.471940	2532.426155
802.792851	2530.833151
803.113717	2531.332225
803.434538	2531.117976
803.755314	2533.510003
804.076045	2533.111752
804.396731	2531.675023
804.717372	2531.556556
805.037967	2532.469005
805.358518	2532.058151
805.679024	2530.865918
805.999485	2532.957997
806.319901	2533.383974
806.640272	2533.116793
806.960598	2532.504293
807.280879	2530.697039
807.601115	2533.275590
807.921306	2533.570497
808.241453	2533.106711
808.561554	2533.988913
808.881611	2532.605116
809.201623	2534.031763
809.521590	2534.220806
809.841513	2531.322143
810.161390	2533.338604
810.481223	2531.211237
810.801011	2530.114786
811.120755	2530.669313
811.440453	2534.810621
811.760107	2534.855991
812.079716	2528.166380
812.399281	2528.708304
812.718801	2528.602440
813.038276	2528.647810
813.357707	2533.073943
813.677093	2535.103008
813.996434	2533.588141
814.315731	2531.052441
814.634983	2535.168543
814.954191	2530.475229
815.273354	2531.082688
815.592473	2528.589837
815.911547	2529.235105
816.230577	2535.072761
816.549562	2532.842050
816.868502	2532.642925
817.187399	2530.717204
817.506250	2532.766433
817.825058	2532.839530
818.143821	2533.182328
818.462539	2533.603265
818.781213	2531.705270
819.099843	2533.141999
819.418429	2534.009077
819.736970	2536.166691
820.055466	2532.209386
820.373919	2534.692154
820.692327	2535.077802
821.010691	2538.099974
821.329011	2540.338246
821.647286	2548.731767
821.965517	2554.082952
822.283704	2560.931360
822.601847	2560.361709
822.919945	2556.626214
823.237999	2552.989022
823.556010	2549.414844
823.873976	2542.994934
824.191897	2541.432177
824.509775	2540.368493
824.827609	2538.946888
825.145398	2538.442772
825.463144	2537.600900
825.780845	2536.340611
826.098502	2539.390509
826.416116	2540.013092
826.733685	2544.366128
827.051210	2542.490819
827.368692	2539.191384
827.686129	2541.482588
828.003522	2535.763399
828.320872	2534.097298
828.638177	2536.741383
828.955439	2533.792308
829.272656	2531.546474
829.589830	2533.144520
829.906960	2533.787267
830.224046	2530.404652
830.541088	2532.143851
830.858086	2532.630322
831.175041	2534.563604
831.491952	2532.133768
831.808819	2532.307688
832.125642	2532.625281
832.442421	2535.428162
832.759157	2534.621578
833.075849	2535.312216
833.392497	2536.736342
833.709101	2537.933616
834.025662	2535.745755
834.342179	2535.891948
834.658653	2534.329191
834.975083	2535.526465
835.291469	2540.915458
835.607811	2535.208872
835.924110	2533.734335
836.240366	2532.307688
836.556578	2532.723583
836.872746	2530.568490
837.188871	2530.379447
837.504952	2530.697039
837.820990	2530.409694
838.136984	2530.749972
838.452935	2531.768285
838.768842	2531.511186
839.084706	2532.587472
839.400526	2532.758871
839.716303	2531.143182
840.032037	2534.535878
840.347727	2531.528830
840.663373	2531.304498
840.978977	2532.993285
841.294537	2530.691998
841.610054	2529.620753
841.925527	2534.669469
842.240957	2531.856505
842.556344	2532.360620
842.871687	2531.775846
843.186987	2530.404653
843.502244	2529.237625
843.817458	2532.045548
844.132629	2528.236956
844.447756	2531.601927
844.762840	2527.379960
845.077881	2528.604961
845.392879	2523.609177
845.707833	2528.917512
846.022745	2522.832839
846.337613	2531.034797
846.652438	2531.097811
846.967221	2530.742410
847.281960	2529.923222
847.596656	2534.455220
847.911309	2530.069416
848.225919	2529.353572
848.540485	2531.491021
848.855009	2531.891793
849.169490	2530.326515
849.483928	2529.406504
849.798323	2530.674354
850.112675	2529.020856
850.426984	2528.514220
850.741251	2529.719056
851.055474	2530.986906
851.369654	2531.233922
851.683792	2531.740558
851.997887	2531.990095
852.311938	2531.523789
852.625947	2531.213758
852.939914	2529.162008
853.253837	2532.232071
853.567718	2530.913809
853.881555	2530.119827
854.195350	2530.006401
854.509103	2530.613860
854.822812	2529.199817
855.136479	2531.546474
855.450103	2530.497914
855.763685	2528.554549
856.077224	2531.546474
856.390720	2529.028418
856.704173	2529.492204
857.017584	2531.380116
857.330953	2530.301309
857.644278	2529.098994
857.957561	2534.495549
858.270802	2527.243849
858.584000	2529.555218
858.897155	2530.760054
859.210268	2527.561442
859.523339	2528.796524
859.836367	2531.763243
860.149352	2529.971113
860.462295	2530.565969
860.775195	2524.624970
861.088054	2526.165042
861.400869	2526.452388
861.713642	2527.823582
862.026373	2529.542615
862.339062	2529.303160
862.651708	2529.348531
862.964312	2530.079498
863.276873	2529.562780
863.589392	2528.415917
863.901869	2529.605630
864.214303	2531.932122
864.526696	2531.637215
864.839045	2530.296268
865.151353	2530.727286
865.463619	2532.027904
865.775842	2528.506658
866.088023	2529.383819
866.400162	2530.727286
866.712258	2529.540095
867.024313	2529.358613
867.336325	2531.667462
867.648296	2528.557070
867.960224	2531.233922
868.272110	2529.535053
868.583954	2530.939015
868.895755	2530.089580
869.207515	2529.905578
869.519233	2529.356092
869.830909	2530.848274
870.142542	2530.278624
870.454134	2531.853984
870.765684	2530.099663
871.077191	2529.731658
871.388657	2529.746782
871.700081	2531.173428
872.011463	2530.744930
872.322803	2529.436751
872.634101	2530.593696
872.945357	2529.325846
873.256571	2531.390198
873.567744	2530.029087
873.878874	2529.661082
874.189963	2527.132944
874.501010	2533.159643
874.812015	2531.148223
875.122979	2532.519417
875.433900	2527.576565
875.744780	2530.855836
876.055618	2531.896834
876.366415	2530.613860
876.677169	2528.252080
876.987882	2528.390712
877.298554	2527.319466
877.609183	2525.988602
877.919771	2524.078004
878.230317	2530.356762
878.540822	2530.790301
878.851285	2530.936494
879.161707	2530.868439
879.472087	2531.571680
879.782425	2533.983872
880.092722	2532.763912
880.402977	2534.949253
880.713191	2537.487474
881.023363	2546.440563
881.333494	2544.517363
881.643583	2546.811088
881.953631	2544.373690
882.263637	2545.805377
882.573602	2542.742877
882.883526	2541.651467
883.193408	2540.754141
883.503248	2536.373379
883.813048	2535.823893
884.122806	2535.541588
884.432522	2532.121165
884.742197	2532.476567
885.051831	2532.753830
885.361424	2530.444982
885.670975	2533.943543
885.980485	2533.656197
886.289954	2532.398429
886.599382	2531.906916
886.908768	2531.133099
887.218113	2528.284847
887.527417	2531.420445
887.836680	2529.963552
888.145901	2529.368695
888.455082	2528.388191
888.764221	2531.753161
889.073319	2529.008253
889.382376	2531.435568
889.691392	2531.612009
890.000366	2529.272913
890.309300	2528.383150
890.618193	2532.196783
890.927044	2529.817358
891.235855	2530.061854
891.544625	2531.128058
891.853353	2532.363141
892.162041	2531.458254
892.470687	2534.006557
892.779293	2531.475898
893.087858	2530.268541
893.396381	2528.516740
893.704864	2527.934487
894.013306	2528.068078
894.321707	2533.152081
894.630068	2533.260466
894.938387	2533.043697
895.246665	2533.555374
895.554903	2534.031763
895.863100	2530.994467
896.171256	2533.358769
896.479371	2534.303985
896.787446	2530.964221
897.095480	2529.406504
897.403473	2532.952956
897.711425	2531.995137
898.019336	2530.951618
898.327207	2530.513037
898.635038	2531.556556
898.942827	2531.213758
899.250576	2529.877852
899.558284	2530.840712
899.865952	2531.279293
900.173579	2529.615712
900.481165	2531.170908
900.788711	2531.206196
901.096216	2530.354241
901.403681	2529.366175
901.711105	2533.724252
902.018489	2533.709129
902.325832	2533.754499
902.633135	2526.018849
902.940397	2528.773839
903.247619	2530.059333
903.554800	2533.073943
903.861941	2530.558408
904.169041	2537.142155
904.476101	2535.334901
904.783121	2537.023688
905.090100	2532.721063
905.397039	2534.122503
905.703938	2532.015301
906.010796	2533.326001
906.317614	2530.971782
906.624391	2534.445137
906.931129	2532.146371
907.237826	2530.283665
907.544483	2530.651669
907.851099	2529.955990
908.157675	2529.096473
908.464211	2530.439941
908.770707	2523.851153
909.077163	2528.887265
909.383578	2524.072963
909.689954	2528.052954
909.996289	2526.278468
910.302584	2527.390043
910.608839	2529.449354
910.915054	2527.301822
911.221229	2527.884076
911.527363	2529.708973
911.833458	2524.866945
912.139513	2532.663089
912.445527	2529.013294
912.751502	2529.746782
913.057436	2529.565300
913.363331	2529.459436
913.669186	2527.548839
913.975000	2530.807945
914.280775	2527.460619
914.586510	2530.994468
914.892205	2531.347348
915.197859	2531.551515
915.503475	2534.833306
915.809050	2534.840868
916.114585	2533.467153
916.420081	2534.513193
916.725536	2532.542102
917.030952	2536.728780
917.336328	2533.008408
917.641665	2533.492359
917.946961	2532.721063
918.252218	2527.793335
918.557435	2529.691329
918.862612	2531.964890
919.167750	2529.630835
919.472848	2530.407173
919.777906	2525.963396
920.082925	2530.147554
920.387904	2527.745444
920.692843	2528.473891
920.997743	2529.608150
921.302603	2529.845084
921.607423	2528.718387
921.912204	2528.403314
922.216946	2525.444157
922.521647	2529.262831
922.826310	2528.229395
923.130932	2528.418438
923.435516	2528.108407
923.740059	2528.930115
924.044564	2529.497245
924.349028	2527.178314
924.653454	2524.544311
924.957840	2526.553211
925.262186	2522.064063
925.566493	2526.853160
925.870761	2524.466173
926.174989	2528.521782
926.479178	2528.902389
926.783328	2529.613191
927.087438	2529.025897
927.391509	2529.121679
927.695541	2527.952131
927.999533	2529.633356
928.303486	2526.306194
928.607400	2527.604292
928.911275	2526.676719
929.215110	2528.723428
929.518906	2526.502799
929.822663	2528.733510
930.126381	2527.311905
930.430060	2528.662934
930.733699	2526.752337
931.037299	2526.013808
931.340861	2527.200999
931.644383	2526.107069
931.947866	2528.398273
932.251309	2527.841226
932.554714	2526.717048
932.858080	2529.923222
933.161407	2530.802904
933.464694	2527.624456
933.767943	2530.765095
934.071153	2524.627490
934.374323	2525.484486
934.677455	2528.060516
934.980548	2529.048582
935.283602	2526.197810
935.586617	2527.027079
935.889593	2526.094466
936.192530	2527.939528
936.495428	2524.776204
936.798287	2529.303160
937.101108	2529.083870
937.403890	2526.903571
937.706632	2527.919364
938.009336	2526.727131
938.312002	2526.404497
938.614628	2529.656041
938.917216	2529.686288
939.219765	2528.340300
939.522275	2525.882737
939.824747	2527.702594
940.127179	2525.759229
940.429573	2525.562624
940.731929	2526.409538
941.034246	2523.286543
941.336524	2526.830474
941.638763	2526.041534
941.940964	2528.196627
942.243126	2529.570342
942.545250	2526.953983
942.847335	2529.456916
943.149381	2526.941380
943.451389	2527.692512
943.753359	2528.824251
944.055290	2530.961700
944.357182	2524.592202
944.659036	2529.088911
944.960851	2525.723941
945.262628	2526.553211
945.564367	2529.449354
945.866067	2527.135464
946.167729	2526.538088
946.469352	2525.837367
946.770937	2529.792152
947.072484	2527.495907
947.373992	2528.236956
947.675462	2526.084384
947.976893	2526.205371
948.278286	2527.659744
948.579641	2528.173942
948.880958	2527.722759
949.182236	2529.787111
949.483476	2524.902233
949.784678	2525.151770
950.085841	2526.916174
950.386967	2526.855680
950.688054	2525.746626
950.989103	2525.411390
951.290114	2526.492717
951.591087	2528.143695
951.892021	2527.216123
952.192917	2527.667306
952.493776	2525.870135
952.794596	2528.667975
953.095378	2527.889117
953.396122	2528.546987
953.696828	2527.185876
953.997496	2528.587317
954.298126	2527.778211
954.598718	2528.269724
954.899272	2527.581606
955.199788	2529.068747
955.500266	2525.597912
955.800706	2524.070443
956.101108	2523.344517
956.401472	2523.273940
956.701798	2521.501975
957.002087	2525.066071
957.302337	2525.965917
957.602550	2526.734692
957.902724	2526.878365
958.202861	2527.884076
958.502960	2525.360978
958.803022	2526.712007
959.103045	2526.938859
959.403031	2528.602440
959.702979	2528.572193
960.002889	2527.533715
960.302762	2525.224867
960.602596	2525.741585
960.902393	2528.156298
961.202153	2525.623118
961.501875	2526.800228
961.801559	2525.779394
962.101205	2528.567152
962.400814	2525.958355
962.700385	2527.858870
962.999918	2524.690505
963.299414	2527.490866
963.598873	2526.966586
963.898293	2526.273427
964.197677	2526.979188
964.497022	2526.175124
964.796331	2526.739734
965.095601	2524.703107
965.394835	2528.022707
965.694030	2525.393746
965.993189	2526.883407
966.292309	2522.679084
966.591393	2528.068078
966.890439	2523.919208
967.189447	2524.446009
967.488419	2526.790145
967.787353	2526.601102
968.086249	2525.239990
968.385108	2528.352903
968.683930	2525.698735
968.982714	2530.250897
969.281462	2525.555063
969.580172	2529.545136
969.878844	2525.204702
970.177480	2524.887110
970.476078	2525.734023
970.774639	2529.315763
971.073162	2525.860052
971.371649	2525.998684
971.670098	2520.191275
971.968510	2523.528519
972.266885	2523.334434
972.565223	2526.659075
972.863524	2525.088756
973.161788	2525.504651
973.460014	2527.871473
973.758204	2526.885927
974.056356	2527.536236
974.354471	2525.955834
974.652550	2528.373068
974.950591	2527.019518
975.248595	2525.073632
975.546563	2529.056144
975.844493	2524.277130
976.142386	2524.287212
976.440243	2524.645134
976.738062	2528.302491
977.035845	2524.640093
977.333590	2525.635721
977.631299	2528.052954
977.928971	2525.716379
978.226606	2526.888448
978.524204	2527.132944
978.821765	2525.928108
979.119290	2528.410876
979.416777	2524.440968
979.714228	2526.170083
980.011642	2527.793335
980.309020	2528.655372
980.606360	2525.960875
980.903664	2524.745957
981.200931	2525.325690
981.498162	2526.825433
981.795356	2525.779394
982.092513	2524.466173
982.389633	2527.407687
982.686717	2527.412728
982.983764	2524.196472
983.280775	2525.055988
983.577749	2526.419620
983.874686	2525.565145
984.171587	2528.947759
984.468451	2526.845598
984.765279	2524.516585
985.062070	2527.939528
985.358824	2527.569003
985.655543	2523.873838
985.952224	2524.352747
986.248869	2525.824764
986.545478	2524.224198
986.842050	2522.744619
987.138586	2524.017511
987.435086	2522.338806
987.731549	2521.864938
988.027975	2524.158663
988.324366	2525.638242
988.620719	2527.354754
988.917037	2526.275947
989.213318	2526.061698
989.509563	2523.735206
989.805772	2527.248890
990.101944	2524.982892
990.398080	2526.669157
990.694180	2524.327542
990.990244	2527.435413
991.286271	2528.163860
991.582262	2525.456760
991.878217	2525.182017
992.174136	2524.808972
992.470019	2524.985412
992.765865	2524.549352
993.061676	2526.049096
993.357450	2526.152439
993.653188	2525.544980
993.948890	2527.009435
994.244556	2523.780576
994.540186	2528.531864
994.835780	2524.037675
995.131337	2525.597912
995.426859	2523.576410
995.722345	2523.011800
996.017795	2525.386184
996.313208	2525.124044
996.608586	2525.572707
996.903928	2525.305525
997.199234	2524.546832
997.494504	2526.280989
997.789738	2525.600433
998.084936	2525.461801
998.380099	2525.290402
998.675225	2525.237470
998.970316	2523.215967
999.265371	2523.609177
999.560390	2524.856863
999.855373	2525.640762
1000.150320	2524.743437
1000.445232	2525.867614
1000.740108	2524.254445
1001.034948	2525.791997
1001.329752	2523.306708
1001.624521	2525.272758
1001.919254	2521.065915
1002.213951	2522.530370
1002.508613	2521.348220
1002.803239	2522.346368
1003.097829	2517.854700
1003.392384	2526.389373
1003.686903	2525.882738
1003.981386	2524.355268
1004.275834	2525.454239
1004.570246	2525.025741
1004.864623	2524.738396
1005.158964	2522.991636
1005.453270	2526.875845
1005.747540	2526.185207
1006.041775	2523.175638
1006.335974	2525.124044
1006.630138	2522.648837
1006.924266	2526.422141
1007.218359	2523.410052
1007.512416	2523.047088
1007.806438	2524.322500
1008.100425	2527.700073
1008.394376	2526.023890
1008.688292	2523.974661
1008.982172	2522.953827
1009.276017	2527.684950
1009.569827	2524.158663
1009.863602	2525.260155
1010.157341	2522.792510
1010.451045	2526.704446
1010.744714	2523.755371
1011.038347	2524.433406
1011.331945	2525.275278
1011.625508	2522.868127
1011.919036	2521.842253
1012.212528	2524.342665
1012.505986	2523.699918
1012.799408	2522.858045
1013.092795	2524.859383
1013.386147	2524.544311
1013.679464	2527.019518
1013.972745	2523.878879
1014.265992	2524.970289
1014.559204	2526.273427
1014.852380	2523.452901
1015.145521	2528.859539
1015.438628	2523.548683
1015.731699	2524.471214
1016.024736	2524.844260
1016.317737	2521.905267
1016.610703	2523.715041
1016.903635	2521.912829
1017.196531	2519.737571
1017.489393	2520.801254
1017.782219	2520.438291
1018.075011	2525.108920
1018.367768	2526.656555
1018.660490	2527.669827
1018.953177	2527.669827
1019.245829	2527.669827
