Dividing Wavelength (nm)	Counts (n)	Blue Motor Position (mm): 0.000000	Red Motor Position (mm): 40.900000	
326.493990	2128.110493
326.888308	2128.110493
327.282561	2128.110493
327.676750	2098.435741
328.070874	2093.787797
328.464933	2097.379619
328.858929	2103.237440
329.252859	2114.010386
329.646726	2126.555297
330.040528	2135.468057
330.434265	2155.912457
330.827938	2171.834941
331.221547	2191.457633
331.615091	2206.815508
332.008571	2228.764692
332.401986	2249.756056
332.795338	2266.696854
333.188625	2285.979267
333.581847	2303.668676
333.975006	2324.191213
334.368100	2339.120590
334.761129	2359.602798
335.154095	2374.892618
335.546996	2395.067316
335.939833	2414.773186
336.332606	2433.427976
336.725315	2444.314348
337.117960	2454.003445
337.510540	2459.556276
337.903056	2474.110087
338.295508	2480.280460
338.687896	2488.074084
339.080220	2499.767040
339.472480	2502.585045
339.864676	2507.905983
340.256807	2514.404030
340.648875	2516.609535
341.040879	2518.129443
341.432818	2518.517612
341.824694	2522.585823
342.216506	2522.762263
342.608253	2524.967768
342.999937	2521.441481
343.391557	2521.431399
343.783113	2520.544156
344.174605	2521.907788
344.566033	2520.163548
344.957397	2517.786644
345.348697	2517.164062
345.739934	2513.806653
346.131106	2515.026613
346.522215	2511.601149
346.913260	2508.389934
347.304241	2505.786178
347.695159	2504.800632
348.086012	2503.580673
348.476802	2503.497494
348.867528	2501.982627
349.258191	2498.476505
349.648789	2499.822493
350.039324	2494.095742
350.429796	2497.430465
350.820203	2494.297388
351.210548	2495.066164
351.600828	2493.944507
351.991045	2490.617346
352.381198	2492.132213
352.771288	2491.673468
353.161314	2491.174393
353.551276	2489.921667
353.941175	2490.909733
354.331010	2491.691112
354.720782	2490.130874
355.110490	2490.226656
355.500135	2489.294043
355.889717	2491.060967
356.279235	2489.740185
356.668689	2494.186483
357.058080	2491.318066
357.447408	2490.279588
357.836672	2490.670278
358.225873	2489.906543
358.615010	2489.475524
359.004084	2496.296206
359.393095	2495.532471
359.782043	2497.127996
360.170927	2496.447440
360.559748	2497.906854
360.948505	2499.701505
361.337199	2499.215034
361.725830	2499.028511
362.114398	2501.044972
362.502903	2501.564211
362.891344	2501.735611
363.279722	2502.753924
363.668037	2503.121928
364.056289	2504.145282
364.444478	2505.980262
364.832603	2505.123266
365.220665	2506.817094
365.608665	2504.656959
365.996601	2506.930520
366.384474	2505.476147
366.772284	2509.990500
367.160031	2510.880264
367.547715	2513.095851
367.935336	2516.604494
368.322893	2515.994514
368.710388	2522.663961
369.097820	2526.187727
369.485189	2529.033459
369.872495	2537.232895
370.259738	2543.688093
370.646918	2549.687066
371.034035	2554.171172
371.421090	2566.637946
371.808081	2579.306365
372.195010	2586.666450
372.581875	2600.595158
372.968678	2612.376335
373.355418	2624.994343
373.742096	2642.083854
374.128710	2655.400062
374.515262	2669.646363
374.901751	2686.929959
375.288177	2698.207020
375.674540	2723.057388
376.060841	2739.950294
376.447079	2761.730600
376.833254	2779.130142
377.219367	2792.204375
377.605417	2828.813234
377.991404	2839.291272
378.377329	2862.664582
378.763191	2878.854248
379.148991	2917.507295
379.534727	2939.844647
379.920402	2970.648618
380.306013	2982.253354
380.691563	3032.349820
381.077049	3054.535938
381.462474	3071.953125
381.847835	3111.400154
382.233134	3132.230202
382.618371	3131.597537
383.003545	3201.346941
383.388657	3206.118393
383.773706	3239.826069
384.158693	3258.914398
384.543618	3282.645629
384.928480	3316.373469
385.313280	3367.813403
385.698017	3364.347610
386.082692	3416.838624
386.467305	3420.584202
386.851856	3452.041002
387.236344	3476.926658
387.620770	3505.162160
388.005133	3532.578475
388.389435	3557.133936
388.773674	3575.143458
389.157851	3613.660394
389.541965	3627.853762
389.926018	3594.199019
390.310008	3668.155267
390.693936	3683.243440
391.077802	3724.235583
391.461606	3715.211918
391.845348	3779.065693
392.229027	3781.102319
392.612645	3792.301242
392.996200	3869.325032
393.379694	3908.348604
393.763125	3973.361844
394.146494	3939.611319
394.529801	4000.382429
394.913047	4048.853123
395.296230	4014.999254
395.679351	4070.930856
396.062410	4090.848455
396.445408	4074.210127
396.828343	4105.321608
397.211217	4132.500989
397.594028	4050.622568
397.976778	4121.291983
398.359466	4147.508504
398.742092	4175.864994
399.124656	4097.275926
399.507158	4176.021270
399.889598	4201.290054
400.271977	4263.500413
400.654294	4232.877924
401.036549	4241.399994
401.418742	4212.521744
401.800874	4313.551509
402.182944	4335.782997
402.564952	4400.188779
402.946898	4390.096389
403.328783	4384.916603
403.710606	4299.017862
404.092367	4489.820494
404.474067	4453.070483
404.855705	4464.176144
405.237282	4390.623189
405.618797	4498.944983
406.000250	4536.836815
406.381642	4616.240030
406.762972	4574.937856
407.144240	4589.542079
407.525447	4586.976132
407.906593	4647.207838
408.287677	4686.183519
408.668700	4618.848827
409.049661	4672.113658
409.430560	4708.515830
409.811399	4636.452536
410.192176	4799.511178
410.572891	4736.907609
410.953545	4841.191438
411.334138	4717.783992
411.714669	4789.401144
412.095139	4684.421635
412.475547	4826.037729
412.855894	4809.238084
413.236180	4814.780833
413.616405	4769.271816
413.996568	4857.040825
414.376670	4798.329027
414.756711	4752.764558
415.136691	4786.910814
415.516609	4864.491651
415.896466	4901.554214
416.276262	4934.306590
416.655997	4915.550978
417.035670	5095.137042
417.415283	5190.414850
417.794834	5131.516529
418.174324	5083.423921
418.553753	4994.792875
418.933121	5177.033107
419.312428	5246.744703
419.691674	5180.864384
420.070859	5311.339528
420.449983	5223.260488
420.829045	5340.724413
421.208047	5248.748562
421.586988	5313.537471
421.965867	5321.641126
422.344686	5464.613290
422.723444	5313.822296
423.102141	5132.849914
423.480777	5428.911838
423.859352	5197.119584
424.237866	5457.785047
424.616319	5453.810097
424.994712	5559.195418
425.373044	5435.757725
425.751314	5579.884314
426.129524	5383.854005
426.507673	5576.229477
426.885762	5660.878012
427.263789	5592.333443
427.641756	5473.712572
428.019662	5596.182364
428.397508	5603.479434
428.775292	5549.334921
429.153016	5645.875538
429.530679	5569.799485
429.908282	5662.702910
430.285824	5533.208270
430.663305	5802.466379
431.040726	5537.765473
431.418086	5539.628180
431.795385	5643.218850
432.172624	5658.528834
432.549802	5650.037011
432.926920	5665.152910
433.303977	5669.382438
433.680974	5712.375919
434.057910	5730.057766
434.434786	5730.072890
434.811601	5701.938210
435.188355	5937.261792
435.565050	5817.504141
435.941683	5792.532786
436.318257	6009.194016
436.694770	5988.628629
437.071222	6029.976173
437.447614	5958.419515
437.823946	5864.439804
438.200218	6021.963259
438.576429	5890.671448
438.952580	5992.911089
439.328670	6034.848448
439.704700	5936.677018
440.080670	5924.865595
440.456580	6196.019178
440.832429	6081.882414
441.208218	5925.725112
441.583947	6083.538433
441.959616	6085.897693
442.335224	6015.145098
442.710773	6154.780019
443.086261	6176.116702
443.461689	5968.380835
443.837057	6121.102591
444.212365	6274.588081
444.587612	6168.522204
444.962800	6322.355534
445.337927	6300.373583
445.712995	5911.463687
446.088002	6491.645042
446.462949	6312.409338
446.837837	6250.501448
447.212664	6422.866060
447.587431	6565.810498
447.962139	7104.508198
448.336786	8034.323819
448.711374	7773.292873
449.085901	6848.513364
449.460369	6770.206601
449.834776	6703.804523
450.209124	7094.262052
450.583412	7244.677480
450.957640	7394.293885
451.331808	7157.861249
451.705917	6705.538679
452.079965	6633.127546
452.453954	6845.677715
452.827883	6722.638273
453.201752	6818.417676
453.575562	6611.160718
453.949311	6815.297202
454.323001	6706.924997
454.696632	6782.244876
455.070202	6917.093221
455.443713	7069.817497
455.817164	7176.866399
456.190556	7259.049810
456.563888	7329.230233
456.937160	7379.654375
457.310373	7036.230810
457.683526	7055.782925
458.056619	6945.038858
458.429653	6937.270439
458.802628	6872.037909
459.175542	6978.839794
459.548398	7333.850451
459.921194	7496.384813
460.293930	7496.213413
460.666607	8030.936163
461.039224	8335.401691
461.411782	8461.443140
461.784280	8479.722364
462.156719	8374.009368
462.529099	8253.067046
462.901419	7844.335333
463.273680	7732.837613
463.645882	7745.506033
464.018024	7605.704754
464.390106	7774.653984
464.762130	8167.697626
465.134094	8631.541753
465.505999	9650.366507
465.877845	10874.404032
466.249631	11519.376816
466.621358	11142.968982
466.993026	10513.911120
467.364634	10258.869065
467.736184	9894.945648
468.107674	9567.132016
468.479105	9592.544473
468.850477	9357.823308
469.221790	9132.521540
469.593043	8803.124986
469.964238	8665.972834
470.335373	8680.123353
470.706449	8738.799863
471.077467	8718.357984
471.448425	10024.790647
471.819324	11094.820922
472.190164	11129.861982
472.560945	9882.531807
472.931667	9095.869831
473.302330	8950.682080
473.672934	8595.126978
474.043479	8952.620403
474.413965	8889.116988
474.784393	8780.603631
475.154761	8935.394781
475.525070	9022.004324
475.895321	8848.823046
476.265513	9026.710242
476.635645	9188.526239
477.005719	9190.761991
477.375734	9305.619640
477.745691	9543.236947
478.115588	9672.832409
478.485427	9918.197970
478.855207	10457.056987
479.224928	11265.247210
479.594591	11895.010833
479.964194	11710.839839
480.333739	11651.167701
480.703226	11563.890205
481.072653	11662.348981
481.442022	11896.755073
481.811333	12086.524268
482.180584	11890.756100
482.549777	11603.674991
482.918912	11425.273597
483.287988	11450.270159
483.657005	11455.354162
484.025964	11136.344906
484.394864	11276.400763
484.763706	11241.533622
485.132489	10998.161838
485.501213	10961.789913
485.869879	11041.286388
486.238487	10875.583662
486.607036	10992.808133
486.975527	10769.800089
487.343959	10963.551796
487.712333	11003.775163
488.080648	10938.812334
488.448905	10977.883797
488.817104	10919.474468
489.185244	11193.564523
489.553326	11336.569454
489.921350	11877.444933
490.289315	12941.733333
490.657222	13272.795988
491.025070	13193.090305
491.392861	13060.777660
491.760593	12686.497193
492.128267	12336.333606
492.495883	12015.196982
492.863440	11669.983808
493.230939	11332.428147
493.598380	11269.355750
493.965763	11133.395831
494.333088	11035.330265
494.700354	10957.976280
495.067563	11019.846361
495.434713	10851.431493
495.801805	10978.526544
496.168839	10899.229194
496.535815	10833.575727
496.902733	10825.845117
497.269593	10768.749009
497.636395	10866.839780
498.003139	10856.613800
498.369825	10720.258150
498.736453	10882.696730
499.103023	10808.168311
499.469535	10837.349030
499.835989	10822.855713
500.202385	10788.772472
500.568723	10638.886365
500.935003	10859.628410
501.301226	10666.431230
501.667390	10925.896898
502.033497	11018.860816
502.399546	10880.556760
502.765537	10788.737184
503.131470	10862.887516
503.497345	11037.306397
503.863163	10646.274176
504.228923	10961.043822
504.594625	11021.489777
504.960269	10779.383323
505.325856	10997.292239
505.691385	10783.060844
506.056856	10939.997005
506.422270	10969.021448
506.787625	10855.839983
507.152924	10968.149328
507.518164	10946.885742
507.883347	10873.176511
508.248472	10791.373707
508.613540	11026.785509
508.978550	10908.197406
509.343503	10878.832685
509.708398	10998.912970
510.073236	11106.229053
510.438016	11111.340783
510.802738	11062.676004
511.167403	11120.679520
511.532010	11009.224650
511.896561	11244.959086
512.261053	11321.670324
512.625488	11190.738956
512.989866	11170.629793
513.354186	11160.471868
513.718449	11060.349512
514.082655	11258.194636
514.446803	11143.747840
514.810894	11269.907757
515.174927	11133.491613
515.538904	11163.811633
515.902822	11311.179683
516.266684	11198.950996
516.630488	11140.019907
516.994235	11199.548372
517.357925	11262.925758
517.721558	11346.901299
518.085133	11365.639268
518.448651	11372.096986
518.812112	11253.067782
519.175516	11269.718713
519.538863	11391.573484
519.902152	11313.695219
520.265385	11474.376957
520.628560	11375.608150
520.991678	11351.546722
521.354739	11412.590054
521.717743	11340.347799
522.080690	11331.571150
522.443580	11465.582664
522.806413	11424.623289
523.169189	11450.829727
523.531908	11511.101762
523.894569	11325.088227
524.257174	11333.753970
524.619722	11451.779984
524.982213	11397.020451
525.344647	11446.310333
525.707025	11397.849721
526.069345	11489.429842
526.431608	11407.238870
526.793815	11508.871052
527.155964	11315.346197
527.518057	11363.968126
527.880093	11312.034159
528.242072	11380.039324
528.603995	11284.975765
528.965860	11199.550893
529.327669	11257.347722
529.689421	11205.499454
530.051117	11178.312512
530.412755	11281.487287
530.774337	11169.450163
531.135862	11149.620785
531.497331	11172.666419
531.858743	11019.536330
532.220098	11194.608042
532.581396	11062.224821
532.942638	11044.784949
533.303824	11008.753302
533.664953	11014.119610
534.026025	10933.733371
534.387040	11030.284070
534.747999	11032.998732
535.108902	11089.482340
535.469748	10850.698006
535.830537	10952.350352
536.191270	10924.911352
536.551947	10958.866044
536.912567	10950.429673
537.273131	10882.132120
537.633638	10855.482061
537.994089	10848.482418
538.354483	10792.326485
538.714821	10932.251272
539.075103	10945.960690
539.435328	10907.547098
539.795497	10741.519216
540.155609	10892.632844
540.515665	10983.479477
540.875665	10723.817204
541.235609	10787.854982
541.595496	10781.850968
541.955328	10944.047572
542.315102	10824.173975
542.674821	10773.107086
543.034483	10771.294791
543.394090	10778.133117
543.753640	10709.210461
544.113134	10928.271281
544.472571	10782.040011
544.831953	10925.475961
545.191278	10733.050078
545.550548	10762.485375
545.909761	10899.105685
546.268918	10866.678463
546.628019	10951.536206
546.987064	10820.844293
547.346053	10742.522406
547.704986	10839.221819
548.063863	10827.523821
548.422684	10813.030504
548.781449	10733.995294
549.140158	10830.881230
549.498811	10711.849505
549.857408	10575.214071
550.215949	10792.205498
550.574434	10645.880966
550.932864	10744.460729
551.291237	10798.595160
551.649555	10755.195867
552.007817	10763.186095
552.366022	10732.767773
552.724173	10716.535258
553.082267	10705.442199
553.440305	10847.559887
553.798288	10640.428958
554.156215	10800.760336
554.514086	10777.692016
554.871902	10620.846596
555.229661	10668.379636
555.587365	10632.048040
555.945014	10536.006497
556.302606	10654.839096
556.660143	10545.965297
557.017625	10699.702845
557.375050	10608.442837
557.732421	10737.511499
558.089735	10652.704168
558.446994	10650.763323
558.804197	10692.055415
559.161345	10693.681187
559.518437	10541.418176
559.875474	10630.807916
560.232455	10654.977728
560.589381	10607.858063
560.946251	10604.447723
561.303065	10710.904289
561.659825	10643.398198
562.016528	10571.476056
562.373177	10449.376789
562.729770	10569.835160
563.086307	10485.600000
563.442789	10573.053937
563.799216	10453.369383
564.155587	10502.150108
564.511904	10454.717892
564.868164	10445.981572
565.224370	10460.230393
565.580520	10384.855061
565.936615	10385.759948
566.292654	10261.858469
566.648638	10387.221883
567.004567	10341.107928
567.360441	10331.716258
567.716260	10237.154294
568.072023	10334.110806
568.427732	10281.082909
568.783385	10194.664929
569.138982	10270.821640
569.494525	10276.871025
569.850013	10155.260750
570.205445	10232.536598
570.560823	10133.039344
570.916145	10050.397188
571.271412	10121.580801
571.626625	10058.629393
571.981782	10037.078460
572.336884	10016.707157
572.691931	10017.576756
573.046923	9960.495771
573.401860	9916.189070
573.756743	9850.863278
574.111570	9896.745340
574.466342	9876.863029
574.821059	9908.118183
575.175722	9797.187593
575.530330	9806.160846
575.884882	9797.200195
576.239380	9718.689265
576.593823	9702.665958
576.948211	9714.588287
577.302544	9596.544628
577.656823	9605.880845
578.011047	9608.018294
578.365216	9585.307896
578.719330	9501.866718
579.073389	9514.305765
579.427394	9465.872879
579.781344	9437.468498
580.135239	9382.875323
580.489080	9391.480572
580.842866	9293.581364
581.196597	9289.361919
581.550273	9331.894134
581.903895	9299.114031
582.257463	9366.105924
582.610975	9240.276204
582.964434	9266.381819
583.317837	9182.466772
583.671186	9169.649638
584.024481	9159.088421
584.377721	9075.448117
584.730906	9053.546824
585.084037	9080.905166
585.437113	9013.467130
585.790135	9034.191314
586.143103	8931.129965
586.496016	8901.795490
586.848874	8952.718706
587.201679	8943.737890
587.554428	8825.217843
587.907124	8869.398515
588.259765	8841.226027
588.612352	8834.952311
588.964884	8716.018889
589.317362	8720.949137
589.669786	8725.453408
590.022155	8771.746324
590.374470	8776.462323
590.726731	8714.788847
591.078937	8566.473060
591.431090	8667.749841
591.783188	8543.301396
592.135232	8529.430662
592.487222	8529.753295
592.839157	8569.538082
593.191038	8508.015840
593.542866	8443.572250
593.894639	8347.276129
594.246358	8391.943273
594.598022	8398.297647
594.949633	8295.475753
595.301190	8267.086495
595.652692	8297.245198
596.004141	8396.742451
596.355535	8175.279522
596.706876	8146.991087
597.058162	8080.813340
597.409395	8143.616034
597.760573	8200.422276
598.111698	8115.345243
598.462768	8091.709794
598.813785	8054.627066
599.164748	8019.578444
599.515657	8003.585383
599.866511	7908.501660
600.217312	8023.152622
600.568060	7880.510653
600.918753	7975.533883
601.269392	7941.846372
601.619978	7849.860438
601.970510	7898.646204
602.320988	7891.699494
602.671412	7938.166330
603.021783	7871.285342
603.372100	7835.533479
603.722363	7828.291861
604.072572	7802.166081
604.422728	7801.667007
604.772830	7725.104483
605.122878	7731.315185
605.472872	7718.324131
605.822813	7736.598314
606.172701	7674.791247
606.522534	7733.734938
606.872314	7729.001295
607.222041	7687.305912
607.571714	7733.823159
607.921333	7684.135026
608.270899	7678.998090
608.620411	7753.471056
608.969870	7653.724265
609.319276	7636.007130
609.668627	7643.397462
610.017926	7671.645567
610.367171	7694.287910
610.716362	7662.662231
611.065500	7638.444528
611.414585	7648.284860
611.763616	7632.246429
612.112594	7601.858354
612.461518	7600.169567
612.810389	7648.047926
613.159207	7579.271464
613.507971	7521.073863
613.856682	7614.549459
614.205340	7557.889410
614.553945	7613.326979
614.902496	7508.775969
615.250994	7544.255609
615.599439	7514.132195
615.947830	7512.090527
616.296169	7472.267933
616.644454	7469.555792
616.992686	7445.930424
617.340864	7481.284036
617.688990	7381.333079
618.037063	7452.720858
618.385082	7382.248048
618.733048	7443.929086
619.080961	7373.874692
619.428821	7376.551544
619.776628	7360.253494
620.124382	7304.105122
620.472083	7273.404496
620.819731	7291.981148
621.167326	7180.927049
621.514868	7178.996287
621.862357	7074.470482
622.209793	7075.456028
622.557176	7003.927096
622.904506	6965.919317
623.251783	6904.752477
623.599007	6852.538726
623.946179	6841.158321
624.293297	6794.031094
624.640363	6715.426903
624.987376	6683.529002
625.334336	6629.770137
625.681243	6576.215439
626.028097	6553.764661
626.374899	6524.735176
626.721647	6498.337174
627.068343	6432.880312
627.414987	6390.980762
627.761577	6340.022258
628.108115	6358.200659
628.454600	6262.781699
628.801032	6276.128154
629.147412	6237.946454
629.493739	6211.760181
629.840014	6147.934132
630.186236	6172.590415
630.532405	6063.595628
630.878521	6092.461275
631.224585	6041.250714
631.570597	5970.266226
631.916556	5976.174459
632.262462	5964.499146
632.608316	5913.916209
632.954117	5882.058637
633.299866	5855.925295
633.645562	5833.759342
633.991206	5766.381800
634.336797	5707.904416
634.682336	5666.355226
635.027823	5624.049862
635.373257	5608.855825
635.718639	5547.371392
636.063968	5542.327717
636.409245	5458.478206
636.754470	5435.288898
637.099642	5399.111057
637.444762	5343.746585
637.789829	5335.539587
638.134845	5286.053100
638.479808	5256.814408
638.824719	5254.719808
639.169577	5191.675138
639.514383	5195.143452
639.859137	5129.313545
640.203839	5130.901508
640.548489	5098.746508
640.893086	5074.543929
641.237632	5044.922109
641.582125	5044.060071
641.926566	5010.183518
642.270955	5007.552035
642.615292	4993.378831
642.959576	4984.405577
643.303809	4966.305314
643.647990	4955.948264
643.992118	4938.213485
644.336195	4895.426691
644.680219	4894.045415
645.024192	4877.961614
645.368112	4915.316564
645.711981	4921.023150
646.055797	4956.903563
646.399562	4913.431172
646.743274	4971.946366
647.086935	4989.378676
647.430544	4981.388447
647.774101	4971.417044
648.117606	4968.611642
648.461059	4946.791008
648.804460	4910.040996
649.147810	4850.830124
649.491108	4813.944001
649.834354	4788.662615
650.177548	4728.645157
650.520690	4671.382691
650.863781	4641.491169
651.206820	4640.024193
651.549807	4586.759362
651.892742	4537.461918
652.235626	4527.412378
652.578458	4507.260366
652.921238	4449.067806
653.263967	4460.959888
653.606644	4414.419956
653.949269	4398.689035
654.291843	4361.008931
654.634365	4374.985530
654.976836	4335.924149
655.319255	4330.028520
655.661622	4303.464160
656.003938	4284.002785
656.346203	4260.359774
656.688416	4255.384155
657.030577	4226.455494
657.372687	4199.555897
657.714746	4180.701981
658.056753	4196.470711
658.398708	4150.371879
658.740612	4143.548678
659.082465	4146.926251
659.424266	4138.580620
659.766016	4125.803816
660.107715	4102.687605
660.449362	4103.073253
660.790958	4091.773507
661.132503	4072.191145
661.473996	4074.142071
661.815438	4062.655802
662.156829	4050.494019
662.498168	4033.066750
662.839456	4022.187940
663.180693	4018.376827
663.521879	4013.335674
663.863013	4000.972244
664.204097	3990.907580
664.545129	4008.173532
664.886110	3989.047394
665.227040	3990.358094
665.567918	3975.640446
665.908746	3970.062409
666.249522	3964.423878
666.590248	3950.227989
666.930922	3953.338381
667.271545	3947.626754
667.612118	3942.744396
667.952639	3919.650871
668.293109	3916.353956
668.633528	3891.122981
668.973896	3885.575191
669.314213	3868.072305
669.654480	3851.683514
669.994695	3840.522399
670.334859	3824.791479
670.674973	3809.478974
671.015035	3803.530412
671.355047	3790.632620
671.695008	3773.248201
672.034918	3760.171448
672.374777	3755.687342
672.714585	3741.403232
673.054342	3736.334352
673.394049	3725.548803
673.733705	3726.776324
674.073310	3707.269580
674.412864	3690.343906
674.752368	3676.664735
675.091820	3666.237108
675.431223	3632.496665
675.770574	3621.259933
676.109875	3599.383846
676.449125	3587.539655
676.788324	3568.171542
677.127473	3545.753531
677.466571	3532.023948
677.805619	3516.610621
678.144616	3505.482273
678.483562	3490.000890
678.822458	3469.831233
679.161303	3462.425778
679.500098	3448.255095
679.838842	3439.216306
680.177535	3436.917540
680.516179	3433.749175
680.854771	3426.016045
681.193314	3445.938685
681.531805	3476.195690
681.870247	3510.112573
682.208638	3539.507541
682.546978	3535.162067
682.885268	3516.744211
683.223508	3480.112667
683.561697	3459.010397
683.899836	3445.472378
684.237925	3425.635438
684.575963	3410.685896
684.913951	3395.990933
685.251889	3400.147364
685.589776	3393.399779
685.927614	3381.303531
686.265401	3389.780231
686.603137	3384.444170
686.940824	3397.783063
687.278460	3404.664238
687.616046	3401.755492
687.953582	3419.805343
688.291068	3409.178591
688.628504	3416.881474
688.965889	3405.627098
689.303224	3387.020199
689.640510	3360.710417
689.977745	3333.951973
690.314930	3296.357568
690.652065	3277.168416
690.989150	3244.799167
691.326185	3219.174982
691.663170	3195.151363
692.000105	3170.280831
692.336990	3144.951553
692.673825	3130.153246
693.010610	3110.850668
693.347345	3090.708738
693.684030	3072.610996
694.020665	3061.530539
694.357251	3040.622354
694.693786	3036.949873
695.030272	3024.893954
695.366707	3013.155627
695.703093	3003.038031
696.039429	3002.549039
696.375716	2994.866321
696.711952	2988.569920
697.048139	2983.100268
697.384276	2972.970069
697.720363	2978.089361
698.056400	2969.894965
698.392388	2960.498255
698.728326	2956.397276
699.064214	2943.461675
699.400053	2938.609565
699.735842	2926.281423
700.071581	2914.142324
700.407270	2906.804925
700.742910	2898.638256
701.078501	2886.305073
701.414042	2879.383569
701.749533	2872.779657
702.084974	2861.263141
702.420366	2863.705580
702.755709	2853.477079
703.091002	2836.753051
703.426246	2840.632219
703.761440	2832.452947
704.096584	2825.450784
704.431679	2820.540700
704.766725	2816.676656
705.101721	2812.631130
705.436668	2814.634989
705.771565	2803.123514
706.106413	2805.356745
706.441212	2805.172743
706.775961	2804.923206
707.110661	2803.602423
707.445311	2805.462609
707.779913	2801.641415
708.114465	2804.845068
708.448967	2805.855819
708.783421	2812.769762
709.117825	2817.694969
709.452180	2816.016265
709.786485	2825.138233
710.120742	2838.295644
710.454949	2835.114676
710.789107	2843.246057
711.123216	2851.097654
711.457275	2857.099148
711.791286	2864.421424
712.125247	2865.454861
712.459159	2858.445136
712.793023	2864.164325
713.126837	2848.945082
713.460602	2844.476099
713.794318	2828.596464
714.127985	2823.111689
714.461602	2806.874132
714.795171	2802.828606
715.128691	2787.097686
715.462162	2774.961108
715.795584	2764.180600
716.128957	2760.155239
716.462281	2751.547469
716.795556	2745.798033
717.128782	2736.360993
717.461960	2724.897409
717.795088	2724.196689
718.128167	2718.981615
718.461198	2711.765203
718.794180	2711.384596
719.127113	2702.600386
719.459997	2700.455375
719.792833	2695.066381
720.125619	2694.723583
720.458357	2688.180165
720.791046	2687.847449
721.123686	2684.220339
721.456278	2677.233299
721.788821	2678.304545
722.121315	2675.791529
722.453761	2672.930675
722.786158	2667.871877
723.118506	2672.842454
723.450805	2668.018070
723.783056	2667.030004
724.115259	2668.653256
724.447412	2666.835920
724.779518	2667.634942
725.111574	2666.059582
725.443582	2665.270641
725.775542	2666.205775
726.107453	2670.735252
726.439315	2669.041424
726.771129	2675.599966
727.102895	2676.343536
727.434612	2676.477126
727.766281	2678.475944
728.097901	2679.060718
728.429473	2675.075686
728.760996	2676.441838
729.092471	2670.647032
729.423897	2672.723987
729.755276	2670.321877
730.086606	2670.846157
730.417887	2673.616272
730.749120	2675.206756
731.080305	2677.462672
731.411442	2680.119360
731.742530	2674.939574
732.073570	2674.468227
732.404562	2674.485871
732.735506	2677.692044
733.066401	2672.832372
733.397249	2663.843995
733.728048	2656.062974
734.058798	2646.089051
734.389501	2639.500263
734.720156	2635.419449
735.050762	2632.493059
735.381320	2629.062554
735.711831	2627.807307
736.042293	2624.023921
736.372707	2623.355968
736.703073	2623.388735
737.033391	2624.026441
737.363661	2623.842439
737.693883	2624.112141
738.024056	2625.841257
738.354182	2623.958386
738.684260	2630.257307
739.014290	2632.687143
739.344272	2632.268728
739.674207	2634.060858
740.004093	2636.533544
740.333931	2635.986579
740.663722	2632.208234
740.993464	2631.227729
741.323159	2630.630353
741.652806	2626.300002
741.982405	2625.609363
742.311956	2618.829012
742.641460	2618.161059
742.970915	2617.326748
743.300323	2608.963473
743.629683	2608.363576
743.958996	2610.674945
744.288260	2603.496342
744.617477	2599.861670
744.946647	2596.484097
745.275768	2594.611308
745.604842	2595.932091
745.933869	2593.552666
746.262847	2591.793303
746.591778	2595.173397
746.920662	2594.921339
747.249498	2594.727255
747.578286	2592.955289
747.907027	2597.114241
748.235720	2598.964345
748.564365	2595.944694
748.892963	2595.639704
749.221514	2591.740371
749.550017	2595.735486
749.878473	2593.439240
750.206881	2592.715835
750.535242	2590.805237
750.863555	2588.861872
751.191821	2586.951275
751.520039	2591.745412
751.848210	2586.623600
752.176334	2587.745257
752.504411	2587.974629
752.832440	2586.396748
753.160421	2587.142839
753.488356	2584.851635
753.816243	2585.590164
754.144082	2585.847262
754.471875	2582.336099
754.799620	2582.336099
755.127318	2583.248548
755.454969	2583.634196
755.782572	2581.831983
756.110129	2580.675039
756.437638	2583.762745
756.765100	2581.955492
757.092515	2582.187385
757.419882	2582.313414
757.747203	2582.406675
758.074477	2580.188567
758.401703	2581.264854
758.728882	2585.025554
759.056014	2583.823239
759.383099	2583.382138
759.710138	2586.273240
760.037129	2583.656881
760.364073	2585.368353
760.690970	2582.570513
761.017820	2585.335585
761.344623	2584.463466
761.671379	2584.448342
761.998088	2581.511870
762.324751	2591.029569
762.651366	2600.290168
762.977935	2625.332100
763.304456	2639.782567
763.630931	2643.951602
763.957359	2632.971969
764.283740	2620.074177
764.610074	2608.789554
764.936362	2598.182966
765.262602	2591.856318
765.588796	2586.999166
765.914943	2579.742425
766.241044	2577.103381
766.567097	2574.703792
766.893104	2571.989131
767.219064	2571.860581
767.544978	2573.317475
767.870845	2567.830179
768.196665	2568.296485
768.522438	2565.097873
768.848165	2563.540157
769.173846	2564.104766
769.499479	2565.778429
769.825066	2565.551577
770.150607	2565.032338
770.476101	2566.244736
770.801548	2563.109138
771.126949	2562.612584
771.452303	2561.246432
771.777611	2559.353478
772.102872	2561.531257
772.428087	2557.652089
772.753256	2560.782646
773.078378	2558.254507
773.403453	2554.929866
773.728482	2556.434650
774.053465	2558.652758
774.378401	2558.022614
774.703291	2556.742161
775.028135	2556.434650
775.352932	2559.066133
775.677683	2553.205791
776.002388	2558.163766
776.327046	2556.774928
776.651658	2556.681667
776.976224	2555.189485
777.300743	2553.803168
777.625216	2552.716799
777.949643	2555.318035
778.274024	2554.539177
778.598359	2552.500030
778.922647	2548.409133
779.246889	2552.005997
779.571086	2549.245965
779.895236	2552.555483
780.219339	2553.485575
780.543397	2552.512633
780.867409	2555.121430
781.191374	2553.646892
781.515294	2554.093034
781.839167	2554.307283
782.162995	2553.102448
782.486776	2553.399876
782.810511	2552.615976
783.134201	2553.072201
783.457844	2552.298384
783.781441	2549.419885
784.104993	2552.961295
784.428498	2553.563713
784.751958	2550.589433
785.075372	2553.104968
785.398739	2550.264278
785.722061	2551.171686
786.045337	2551.869886
786.368568	2552.389124
786.691752	2552.545400
787.014891	2555.655792
787.337983	2552.696635
787.661030	2557.518498
787.984031	2560.825495
788.306987	2561.047306
788.629897	2561.352296
788.952760	2558.544373
789.275579	2556.147305
789.598351	2559.855073
789.921078	2555.106306
790.243759	2553.041954
790.566395	2553.951882
790.888984	2552.931048
791.211529	2552.779814
791.534027	2550.460883
791.856480	2549.316541
792.178888	2550.912066
792.501249	2549.868547
792.823566	2552.353836
793.145836	2551.247303
793.468062	2549.127498
793.790241	2551.113713
794.112375	2550.622200
794.434464	2548.318393
794.756507	2550.755791
795.078505	2552.237890
795.400457	2552.288301
795.722364	2549.253527
796.044226	2552.540359
796.366042	2550.864175
796.687812	2552.981460
797.009538	2550.864175
797.331218	2552.169834
797.652852	2554.045143
797.974442	2554.743343
798.295986	2548.908208
798.617484	2551.637993
798.938938	2551.529608
799.260346	2551.874927
799.581709	2549.132539
799.903026	2553.079762
800.224299	2549.747560
800.545526	2549.800492
800.866708	2549.699669
801.187845	2550.476007
801.508936	2550.392827
801.829983	2549.881150
802.150984	2549.097251
802.471940	2547.700851
802.792851	2549.306459
803.113717	2549.780327
803.434538	2547.564740
803.755314	2547.902497
804.076045	2549.969371
804.396731	2546.735470
804.717372	2547.965512
805.037967	2548.210008
805.358518	2548.731767
805.679024	2548.215049
805.999485	2546.223793
806.319901	2550.498692
806.640272	2548.010882
806.960598	2548.814946
807.280879	2547.012734
807.601115	2548.799823
807.921306	2549.440049
808.241453	2549.001469
808.561554	2545.880995
808.881611	2549.472817
809.201623	2548.658671
809.521590	2549.467776
809.841513	2546.972405
810.161390	2547.237065
810.481223	2547.738660
810.801011	2546.460727
811.120755	2548.215049
811.440453	2549.435008
811.760107	2547.620193
812.079716	2549.619010
812.399281	2543.282280
812.718801	2543.647764
813.038276	2540.731456
813.357707	2547.524411
813.677093	2545.578526
813.996434	2549.654298
814.315731	2546.102806
814.634983	2546.833773
814.954191	2547.824360
815.273354	2548.361242
815.592473	2544.592980
815.911547	2548.527601
816.230577	2549.619010
816.549562	2547.756304
816.868502	2548.404092
817.187399	2550.511295
817.506250	2549.371994
817.825058	2550.594474
818.143821	2548.696479
818.462539	2552.762170
818.781213	2552.689073
819.099843	2555.267623
819.418429	2559.819785
819.736970	2560.689384
820.055466	2563.068809
820.373919	2567.411763
820.692327	2571.658935
821.010691	2585.673343
821.329011	2607.466251
821.647286	2654.182623
821.965517	2709.741180
822.283704	2742.301993
822.601847	2754.090731
822.919945	2725.572924
823.237999	2693.107893
823.556010	2664.640497
823.873976	2641.637712
824.191897	2619.292798
824.509775	2606.213524
824.827609	2594.639035
825.145398	2588.924887
825.463144	2586.759711
825.780845	2589.935638
826.098502	2593.832450
826.416116	2608.479523
826.733685	2622.025103
827.051210	2628.313942
827.368692	2620.865638
827.686129	2608.600510
828.003522	2593.895465
828.320872	2577.267219
828.638177	2571.795046
828.955439	2562.922615
829.272656	2560.598643
829.589830	2555.902809
829.906960	2556.507747
830.224046	2553.553631
830.541088	2552.668908
830.858086	2551.459032
831.175041	2553.261244
831.491952	2550.566747
831.808819	2552.053888
832.125642	2554.574465
832.442421	2554.110678
832.759157	2563.300702
833.075849	2569.826476
833.392497	2582.631006
833.709101	2589.214753
834.025662	2588.592171
834.342179	2580.561613
834.658653	2576.019533
834.975083	2568.606516
835.291469	2567.139541
835.607811	2558.753581
835.924110	2554.876934
836.240366	2552.011038
836.556578	2550.473486
836.872746	2550.760832
837.188871	2548.401572
837.504952	2548.774617
837.820990	2543.955274
838.136984	2545.520552
838.452935	2546.009544
838.768842	2547.562220
839.084706	2547.746222
839.400526	2550.556665
839.716303	2555.179403
840.032037	2562.733572
840.347727	2560.686864
840.663373	2558.342727
840.978977	2552.358877
841.294537	2552.353836
841.610054	2547.428629
841.925527	2546.939637
842.240957	2545.946530
842.556344	2545.787733
842.871687	2543.375541
843.186987	2543.715819
843.502244	2542.125335
843.817458	2544.177085
844.132629	2538.457896
844.447756	2541.003678
844.762840	2537.273225
845.077881	2537.729449
845.392879	2536.438914
845.707833	2539.720705
846.022745	2538.939326
846.337613	2542.647095
846.652438	2540.398740
846.967221	2539.733308
847.281960	2538.636857
847.596656	2542.216076
847.911309	2538.079809
848.225919	2538.044521
848.540485	2541.936292
848.855009	2538.180632
849.169490	2540.197094
849.483928	2542.231199
849.798323	2541.517876
850.112675	2541.666590
850.426984	2539.801363
850.741251	2540.832279
851.055474	2542.510983
851.369654	2540.607948
851.683792	2541.696837
851.997887	2538.536034
852.311938	2543.657846
852.625947	2540.713812
852.939914	2541.144831
853.253837	2543.970397
853.567718	2541.878319
853.881555	2542.876467
854.195350	2536.776671
854.509103	2539.372865
854.822812	2537.333718
855.136479	2539.922351
855.450103	2540.502084
855.763685	2538.220962
856.077224	2538.226003
856.390720	2538.873791
856.704173	2537.016126
857.017584	2538.934285
857.330953	2540.363452
857.644278	2539.803884
857.957561	2543.592311
858.270802	2539.955118
858.584000	2540.365972
858.897155	2542.155582
859.210268	2539.274563
859.523339	2541.321271
859.836367	2540.870088
860.149352	2538.911600
860.462295	2539.445962
860.775195	2537.613503
861.088054	2536.476722
861.400869	2537.978986
861.713642	2536.746424
862.026373	2536.582587
862.339062	2541.699358
862.651708	2540.197094
862.964312	2540.013092
863.276873	2540.358411
863.589392	2538.059645
863.901869	2538.178112
864.214303	2540.925541
864.526696	2543.085675
864.839045	2542.697506
865.151353	2539.682896
865.463619	2540.784388
865.775842	2541.805222
866.088023	2540.207176
866.400162	2540.683565
866.712258	2540.998637
867.024313	2542.601724
867.336325	2540.408822
867.648296	2540.575180
867.960224	2541.774975
868.272110	2541.054090
868.583954	2541.023843
868.895755	2540.096271
869.207515	2539.924872
869.519233	2543.128525
869.830909	2541.621220
870.142542	2544.068700
870.454134	2542.687424
870.765684	2541.835469
871.077191	2540.789429
871.388657	2543.579708
871.700081	2541.248174
872.011463	2541.863195
872.322803	2540.834800
872.634101	2544.285470
872.945357	2541.598535
873.256571	2543.463762
873.567744	2545.470141
873.878874	2545.525593
874.189963	2545.170192
874.501010	2543.771272
874.812015	2544.729091
875.122979	2545.535676
875.433900	2544.441745
875.744780	2542.884029
876.055618	2541.926210
876.366415	2546.087682
876.677169	2545.709596
876.987882	2542.117773
877.298554	2539.337577
877.609183	2542.311858
877.919771	2538.450334
878.230317	2544.023330
878.540822	2546.773279
878.851285	2548.605738
879.161707	2549.828218
879.472087	2554.798796
879.782425	2560.339024
880.092722	2567.043759
880.402977	2579.860892
880.713191	2600.716146
881.023363	2627.129271
881.333494	2645.032929
881.643583	2648.884371
881.953631	2647.737508
882.263637	2637.924902
882.573602	2630.332925
882.883526	2618.193826
883.193408	2605.749738
883.503248	2594.467636
883.813048	2586.157293
884.122806	2578.202353
884.432522	2574.562640
884.742197	2569.181208
885.051831	2564.477811
885.361424	2560.891030
885.670975	2557.934394
885.980485	2556.739640
886.289954	2553.173024
886.599382	2550.276881
886.908768	2550.924669
887.218113	2549.344267
887.527417	2549.752601
887.836680	2548.777138
888.145901	2547.975594
888.455082	2547.526932
888.764221	2546.569112
889.073319	2548.358722
889.382376	2543.998124
889.691392	2543.183977
890.000366	2546.702703
890.309300	2545.518032
890.618193	2546.165820
890.927044	2547.005172
891.235855	2546.647250
891.544625	2546.012065
891.853353	2543.864533
892.162041	2548.162117
892.470687	2550.128167
892.779293	2549.195553
893.087858	2549.286294
893.396381	2548.615821
893.704864	2556.905998
894.013306	2559.608057
894.321707	2571.245560
894.630068	2580.385172
894.938387	2582.807447
895.246665	2577.529359
895.554903	2574.295458
895.863100	2568.271280
896.171256	2567.247925
896.479371	2561.291802
896.787446	2554.153528
897.095480	2554.944989
897.403473	2553.054557
897.711425	2551.121274
898.019336	2550.349978
898.327207	2548.482230
898.635038	2549.795451
898.942827	2544.736653
899.250576	2548.104144
899.558284	2545.432332
899.865952	2547.204298
900.173579	2544.204811
900.481165	2543.133566
900.788711	2545.195398
901.096216	2545.157589
901.403681	2543.163813
901.711105	2544.910573
902.018489	2542.730274
902.325832	2547.637837
902.633135	2545.175233
902.940397	2548.658671
903.247619	2549.117416
903.554800	2557.001780
903.861941	2568.893862
904.169041	2584.811305
904.476101	2589.834815
904.783121	2592.667944
905.090100	2583.727457
905.397039	2577.068093
905.703938	2568.868656
906.010796	2561.823644
906.317614	2557.193344
906.624391	2553.493137
906.931129	2549.883671
907.237826	2548.202446
907.544483	2545.533155
907.851099	2544.814791
908.157675	2546.690100
908.464211	2544.020809
908.770707	2539.453524
909.077163	2539.181301
909.383578	2537.003523
909.689954	2538.120138
909.996289	2536.252391
910.302584	2541.028884
910.608839	2539.440921
910.915054	2542.226158
911.221229	2539.980324
911.527363	2541.064172
911.833458	2539.607279
912.139513	2543.229348
912.445527	2541.820345
912.751502	2541.079296
913.057436	2540.834800
913.363331	2542.758000
913.669186	2541.212886
913.975000	2544.378731
914.280775	2546.044832
914.586510	2551.723692
914.892205	2557.110165
915.197859	2563.280537
915.503475	2570.612896
915.809050	2576.616910
916.114585	2584.085379
916.420081	2589.804568
916.725536	2584.902046
917.030952	2581.158989
917.336328	2573.544327
917.641665	2573.887125
917.946961	2569.213975
918.252218	2560.079405
918.557435	2556.709393
918.862612	2555.504557
919.167750	2552.507592
919.472848	2549.215718
919.777906	2546.710265
920.082925	2546.932075
920.387904	2547.479041
920.692843	2546.619524
920.997743	2543.660367
921.302603	2541.437218
921.607423	2543.461241
921.912204	2540.746580
922.216946	2542.828576
922.521647	2543.551982
922.826310	2543.620037
923.130932	2540.640715
923.435516	2537.744573
923.740059	2539.130890
924.044564	2537.038811
924.349028	2538.987217
924.653454	2536.307844
924.957840	2537.016126
925.262186	2532.486649
925.566493	2537.502597
925.870761	2530.064375
926.174989	2537.512679
926.479178	2535.516383
926.783328	2535.206352
927.087438	2536.862371
927.391509	2537.953780
927.695541	2534.742565
927.999533	2538.949408
928.303486	2535.773481
928.607400	2535.680220
928.911275	2536.159130
929.215110	2534.989582
929.518906	2536.416228
929.822663	2536.174253
930.126381	2538.679707
930.430060	2535.874304
930.733699	2537.210210
931.037299	2538.294058
931.340861	2538.271373
931.644383	2535.108049
931.947866	2535.586959
932.251309	2535.634850
932.554714	2538.578883
932.858080	2538.412525
933.161407	2535.407998
933.464694	2536.254912
933.767943	2535.720549
934.071153	2535.178625
934.374323	2532.428676
934.677455	2537.424459
934.980548	2535.118131
935.283602	2535.458409
935.586617	2534.982020
935.889593	2534.775333
936.192530	2534.893800
936.495428	2534.480425
936.798287	2534.626619
937.101108	2536.978317
937.403890	2537.058976
937.706632	2539.352701
938.009336	2536.146527
938.312002	2538.099974
938.614628	2537.948739
938.917216	2540.741538
939.219765	2537.754655
939.522275	2538.994779
939.824747	2538.306661
940.127179	2537.495035
940.429573	2537.086702
940.731929	2535.561753
941.034246	2533.351207
941.336524	2538.170550
941.638763	2539.067875
941.940964	2537.873122
942.243126	2536.494366
942.545250	2538.170550
942.847335	2536.522093
943.149381	2538.072248
943.451389	2536.191897
943.753359	2534.185518
944.055290	2537.326157
944.357182	2537.477391
944.659036	2536.401105
944.960851	2537.331198
945.262628	2534.830786
945.564367	2536.025539
945.866067	2534.704757
946.167729	2534.750127
946.469352	2536.663245
946.770937	2535.899510
947.072484	2537.936136
947.373992	2535.576876
947.675462	2537.273225
947.976893	2534.087215
948.278286	2533.620909
948.579641	2538.049562
948.880958	2533.439427
949.182236	2538.679707
949.483476	2535.387833
949.784678	2535.070240
950.085841	2534.840868
950.386967	2537.679038
950.688054	2534.606454
950.989103	2536.305323
951.290114	2536.237267
951.591087	2534.656866
951.892021	2536.814480
952.192917	2536.020498
952.493776	2535.443286
952.794596	2537.948739
953.095378	2534.921526
953.396122	2536.955632
953.696828	2537.071578
953.997496	2535.773481
954.298126	2534.009078
954.598718	2536.464119
954.899272	2534.742565
955.199788	2535.085364
955.500266	2536.690971
955.800706	2532.138809
956.101108	2530.296268
956.401472	2529.920702
956.701798	2529.411545
957.002087	2530.475229
957.302337	2531.622091
957.602550	2537.154758
957.902724	2534.687113
958.202861	2530.684437
958.502960	2531.092770
958.803022	2534.223327
959.103045	2533.895652
959.403031	2531.223840
959.702979	2529.469518
960.002889	2533.084026
960.302762	2531.778367
960.602596	2530.024045
960.902393	2532.441279
961.202153	2532.532019
961.501875	2531.811134
961.801559	2532.405991
962.101205	2535.816331
962.400814	2531.967410
962.700385	2531.828778
962.999918	2530.185362
963.299414	2532.211906
963.598873	2532.335414
963.898293	2532.763912
964.197677	2532.494211
964.497022	2531.816176
964.796331	2531.511186
965.095601	2529.779549
965.394835	2531.470857
965.694030	2534.908923
965.993189	2532.559746
966.292309	2529.782070
966.591393	2533.920857
966.890439	2531.087729
967.189447	2530.876000
967.488419	2531.186031
967.787353	2531.564118
968.086249	2529.678726
968.385108	2532.106042
968.683930	2530.616381
968.982714	2530.134951
969.281462	2531.009591
969.580172	2532.857174
969.878844	2531.574200
970.177480	2530.419776
970.476078	2531.987575
970.774639	2529.464477
971.073162	2531.218799
971.371649	2528.549508
971.670098	2528.267203
971.968510	2528.725948
972.266885	2527.095135
972.565223	2530.218130
972.863524	2530.523120
973.161788	2530.442461
973.460014	2529.953469
973.758204	2531.259128
974.056356	2531.060003
974.354471	2531.846422
974.652550	2530.056813
974.950591	2533.192411
975.248595	2528.476411
975.546563	2530.994468
975.844493	2530.001360
976.142386	2532.723583
976.440243	2531.372554
976.738062	2531.168387
977.035845	2533.328522
977.333590	2529.986237
977.631299	2529.204858
977.928971	2528.330218
978.226606	2530.308871
978.524204	2531.145702
978.821765	2530.656710
979.119290	2530.603778
979.416777	2531.715352
979.714228	2532.191742
980.011642	2530.379447
980.309020	2534.969417
980.606360	2529.638397
980.903664	2529.048582
981.200931	2531.533871
981.498162	2530.664272
981.795356	2531.856505
982.092513	2531.672503
982.389633	2531.813655
982.686717	2532.668131
982.983764	2533.648635
983.280775	2531.478418
983.577749	2534.198121
983.874686	2532.221988
984.171587	2530.853315
984.468451	2533.630991
984.765279	2534.399767
985.062070	2531.415404
985.358824	2530.646628
985.655543	2531.095291
985.952224	2529.066226
986.248869	2527.596730
986.545478	2527.390043
986.842050	2527.218643
987.138586	2528.025228
987.435086	2527.130423
987.731549	2525.055988
988.027975	2529.255269
988.324366	2529.041020
988.620719	2528.005063
988.917037	2528.471370
989.213318	2530.316432
989.509563	2529.146885
989.805772	2528.660413
990.101944	2527.455578
990.398080	2526.938859
990.694180	2528.057995
990.990244	2532.214427
991.286271	2529.409025
991.582262	2532.098480
991.878217	2530.397091
992.174136	2528.015146
992.470019	2528.935156
992.765865	2527.362316
993.061676	2528.763757
993.357450	2531.307019
993.653188	2530.407173
993.948890	2528.075639
994.244556	2530.266021
994.540186	2531.697708
994.835780	2527.876514
995.131337	2530.437420
995.426859	2529.189734
995.722345	2529.787111
996.017795	2530.404652
996.313208	2532.814324
996.608586	2530.011442
996.903928	2530.271062
997.199234	2526.346524
997.494504	2531.067564
997.789738	2531.813655
998.084936	2528.045393
998.380099	2528.978006
998.675225	2529.497245
998.970316	2527.838705
999.265371	2530.356762
999.560390	2529.139323
999.855373	2529.214940
1000.150320	2529.882893
1000.445232	2531.579241
1000.740108	2528.746113
1001.034948	2529.222502
1001.329752	2528.579755
1001.624521	2529.066226
1001.919254	2525.373581
1002.213951	2525.880217
1002.508613	2529.023376
1002.803239	2526.676719
1003.097829	2522.232942
1003.392384	2527.153108
1003.686903	2527.609333
1003.981386	2526.512882
1004.275834	2527.402645
1004.570246	2529.313243
1004.864623	2527.460619
1005.158964	2527.863911
1005.453270	2528.355423
1005.747540	2527.304343
1006.041775	2528.143695
1006.335974	2529.459436
1006.630138	2527.246370
1006.924266	2528.289888
1007.218359	2528.794004
1007.512416	2529.560259
1007.806438	2527.009435
1008.100425	2528.665454
1008.394376	2528.756195
1008.688292	2528.978006
1008.982172	2529.537574
1009.276017	2528.534384
1009.569827	2528.322656
1009.863602	2531.566638
1010.157341	2528.597399
1010.451045	2526.344003
1010.744714	2528.725948
1011.038347	2528.259642
1011.331945	2528.350382
1011.625508	2528.433561
1011.919036	2527.231246
1012.212528	2527.321987
1012.505986	2527.193438
1012.799408	2529.570342
1013.092795	2528.252080
1013.386147	2529.630835
1013.679464	2525.194620
1013.972745	2527.700073
1014.265992	2527.488345
1014.559204	2530.742410
1014.852380	2526.442306
1015.145521	2527.944569
1015.438628	2527.543798
1015.731699	2527.266534
1016.024736	2527.816020
1016.317737	2526.946421
1016.610703	2526.775022
1016.903635	2526.316277
1017.196531	2520.745802
1017.489393	2525.441637
1017.782219	2525.184538
1018.075011	2525.991122
1018.367768	2524.589682
1018.660490	2525.794517
1018.953177	2525.794517
1019.245829	2525.794517
