Dividing Wavelength (nm)	Counts (n)	Blue Motor Position (mm): 0.000000	Red Motor Position (mm): 32.000000	
326.493990	2145.900725
326.888308	2145.900725
327.282561	2145.900725
327.676750	2115.865531
328.070874	2117.503906
328.464933	2124.342231
328.858929	2136.521658
329.252859	2144.446352
329.646726	2158.213743
330.040528	2172.830569
330.434265	2191.893692
330.827938	2212.229707
331.221547	2230.849209
331.615091	2252.077508
332.008571	2268.630136
332.401986	2292.391615
332.795338	2311.084213
333.188625	2331.952070
333.581847	2352.739268
333.975006	2368.387009
334.368100	2387.619011
334.761129	2405.764644
335.154095	2419.559762
335.546996	2438.975766
335.939833	2457.595267
336.332606	2471.592031
336.725315	2482.012096
337.117960	2488.762201
337.510540	2496.699498
337.903056	2507.230468
338.295508	2511.613752
338.687896	2519.878723
339.080220	2531.712832
339.472480	2534.253573
339.864676	2541.578370
340.256807	2542.533669
340.648875	2542.853782
341.040879	2546.266643
341.432818	2547.874771
341.824694	2547.184133
342.216506	2548.257899
342.608253	2548.807385
342.999937	2542.599204
343.391557	2546.112888
343.783113	2543.599873
344.174605	2543.683052
344.566033	2540.552495
344.957397	2542.730274
345.348697	2536.204500
345.739934	2538.828421
346.131106	2538.157947
346.522215	2533.126876
346.913260	2530.200486
347.304241	2529.524971
347.695159	2529.048582
348.086012	2525.048427
348.476802	2524.057840
348.867528	2524.304856
349.258191	2524.030113
349.648789	2522.185051
350.039324	2520.972654
350.429796	2519.936697
350.820203	2516.135667
351.210548	2517.683301
351.600828	2517.998373
351.991045	2518.860410
352.381198	2516.695235
352.771288	2519.649351
353.161314	2516.231448
353.551276	2516.395286
353.941175	2516.521315
354.331010	2517.446367
354.720782	2517.027951
355.110490	2518.457118
355.500135	2515.538290
355.889717	2516.848990
356.279235	2515.934020
356.668689	2517.280008
357.058080	2518.754546
357.447408	2515.485358
357.836672	2516.317148
358.225873	2515.482837
358.615010	2516.256654
359.004084	2522.578261
359.393095	2523.047088
359.782043	2519.324196
360.170927	2520.655061
360.559748	2522.096831
360.948505	2523.168076
361.337199	2524.279651
361.725830	2523.054650
362.114398	2525.429034
362.502903	2521.290246
362.891344	2527.584127
363.279722	2521.466687
363.668037	2528.083201
364.056289	2524.662778
364.444478	2526.190248
364.832603	2525.015659
365.220665	2527.742923
365.608665	2526.570855
365.996601	2528.935156
366.384474	2530.129910
366.772284	2528.582275
367.160031	2529.797193
367.547715	2531.370033
367.935336	2533.474715
368.322893	2531.881711
368.710388	2531.604447
369.097820	2535.108049
369.485189	2531.458254
369.872495	2534.067051
370.259738	2532.902544
370.646918	2530.258459
371.034035	2533.855322
371.421090	2531.942204
371.808081	2535.418080
372.195010	2534.185518
372.581875	2534.104859
372.968678	2537.580735
373.355418	2535.813811
373.742096	2538.987217
374.128710	2539.423277
374.515262	2539.453524
374.901751	2541.056611
375.288177	2541.684234
375.674540	2545.334030
376.060841	2545.177754
376.447079	2547.670604
376.833254	2549.666901
377.219367	2545.548279
377.605417	2550.294525
377.991404	2551.852242
378.377329	2555.307953
378.763191	2557.853735
379.148991	2561.133006
379.534727	2567.605847
379.920402	2568.974521
380.306013	2574.857547
380.691563	2577.831828
381.077049	2580.249061
381.462474	2586.464804
381.847835	2591.374888
382.233134	2600.718666
382.618371	2601.792432
383.003545	2606.609255
383.388657	2614.919597
383.773706	2622.173817
384.158693	2627.214971
384.543618	2634.176804
384.928480	2640.619399
385.313280	2647.495533
385.698017	2657.915598
386.082692	2667.498831
386.467305	2668.159222
386.851856	2679.363187
387.236344	2692.518078
387.620770	2696.649303
388.005133	2707.848227
388.389435	2719.072356
388.773674	2725.310784
389.157851	2729.731876
389.541965	2742.672517
389.926018	2743.030439
390.310008	2757.054929
390.693936	2767.243101
391.077802	2775.636622
391.461606	2786.165072
391.845348	2794.155301
392.229027	2804.358597
392.612645	2818.436019
392.996200	2827.462205
393.379694	2838.910665
393.763125	2855.128057
394.146494	2864.192052
394.529801	2876.371479
394.913047	2892.397307
395.296230	2896.715056
395.679351	2901.178997
396.062410	2918.739857
396.445408	2913.244999
396.828343	2927.587082
397.211217	2935.098401
397.594028	2928.113882
397.976778	2941.213321
398.359466	2957.135805
398.742092	2953.087758
399.124656	2966.769450
399.507158	2980.824187
399.889598	2988.842142
400.271977	3002.851509
400.654294	3009.415091
401.036549	3021.261802
401.418742	3028.009387
401.800874	3047.654763
402.182944	3057.487534
402.564952	3084.319075
402.946898	3073.258784
403.328783	3084.505598
403.710606	3100.705346
404.092367	3125.071763
404.474067	3151.963798
404.855705	3139.035759
405.237282	3140.202786
405.618797	3172.866943
406.000250	3196.522557
406.381642	3226.918194
406.762972	3226.124212
407.144240	3216.644323
407.525447	3244.297572
407.906593	3241.981162
408.287677	3258.962289
408.668700	3280.598921
409.049661	3280.699744
409.430560	3296.077784
409.811399	3298.706746
410.192176	3318.200888
410.572891	3327.464008
410.953545	3365.065974
411.334138	3334.652693
411.714669	3385.863254
412.095139	3331.454081
412.475547	3382.861247
412.855894	3376.290103
413.236180	3404.288672
413.616405	3383.362842
413.996568	3407.509969
414.376670	3410.665731
414.756711	3408.840834
415.136691	3435.649690
415.516609	3456.202474
415.896466	3462.035089
416.276262	3488.869151
416.655997	3519.907535
417.035670	3526.821478
417.415283	3592.021241
417.794834	3613.481433
418.174324	3597.493413
418.553753	3599.575410
418.933121	3639.002274
419.312428	3631.019607
419.691674	3627.032054
420.070859	3662.914988
420.449983	3644.645846
420.829045	3693.184596
421.208047	3679.200435
421.586988	3727.051067
421.965867	3758.076849
422.344686	3767.607150
422.723444	3804.140392
423.102141	3704.431410
423.480777	3806.237512
423.859352	3778.687606
424.237866	3873.834344
424.616319	3860.349257
424.994712	3917.994852
425.373044	3907.315167
425.751314	3972.131803
426.129524	3907.579828
426.507673	4008.312164
426.885762	3983.965911
427.263789	4005.325280
427.641756	4011.162936
428.019662	4042.559242
428.397508	4043.456568
428.775292	4081.297989
429.153016	4083.629523
429.530679	4100.109055
429.908282	4111.986013
430.285824	4088.030450
430.663305	4156.809433
431.040726	4117.579173
431.418086	4108.598358
431.795385	4181.712733
432.172624	4214.581056
432.549802	4182.035367
432.926920	4203.354406
433.303977	4194.542469
433.680974	4237.495621
434.057910	4261.045371
434.434786	4264.841360
434.811601	4255.674021
435.188355	4365.430023
435.565050	4338.066640
435.941683	4331.871062
436.318257	4422.468158
436.694770	4424.968570
437.071222	4483.266994
437.447614	4418.626799
437.823946	4422.211059
438.200218	4439.494655
438.576429	4419.216614
438.952580	4445.458340
439.328670	4450.731387
439.704700	4493.613962
440.080670	4456.072490
440.456580	4519.591028
440.832429	4554.932037
441.208218	4454.323209
441.583947	4507.517465
441.959616	4523.424826
442.335224	4549.409453
442.710773	4568.434768
443.086261	4621.971822
443.461689	4581.287189
443.837057	4591.631637
444.212365	4665.769366
444.587612	4669.532587
444.962800	4634.546980
445.337927	4677.187580
445.712995	4563.499478
446.088002	4758.501391
446.462949	4775.974030
446.837837	4793.320641
447.212664	4782.832520
447.587431	5007.862066
447.962139	5302.492303
448.336786	5638.664167
448.711374	5632.549248
449.085901	5274.244197
449.460369	5208.131985
449.834776	5149.246267
450.209124	5382.530702
450.583412	5392.673504
450.957640	5514.437534
451.331808	5377.900402
451.705917	5227.149738
452.079965	5220.959201
452.453954	5259.430767
452.827883	5220.230754
453.201752	5226.622937
453.575562	5261.326240
453.949311	5392.207197
454.323001	5395.680552
454.696632	5392.139142
455.070202	5544.850815
455.443713	5576.179066
455.817164	5663.993445
456.190556	5736.253344
456.563888	5716.219799
456.937160	5787.342918
457.310373	5628.445749
457.683526	5689.504204
458.056619	5683.051527
458.429653	5661.742570
458.802628	5708.930290
459.175542	5741.435650
459.548398	5881.269696
459.921194	6062.453807
460.293930	6124.893538
460.666607	6375.529625
461.039224	6585.251708
461.411782	6716.508230
461.784280	6632.257947
462.156719	6635.617876
462.529099	6594.598007
462.901419	6455.716739
463.273680	6323.923333
463.645882	6316.177600
464.018024	6312.432023
464.390106	6381.848712
464.762130	6637.825901
465.134094	7019.002667
465.505999	7650.094634
465.877845	8356.370371
466.249631	8713.856234
466.621358	8639.801684
466.993026	8442.412784
467.364634	8232.700784
467.736184	7954.587888
468.107674	7799.574928
468.479105	7709.262657
468.850477	7647.107751
469.221790	7476.157183
469.593043	7250.474807
469.964238	7146.044785
470.335373	7128.337732
470.706449	7279.290043
471.077467	7465.656459
471.448425	8116.151828
471.819324	8703.337866
472.190164	8744.819001
472.560945	8263.628263
472.931667	7794.891696
473.302330	7599.718384
473.672934	7479.980898
474.043479	7555.782208
474.413965	7455.516178
474.784393	7412.283243
475.154761	7556.190541
475.525070	7569.799136
475.895321	7525.928495
476.265513	7618.458873
476.635645	7780.305118
477.005719	7769.007892
477.375734	7860.154474
477.745691	7961.587531
478.115588	8165.356010
478.485427	8409.718381
478.855207	8871.830872
479.224928	9302.519330
479.594591	9684.278349
479.964194	9698.718734
480.333739	9781.865005
480.703226	9784.483885
481.072653	9876.311023
481.442022	9989.114402
481.811333	10139.872628
482.180584	9982.167692
482.549777	9921.928424
482.918912	9862.105051
483.287988	9842.560498
483.657005	9749.717567
484.025964	9671.017594
484.394864	9733.243077
484.763706	9691.398979
485.132489	9600.564948
485.501213	9593.585471
485.869879	9652.491354
486.238487	9589.300490
486.607036	9661.852776
486.975527	9608.986196
487.343959	9655.150562
487.712333	9701.216626
488.080648	9740.933357
488.448905	9841.741310
488.817104	9846.646353
489.185244	10013.463175
489.553326	10208.913751
489.921350	10678.401449
490.289315	11296.290635
490.657222	11584.518606
491.025070	11757.357087
491.392861	11673.041268
491.760593	11513.662668
492.128267	11259.782599
492.495883	11021.933399
492.863440	10798.154059
493.230939	10566.477752
493.598380	10377.479853
493.965763	10353.441111
494.333088	10213.828876
494.700354	10145.266663
495.067563	10116.779102
495.434713	10113.872877
495.801805	10158.396348
496.168839	10114.082085
496.535815	10071.078522
496.902733	10113.444379
497.269593	10068.081556
497.636395	10065.434950
498.003139	10163.888685
498.369825	10085.564278
498.736453	10175.372433
499.103023	10114.346746
499.469535	10115.281880
499.835989	10156.803343
500.202385	10116.136355
500.568723	10128.683787
500.935003	10177.230099
501.301226	10141.551332
501.667390	10289.083220
502.033497	10376.113700
502.399546	10304.042844
502.765537	10197.455208
503.131470	10286.872674
503.497345	10369.018276
503.863163	10136.618563
504.228923	10257.512994
504.594625	10348.591521
504.960269	10247.481098
505.325856	10381.147292
505.691385	10241.686292
506.056856	10290.242686
506.422270	10364.879489
506.787625	10297.741402
507.152924	10328.424385
507.518164	10371.498524
507.883347	10235.314273
508.248472	10282.078537
508.613540	10360.773469
508.978550	10406.060675
509.343503	10364.715651
509.708398	10393.417461
510.073236	10485.529424
510.438016	10485.826852
510.802738	10379.972703
511.167403	10474.088525
511.532010	10512.822231
511.896561	10572.731303
512.261053	10729.480941
512.625488	10622.507656
512.989866	10575.743393
513.354186	10531.439212
513.718449	10510.324339
514.082655	10605.576941
514.446803	10531.403924
514.810894	10601.029820
515.174927	10560.561958
515.538904	10512.761737
515.902822	10622.066555
516.266684	10466.531836
516.630488	10519.811791
516.994235	10475.822682
517.357925	10544.276510
517.721558	10546.671058
518.085133	10562.810312
518.448651	10547.432272
518.812112	10473.849070
519.175516	10438.881107
519.538863	10476.974586
519.902152	10434.875910
520.265385	10481.695626
520.628560	10452.540113
520.991678	10359.387152
521.354739	10351.424649
521.717743	10362.789931
522.080690	10293.879878
522.443580	10345.526499
522.806413	10305.650972
523.169189	10247.932281
523.531908	10240.231919
523.894569	10159.759980
524.257174	10117.557961
524.619722	10137.853646
524.982213	10062.012007
525.344647	10007.930508
525.707025	9952.997055
526.069345	9972.932298
526.431608	9897.388087
526.793815	9892.394824
527.155964	9758.496737
527.518057	9725.996418
527.880093	9635.273293
528.242072	9642.759406
528.603995	9535.730669
528.965860	9476.338315
529.327669	9436.104866
529.689421	9336.264814
530.051117	9284.300600
530.412755	9234.637673
530.774337	9180.846041
531.135862	9090.291794
531.497331	9060.480931
531.858743	8969.805697
532.220098	8959.269685
532.581396	8847.938323
532.942638	8734.469512
533.303824	8702.243936
533.664953	8627.982699
534.026025	8537.246971
534.387040	8526.325311
534.747999	8437.487577
535.108902	8398.779077
535.469748	8266.133717
535.830537	8209.113226
536.191270	8159.956934
536.551947	8057.384577
536.912567	8028.866770
537.273131	7969.986093
537.633638	7836.834096
537.994089	7806.821587
538.354483	7692.823454
538.714821	7682.249634
539.075103	7651.150756
539.435328	7551.225005
539.795497	7468.865154
540.155609	7411.360712
540.515665	7381.819550
540.875665	7253.232318
541.235609	7223.981023
541.595496	7141.822818
541.955328	7138.140256
542.315102	7019.794128
542.674821	6923.636639
543.034483	6863.150354
543.394090	6800.292207
543.753640	6727.097174
544.113134	6757.896103
544.472571	6600.861640
544.831953	6632.888091
545.191278	6504.510067
545.550548	6416.310039
545.909761	6393.541668
546.268918	6344.276992
546.628019	6302.730322
546.987064	6201.914807
547.346053	6092.589824
547.704986	6094.959167
548.063863	5995.114074
548.422684	5948.856446
548.781449	5876.893975
549.140158	5842.853583
549.498811	5772.350526
549.857408	5678.327966
550.215949	5670.425957
550.574434	5602.017500
550.932864	5532.313465
551.291237	5523.940109
551.649555	5447.370023
552.007817	5403.683384
552.366022	5326.480633
552.724173	5283.547647
553.082267	5253.328450
553.440305	5215.522317
553.798288	5124.758862
554.156215	5087.981124
554.514086	5050.250608
554.871902	4986.167461
555.229661	4937.777425
555.587365	4877.880955
555.945014	4832.089634
556.302606	4784.241523
556.660143	4745.752313
557.017625	4705.410479
557.375050	4653.801667
557.732421	4623.171616
558.089735	4579.343825
558.446994	4527.104868
558.804197	4501.309284
559.161345	4460.932162
559.518437	4389.206625
559.875474	4357.870813
560.232455	4317.130728
560.589381	4283.579328
560.946251	4239.320518
561.303065	4219.791088
561.659825	4175.373482
562.016528	4119.477168
562.373177	4074.177359
562.729770	4054.156417
563.086307	4005.980630
563.442789	3977.856033
563.799216	3952.320068
564.155587	3909.417328
564.511904	3878.946074
564.868164	3845.558512
565.224370	3820.423319
565.580520	3782.297072
565.936615	3761.131788
566.292654	3723.655850
566.648638	3697.658620
567.004567	3669.027387
567.360441	3638.888848
567.716260	3607.563118
568.072023	3587.590067
568.427732	3555.394738
568.783385	3522.256713
569.138982	3504.917664
569.494525	3482.461844
569.850013	3448.668470
570.205445	3431.901592
570.560823	3408.301430
570.916145	3385.517935
571.271412	3361.290150
571.626625	3338.201665
571.981782	3317.169972
572.336884	3290.519912
572.691931	3275.686317
573.046923	3252.156731
573.401860	3230.522619
573.756743	3210.910010
574.111570	3195.907536
574.466342	3175.969773
574.821059	3159.283554
575.175722	3137.246150
575.530330	3121.159828
575.884882	3105.852364
576.239380	3090.149170
576.593823	3069.861046
576.948211	3057.991649
577.302544	3038.724359
577.656823	3025.486289
578.011047	3015.784589
578.365216	3001.215654
578.719330	2983.611945
579.073389	2973.534678
579.427394	2958.534725
579.781344	2952.079528
580.135239	2939.796756
580.489080	2927.508944
580.842866	2914.414547
581.196597	2912.377921
581.550273	2901.665469
581.903895	2891.741957
582.257463	2884.540669
582.610975	2875.222096
582.964434	2865.384284
583.317837	2856.491689
583.671186	2847.031964
584.024481	2843.425018
584.377721	2831.500169
584.730906	2828.122596
585.084037	2822.511792
585.437113	2813.561223
585.790135	2803.841878
586.143103	2798.064716
586.496016	2791.359981
586.848874	2783.911677
587.201679	2779.286418
587.554428	2771.979265
587.907124	2769.380551
588.259765	2762.388470
588.612352	2762.272524
588.964884	2757.067532
589.317362	2754.483941
589.669786	2747.385996
590.022155	2745.382138
590.374470	2738.231261
590.726731	2735.488873
591.078937	2729.931001
591.431090	2728.443861
591.783188	2721.935731
592.135232	2720.456152
592.487222	2716.647561
592.839157	2715.939279
593.191038	2713.176726
593.542866	2709.390820
593.894639	2702.262628
594.246358	2700.465457
594.598022	2699.595858
594.949633	2696.563604
595.301190	2693.344827
595.652692	2692.129909
596.004141	2688.714527
596.355535	2687.708817
596.706876	2683.484330
597.058162	2681.364525
597.409395	2681.117508
597.760573	2682.292097
598.111698	2676.479647
598.462768	2675.834379
598.813785	2673.545695
599.164748	2673.240706
599.515657	2671.183915
599.866511	2666.939263
600.217312	2669.865653
600.568060	2664.171670
600.918753	2667.743327
601.269392	2663.995229
601.619978	2661.648572
601.970510	2662.180414
602.320988	2661.038593
602.671412	2661.368788
603.021783	2660.380722
603.372100	2658.492810
603.722363	2656.284785
604.072572	2655.185813
604.422728	2657.958448
604.772830	2651.162972
605.122878	2647.278763
605.472872	2649.164155
605.822813	2648.022333
606.172701	2648.657519
606.522534	2651.520894
606.872314	2653.872592
607.222041	2651.583909
607.571714	2649.980822
607.921333	2647.167858
608.270899	2646.389000
608.620411	2649.869916
608.969870	2647.732467
609.319276	2644.485964
609.668627	2646.789771
610.017926	2650.323620
610.367171	2649.612817
610.716362	2646.278094
611.065500	2647.533342
611.414585	2644.803557
611.763616	2643.099647
612.112594	2644.604431
612.461518	2645.572333
612.810389	2645.106026
613.159207	2644.637199
613.507971	2640.853813
613.856682	2645.267343
614.205340	2642.116622
614.553945	2642.232568
614.902496	2640.276601
615.250994	2640.911786
615.599439	2640.969759
615.947830	2642.217445
616.296169	2640.727784
616.644454	2640.989924
616.992686	2639.923720
617.340864	2643.823052
617.688990	2641.831797
618.037063	2640.188380
618.385082	2641.970428
618.733048	2641.390696
619.080961	2637.869450
619.428821	2640.518576
619.776628	2638.837351
620.124382	2641.557054
620.472083	2637.526651
620.819731	2640.574029
621.167326	2638.469347
621.514868	2640.879018
621.862357	2635.777371
622.209793	2636.672176
622.557176	2636.911630
622.904506	2633.014818
623.251783	2630.395939
623.599007	2627.867800
623.946179	2627.976185
624.293297	2631.356279
624.640363	2631.986423
624.987376	2632.253604
625.334336	2630.620270
625.681243	2630.990795
626.028097	2627.835033
626.374899	2628.465177
626.721647	2630.499283
627.068343	2629.874180
627.414987	2629.569190
627.761577	2627.572893
628.108115	2628.162708
628.454600	2626.403345
628.801032	2627.482152
629.147412	2627.514920
629.493739	2623.257665
629.840014	2626.519292
630.186236	2626.683129
630.532405	2625.059878
630.878521	2624.545680
631.224585	2627.550208
631.570597	2624.044085
631.916556	2624.185237
632.262462	2625.563993
632.608316	2626.680609
632.954117	2625.740433
633.299866	2624.613736
633.645562	2624.719600
633.991206	2625.495937
634.336797	2620.777417
634.682336	2623.968468
635.027823	2620.447222
635.373257	2620.343878
635.718639	2620.711882
636.063968	2619.978395
636.409245	2615.955554
636.754470	2619.204577
637.099642	2618.385390
637.444762	2619.156687
637.789829	2618.213991
638.134845	2617.974536
638.479808	2618.196347
638.824719	2617.019237
639.169577	2618.080400
639.514383	2614.647374
639.859137	2614.861623
640.203839	2616.333640
640.548489	2618.559310
640.893086	2615.287601
641.237632	2611.761314
641.582125	2614.697786
641.926566	2611.438680
642.270955	2616.782303
642.615292	2615.201901
642.959576	2615.335492
643.303809	2615.416150
643.647990	2612.381376
643.992118	2614.949844
644.336195	2613.964298
644.680219	2615.713578
645.024192	2615.789196
645.368112	2614.561675
645.711981	2614.284411
646.055797	2617.278857
646.399562	2613.414812
646.743274	2614.816253
647.086935	2617.190637
647.430544	2616.021089
647.774101	2615.499329
648.117606	2616.384052
648.461059	2616.613424
648.804460	2616.373970
649.147810	2616.479834
649.491108	2617.762807
649.834354	2617.684670
650.177548	2615.340533
650.520690	2613.167796
650.863781	2614.740636
651.206820	2613.704679
651.549807	2611.567229
651.892742	2611.625203
652.235626	2612.603187
652.578458	2612.046139
652.921238	2611.481530
653.263967	2613.387086
653.606644	2609.631426
653.949269	2612.353649
654.291843	2611.703341
654.634365	2612.146962
654.976836	2609.613782
655.319255	2608.169492
655.661622	2611.035388
656.003938	2608.522372
656.346203	2609.152517
656.688416	2608.489605
657.030577	2608.066148
657.372687	2611.075717
657.714746	2609.936416
658.056753	2609.505397
658.398708	2603.645056
658.740612	2606.042125
659.082465	2606.435335
659.424266	2606.427773
659.766016	2605.164964
660.107715	2609.765017
660.449362	2608.945829
660.790958	2608.356014
661.132503	2608.847527
661.473996	2608.166971
661.815438	2607.783843
662.156829	2611.206787
662.498168	2609.797784
662.839456	2604.955756
663.180693	2607.181426
663.521879	2608.250150
663.863013	2605.691765
664.204097	2605.429625
664.545129	2606.833586
664.886110	2608.411467
665.227040	2606.941971
665.567918	2609.223093
665.908746	2610.758124
666.249522	2609.873402
666.590248	2608.020778
666.930922	2606.649584
667.271545	2608.489605
667.612118	2608.603031
667.952639	2607.010026
668.293109	2609.664194
668.633528	2608.615634
668.973896	2605.109511
669.314213	2608.179574
669.654480	2609.321395
669.994695	2608.149327
670.334859	2610.097733
670.674973	2606.223606
671.015035	2608.832403
671.355047	2605.752258
671.695008	2607.383072
672.034918	2605.575818
672.374777	2608.083792
672.714585	2608.393823
673.054342	2607.173864
673.394049	2609.258381
673.733705	2611.047991
674.073310	2608.411467
674.412864	2606.573967
674.752368	2604.822166
675.091820	2609.213011
675.431223	2608.542537
675.770574	2607.970366
676.109875	2604.877618
676.449125	2603.473657
676.788324	2601.439551
677.127473	2602.218410
677.466571	2601.215220
677.805619	2603.365272
678.144616	2605.638832
678.483562	2606.430294
678.822458	2602.777978
679.161303	2607.274687
679.500098	2602.404932
679.838842	2603.395519
680.177535	2604.025663
680.516179	2604.456682
680.854771	2605.066662
681.193314	2605.538009
681.531805	2606.566405
681.870247	2608.890377
682.208638	2609.487753
682.546978	2610.586725
682.885268	2609.026488
683.223508	2608.295521
683.561697	2608.585387
683.899836	2607.554471
684.237925	2606.647063
684.575963	2605.164964
684.913951	2605.807711
685.251889	2607.723350
685.589776	2607.841817
685.927614	2606.642022
686.265401	2606.400047
686.603137	2606.768051
686.940824	2606.601693
687.278460	2607.302413
687.616046	2605.371651
687.953582	2608.005654
688.291068	2608.996241
688.628504	2607.330140
688.965889	2606.808380
689.303224	2607.796446
689.640510	2609.490274
689.977745	2606.445417
690.314930	2606.639502
690.652065	2607.776282
690.989150	2604.708740
691.326185	2604.925509
691.663170	2602.772937
692.000105	2603.093050
692.336990	2599.332349
692.673825	2601.419387
693.010610	2599.965014
693.347345	2596.771443
693.684030	2597.058789
694.020665	2596.007708
694.357251	2594.540732
694.693786	2594.828078
695.030272	2598.044334
695.366707	2597.870414
695.703093	2595.962338
696.039429	2596.453850
696.375716	2599.140785
696.711952	2597.620877
697.048139	2596.705908
697.384276	2594.742378
697.720363	2597.487287
698.056400	2594.102152
698.392388	2597.235229
698.728326	2595.306988
699.064214	2596.600044
699.400053	2596.695826
699.735842	2596.927719
700.071581	2593.298088
700.407270	2593.600557
700.742910	2596.824375
701.078501	2596.017790
701.414042	2592.983016
701.749533	2592.577203
702.084974	2595.062492
702.420366	2594.197934
702.755709	2593.711462
703.091002	2595.468305
703.426246	2595.546442
703.761440	2589.721389
704.096584	2594.515527
704.431679	2592.257090
704.766725	2595.858994
705.101721	2591.574013
705.436668	2591.785742
705.771565	2591.523602
706.106413	2591.800865
706.441212	2591.468149
706.775961	2592.796493
707.110661	2592.844384
707.445311	2591.384970
707.779913	2590.674167
708.114465	2592.960331
708.448967	2593.136771
708.783421	2593.766915
709.117825	2595.017121
709.452180	2594.790269
709.786485	2595.443099
710.120742	2598.079622
710.454949	2597.013418
710.789107	2592.219281
711.123216	2595.339755
711.457275	2595.231370
711.791286	2593.519899
712.125247	2593.338417
712.459159	2600.033069
712.793023	2598.399736
713.126837	2596.864704
713.460602	2601.850405
713.794318	2596.804210
714.127985	2598.288830
714.461602	2595.478387
714.795171	2599.271855
715.128691	2595.790938
715.462162	2596.476535
715.795584	2594.991916
716.128957	2595.183479
716.462281	2593.325814
716.795556	2594.288675
717.128782	2592.315063
717.461960	2593.237594
717.795088	2592.509147
718.128167	2593.656010
718.461198	2590.797676
718.794180	2590.701894
719.127113	2591.072418
719.459997	2591.692480
719.792833	2590.041502
720.125619	2591.027048
720.458357	2589.567634
720.791046	2590.293560
721.123686	2589.315576
721.456278	2589.456729
721.788821	2589.403797
722.121315	2589.179465
722.453761	2589.860021
722.786158	2586.424475
723.118506	2588.425813
723.450805	2587.142839
723.783056	2587.866245
724.115259	2588.236769
724.447412	2590.175093
724.779518	2588.695514
725.111574	2589.650813
725.443582	2589.948241
725.775542	2586.742067
726.107453	2588.584609
726.439315	2588.549321
726.771129	2597.280599
727.102895	2588.839187
727.434612	2592.322625
727.766281	2589.875144
728.097901	2588.440936
728.429473	2588.534197
728.760996	2587.241142
729.092471	2585.257447
729.423897	2589.106368
729.755276	2590.906060
730.086606	2589.716348
730.417887	2590.772470
730.749120	2594.429827
731.080305	2589.817171
731.411442	2594.321442
731.742530	2591.957141
732.073570	2594.835640
732.404562	2596.000146
732.735506	2593.754312
733.066401	2595.934611
733.397249	2592.304981
733.728048	2591.342120
734.058798	2590.510330
734.389501	2590.979157
734.720156	2589.633169
735.050762	2590.820361
735.381320	2589.721389
735.711831	2588.715679
736.042293	2587.984712
736.372707	2589.517222
736.703073	2587.541090
737.033391	2590.059147
737.363661	2587.520926
737.693883	2587.561255
738.024056	2591.783221
738.354182	2587.800710
738.684260	2590.049064
739.014290	2589.970926
739.344272	2586.598394
739.674207	2587.906574
740.004093	2591.321956
740.333931	2591.435382
740.663722	2590.558221
740.993464	2591.770618
741.323159	2589.272727
741.652806	2587.780545
741.982405	2590.901019
742.311956	2589.365988
742.641460	2588.166193
742.970915	2586.888261
743.300323	2587.969588
743.629683	2588.050247
743.958996	2588.093097
744.288260	2586.704259
744.617477	2586.842890
744.946647	2584.297108
745.275768	2583.646799
745.604842	2583.790472
745.933869	2583.135122
746.262847	2579.908783
746.591778	2584.617221
746.920662	2584.609659
747.249498	2586.525298
747.578286	2584.561768
747.907027	2584.115626
748.235720	2588.561924
748.564365	2588.526636
748.892963	2586.217787
749.221514	2587.097469
749.550017	2586.200143
749.878473	2587.324321
750.206881	2585.648137
750.535242	2585.869948
750.863555	2587.891450
751.191821	2583.732498
751.520039	2584.261820
751.848210	2586.674012
752.176334	2584.266861
752.504411	2585.111254
752.832440	2585.544793
753.160421	2585.020513
753.488356	2584.133270
753.816243	2584.483630
754.144082	2584.274422
754.471875	2587.778024
754.799620	2584.665112
755.127318	2582.366346
755.454969	2584.367684
755.782572	2585.151583
756.110129	2581.963053
756.437638	2585.055801
756.765100	2583.104875
757.092515	2585.121336
757.419882	2582.469689
757.747203	2585.025554
758.074477	2584.430698
758.401703	2584.634865
758.728882	2587.568817
759.056014	2587.324321
759.383099	2582.139494
759.710138	2585.817016
760.037129	2584.957499
760.364073	2584.622262
760.690970	2585.638055
761.017820	2584.380287
761.344623	2584.130750
761.671379	2585.854824
761.998088	2581.584967
762.324751	2584.334916
762.651366	2588.569486
762.977935	2595.173397
763.304456	2598.619026
763.630931	2602.110025
763.957359	2604.970880
764.283740	2602.331836
764.610074	2601.376537
764.936362	2596.395877
765.262602	2593.703901
765.588796	2592.078129
765.914943	2588.841708
766.241044	2585.925400
766.567097	2584.927252
766.893104	2586.119485
767.219064	2583.356932
767.544978	2582.202508
767.870845	2581.945409
768.196665	2582.348702
768.522438	2580.846438
768.848165	2582.068918
769.173846	2582.036150
769.499479	2582.625965
769.825066	2580.659915
770.150607	2579.752507
770.476101	2582.706624
770.801548	2581.630337
771.126949	2578.865264
771.452303	2579.883578
771.777611	2577.584811
772.102872	2581.544638
772.428087	2579.389544
772.753256	2580.543969
773.078378	2578.472054
773.403453	2577.794019
773.728482	2577.569688
774.053465	2577.461303
774.378401	2579.581108
774.703291	2576.470716
775.028135	2575.011302
775.352932	2576.725295
775.677683	2574.955850
776.002388	2580.397775
776.327046	2578.721592
776.651658	2576.327043
776.976224	2576.390058
777.300743	2577.481468
777.625216	2578.010789
777.949643	2576.188412
778.274024	2577.768813
778.598359	2573.080540
778.922647	2573.012485
779.246889	2575.638926
779.571086	2573.453586
779.895236	2572.354614
780.219339	2575.331416
780.543397	2576.475758
780.867409	2574.658422
781.191374	2577.045408
781.515294	2577.660429
781.839167	2576.019533
782.162995	2574.744121
782.486776	2576.924420
782.810511	2575.376786
783.134201	2577.483988
783.457844	2576.221179
783.781441	2578.464493
784.104993	2575.369224
784.428498	2575.086920
784.751958	2576.805953
785.075372	2575.485171
785.398739	2575.097002
785.722061	2574.945767
786.045337	2574.229923
786.368568	2575.059193
786.691752	2575.782599
787.014891	2578.104050
787.337983	2576.886612
787.661030	2579.187898
787.984031	2577.032805
788.306987	2578.277970
788.629897	2581.408527
788.952760	2581.353074
789.275579	2578.890470
789.598351	2578.928279
789.921078	2579.606314
790.243759	2575.689338
790.566395	2576.571539
790.888984	2575.129769
791.211529	2576.969791
791.534027	2577.980542
791.856480	2577.965418
792.178888	2578.630851
792.501249	2577.088258
792.823566	2579.276118
793.145836	2573.262022
793.468062	2577.549523
793.790241	2575.364183
794.112375	2576.536251
794.434464	2578.582960
794.756507	2578.335943
795.078505	2575.447362
795.400457	2573.453586
795.722364	2572.639439
796.044226	2575.490212
796.366042	2572.331929
796.687812	2573.267063
797.009538	2576.148082
797.331218	2579.245872
797.652852	2573.879563
797.974442	2577.037846
798.295986	2574.376117
798.617484	2577.373083
798.938938	2576.138000
799.260346	2577.383165
799.581709	2576.493402
799.903026	2577.037846
800.224299	2575.026426
800.545526	2575.573391
800.866708	2577.365521
801.187845	2574.998699
801.508936	2573.438462
801.829983	2573.924934
802.150984	2572.299162
802.471940	2573.360324
802.792851	2576.574060
803.113717	2575.805284
803.434538	2575.865778
803.755314	2572.654563
804.076045	2572.387382
804.396731	2576.284194
804.717372	2574.514749
805.037967	2573.380489
805.358518	2576.266550
805.679024	2575.233113
805.999485	2575.003741
806.319901	2573.899728
806.640272	2573.541806
806.960598	2571.061558
807.280879	2572.276476
807.601115	2575.679255
807.921306	2575.525500
808.241453	2573.788822
808.561554	2571.217834
808.881611	2576.082548
809.201623	2575.286045
809.521590	2575.724626
809.841513	2573.657753
810.161390	2576.304358
810.481223	2574.799574
810.801011	2575.754873
811.120755	2572.641960
811.440453	2574.366035
811.760107	2573.045252
812.079716	2573.624985
812.399281	2567.593244
812.718801	2572.634398
813.038276	2569.324881
813.357707	2573.138514
813.677093	2571.933678
813.996434	2572.687330
814.315731	2573.720767
814.634983	2572.263873
814.954191	2574.781930
815.273354	2573.206569
815.592473	2576.034657
815.911547	2573.682958
816.230577	2574.003072
816.549562	2576.997517
816.868502	2573.574573
817.187399	2575.338977
817.506250	2573.602300
817.825058	2577.849472
818.143821	2574.968452
818.462539	2576.659760
818.781213	2575.422156
819.099843	2578.267888
819.418429	2577.756211
819.736970	2583.911459
820.055466	2583.913980
820.373919	2585.824577
820.692327	2590.749785
821.010691	2596.284972
821.329011	2606.757969
821.647286	2633.405508
821.965517	2659.291833
822.283704	2681.475430
822.601847	2693.952286
822.919945	2687.645803
823.237999	2679.237158
823.556010	2666.442710
823.873976	2654.538025
824.191897	2644.649802
824.509775	2633.173615
824.827609	2624.107100
825.145398	2618.231635
825.463144	2613.714761
825.780845	2611.380707
826.098502	2615.247272
826.416116	2615.736264
826.733685	2621.636934
827.051210	2625.861421
827.368692	2625.047275
827.686129	2623.252624
828.003522	2613.676952
828.320872	2603.531630
828.638177	2597.774633
828.955439	2594.790269
829.272656	2588.498909
829.589830	2583.261151
829.906960	2584.844073
830.224046	2583.787951
830.541088	2581.529514
830.858086	2579.278639
831.175041	2579.054308
831.491952	2580.060018
831.808819	2579.394586
832.125642	2578.643454
832.442421	2580.606983
832.759157	2581.224524
833.075849	2586.333734
833.392497	2591.470670
833.709101	2598.490476
834.025662	2601.303440
834.342179	2598.694643
834.658653	2593.661051
834.975083	2590.381780
835.291469	2592.826740
835.607811	2585.038157
835.924110	2583.689649
836.240366	2582.003383
836.556578	2578.918197
836.872746	2578.560275
837.188871	2575.699420
837.504952	2575.185222
837.820990	2569.960066
838.136984	2571.694223
838.452935	2573.541806
838.768842	2571.422001
839.084706	2572.357135
839.400526	2574.418967
839.716303	2579.719740
840.032037	2581.078331
840.347727	2581.075810
840.663373	2582.058835
840.978977	2579.026581
841.294537	2579.387024
841.610054	2576.145562
841.925527	2575.568350
842.240957	2574.103895
842.556344	2575.830490
842.871687	2572.160530
843.186987	2571.386713
843.502244	2569.183728
843.817458	2570.254974
844.132629	2569.024932
844.447756	2570.678431
844.762840	2566.073337
845.077881	2565.239026
845.392879	2563.184755
845.707833	2566.567370
846.022745	2560.822975
846.337613	2568.755230
846.652438	2568.079716
846.967221	2569.067782
847.281960	2566.877401
847.596656	2569.581980
847.911309	2568.195662
848.225919	2566.577452
848.540485	2567.016032
848.855009	2568.306568
849.169490	2570.040725
849.483928	2569.342525
849.798323	2568.467885
850.112675	2565.503686
850.426984	2570.471743
850.741251	2568.977041
851.055474	2566.579973
851.369654	2570.128945
851.683792	2568.223389
851.997887	2568.840930
852.311938	2568.505693
852.625947	2569.622309
852.939914	2569.092988
853.253837	2568.039387
853.567718	2570.287741
853.881555	2567.235322
854.195350	2566.640466
854.509103	2566.794222
854.822812	2568.437638
855.136479	2568.339335
855.450103	2566.290106
855.763685	2567.126938
856.077224	2567.126938
856.390720	2568.293965
856.704173	2568.109963
857.017584	2564.687019
857.330953	2569.264387
857.644278	2568.462843
857.957561	2570.880077
858.270802	2567.782288
858.584000	2567.961249
858.897155	2570.103739
859.210268	2565.851526
859.523339	2566.307750
859.836367	2565.755744
860.149352	2567.830179
860.462295	2566.758933
860.775195	2565.849005
861.088054	2562.940259
861.400869	2563.774570
861.713642	2564.296330
862.026373	2564.475291
862.339062	2568.442679
862.651708	2567.747000
862.964312	2566.837071
863.276873	2566.585014
863.589392	2568.059551
863.901869	2568.966959
864.214303	2566.675754
864.526696	2568.513255
864.839045	2566.781619
865.151353	2568.871177
865.463619	2566.368244
865.775842	2567.953687
866.088023	2566.189283
866.400162	2569.244222
866.712258	2569.397977
867.024313	2569.821434
867.336325	2568.646846
867.648296	2568.813204
867.960224	2567.797411
868.272110	2568.714901
868.583954	2566.985785
868.895755	2569.216496
869.207515	2568.871177
869.519233	2571.343863
869.830909	2566.630384
870.142542	2570.118862
870.454134	2570.847309
870.765684	2568.465364
871.077191	2567.797411
871.388657	2571.810170
871.700081	2568.954356
872.011463	2568.858574
872.322803	2569.720611
872.634101	2569.755899
872.945357	2569.657597
873.256571	2571.893349
873.567744	2569.907134
873.878874	2569.695406
874.189963	2570.043245
874.501010	2571.169943
874.812015	2566.781619
875.122979	2571.974007
875.433900	2568.435117
875.744780	2568.747669
876.055618	2571.215313
876.366415	2571.187587
876.677169	2568.266238
876.987882	2565.128120
877.298554	2564.689540
877.609183	2567.928481
877.919771	2567.542833
878.230317	2568.659448
878.540822	2573.292269
878.851285	2575.225551
879.161707	2575.336457
879.472087	2577.980542
879.782425	2578.905594
880.092722	2582.285687
880.402977	2592.897316
880.713191	2606.127824
881.023363	2616.237858
881.333494	2624.371760
881.643583	2630.458953
881.953631	2633.256794
882.263637	2630.738737
882.573602	2627.656072
882.883526	2623.988632
883.193408	2619.358333
883.503248	2615.942951
883.813048	2611.668052
884.122806	2608.308123
884.432522	2602.621702
884.742197	2599.783532
885.051831	2593.842532
885.361424	2590.911102
885.670975	2588.859352
885.980485	2582.938517
886.289954	2580.924576
886.599382	2581.353074
886.908768	2579.460121
887.218113	2575.233113
887.527417	2577.068093
887.836680	2574.819738
888.145901	2574.923082
888.455082	2571.207752
888.764221	2572.188256
889.073319	2569.985272
889.382376	2570.101218
889.691392	2570.491908
890.000366	2569.156002
890.309300	2572.276476
890.618193	2571.779923
890.927044	2571.290931
891.235855	2570.229768
891.544625	2572.387382
891.853353	2573.476271
892.162041	2572.011816
892.470687	2572.692372
892.779293	2570.549881
893.087858	2572.389902
893.396381	2570.368400
893.704864	2574.134142
894.013306	2575.001220
894.321707	2582.870461
894.630068	2586.679053
894.938387	2588.211564
895.246665	2587.127716
895.554903	2587.730133
895.863100	2587.137798
896.171256	2585.045719
896.479371	2585.091089
896.787446	2580.044894
897.095480	2577.736046
897.403473	2579.288721
897.711425	2577.786457
898.019336	2577.128587
898.327207	2575.850654
898.635038	2575.603638
898.942827	2575.049111
899.250576	2574.580284
899.558284	2574.625654
899.865952	2569.032494
900.173579	2570.131465
900.481165	2572.168092
900.788711	2571.240519
901.096216	2571.512742
901.403681	2569.317319
901.711105	2571.127093
902.018489	2571.056517
902.325832	2572.664645
902.633135	2569.627350
902.940397	2570.554922
903.247619	2572.024419
903.554800	2578.267888
903.861941	2585.698548
904.169041	2591.430340
904.476101	2593.209868
904.783121	2593.146853
905.090100	2590.049064
905.397039	2590.704414
905.703938	2588.443457
906.010796	2585.244845
906.317614	2582.653692
906.624391	2581.653023
906.931129	2579.218145
907.237826	2575.462486
907.544483	2577.345357
907.851099	2575.616241
908.157675	2574.665983
908.464211	2568.379664
908.770707	2566.907648
909.077163	2566.577452
909.383578	2563.429251
909.689954	2564.457647
909.996289	2565.438151
910.302584	2566.718604
910.608839	2566.421176
910.915054	2566.811866
911.221229	2565.342369
911.527363	2569.453430
911.833458	2566.713563
912.139513	2564.082081
912.445527	2566.980744
912.751502	2567.449572
913.057436	2570.433935
913.363331	2566.088460
913.669186	2567.043759
913.975000	2570.597772
914.280775	2570.809501
914.586510	2571.464851
914.892205	2574.466858
915.197859	2577.705799
915.503475	2583.674525
915.809050	2587.636872
916.114585	2589.655854
916.420081	2590.240628
916.725536	2593.799683
917.030952	2591.987388
917.336328	2589.134095
917.641665	2589.648292
917.946961	2587.442788
918.252218	2584.329875
918.557435	2585.948086
918.862612	2584.085379
919.167750	2583.553537
919.472848	2579.966757
919.777906	2576.090109
920.082925	2580.712847
920.387904	2574.025757
920.692843	2574.761765
920.997743	2569.594582
921.302603	2571.422001
921.607423	2573.234296
921.912204	2571.941240
922.216946	2569.138358
922.521647	2571.081723
922.826310	2567.008471
923.130932	2570.996023
923.435516	2568.661969
923.740059	2568.087278
924.044564	2566.383368
924.349028	2566.050651
924.653454	2560.621329
924.957840	2563.830023
925.262186	2561.233829
925.566493	2564.208110
925.870761	2559.540001
926.174989	2565.082750
926.479178	2566.688357
926.783328	2567.406722
927.087438	2565.990157
927.391509	2566.015363
927.695541	2562.597461
927.999533	2565.385219
928.303486	2564.818089
928.607400	2562.662996
928.911275	2561.455640
929.215110	2567.096691
929.518906	2565.239026
929.822663	2565.440672
930.126381	2564.702143
930.430060	2561.057388
930.733699	2561.576627
931.037299	2564.298850
931.340861	2562.141237
931.644383	2567.139541
931.947866	2561.019580
932.251309	2565.375137
932.554714	2564.616443
932.858080	2564.835733
933.161407	2563.633418
933.464694	2563.625856
933.767943	2564.954200
934.071153	2563.540157
934.374323	2562.978068
934.677455	2564.041752
934.980548	2564.714746
935.283602	2563.396484
935.586617	2561.004456
935.889593	2563.033521
936.192530	2561.627039
936.495428	2563.817420
936.798287	2564.540826
937.101108	2563.464539
937.403890	2564.760116
937.706632	2565.443192
938.009336	2563.391443
938.312002	2564.780281
938.614628	2564.175342
938.917216	2565.319684
939.219765	2567.139541
939.522275	2565.876732
939.824747	2568.369582
940.127179	2561.619477
940.429573	2559.250135
940.731929	2561.710218
941.034246	2560.545711
941.336524	2562.146278
941.638763	2566.027966
941.940964	2566.461505
942.243126	2563.721638
942.545250	2564.896227
942.847335	2565.493604
943.149381	2564.545867
943.451389	2565.544015
943.753359	2564.044272
944.055290	2563.048644
944.357182	2563.335990
944.659036	2566.453944
944.960851	2565.407904
945.262628	2564.734910
945.564367	2565.566701
945.866067	2563.819941
946.167729	2564.613922
946.469352	2566.199365
946.770937	2565.075188
947.072484	2562.491597
947.373992	2566.884962
947.675462	2562.010167
947.976893	2564.871021
948.278286	2561.105279
948.579641	2566.085939
948.880958	2563.393963
949.182236	2565.249108
949.483476	2564.671896
949.784678	2566.751372
950.085841	2564.593758
950.386967	2562.552091
950.688054	2564.213151
950.989103	2563.255332
951.290114	2563.991340
951.591087	2564.697102
951.892021	2562.002605
952.192917	2564.233315
952.493776	2565.176011
952.794596	2567.479818
953.095378	2563.852708
953.396122	2566.723645
953.696828	2563.749365
953.997496	2564.737431
954.298126	2564.268603
954.598718	2564.752554
954.899272	2561.508572
955.199788	2563.751885
955.500266	2563.905640
955.800706	2561.420352
956.101108	2559.406411
956.401472	2559.358520
956.701798	2558.219219
957.002087	2559.915567
957.302337	2562.037893
957.602550	2561.735424
957.902724	2559.779456
958.202861	2564.021587
958.502960	2562.073181
958.803022	2562.262224
959.103045	2561.763150
959.403031	2562.093346
959.702979	2561.564024
960.002889	2558.713252
960.302762	2561.349775
960.602596	2558.685526
960.902393	2557.800803
961.202153	2561.521175
961.501875	2558.544373
961.801559	2561.685012
962.101205	2562.705846
962.400814	2562.607543
962.700385	2560.775084
962.999918	2561.979920
963.299414	2559.988664
963.598873	2559.071174
963.898293	2559.729044
964.197677	2560.661658
964.497022	2561.616957
964.796331	2561.624518
965.095601	2558.814075
965.394835	2561.175856
965.694030	2560.477656
965.993189	2562.226936
966.292309	2560.485218
966.591393	2556.933725
966.890439	2560.989333
967.189447	2561.652245
967.488419	2562.418500
967.787353	2559.298026
968.086249	2561.748027
968.385108	2558.095711
968.683930	2558.405742
968.982714	2561.637121
969.281462	2563.393963
969.580172	2560.523026
969.878844	2559.350958
970.177480	2560.588561
970.476078	2559.008159
970.774639	2562.587379
971.073162	2561.364899
971.371649	2556.182593
971.670098	2557.400031
971.968510	2557.359702
972.266885	2556.563200
972.565223	2560.346586
972.863524	2559.751730
973.161788	2561.969837
973.460014	2561.473284
973.758204	2563.363716
974.056356	2557.014383
974.354471	2561.548901
974.652550	2561.193500
974.950591	2561.548901
975.248595	2560.916236
975.546563	2562.993192
975.844493	2559.151832
976.142386	2560.649055
976.440243	2560.979251
976.738062	2560.092007
977.035845	2562.355486
977.333590	2561.017059
977.631299	2560.331462
977.928971	2561.095197
978.226606	2560.523026
978.524204	2557.914229
978.821765	2559.784497
979.119290	2559.673592
979.416777	2561.206102
979.714228	2559.073694
980.011642	2560.772563
980.309020	2561.886658
980.606360	2561.143088
980.903664	2561.737944
981.200931	2561.266596
981.498162	2559.794579
981.795356	2559.235011
982.092513	2558.632593
982.389633	2564.235836
982.686717	2560.850701
982.983764	2564.654252
983.280775	2563.862791
983.577749	2564.724828
983.874686	2566.443861
984.171587	2562.703325
984.468451	2565.665003
984.765279	2565.498645
985.062070	2562.219374
985.358824	2565.564180
985.655543	2562.642831
985.952224	2561.995043
986.248869	2563.184755
986.545478	2559.051009
986.842050	2558.370453
987.138586	2555.983467
987.435086	2556.351471
987.731549	2557.039589
988.027975	2560.959086
988.324366	2559.986143
988.620719	2559.638304
988.917037	2560.336503
989.213318	2559.537481
989.509563	2561.241391
989.805772	2557.694939
990.101944	2558.262069
990.398080	2561.349775
990.694180	2559.045968
990.990244	2559.880279
991.286271	2558.171328
991.582262	2559.666030
991.878217	2559.232491
992.174136	2559.890361
992.470019	2559.759291
992.765865	2560.296174
993.061676	2559.880279
993.357450	2560.013870
993.653188	2556.734599
993.948890	2562.330280
994.244556	2560.018911
994.540186	2561.153170
994.835780	2557.417675
995.131337	2560.152501
995.426859	2562.184086
995.722345	2560.371792
996.017795	2559.781977
996.313208	2562.151319
996.608586	2559.963458
996.903928	2562.204251
997.199234	2559.565207
997.494504	2562.116031
997.789738	2561.604354
998.084936	2562.221895
998.380099	2560.293654
998.675225	2564.071998
998.970316	2561.926987
999.265371	2562.161401
999.560390	2560.407080
999.855373	2560.621329
1000.150320	2558.478838
1000.445232	2560.255845
1000.740108	2557.291647
1001.034948	2558.987995
1001.329752	2559.300546
1001.624521	2560.369271
1001.919254	2555.418858
1002.213951	2555.113868
1002.508613	2555.479352
1002.803239	2557.561348
1003.097829	2554.226625
1003.392384	2558.448591
1003.686903	2560.306257
1003.981386	2561.259035
1004.275834	2555.607901
1004.570246	2558.798952
1004.864623	2559.547563
1005.158964	2557.500854
1005.453270	2557.571431
1005.747540	2557.364743
1006.041775	2558.914898
1006.335974	2556.142263
1006.630138	2560.893551
1006.924266	2560.003787
1007.218359	2557.047151
1007.512416	2560.921277
1007.806438	2559.068653
1008.100425	2559.482028
1008.394376	2558.173848
1008.688292	2559.189641
1008.982172	2559.716442
1009.276017	2559.902964
1009.569827	2556.827860
1009.863602	2558.889692
1010.157341	2558.584703
1010.451045	2558.788869
1010.744714	2558.025134
1011.038347	2558.657799
1011.331945	2557.188303
1011.625508	2557.016904
1011.919036	2557.248797
1012.212528	2559.388767
1012.505986	2559.149312
1012.799408	2558.246945
1013.092795	2555.623025
1013.386147	2560.901113
1013.679464	2557.203426
1013.972745	2558.070505
1014.265992	2560.611246
1014.559204	2559.020762
1014.852380	2558.420865
1015.145521	2556.454815
1015.438628	2558.786349
1015.731699	2556.026317
1016.024736	2558.670402
1016.317737	2558.809034
1016.610703	2558.735937
1016.903635	2551.932900
1017.196531	2556.815258
1017.489393	2556.543035
1017.782219	2554.965154
1018.075011	2556.051523
1018.367768	2557.142933
1018.660490	2558.312480
1018.953177	2558.312480
1019.245829	2558.312480
