Dividing Wavelength (nm)	Counts (n)	Blue Motor Position (mm): 0.000000	Red Motor Position (mm): 4.700000	
326.493990	2155.093269
326.888308	2155.093269
327.282561	2155.093269
327.676750	2056.790769
328.070874	2003.858654
328.464933	2008.899808
328.858929	2024.023269
329.252859	2041.667308
329.646726	2112.243462
330.040528	2114.764038
330.434265	2112.243462
330.827938	2114.764038
331.221547	2124.846346
331.615091	2185.340192
332.008571	2220.628269
332.401986	2215.587115
332.795338	2195.422500
333.188625	2220.628269
333.581847	2255.916346
333.975006	2273.560385
334.368100	2260.957500
334.761129	2336.574808
335.154095	2404.630385
335.546996	2331.533654
335.939833	2291.204423
336.332606	2429.836154
336.725315	2397.068654
337.117960	2356.739423
337.510540	2419.753846
337.903056	2455.041923
338.295508	2439.918462
338.687896	2427.315577
339.080220	2336.574808
339.472480	2434.877308
339.864676	2386.986346
340.256807	2475.206538
340.648875	2392.027500
341.040879	2497.891731
341.432818	2346.657115
341.824694	2417.233269
342.216506	2457.562500
342.608253	2444.959615
342.999937	2467.644808
343.391557	2507.974038
343.783113	2467.644808
344.174605	2477.727115
344.566033	2412.192115
344.957397	2392.027500
345.348697	2422.274423
345.739934	2472.685962
346.131106	2437.397885
346.522215	2465.124231
346.913260	2429.836154
347.304241	2399.589231
347.695159	2444.959615
348.086012	2422.274423
348.476802	2467.644808
348.867528	2495.371154
349.258191	2480.247692
349.648789	2437.397885
350.039324	2495.371154
350.429796	2502.932885
350.820203	2376.904038
351.210548	2414.712692
351.600828	2407.150962
351.991045	2457.562500
352.381198	2394.548077
352.771288	2507.974038
353.161314	2482.768269
353.551276	2371.862885
353.941175	2472.685962
354.331010	2507.974038
354.720782	2432.356731
355.110490	2480.247692
355.500135	2414.712692
355.889717	2450.000769
356.279235	2497.891731
356.668689	2414.712692
357.058080	2389.506923
357.447408	2346.657115
357.836672	2374.383462
358.225873	2397.068654
358.615010	2407.150962
359.004084	2344.136538
359.393095	2427.315577
359.782043	2487.809423
360.170927	2381.945192
360.559748	2437.397885
360.948505	2437.397885
361.337199	2507.974038
361.725830	2422.274423
362.114398	2520.576923
362.502903	2432.356731
362.891344	2381.945192
363.279722	2437.397885
363.668037	2394.548077
364.056289	2505.453462
364.444478	2465.124231
364.832603	2510.494615
365.220665	2437.397885
365.608665	2497.891731
365.996601	2427.315577
366.384474	2457.562500
366.772284	2439.918462
367.160031	2447.480192
367.547715	2417.233269
367.935336	2518.056346
368.322893	2407.150962
368.710388	2490.330000
369.097820	2497.891731
369.485189	2528.138654
369.872495	2422.274423
370.259738	2371.862885
370.646918	2409.671538
371.034035	2472.685962
371.421090	2457.562500
371.808081	2470.165385
372.195010	2450.000769
372.581875	2389.506923
372.968678	2444.959615
373.355418	2492.850577
373.742096	2495.371154
374.128710	2495.371154
374.515262	2389.506923
374.901751	2457.562500
375.288177	2490.330000
375.674540	2397.068654
376.060841	2507.974038
376.447079	2429.836154
376.833254	2397.068654
377.219367	2510.494615
377.605417	2447.480192
377.991404	2447.480192
378.377329	2465.124231
378.763191	2553.344423
379.148991	2520.576923
379.534727	2477.727115
379.920402	2452.521346
380.306013	2487.809423
380.691563	2525.618077
381.077049	2480.247692
381.462474	2452.521346
381.847835	2455.041923
382.233134	2442.439038
382.618371	2417.233269
383.003545	2455.041923
383.388657	2434.877308
383.773706	2523.097500
384.158693	2550.823846
384.543618	2487.809423
384.928480	2457.562500
385.313280	2427.315577
385.698017	2439.918462
386.082692	2530.659231
386.467305	2356.739423
386.851856	2422.274423
387.236344	2482.768269
387.620770	2379.424615
388.005133	2515.535769
388.389435	2477.727115
388.773674	2399.589231
389.157851	2545.782692
389.541965	2475.206538
389.926018	2412.192115
390.310008	2437.397885
390.693936	2444.959615
391.077802	2402.109808
391.461606	2467.644808
391.845348	2480.247692
392.229027	2452.521346
392.612645	2482.768269
392.996200	2475.206538
393.379694	2513.015192
393.763125	2429.836154
394.146494	2510.494615
394.529801	2520.576923
394.913047	2487.809423
395.296230	2404.630385
395.679351	2505.453462
396.062410	2490.330000
396.445408	2550.823846
396.828343	2452.521346
397.211217	2487.809423
397.594028	2437.397885
397.976778	2465.124231
398.359466	2555.865000
398.742092	2485.288846
399.124656	2417.233269
399.507158	2467.644808
399.889598	2507.974038
400.271977	2502.932885
400.654294	2437.397885
401.036549	2462.603654
401.418742	2452.521346
401.800874	2467.644808
402.182944	2555.865000
402.564952	2462.603654
402.946898	2465.124231
403.328783	2550.823846
403.710606	2452.521346
404.092367	2492.850577
404.474067	2399.589231
404.855705	2533.179808
405.237282	2470.165385
405.618797	2470.165385
406.000250	2480.247692
406.381642	2439.918462
406.762972	2424.795000
407.144240	2475.206538
407.525447	2444.959615
407.906593	2455.041923
408.287677	2475.206538
408.668700	2492.850577
409.049661	2528.138654
409.430560	2472.685962
409.811399	2467.644808
410.192176	2497.891731
410.572891	2470.165385
410.953545	2467.644808
411.334138	2475.206538
411.714669	2442.439038
412.095139	2477.727115
412.475547	2520.576923
412.855894	2457.562500
413.236180	2427.315577
413.616405	2424.795000
413.996568	2548.303269
414.376670	2485.288846
414.756711	2518.056346
415.136691	2432.356731
415.516609	2442.439038
415.896466	2442.439038
416.276262	2467.644808
416.655997	2518.056346
417.035670	2490.330000
417.415283	2434.877308
417.794834	2450.000769
418.174324	2523.097500
418.553753	2467.644808
418.933121	2545.782692
419.312428	2447.480192
419.691674	2455.041923
420.070859	2424.795000
420.449983	2497.891731
420.829045	2452.521346
421.208047	2472.685962
421.586988	2437.397885
421.965867	2533.179808
422.344686	2548.303269
422.723444	2465.124231
423.102141	2414.712692
423.480777	2462.603654
423.859352	2460.083077
424.237866	2523.097500
424.616319	2482.768269
424.994712	2523.097500
425.373044	2444.959615
425.751314	2444.959615
426.129524	2510.494615
426.507673	2444.959615
426.885762	2465.124231
427.263789	2462.603654
427.641756	2392.027500
428.019662	2465.124231
428.397508	2427.315577
428.775292	2487.809423
429.153016	2530.659231
429.530679	2560.906154
429.908282	2477.727115
430.285824	2518.056346
430.663305	2513.015192
431.040726	2465.124231
431.418086	2490.330000
431.795385	2563.426731
432.172624	2513.015192
432.549802	2500.412308
432.926920	2437.397885
433.303977	2475.206538
433.680974	2450.000769
434.057910	2439.918462
434.434786	2384.465769
434.811601	2518.056346
435.188355	2588.632500
435.565050	2444.959615
435.941683	2470.165385
436.318257	2457.562500
436.694770	2513.015192
437.071222	2452.521346
437.447614	2452.521346
437.823946	2540.741538
438.200218	2548.303269
438.576429	2450.000769
438.952580	2475.206538
439.328670	2495.371154
439.704700	2510.494615
440.080670	2467.644808
440.456580	2439.918462
440.832429	2427.315577
441.208218	2482.768269
441.583947	2460.083077
441.959616	2477.727115
442.335224	2510.494615
442.710773	2457.562500
443.086261	2490.330000
443.461689	2510.494615
443.837057	2407.150962
444.212365	2540.741538
444.587612	2487.809423
444.962800	2490.330000
445.337927	2505.453462
445.712995	2513.015192
446.088002	2444.959615
446.462949	2422.274423
446.837837	2505.453462
447.212664	2492.850577
447.587431	2505.453462
447.962139	2497.891731
448.336786	2515.535769
448.711374	2442.439038
449.085901	2550.823846
449.460369	2482.768269
449.834776	2497.891731
450.209124	2397.068654
450.583412	2485.288846
450.957640	2480.247692
451.331808	2419.753846
451.705917	2538.220962
452.079965	2477.727115
452.453954	2427.315577
452.827883	2510.494615
453.201752	2530.659231
453.575562	2432.356731
453.949311	2553.344423
454.323001	2513.015192
454.696632	2429.836154
455.070202	2450.000769
455.443713	2500.412308
455.817164	2581.070769
456.190556	2475.206538
456.563888	2490.330000
456.937160	2480.247692
457.310373	2500.412308
457.683526	2480.247692
458.056619	2462.603654
458.429653	2450.000769
458.802628	2510.494615
459.175542	2480.247692
459.548398	2530.659231
459.921194	2455.041923
460.293930	2540.741538
460.666607	2480.247692
461.039224	2611.317692
461.411782	2490.330000
461.784280	2472.685962
462.156719	2525.618077
462.529099	2465.124231
462.901419	2505.453462
463.273680	2505.453462
463.645882	2515.535769
464.018024	2447.480192
464.390106	2482.768269
464.762130	2457.562500
465.134094	2528.138654
465.505999	2442.439038
465.877845	2457.562500
466.249631	2515.535769
466.621358	2528.138654
466.993026	2467.644808
467.364634	2535.700385
467.736184	2447.480192
468.107674	2523.097500
468.479105	2558.385577
468.850477	2437.397885
469.221790	2462.603654
469.593043	2548.303269
469.964238	2444.959615
470.335373	2533.179808
470.706449	2472.685962
471.077467	2460.083077
471.448425	2608.797115
471.819324	2518.056346
472.190164	2455.041923
472.560945	2500.412308
472.931667	2394.548077
473.302330	2467.644808
473.672934	2477.727115
474.043479	2467.644808
474.413965	2525.618077
474.784393	2502.932885
475.154761	2437.397885
475.525070	2487.809423
475.895321	2538.220962
476.265513	2513.015192
476.635645	2535.700385
477.005719	2518.056346
477.375734	2507.974038
477.745691	2528.138654
478.115588	2485.288846
478.485427	2477.727115
478.855207	2593.673654
479.224928	2392.027500
479.594591	2482.768269
479.964194	2452.521346
480.333739	2472.685962
480.703226	2591.153077
481.072653	2505.453462
481.442022	2505.453462
481.811333	2470.165385
482.180584	2505.453462
482.549777	2414.712692
482.918912	2543.262115
483.287988	2467.644808
483.657005	2565.947308
484.025964	2523.097500
484.394864	2502.932885
484.763706	2555.865000
485.132489	2477.727115
485.501213	2482.768269
485.869879	2444.959615
486.238487	2495.371154
486.607036	2467.644808
486.975527	2533.179808
487.343959	2439.918462
487.712333	2472.685962
488.080648	2386.986346
488.448905	2497.891731
488.817104	2495.371154
489.185244	2470.165385
489.553326	2419.753846
489.921350	2538.220962
490.289315	2497.891731
490.657222	2538.220962
491.025070	2505.453462
491.392861	2424.795000
491.760593	2497.891731
492.128267	2507.974038
492.495883	2462.603654
492.863440	2457.562500
493.230939	2523.097500
493.598380	2528.138654
493.965763	2477.727115
494.333088	2606.276538
494.700354	2523.097500
495.067563	2560.906154
495.434713	2502.932885
495.801805	2462.603654
496.168839	2563.426731
496.535815	2490.330000
496.902733	2510.494615
497.269593	2500.412308
497.636395	2510.494615
498.003139	2515.535769
498.369825	2490.330000
498.736453	2439.918462
499.103023	2475.206538
499.469535	2394.548077
499.835989	2507.974038
500.202385	2505.453462
500.568723	2530.659231
500.935003	2497.891731
501.301226	2442.439038
501.667390	2513.015192
502.033497	2467.644808
502.399546	2520.576923
502.765537	2523.097500
503.131470	2460.083077
503.497345	2429.836154
503.863163	2366.821731
504.228923	2525.618077
504.594625	2495.371154
504.960269	2535.700385
505.325856	2596.194231
505.691385	2487.809423
506.056856	2533.179808
506.422270	2538.220962
506.787625	2457.562500
507.152924	2518.056346
507.518164	2462.603654
507.883347	2540.741538
508.248472	2467.644808
508.613540	2533.179808
508.978550	2507.974038
509.343503	2550.823846
509.708398	2465.124231
510.073236	2568.467885
510.438016	2465.124231
510.802738	2518.056346
511.167403	2500.412308
511.532010	2528.138654
511.896561	2513.015192
512.261053	2452.521346
512.625488	2452.521346
512.989866	2475.206538
513.354186	2467.644808
513.718449	2374.383462
514.082655	2460.083077
514.446803	2475.206538
514.810894	2518.056346
515.174927	2513.015192
515.538904	2603.755962
515.902822	2500.412308
516.266684	2477.727115
516.630488	2477.727115
516.994235	2500.412308
517.357925	2450.000769
517.721558	2470.165385
518.085133	2457.562500
518.448651	2472.685962
518.812112	2444.959615
519.175516	2500.412308
519.538863	2455.041923
519.902152	2553.344423
520.265385	2485.288846
520.628560	2543.262115
520.991678	2570.988462
521.354739	2482.768269
521.717743	2510.494615
522.080690	2523.097500
522.443580	2495.371154
522.806413	2565.947308
523.169189	2505.453462
523.531908	2520.576923
523.894569	2490.330000
524.257174	2553.344423
524.619722	2533.179808
524.982213	2588.632500
525.344647	2530.659231
525.707025	2439.918462
526.069345	2570.988462
526.431608	2495.371154
526.793815	2482.768269
527.155964	2429.836154
527.518057	2510.494615
527.880093	2510.494615
528.242072	2462.603654
528.603995	2379.424615
528.965860	2555.865000
529.327669	2470.165385
529.689421	2414.712692
530.051117	2545.782692
530.412755	2480.247692
530.774337	2492.850577
531.135862	2490.330000
531.497331	2472.685962
531.858743	2482.768269
532.220098	2470.165385
532.581396	2485.288846
532.942638	2460.083077
533.303824	2495.371154
533.664953	2505.453462
534.026025	2530.659231
534.387040	2563.426731
534.747999	2586.111923
535.108902	2538.220962
535.469748	2412.192115
535.830537	2505.453462
536.191270	2495.371154
536.551947	2507.974038
536.912567	2492.850577
537.273131	2525.618077
537.633638	2492.850577
537.994089	2507.974038
538.354483	2497.891731
538.714821	2450.000769
539.075103	2462.603654
539.435328	2545.782692
539.795497	2518.056346
540.155609	2507.974038
540.515665	2409.671538
540.875665	2535.700385
541.235609	2553.344423
541.595496	2548.303269
541.955328	2407.150962
542.315102	2490.330000
542.674821	2558.385577
543.034483	2490.330000
543.394090	2507.974038
543.753640	2618.879423
544.113134	2555.865000
544.472571	2543.262115
544.831953	2490.330000
545.191278	2487.809423
545.550548	2472.685962
545.909761	2442.439038
546.268918	2465.124231
546.628019	2555.865000
546.987064	2553.344423
547.346053	2414.712692
547.704986	2540.741538
548.063863	2462.603654
548.422684	2432.356731
548.781449	2525.618077
549.140158	2502.932885
549.498811	2500.412308
549.857408	2535.700385
550.215949	2434.877308
550.574434	2497.891731
550.932864	2480.247692
551.291237	2520.576923
551.649555	2578.550192
552.007817	2523.097500
552.366022	2553.344423
552.724173	2409.671538
553.082267	2545.782692
553.440305	2437.397885
553.798288	2455.041923
554.156215	2586.111923
554.514086	2460.083077
554.871902	2437.397885
555.229661	2507.974038
555.587365	2523.097500
555.945014	2437.397885
556.302606	2500.412308
556.660143	2553.344423
557.017625	2518.056346
557.375050	2555.865000
557.732421	2518.056346
558.089735	2581.070769
558.446994	2450.000769
558.804197	2583.591346
559.161345	2432.356731
559.518437	2356.739423
559.875474	2485.288846
560.232455	2535.700385
560.589381	2540.741538
560.946251	2470.165385
561.303065	2523.097500
561.659825	2422.274423
562.016528	2497.891731
562.373177	2510.494615
562.729770	2485.288846
563.086307	2495.371154
563.442789	2545.782692
563.799216	2437.397885
564.155587	2520.576923
564.511904	2417.233269
564.868164	2507.974038
565.224370	2563.426731
565.580520	2502.932885
565.936615	2470.165385
566.292654	2553.344423
566.648638	2452.521346
567.004567	2565.947308
567.360441	2409.671538
567.716260	2520.576923
568.072023	2480.247692
568.427732	2530.659231
568.783385	2482.768269
569.138982	2470.165385
569.494525	2475.206538
569.850013	2540.741538
570.205445	2444.959615
570.560823	2520.576923
570.916145	2505.453462
571.271412	2533.179808
571.626625	2485.288846
571.981782	2502.932885
572.336884	2485.288846
572.691931	2497.891731
573.046923	2485.288846
573.401860	2523.097500
573.756743	2500.412308
574.111570	2528.138654
574.466342	2568.467885
574.821059	2432.356731
575.175722	2444.959615
575.530330	2475.206538
575.884882	2482.768269
576.239380	2477.727115
576.593823	2545.782692
576.948211	2487.809423
577.302544	2553.344423
577.656823	2465.124231
578.011047	2502.932885
578.365216	2492.850577
578.719330	2472.685962
579.073389	2550.823846
579.427394	2492.850577
579.781344	2470.165385
580.135239	2500.412308
580.489080	2525.618077
580.842866	2540.741538
581.196597	2480.247692
581.550273	2550.823846
581.903895	2586.111923
582.257463	2513.015192
582.610975	2525.618077
582.964434	2525.618077
583.317837	2545.782692
583.671186	2598.714808
584.024481	2565.947308
584.377721	2518.056346
584.730906	2472.685962
585.084037	2452.521346
585.437113	2518.056346
585.790135	2462.603654
586.143103	2558.385577
586.496016	2520.576923
586.848874	2505.453462
587.201679	2538.220962
587.554428	2545.782692
587.907124	2457.562500
588.259765	2480.247692
588.612352	2457.562500
588.964884	2528.138654
589.317362	2543.262115
589.669786	2573.509038
590.022155	2555.865000
590.374470	2472.685962
590.726731	2477.727115
591.078937	2591.153077
591.431090	2535.700385
591.783188	2528.138654
592.135232	2434.877308
592.487222	2553.344423
592.839157	2480.247692
593.191038	2497.891731
593.542866	2477.727115
593.894639	2482.768269
594.246358	2460.083077
594.598022	2530.659231
594.949633	2447.480192
595.301190	2523.097500
595.652692	2576.029615
596.004141	2419.753846
596.355535	2565.947308
596.706876	2397.068654
597.058162	2475.206538
597.409395	2523.097500
597.760573	2515.535769
598.111698	2447.480192
598.462768	2482.768269
598.813785	2603.755962
599.164748	2500.412308
599.515657	2507.974038
599.866511	2392.027500
600.217312	2460.083077
600.568060	2450.000769
600.918753	2525.618077
601.269392	2573.509038
601.619978	2444.959615
601.970510	2540.741538
602.320988	2520.576923
602.671412	2523.097500
603.021783	2495.371154
603.372100	2472.685962
603.722363	2510.494615
604.072572	2490.330000
604.422728	2465.124231
604.772830	2432.356731
605.122878	2490.330000
605.472872	2465.124231
605.822813	2505.453462
606.172701	2487.809423
606.522534	2520.576923
606.872314	2490.330000
607.222041	2563.426731
607.571714	2477.727115
607.921333	2548.303269
608.270899	2570.988462
608.620411	2520.576923
608.969870	2475.206538
609.319276	2533.179808
609.668627	2452.521346
610.017926	2424.795000
610.367171	2429.836154
610.716362	2442.439038
611.065500	2535.700385
611.414585	2444.959615
611.763616	2593.673654
612.112594	2439.918462
612.461518	2515.535769
612.810389	2507.974038
613.159207	2507.974038
613.507971	2570.988462
613.856682	2450.000769
614.205340	2482.768269
614.553945	2543.262115
614.902496	2462.603654
615.250994	2550.823846
615.599439	2520.576923
615.947830	2505.453462
616.296169	2530.659231
616.644454	2465.124231
616.992686	2475.206538
617.340864	2434.877308
617.688990	2477.727115
618.037063	2515.535769
618.385082	2427.315577
618.733048	2507.974038
619.080961	2502.932885
619.428821	2578.550192
619.776628	2543.262115
620.124382	2467.644808
620.472083	2442.439038
620.819731	2570.988462
621.167326	2452.521346
621.514868	2520.576923
621.862357	2442.439038
622.209793	2505.453462
622.557176	2475.206538
622.904506	2515.535769
623.251783	2565.947308
623.599007	2409.671538
623.946179	2487.809423
624.293297	2492.850577
624.640363	2427.315577
624.987376	2533.179808
625.334336	2485.288846
625.681243	2427.315577
626.028097	2535.700385
626.374899	2568.467885
626.721647	2570.988462
627.068343	2518.056346
627.414987	2442.439038
627.761577	2492.850577
628.108115	2412.192115
628.454600	2545.782692
628.801032	2432.356731
629.147412	2455.041923
629.493739	2525.618077
629.840014	2510.494615
630.186236	2513.015192
630.532405	2490.330000
630.878521	2507.974038
631.224585	2523.097500
631.570597	2485.288846
631.916556	2460.083077
632.262462	2530.659231
632.608316	2392.027500
632.954117	2439.918462
633.299866	2518.056346
633.645562	2520.576923
633.991206	2586.111923
634.336797	2460.083077
634.682336	2565.947308
635.027823	2573.509038
635.373257	2555.865000
635.718639	2492.850577
636.063968	2460.083077
636.409245	2397.068654
636.754470	2510.494615
637.099642	2447.480192
637.444762	2505.453462
637.789829	2480.247692
638.134845	2442.439038
638.479808	2540.741538
638.824719	2447.480192
639.169577	2523.097500
639.514383	2601.235385
639.859137	2525.618077
640.203839	2470.165385
640.548489	2447.480192
640.893086	2490.330000
641.237632	2455.041923
641.582125	2452.521346
641.926566	2470.165385
642.270955	2462.603654
642.615292	2490.330000
642.959576	2462.603654
643.303809	2480.247692
643.647990	2545.782692
643.992118	2525.618077
644.336195	2515.535769
644.680219	2450.000769
645.024192	2455.041923
645.368112	2507.974038
645.711981	2593.673654
646.055797	2492.850577
646.399562	2510.494615
646.743274	2518.056346
647.086935	2507.974038
647.430544	2444.959615
647.774101	2505.453462
648.117606	2419.753846
648.461059	2513.015192
648.804460	2533.179808
649.147810	2533.179808
649.491108	2437.397885
649.834354	2560.906154
650.177548	2465.124231
650.520690	2576.029615
650.863781	2515.535769
651.206820	2543.262115
651.549807	2540.741538
651.892742	2523.097500
652.235626	2533.179808
652.578458	2518.056346
652.921238	2515.535769
653.263967	2495.371154
653.606644	2439.918462
653.949269	2480.247692
654.291843	2543.262115
654.634365	2553.344423
654.976836	2553.344423
655.319255	2505.453462
655.661622	2510.494615
656.003938	2520.576923
656.346203	2500.412308
656.688416	2616.358846
657.030577	2502.932885
657.372687	2475.206538
657.714746	2510.494615
658.056753	2555.865000
658.398708	2543.262115
658.740612	2480.247692
659.082465	2442.439038
659.424266	2450.000769
659.766016	2497.891731
660.107715	2389.506923
660.449362	2490.330000
660.790958	2581.070769
661.132503	2409.671538
661.473996	2573.509038
661.815438	2490.330000
662.156829	2555.865000
662.498168	2475.206538
662.839456	2550.823846
663.180693	2465.124231
663.521879	2434.877308
663.863013	2452.521346
664.204097	2492.850577
664.545129	2495.371154
664.886110	2472.685962
665.227040	2492.850577
665.567918	2560.906154
665.908746	2480.247692
666.249522	2528.138654
666.590248	2560.906154
666.930922	2555.865000
667.271545	2470.165385
667.612118	2515.535769
667.952639	2507.974038
668.293109	2530.659231
668.633528	2507.974038
668.973896	2505.453462
669.314213	2528.138654
669.654480	2402.109808
669.994695	2540.741538
670.334859	2528.138654
670.674973	2487.809423
671.015035	2437.397885
671.355047	2485.288846
671.695008	2510.494615
672.034918	2628.961731
672.374777	2538.220962
672.714585	2518.056346
673.054342	2543.262115
673.394049	2565.947308
673.733705	2513.015192
674.073310	2507.974038
674.412864	2533.179808
674.752368	2520.576923
675.091820	2472.685962
675.431223	2505.453462
675.770574	2538.220962
676.109875	2495.371154
676.449125	2444.959615
676.788324	2540.741538
677.127473	2543.262115
677.466571	2513.015192
677.805619	2457.562500
678.144616	2533.179808
678.483562	2530.659231
678.822458	2465.124231
679.161303	2460.083077
679.500098	2487.809423
679.838842	2515.535769
680.177535	2480.247692
680.516179	2513.015192
680.854771	2525.618077
681.193314	2472.685962
681.531805	2502.932885
681.870247	2419.753846
682.208638	2576.029615
682.546978	2462.603654
682.885268	2490.330000
683.223508	2470.165385
683.561697	2500.412308
683.899836	2528.138654
684.237925	2480.247692
684.575963	2591.153077
684.913951	2540.741538
685.251889	2560.906154
685.589776	2457.562500
685.927614	2545.782692
686.265401	2475.206538
686.603137	2424.795000
686.940824	2460.083077
687.278460	2487.809423
687.616046	2497.891731
687.953582	2513.015192
688.291068	2507.974038
688.628504	2475.206538
688.965889	2578.550192
689.303224	2533.179808
689.640510	2560.906154
689.977745	2497.891731
690.314930	2518.056346
690.652065	2513.015192
690.989150	2444.959615
691.326185	2480.247692
691.663170	2497.891731
692.000105	2427.315577
692.336990	2490.330000
692.673825	2518.056346
693.010610	2530.659231
693.347345	2563.426731
693.684030	2432.356731
694.020665	2495.371154
694.357251	2472.685962
694.693786	2444.959615
695.030272	2444.959615
695.366707	2465.124231
695.703093	2467.644808
696.039429	2565.947308
696.375716	2502.932885
696.711952	2502.932885
697.048139	2472.685962
697.384276	2497.891731
697.720363	2482.768269
698.056400	2414.712692
698.392388	2495.371154
698.728326	2581.070769
699.064214	2523.097500
699.400053	2475.206538
699.735842	2487.809423
700.071581	2507.974038
700.407270	2439.918462
700.742910	2525.618077
701.078501	2553.344423
701.414042	2472.685962
701.749533	2548.303269
702.084974	2450.000769
702.420366	2497.891731
702.755709	2480.247692
703.091002	2515.535769
703.426246	2538.220962
703.761440	2500.412308
704.096584	2482.768269
704.431679	2439.918462
704.766725	2492.850577
705.101721	2467.644808
705.436668	2520.576923
705.771565	2475.206538
706.106413	2576.029615
706.441212	2429.836154
706.775961	2507.974038
707.110661	2560.906154
707.445311	2543.262115
707.779913	2452.521346
708.114465	2455.041923
708.448967	2593.673654
708.783421	2455.041923
709.117825	2465.124231
709.452180	2414.712692
709.786485	2523.097500
710.120742	2429.836154
710.454949	2533.179808
710.789107	2477.727115
711.123216	2558.385577
711.457275	2439.918462
711.791286	2520.576923
712.125247	2525.618077
712.459159	2472.685962
712.793023	2558.385577
713.126837	2490.330000
713.460602	2586.111923
713.794318	2437.397885
714.127985	2555.865000
714.461602	2442.439038
714.795171	2394.548077
715.128691	2502.932885
715.462162	2472.685962
715.795584	2497.891731
716.128957	2470.165385
716.462281	2507.974038
716.795556	2399.589231
717.128782	2450.000769
717.461960	2593.673654
717.795088	2500.412308
718.128167	2513.015192
718.461198	2429.836154
718.794180	2525.618077
719.127113	2470.165385
719.459997	2545.782692
719.792833	2455.041923
720.125619	2520.576923
720.458357	2482.768269
720.791046	2510.494615
721.123686	2497.891731
721.456278	2513.015192
721.788821	2510.494615
722.121315	2475.206538
722.453761	2530.659231
722.786158	2477.727115
723.118506	2485.288846
723.450805	2535.700385
723.783056	2492.850577
724.115259	2510.494615
724.447412	2497.891731
724.779518	2553.344423
725.111574	2497.891731
725.443582	2525.618077
725.775542	2455.041923
726.107453	2513.015192
726.439315	2475.206538
726.771129	2492.850577
727.102895	2578.550192
727.434612	2568.467885
727.766281	2520.576923
728.097901	2533.179808
728.429473	2460.083077
728.760996	2588.632500
729.092471	2477.727115
729.423897	2535.700385
729.755276	2444.959615
730.086606	2530.659231
730.417887	2437.397885
730.749120	2553.344423
731.080305	2482.768269
731.411442	2492.850577
731.742530	2515.535769
732.073570	2467.644808
732.404562	2550.823846
732.735506	2444.959615
733.066401	2470.165385
733.397249	2513.015192
733.728048	2477.727115
734.058798	2540.741538
734.389501	2482.768269
734.720156	2525.618077
735.050762	2434.877308
735.381320	2462.603654
735.711831	2520.576923
736.042293	2520.576923
736.372707	2543.262115
736.703073	2482.768269
737.033391	2515.535769
737.363661	2480.247692
737.693883	2485.288846
738.024056	2460.083077
738.354182	2444.959615
738.684260	2513.015192
739.014290	2460.083077
739.344272	2543.262115
739.674207	2535.700385
740.004093	2457.562500
740.333931	2510.494615
740.663722	2525.618077
740.993464	2495.371154
741.323159	2477.727115
741.652806	2548.303269
741.982405	2545.782692
742.311956	2563.426731
742.641460	2497.891731
742.970915	2533.179808
743.300323	2462.603654
743.629683	2518.056346
743.958996	2444.959615
744.288260	2502.932885
744.617477	2444.959615
744.946647	2439.918462
745.275768	2553.344423
745.604842	2482.768269
745.933869	2450.000769
746.262847	2528.138654
746.591778	2581.070769
746.920662	2490.330000
747.249498	2419.753846
747.578286	2525.618077
747.907027	2447.480192
748.235720	2434.877308
748.564365	2460.083077
748.892963	2545.782692
749.221514	2507.974038
749.550017	2502.932885
749.878473	2497.891731
750.206881	2460.083077
750.535242	2447.480192
750.863555	2518.056346
751.191821	2439.918462
751.520039	2518.056346
751.848210	2545.782692
752.176334	2533.179808
752.504411	2578.550192
752.832440	2490.330000
753.160421	2528.138654
753.488356	2452.521346
753.816243	2505.453462
754.144082	2528.138654
754.471875	2530.659231
754.799620	2422.274423
755.127318	2490.330000
755.454969	2392.027500
755.782572	2502.932885
756.110129	2444.959615
756.437638	2535.700385
756.765100	2495.371154
757.092515	2455.041923
757.419882	2530.659231
757.747203	2502.932885
758.074477	2528.138654
758.401703	2437.397885
758.728882	2447.480192
759.056014	2495.371154
759.383099	2515.535769
759.710138	2487.809423
760.037129	2492.850577
760.364073	2422.274423
760.690970	2543.262115
761.017820	2573.509038
761.344623	2528.138654
761.671379	2565.947308
761.998088	2581.070769
762.324751	2439.918462
762.651366	2485.288846
762.977935	2457.562500
763.304456	2482.768269
763.630931	2419.753846
763.957359	2530.659231
764.283740	2497.891731
764.610074	2482.768269
764.936362	2419.753846
765.262602	2404.630385
765.588796	2470.165385
765.914943	2533.179808
766.241044	2515.535769
766.567097	2495.371154
766.893104	2528.138654
767.219064	2510.494615
767.544978	2450.000769
767.870845	2482.768269
768.196665	2518.056346
768.522438	2482.768269
768.848165	2550.823846
769.173846	2485.288846
769.499479	2450.000769
769.825066	2447.480192
770.150607	2510.494615
770.476101	2465.124231
770.801548	2502.932885
771.126949	2480.247692
771.452303	2502.932885
771.777611	2535.700385
772.102872	2467.644808
772.428087	2505.453462
772.753256	2394.548077
773.078378	2475.206538
773.403453	2568.467885
773.728482	2553.344423
774.053465	2492.850577
774.378401	2523.097500
774.703291	2412.192115
775.028135	2553.344423
775.352932	2450.000769
775.677683	2505.453462
776.002388	2374.383462
776.327046	2465.124231
776.651658	2485.288846
776.976224	2520.576923
777.300743	2452.521346
777.625216	2492.850577
777.949643	2553.344423
778.274024	2497.891731
778.598359	2470.165385
778.922647	2570.988462
779.246889	2520.576923
779.571086	2570.988462
779.895236	2477.727115
780.219339	2465.124231
780.543397	2555.865000
780.867409	2530.659231
781.191374	2520.576923
781.515294	2553.344423
781.839167	2507.974038
782.162995	2427.315577
782.486776	2555.865000
782.810511	2500.412308
783.134201	2500.412308
783.457844	2513.015192
783.781441	2548.303269
784.104993	2462.603654
784.428498	2439.918462
784.751958	2591.153077
785.075372	2475.206538
785.398739	2422.274423
785.722061	2576.029615
786.045337	2505.453462
786.368568	2480.247692
786.691752	2477.727115
787.014891	2560.906154
787.337983	2513.015192
787.661030	2523.097500
787.984031	2520.576923
788.306987	2563.426731
788.629897	2480.247692
788.952760	2510.494615
789.275579	2500.412308
789.598351	2520.576923
789.921078	2540.741538
790.243759	2480.247692
790.566395	2560.906154
790.888984	2550.823846
791.211529	2475.206538
791.534027	2424.795000
791.856480	2560.906154
792.178888	2540.741538
792.501249	2515.535769
792.823566	2442.439038
793.145836	2568.467885
793.468062	2555.865000
793.790241	2485.288846
794.112375	2553.344423
794.434464	2434.877308
794.756507	2422.274423
795.078505	2507.974038
795.400457	2568.467885
795.722364	2444.959615
796.044226	2518.056346
796.366042	2525.618077
796.687812	2477.727115
797.009538	2457.562500
797.331218	2467.644808
797.652852	2507.974038
797.974442	2518.056346
798.295986	2553.344423
798.617484	2502.932885
798.938938	2447.480192
799.260346	2502.932885
799.581709	2457.562500
799.903026	2535.700385
800.224299	2540.741538
800.545526	2518.056346
800.866708	2530.659231
801.187845	2593.673654
801.508936	2558.385577
801.829983	2480.247692
802.150984	2472.685962
802.471940	2475.206538
802.792851	2480.247692
803.113717	2497.891731
803.434538	2455.041923
803.755314	2455.041923
804.076045	2528.138654
804.396731	2485.288846
804.717372	2477.727115
805.037967	2437.397885
805.358518	2513.015192
805.679024	2472.685962
805.999485	2518.056346
806.319901	2417.233269
806.640272	2533.179808
806.960598	2535.700385
807.280879	2455.041923
807.601115	2417.233269
807.921306	2422.274423
808.241453	2525.618077
808.561554	2457.562500
808.881611	2467.644808
809.201623	2507.974038
809.521590	2586.111923
809.841513	2457.562500
810.161390	2502.932885
810.481223	2497.891731
810.801011	2442.439038
811.120755	2487.809423
811.440453	2568.467885
811.760107	2515.535769
812.079716	2487.809423
812.399281	2429.836154
812.718801	2442.439038
813.038276	2507.974038
813.357707	2452.521346
813.677093	2457.562500
813.996434	2485.288846
814.315731	2475.206538
814.634983	2462.603654
814.954191	2480.247692
815.273354	2497.891731
815.592473	2548.303269
815.911547	2452.521346
816.230577	2505.453462
816.549562	2414.712692
816.868502	2538.220962
817.187399	2452.521346
817.506250	2434.877308
817.825058	2422.274423
818.143821	2482.768269
818.462539	2487.809423
818.781213	2470.165385
819.099843	2497.891731
819.418429	2510.494615
819.736970	2530.659231
820.055466	2548.303269
820.373919	2505.453462
820.692327	2462.603654
821.010691	2465.124231
821.329011	2490.330000
821.647286	2482.768269
821.965517	2492.850577
822.283704	2455.041923
822.601847	2502.932885
822.919945	2576.029615
823.237999	2444.959615
823.556010	2505.453462
823.873976	2513.015192
824.191897	2460.083077
824.509775	2507.974038
824.827609	2442.439038
825.145398	2507.974038
825.463144	2555.865000
825.780845	2444.959615
826.098502	2553.344423
826.416116	2520.576923
826.733685	2538.220962
827.051210	2568.467885
827.368692	2513.015192
827.686129	2485.288846
828.003522	2475.206538
828.320872	2523.097500
828.638177	2507.974038
828.955439	2419.753846
829.272656	2482.768269
829.589830	2417.233269
829.906960	2490.330000
830.224046	2477.727115
830.541088	2480.247692
830.858086	2591.153077
831.175041	2513.015192
831.491952	2465.124231
831.808819	2467.644808
832.125642	2510.494615
832.442421	2444.959615
832.759157	2450.000769
833.075849	2553.344423
833.392497	2412.192115
833.709101	2525.618077
834.025662	2492.850577
834.342179	2565.947308
834.658653	2434.877308
834.975083	2475.206538
835.291469	2447.480192
835.607811	2444.959615
835.924110	2472.685962
836.240366	2518.056346
836.556578	2447.480192
836.872746	2507.974038
837.188871	2502.932885
837.504952	2500.412308
837.820990	2497.891731
838.136984	2422.274423
838.452935	2462.603654
838.768842	2490.330000
839.084706	2535.700385
839.400526	2497.891731
839.716303	2530.659231
840.032037	2505.453462
840.347727	2540.741538
840.663373	2513.015192
840.978977	2467.644808
841.294537	2581.070769
841.610054	2457.562500
841.925527	2530.659231
842.240957	2515.535769
842.556344	2518.056346
842.871687	2520.576923
843.186987	2518.056346
843.502244	2444.959615
843.817458	2502.932885
844.132629	2492.850577
844.447756	2480.247692
844.762840	2487.809423
845.077881	2467.644808
845.392879	2535.700385
845.707833	2550.823846
846.022745	2450.000769
846.337613	2452.521346
846.652438	2538.220962
846.967221	2477.727115
847.281960	2480.247692
847.596656	2565.947308
847.911309	2465.124231
848.225919	2477.727115
848.540485	2452.521346
848.855009	2560.906154
849.169490	2502.932885
849.483928	2558.385577
849.798323	2467.644808
850.112675	2424.795000
850.426984	2475.206538
850.741251	2495.371154
851.055474	2502.932885
851.369654	2593.673654
851.683792	2452.521346
851.997887	2402.109808
852.311938	2492.850577
852.625947	2490.330000
852.939914	2480.247692
853.253837	2470.165385
853.567718	2520.576923
853.881555	2450.000769
854.195350	2525.618077
854.509103	2455.041923
854.822812	2576.029615
855.136479	2419.753846
855.450103	2530.659231
855.763685	2492.850577
856.077224	2422.274423
856.390720	2502.932885
856.704173	2429.836154
857.017584	2480.247692
857.330953	2525.618077
857.644278	2495.371154
857.957561	2480.247692
858.270802	2530.659231
858.584000	2480.247692
858.897155	2507.974038
859.210268	2447.480192
859.523339	2444.959615
859.836367	2455.041923
860.149352	2434.877308
860.462295	2518.056346
860.775195	2447.480192
861.088054	2513.015192
861.400869	2502.932885
861.713642	2462.603654
862.026373	2432.356731
862.339062	2543.262115
862.651708	2450.000769
862.964312	2495.371154
863.276873	2485.288846
863.589392	2525.618077
863.901869	2444.959615
864.214303	2510.494615
864.526696	2482.768269
864.839045	2528.138654
865.151353	2533.179808
865.463619	2553.344423
865.775842	2480.247692
866.088023	2510.494615
866.400162	2402.109808
866.712258	2525.618077
867.024313	2515.535769
867.336325	2455.041923
867.648296	2565.947308
867.960224	2530.659231
868.272110	2492.850577
868.583954	2492.850577
868.895755	2568.467885
869.207515	2528.138654
869.519233	2485.288846
869.830909	2490.330000
870.142542	2500.412308
870.454134	2452.521346
870.765684	2578.550192
871.077191	2502.932885
871.388657	2450.000769
871.700081	2515.535769
872.011463	2565.947308
872.322803	2487.809423
872.634101	2510.494615
872.945357	2455.041923
873.256571	2477.727115
873.567744	2422.274423
873.878874	2472.685962
874.189963	2520.576923
874.501010	2528.138654
874.812015	2452.521346
875.122979	2419.753846
875.433900	2530.659231
875.744780	2470.165385
876.055618	2442.439038
876.366415	2540.741538
876.677169	2450.000769
876.987882	2510.494615
877.298554	2419.753846
877.609183	2409.671538
877.919771	2495.371154
878.230317	2535.700385
878.540822	2394.548077
878.851285	2460.083077
879.161707	2530.659231
879.472087	2513.015192
879.782425	2568.467885
880.092722	2548.303269
880.402977	2485.288846
880.713191	2470.165385
881.023363	2429.836154
881.333494	2513.015192
881.643583	2497.891731
881.953631	2437.397885
882.263637	2480.247692
882.573602	2485.288846
882.883526	2434.877308
883.193408	2538.220962
883.503248	2447.480192
883.813048	2455.041923
884.122806	2507.974038
884.432522	2518.056346
884.742197	2492.850577
885.051831	2442.439038
885.361424	2452.521346
885.670975	2533.179808
885.980485	2452.521346
886.289954	2460.083077
886.599382	2439.918462
886.908768	2510.494615
887.218113	2399.589231
887.527417	2490.330000
887.836680	2540.741538
888.145901	2409.671538
888.455082	2470.165385
888.764221	2419.753846
889.073319	2515.535769
889.382376	2485.288846
889.691392	2545.782692
890.000366	2429.836154
890.309300	2465.124231
890.618193	2447.480192
890.927044	2568.467885
891.235855	2497.891731
891.544625	2450.000769
891.853353	2492.850577
892.162041	2482.768269
892.470687	2427.315577
892.779293	2558.385577
893.087858	2465.124231
893.396381	2495.371154
893.704864	2505.453462
894.013306	2568.467885
894.321707	2427.315577
894.630068	2558.385577
894.938387	2447.480192
895.246665	2437.397885
895.554903	2528.138654
895.863100	2523.097500
896.171256	2472.685962
896.479371	2543.262115
896.787446	2432.356731
897.095480	2457.562500
897.403473	2535.700385
897.711425	2520.576923
898.019336	2465.124231
898.327207	2520.576923
898.635038	2502.932885
898.942827	2492.850577
899.250576	2480.247692
899.558284	2492.850577
899.865952	2429.836154
900.173579	2515.535769
900.481165	2576.029615
900.788711	2545.782692
901.096216	2525.618077
901.403681	2485.288846
901.711105	2628.961731
902.018489	2528.138654
902.325832	2386.986346
902.633135	2563.426731
902.940397	2482.768269
903.247619	2603.755962
903.554800	2397.068654
903.861941	2523.097500
904.169041	2530.659231
904.476101	2455.041923
904.783121	2455.041923
905.090100	2543.262115
905.397039	2434.877308
905.703938	2550.823846
906.010796	2467.644808
906.317614	2497.891731
906.624391	2465.124231
906.931129	2513.015192
907.237826	2460.083077
907.544483	2422.274423
907.851099	2497.891731
908.157675	2447.480192
908.464211	2424.795000
908.770707	2495.371154
909.077163	2475.206538
909.383578	2482.768269
909.689954	2502.932885
909.996289	2422.274423
910.302584	2482.768269
910.608839	2457.562500
910.915054	2515.535769
911.221229	2515.535769
911.527363	2460.083077
911.833458	2515.535769
912.139513	2467.644808
912.445527	2513.015192
912.751502	2462.603654
913.057436	2465.124231
913.363331	2442.439038
913.669186	2432.356731
913.975000	2450.000769
914.280775	2490.330000
914.586510	2492.850577
914.892205	2460.083077
915.197859	2520.576923
915.503475	2586.111923
915.809050	2515.535769
916.114585	2560.906154
916.420081	2520.576923
916.725536	2409.671538
917.030952	2588.632500
917.336328	2502.932885
917.641665	2510.494615
917.946961	2490.330000
918.252218	2560.906154
918.557435	2528.138654
918.862612	2535.700385
919.167750	2565.947308
919.472848	2490.330000
919.777906	2525.618077
920.082925	2518.056346
920.387904	2558.385577
920.692843	2502.932885
920.997743	2555.865000
921.302603	2407.150962
921.607423	2497.891731
921.912204	2477.727115
922.216946	2520.576923
922.521647	2543.262115
922.826310	2477.727115
923.130932	2452.521346
923.435516	2432.356731
923.740059	2560.906154
924.044564	2525.618077
924.349028	2507.974038
924.653454	2520.576923
924.957840	2455.041923
925.262186	2560.906154
925.566493	2482.768269
925.870761	2422.274423
926.174989	2530.659231
926.479178	2386.986346
926.783328	2505.453462
927.087438	2460.083077
927.391509	2550.823846
927.695541	2596.194231
927.999533	2386.986346
928.303486	2422.274423
928.607400	2414.712692
928.911275	2470.165385
929.215110	2472.685962
929.518906	2518.056346
929.822663	2495.371154
930.126381	2407.150962
930.430060	2419.753846
930.733699	2480.247692
931.037299	2482.768269
931.340861	2427.315577
931.644383	2407.150962
931.947866	2530.659231
932.251309	2525.618077
932.554714	2540.741538
932.858080	2447.480192
933.161407	2523.097500
933.464694	2500.412308
933.767943	2568.467885
934.071153	2540.741538
934.374323	2507.974038
934.677455	2510.494615
934.980548	2525.618077
935.283602	2538.220962
935.586617	2490.330000
935.889593	2447.480192
936.192530	2444.959615
936.495428	2573.509038
936.798287	2442.439038
937.101108	2570.988462
937.403890	2462.603654
937.706632	2412.192115
938.009336	2429.836154
938.312002	2560.906154
938.614628	2444.959615
938.917216	2485.288846
939.219765	2470.165385
939.522275	2460.083077
939.824747	2480.247692
940.127179	2487.809423
940.429573	2518.056346
940.731929	2505.453462
941.034246	2500.412308
941.336524	2470.165385
941.638763	2482.768269
941.940964	2447.480192
942.243126	2568.467885
942.545250	2475.206538
942.847335	2475.206538
943.149381	2495.371154
943.451389	2432.356731
943.753359	2502.932885
944.055290	2518.056346
944.357182	2497.891731
944.659036	2528.138654
944.960851	2455.041923
945.262628	2460.083077
945.564367	2482.768269
945.866067	2568.467885
946.167729	2442.439038
946.469352	2462.603654
946.770937	2460.083077
947.072484	2409.671538
947.373992	2502.932885
947.675462	2419.753846
947.976893	2510.494615
948.278286	2480.247692
948.579641	2470.165385
948.880958	2439.918462
949.182236	2439.918462
949.483476	2485.288846
949.784678	2525.618077
950.085841	2470.165385
950.386967	2500.412308
950.688054	2424.795000
950.989103	2502.932885
951.290114	2513.015192
951.591087	2535.700385
951.892021	2409.671538
952.192917	2523.097500
952.493776	2596.194231
952.794596	2414.712692
953.095378	2497.891731
953.396122	2419.753846
953.696828	2465.124231
953.997496	2457.562500
954.298126	2447.480192
954.598718	2477.727115
954.899272	2525.618077
955.199788	2487.809423
955.500266	2457.562500
955.800706	2467.644808
956.101108	2472.685962
956.401472	2462.603654
956.701798	2507.974038
957.002087	2482.768269
957.302337	2477.727115
957.602550	2434.877308
957.902724	2455.041923
958.202861	2427.315577
958.502960	2555.865000
958.803022	2447.480192
959.103045	2518.056346
959.403031	2482.768269
959.702979	2482.768269
960.002889	2492.850577
960.302762	2528.138654
960.602596	2477.727115
960.902393	2500.412308
961.202153	2545.782692
961.501875	2495.371154
961.801559	2467.644808
962.101205	2518.056346
962.400814	2475.206538
962.700385	2492.850577
962.999918	2573.509038
963.299414	2437.397885
963.598873	2507.974038
963.898293	2593.673654
964.197677	2465.124231
964.497022	2560.906154
964.796331	2538.220962
965.095601	2487.809423
965.394835	2455.041923
965.694030	2518.056346
965.993189	2550.823846
966.292309	2523.097500
966.591393	2513.015192
966.890439	2472.685962
967.189447	2502.932885
967.488419	2505.453462
967.787353	2444.959615
968.086249	2414.712692
968.385108	2530.659231
968.683930	2465.124231
968.982714	2477.727115
969.281462	2442.439038
969.580172	2563.426731
969.878844	2475.206538
970.177480	2603.755962
970.476078	2518.056346
970.774639	2455.041923
971.073162	2530.659231
971.371649	2482.768269
971.670098	2455.041923
971.968510	2432.356731
972.266885	2487.809423
972.565223	2570.988462
972.863524	2490.330000
973.161788	2513.015192
973.460014	2434.877308
973.758204	2497.891731
974.056356	2490.330000
974.354471	2470.165385
974.652550	2530.659231
974.950591	2502.932885
975.248595	2437.397885
975.546563	2434.877308
975.844493	2576.029615
976.142386	2480.247692
976.440243	2465.124231
976.738062	2447.480192
977.035845	2502.932885
977.333590	2507.974038
977.631299	2465.124231
977.928971	2553.344423
978.226606	2598.714808
978.524204	2555.865000
978.821765	2371.862885
979.119290	2432.356731
979.416777	2525.618077
979.714228	2472.685962
980.011642	2513.015192
980.309020	2389.506923
980.606360	2515.535769
980.903664	2462.603654
981.200931	2520.576923
981.498162	2535.700385
981.795356	2530.659231
982.092513	2482.768269
982.389633	2510.494615
982.686717	2450.000769
982.983764	2497.891731
983.280775	2394.548077
983.577749	2475.206538
983.874686	2434.877308
984.171587	2465.124231
984.468451	2487.809423
984.765279	2507.974038
985.062070	2538.220962
985.358824	2538.220962
985.655543	2462.603654
985.952224	2477.727115
986.248869	2477.727115
986.545478	2376.904038
986.842050	2452.521346
987.138586	2470.165385
987.435086	2528.138654
987.731549	2507.974038
988.027975	2598.714808
988.324366	2455.041923
988.620719	2545.782692
988.917037	2492.850577
989.213318	2497.891731
989.509563	2482.768269
989.805772	2472.685962
990.101944	2412.192115
990.398080	2414.712692
990.694180	2518.056346
990.990244	2455.041923
991.286271	2515.535769
991.582262	2555.865000
991.878217	2538.220962
992.174136	2533.179808
992.470019	2487.809423
992.765865	2578.550192
993.061676	2472.685962
993.357450	2452.521346
993.653188	2510.494615
993.948890	2407.150962
994.244556	2422.274423
994.540186	2429.836154
994.835780	2434.877308
995.131337	2515.535769
995.426859	2492.850577
995.722345	2515.535769
996.017795	2460.083077
996.313208	2487.809423
996.608586	2482.768269
996.903928	2540.741538
997.199234	2442.439038
997.494504	2500.412308
997.789738	2447.480192
998.084936	2444.959615
998.380099	2495.371154
998.675225	2419.753846
998.970316	2485.288846
999.265371	2507.974038
999.560390	2487.809423
999.855373	2462.603654
1000.150320	2520.576923
1000.445232	2513.015192
1000.740108	2487.809423
1001.034948	2568.467885
1001.329752	2535.700385
1001.624521	2540.741538
1001.919254	2455.041923
1002.213951	2437.397885
1002.508613	2502.932885
1002.803239	2543.262115
1003.097829	2520.576923
1003.392384	2518.056346
1003.686903	2513.015192
1003.981386	2525.618077
1004.275834	2490.330000
1004.570246	2460.083077
1004.864623	2482.768269
1005.158964	2490.330000
1005.453270	2568.467885
1005.747540	2495.371154
1006.041775	2470.165385
1006.335974	2550.823846
1006.630138	2439.918462
1006.924266	2593.673654
1007.218359	2492.850577
1007.512416	2500.412308
1007.806438	2480.247692
1008.100425	2480.247692
1008.394376	2495.371154
1008.688292	2444.959615
1008.982172	2495.371154
1009.276017	2460.083077
1009.569827	2450.000769
1009.863602	2412.192115
1010.157341	2507.974038
1010.451045	2432.356731
1010.744714	2540.741538
1011.038347	2465.124231
1011.331945	2510.494615
1011.625508	2467.644808
1011.919036	2530.659231
1012.212528	2530.659231
1012.505986	2518.056346
1012.799408	2520.576923
1013.092795	2533.179808
1013.386147	2545.782692
1013.679464	2535.700385
1013.972745	2578.550192
1014.265992	2515.535769
1014.559204	2485.288846
1014.852380	2513.015192
1015.145521	2502.932885
1015.438628	2472.685962
1015.731699	2533.179808
1016.024736	2513.015192
1016.317737	2510.494615
1016.610703	2470.165385
1016.903635	2475.206538
1017.196531	2455.041923
1017.489393	2455.041923
1017.782219	2485.288846
1018.075011	2460.083077
1018.367768	2472.685962
1018.660490	2507.974038
1018.953177	2507.974038
1019.245829	2507.974038
