Dividing Wavelength (nm)	Counts (n)	Blue Motor Position (mm): 0.000000	Red Motor Position (mm): 2.700000	
326.493990	2129.300206
326.888308	2129.300206
327.282561	2129.300206
327.676750	2098.612182
328.070874	2095.050606
328.464933	2098.108066
328.858929	2104.129724
329.252859	2113.753287
329.646726	2124.929525
330.040528	2140.395785
330.434265	2156.741727
330.827938	2174.572288
331.221547	2189.378157
331.615091	2210.987063
332.008571	2227.015411
332.401986	2247.114492
332.795338	2267.256422
333.188625	2287.269803
333.581847	2305.233954
333.975006	2323.976964
334.368100	2343.103102
334.761129	2360.270751
335.154095	2377.274563
335.546996	2393.320556
335.939833	2409.348905
336.332606	2420.900709
336.725315	2438.443924
337.117960	2443.858123
337.510540	2452.226439
337.903056	2463.884107
338.295508	2473.575725
338.687896	2479.824235
339.080220	2485.699700
339.472480	2495.393839
339.864676	2499.880466
340.256807	2506.701147
340.648875	2505.468585
341.040879	2510.474451
341.432818	2512.173320
341.824694	2514.414113
342.216506	2512.304390
342.608253	2513.980573
342.999937	2513.426046
343.391557	2515.220697
343.783113	2513.073166
344.174605	2508.273987
344.566033	2509.403206
344.957397	2506.885149
345.348697	2504.959428
345.739934	2503.363903
346.131106	2500.508090
346.522215	2502.895076
346.913260	2499.716628
347.304241	2498.040445
347.695159	2497.884169
348.086012	2494.685557
348.476802	2490.393014
348.867528	2485.611480
349.258191	2487.247334
349.648789	2488.971409
350.039324	2485.659371
350.429796	2486.980153
350.820203	2483.811788
351.210548	2483.995790
351.600828	2482.097796
351.991045	2482.473362
352.381198	2480.282980
352.771288	2481.109730
353.161314	2478.705099
353.551276	2480.335913
353.941175	2478.470686
354.331010	2479.975470
354.720782	2479.531848
355.110490	2478.828608
355.500135	2478.364821
355.889717	2479.236941
356.279235	2478.785758
356.668689	2481.442446
357.058080	2479.738536
357.447408	2481.717189
357.836672	2477.870788
358.225873	2479.930100
358.615010	2478.233751
359.004084	2482.123002
359.393095	2483.284987
359.782043	2482.223825
360.170927	2483.637868
360.559748	2483.511839
360.948505	2487.232211
361.337199	2485.188023
361.725830	2487.464104
362.114398	2485.992087
362.502903	2488.144660
362.891344	2487.562407
363.279722	2490.367809
363.668037	2488.963847
364.056289	2489.157932
364.444478	2490.645072
364.832603	2489.334372
365.220665	2489.843529
365.608665	2492.918633
365.996601	2491.456698
366.384474	2491.567603
366.772284	2492.840495
367.160031	2492.059116
367.547715	2493.049702
367.935336	2489.041985
368.322893	2492.475011
368.710388	2492.343941
369.097820	2494.337717
369.485189	2494.315032
369.872495	2491.103817
370.259738	2495.043479
370.646918	2494.670433
371.034035	2496.225629
371.421090	2494.980464
371.808081	2493.057264
372.195010	2495.711432
372.581875	2496.805362
372.968678	2494.075577
373.355418	2496.331494
373.742096	2496.192862
374.128710	2495.960969
374.515262	2498.350476
374.901751	2493.974754
375.288177	2500.082112
375.674540	2495.721514
376.060841	2497.634632
376.447079	2496.346617
376.833254	2497.067502
377.219367	2494.856956
377.605417	2494.289826
377.991404	2495.734117
378.377329	2496.137409
378.763191	2493.541215
379.148991	2500.984479
379.534727	2501.445744
379.920402	2499.376351
380.306013	2498.521875
380.691563	2502.675786
381.077049	2500.432472
381.462474	2498.395846
381.847835	2502.181753
382.233134	2500.530775
382.618371	2501.849037
383.003545	2503.046311
383.388657	2499.182266
383.773706	2502.053203
384.158693	2501.115549
384.543618	2503.310971
384.928480	2505.024963
385.313280	2500.815600
385.698017	2501.642349
386.082692	2504.500683
386.467305	2502.925323
386.851856	2504.006650
387.236344	2502.451454
387.620770	2504.639315
388.005133	2504.833400
388.389435	2504.977072
388.773674	2506.252484
389.157851	2504.112515
389.541965	2502.239726
389.926018	2504.208297
390.310008	2503.694099
390.693936	2505.133348
391.077802	2504.626712
391.461606	2505.249295
391.845348	2502.955570
392.229027	2504.084788
392.612645	2506.103770
392.996200	2505.574449
393.379694	2506.665859
393.763125	2507.658966
394.146494	2508.442866
394.529801	2506.653256
394.913047	2507.018740
395.296230	2507.328771
395.679351	2509.342712
396.062410	2507.449758
396.445408	2508.296672
396.828343	2507.283400
397.211217	2503.270642
397.594028	2506.053359
397.976778	2506.562515
398.359466	2506.378513
398.742092	2504.339367
399.124656	2508.674759
399.507158	2511.402023
399.889598	2510.497136
400.271977	2511.139883
400.654294	2510.023267
401.036549	2511.999400
401.418742	2511.152486
401.800874	2509.834224
402.182944	2511.086951
402.564952	2509.546878
402.946898	2510.139214
403.328783	2512.344719
403.710606	2512.279184
404.092367	2512.503515
404.474067	2512.130470
404.855705	2511.759945
405.237282	2512.478309
405.618797	2510.182064
406.000250	2514.789678
406.381642	2511.517970
406.762972	2516.087776
407.144240	2512.193484
407.525447	2513.846983
407.906593	2513.547034
408.287677	2514.575429
408.668700	2512.153155
409.049661	2513.834380
409.430560	2512.450583
409.811399	2516.521315
410.192176	2515.684483
410.572891	2512.153155
410.953545	2513.768845
411.334138	2516.012158
411.714669	2514.504853
412.095139	2515.429905
412.475547	2514.462003
412.855894	2512.780779
413.236180	2515.586181
413.616405	2516.175996
413.996568	2515.271109
414.376670	2516.579288
414.756711	2515.775224
415.136691	2516.506191
415.516609	2514.552744
415.896466	2518.479803
416.276262	2517.280008
416.655997	2513.355470
417.035670	2512.697600
417.415283	2515.994514
417.794834	2512.528721
418.174324	2516.314627
418.553753	2517.254803
418.933121	2518.827643
419.312428	2517.708507
419.691674	2518.530215
420.070859	2517.090965
420.449983	2516.425533
420.829045	2519.399814
421.208047	2518.772190
421.586988	2519.351923
421.965867	2517.411078
422.344686	2519.422499
422.723444	2517.103568
423.102141	2518.341171
423.480777	2517.249762
423.859352	2518.389062
424.237866	2520.453415
424.616319	2518.295801
424.994712	2517.675739
425.373044	2520.007273
425.751314	2518.510050
426.129524	2522.361492
426.507673	2521.093641
426.885762	2520.743281
427.263789	2519.193126
427.641756	2520.468538
428.019662	2519.830832
428.397508	2521.481810
428.775292	2520.503826
429.153016	2521.380987
429.530679	2522.701769
429.908282	2519.908970
430.285824	2518.890657
430.663305	2520.889475
431.040726	2518.010976
431.418086	2521.507016
431.795385	2521.549866
432.172624	2518.515091
432.549802	2521.791841
432.926920	2520.302180
433.303977	2520.750843
433.680974	2521.501975
434.057910	2523.140350
434.434786	2519.651871
434.811601	2522.676564
435.188355	2523.682274
435.565050	2522.893333
435.941683	2523.586492
436.318257	2521.701100
436.694770	2520.672705
437.071222	2519.301511
437.447614	2517.065759
437.823946	2518.399145
438.200218	2518.994001
438.576429	2522.548014
438.952580	2522.096831
439.328670	2520.705473
439.704700	2523.359640
440.080670	2522.074146
440.456580	2523.077335
440.832429	2525.383663
441.208218	2524.214116
441.583947	2525.323169
441.959616	2521.244876
442.335224	2523.863755
442.710773	2526.081863
443.086261	2524.897192
443.461689	2527.385001
443.837057	2524.272089
444.212365	2525.025741
444.587612	2522.684125
444.962800	2524.430885
445.337927	2524.544311
445.712995	2525.116482
446.088002	2526.641431
446.462949	2523.455422
446.837837	2525.439116
447.212664	2525.277799
447.587431	2526.417100
447.962139	2526.636390
448.336786	2530.137471
448.711374	2526.492717
449.085901	2526.225536
449.460369	2526.659075
449.834776	2523.533560
450.209124	2527.816020
450.583412	2524.385515
450.957640	2524.209074
451.331808	2526.351565
451.705917	2525.378622
452.079965	2527.155629
452.453954	2527.989940
452.827883	2527.369878
453.201752	2527.924405
453.575562	2526.099507
453.949311	2526.643952
454.323001	2525.837367
454.696632	2526.112110
455.070202	2528.274765
455.443713	2526.512882
455.817164	2526.160001
456.190556	2525.938190
456.563888	2525.149250
456.937160	2522.427027
457.310373	2526.669157
457.683526	2526.283509
458.056619	2531.032276
458.429653	2526.366688
458.802628	2527.296781
459.175542	2529.741741
459.548398	2528.751154
459.921194	2528.128572
460.293930	2529.426669
460.666607	2529.126720
461.039224	2527.624456
461.411782	2530.656710
461.784280	2527.957172
462.156719	2530.301309
462.529099	2530.634025
462.901419	2530.031607
463.273680	2530.641587
463.645882	2525.885258
464.018024	2529.789632
464.390106	2529.436751
464.762130	2529.976154
465.134094	2529.562780
465.505999	2526.717048
465.877845	2531.153264
466.249631	2531.647297
466.621358	2529.817358
466.993026	2531.702750
467.364634	2534.182997
467.736184	2527.553880
468.107674	2527.377440
468.479105	2530.293747
468.850477	2529.850126
469.221790	2531.612009
469.593043	2531.249046
469.964238	2530.820548
470.335373	2528.960362
470.706449	2528.000022
471.077467	2529.940866
471.448425	2533.242822
471.819324	2526.953983
472.190164	2532.277441
472.560945	2528.592358
472.931667	2532.658048
473.302330	2530.175280
473.672934	2530.465146
474.043479	2531.594365
474.413965	2531.755682
474.784393	2526.863242
475.154761	2528.899868
475.525070	2528.022707
475.895321	2526.439785
476.265513	2523.430216
476.635645	2528.927594
477.005719	2531.019673
477.375734	2530.931453
477.745691	2531.054961
478.115588	2530.323994
478.485427	2528.899868
478.855207	2530.359282
479.224928	2531.614529
479.594591	2532.647966
479.964194	2531.821217
480.333739	2531.846422
480.703226	2533.358769
481.072653	2532.441279
481.442022	2531.571680
481.811333	2532.698377
482.180584	2531.082688
482.549777	2531.796011
482.918912	2531.261649
483.287988	2534.694674
483.657005	2531.095291
484.025964	2530.593696
484.394864	2530.679395
484.763706	2533.565456
485.132489	2535.849099
485.501213	2530.901206
485.869879	2533.048738
486.238487	2530.528161
486.607036	2533.759540
486.975527	2532.156453
487.343959	2530.155115
487.712333	2531.170908
488.080648	2530.588655
488.448905	2535.695343
488.817104	2533.099149
489.185244	2532.973120
489.553326	2532.945394
489.921350	2533.220137
490.289315	2531.347348
490.657222	2534.160312
491.025070	2532.201824
491.392861	2536.559901
491.760593	2531.899355
492.128267	2531.019673
492.495883	2534.155271
492.863440	2533.850281
493.230939	2532.300126
493.598380	2537.394212
493.965763	2530.031607
494.333088	2531.796011
494.700354	2529.736700
495.067563	2532.963038
495.434713	2529.676206
495.801805	2533.449509
496.168839	2534.697195
496.535815	2537.031249
496.902733	2533.888090
497.269593	2535.927237
497.636395	2530.878521
498.003139	2534.248532
498.369825	2534.654345
498.736453	2532.307688
499.103023	2532.574869
499.469535	2533.371372
499.835989	2530.818027
500.202385	2535.486136
500.568723	2531.894313
500.935003	2534.303985
501.301226	2534.122503
501.667390	2531.468336
502.033497	2535.723070
502.399546	2531.894313
502.765537	2533.512524
503.131470	2535.970086
503.497345	2533.782226
503.863163	2535.612164
504.228923	2534.243491
504.594625	2534.243491
504.960269	2533.179808
505.325856	2533.013450
505.691385	2534.432534
506.056856	2536.943029
506.422270	2532.279962
506.787625	2532.622760
507.152924	2533.124355
507.518164	2536.433872
507.883347	2534.382123
508.248472	2533.812473
508.613540	2531.959848
508.978550	2534.790456
509.343503	2536.287679
509.708398	2538.712474
510.073236	2536.635519
510.438016	2532.675692
510.802738	2536.358255
511.167403	2536.527134
511.532010	2534.740045
511.896561	2537.134593
512.261053	2535.541588
512.625488	2530.812986
512.989866	2530.424817
513.354186	2531.359951
513.718449	2529.366175
514.082655	2532.133768
514.446803	2534.140148
514.810894	2534.011598
515.174927	2536.867412
515.538904	2532.978162
515.902822	2533.567977
516.266684	2534.674510
516.630488	2536.564943
516.994235	2536.189377
517.357925	2535.110570
517.721558	2535.158461
518.085133	2534.072092
518.448651	2534.906403
518.812112	2536.355735
519.175516	2536.433872
519.538863	2535.138296
519.902152	2536.627957
520.265385	2536.055786
520.628560	2535.372710
520.991678	2535.720549
521.354739	2535.324819
521.717743	2535.024870
522.080690	2534.440096
522.443580	2534.750127
522.806413	2536.741383
523.169189	2530.991947
523.531908	2535.319777
523.894569	2534.924047
524.257174	2534.959335
524.619722	2536.428831
524.982213	2537.550488
525.344647	2536.358255
525.707025	2535.705426
526.069345	2537.439583
526.431608	2535.077802
526.793815	2536.590148
527.155964	2536.756506
527.518057	2536.723739
527.880093	2535.070240
528.242072	2535.372710
528.603995	2538.495704
528.965860	2535.302133
529.327669	2536.728780
529.689421	2537.520241
530.051117	2537.031249
530.412755	2535.871784
530.774337	2535.924716
531.135862	2538.226003
531.497331	2534.132586
531.858743	2532.839530
532.220098	2534.273738
532.581396	2530.628984
532.942638	2533.391536
533.303824	2533.837678
533.664953	2539.272042
534.026025	2536.885056
534.387040	2537.323636
534.747999	2532.859694
535.108902	2538.354552
535.469748	2538.299099
535.830537	2534.432534
536.191270	2534.921526
536.551947	2536.524613
536.912567	2536.214582
537.273131	2536.648122
537.633638	2536.217103
537.994089	2536.426311
538.354483	2536.617875
538.714821	2537.200128
539.075103	2538.573842
539.435328	2539.279604
539.795497	2536.990920
540.155609	2535.579397
540.515665	2538.286497
540.875665	2537.689120
541.235609	2535.718029
541.595496	2536.922864
541.955328	2535.710467
542.315102	2540.139121
542.674821	2536.249870
543.034483	2539.095602
543.394090	2535.743234
543.753640	2538.382278
544.113134	2534.994623
544.472571	2537.449665
544.831953	2538.495704
545.191278	2538.309182
545.550548	2536.804397
545.909761	2538.185673
546.268918	2535.922195
546.628019	2537.666435
546.987064	2537.852957
547.346053	2534.485467
547.704986	2536.201979
548.063863	2534.843388
548.422684	2536.154088
548.781449	2535.919675
549.140158	2537.437062
549.498811	2538.571322
549.857408	2538.883873
550.215949	2533.920857
550.574434	2533.389016
550.932864	2533.641073
551.291237	2532.161495
551.649555	2535.765920
552.007817	2536.096115
552.366022	2537.769778
552.724173	2538.919161
553.082267	2536.948070
553.440305	2538.417567
553.798288	2537.144675
554.156215	2536.282638
554.514086	2534.359438
554.871902	2538.518390
555.229661	2536.764068
555.587365	2536.393543
555.945014	2535.171063
556.302606	2538.150385
556.660143	2536.259953
557.017625	2536.625436
557.375050	2535.546629
557.732421	2536.748945
558.089735	2537.638708
558.446994	2537.817669
558.804197	2536.350693
559.161345	2534.828265
559.518437	2535.637370
559.875474	2538.291538
560.232455	2537.643749
560.589381	2538.833462
560.946251	2539.143493
561.303065	2535.360107
561.659825	2535.781043
562.016528	2534.591331
562.373177	2537.893287
562.729770	2536.539737
563.086307	2540.134079
563.442789	2535.566794
563.799216	2538.367155
564.155587	2535.644932
564.511904	2538.097453
564.868164	2536.020498
565.224370	2537.991589
565.580520	2536.058307
565.936615	2537.792463
566.292654	2536.600231
566.648638	2535.705426
567.004567	2536.811959
567.360441	2539.372865
567.716260	2538.493184
568.072023	2539.539223
568.427732	2534.384643
568.783385	2535.528985
569.138982	2533.668800
569.494525	2534.266176
569.850013	2531.980013
570.205445	2539.539223
570.560823	2535.067720
570.916145	2536.902700
571.271412	2535.874304
571.626625	2539.120807
571.981782	2538.601569
572.336884	2539.193904
572.691931	2537.588297
573.046923	2538.546116
573.401860	2536.055786
573.756743	2537.527803
574.111570	2538.195756
574.466342	2537.248019
574.821059	2534.709798
575.175722	2538.538554
575.530330	2537.263142
575.884882	2534.742565
576.239380	2537.230375
576.593823	2538.669624
576.948211	2536.696013
577.302544	2539.060314
577.656823	2538.876312
578.011047	2540.839841
578.365216	2538.241126
578.719330	2534.936650
579.073389	2538.367155
579.427394	2535.821372
579.781344	2539.556867
580.135239	2536.559901
580.489080	2537.273225
580.842866	2540.081147
581.196597	2537.991589
581.550273	2538.079809
581.903895	2537.769778
582.257463	2538.404964
582.610975	2538.558719
582.964434	2540.247505
583.317837	2534.591331
583.671186	2539.927392
584.024481	2537.714326
584.377721	2538.079809
584.730906	2538.999820
585.084037	2538.059645
585.437113	2537.001002
585.790135	2535.942360
586.143103	2537.396733
586.496016	2537.648791
586.848874	2533.746937
587.201679	2537.091743
587.554428	2533.772143
587.907124	2537.971424
588.259765	2531.470857
588.612352	2538.956970
588.964884	2538.029398
589.317362	2540.625592
589.669786	2538.868750
590.022155	2539.314892
590.374470	2537.369007
590.726731	2536.464119
591.078937	2537.563091
591.431090	2539.665252
591.783188	2537.497556
592.135232	2536.638039
592.487222	2537.978986
592.839157	2536.776671
593.191038	2538.236085
593.542866	2538.278935
593.894639	2539.508976
594.246358	2538.339429
594.598022	2537.053934
594.949633	2538.067206
595.301190	2536.335570
595.652692	2538.755324
596.004141	2538.306661
596.355535	2535.995292
596.706876	2536.333049
597.058162	2538.341949
597.409395	2535.793646
597.760573	2538.336908
598.111698	2539.410674
598.462768	2539.945036
598.813785	2537.396733
599.164748	2534.921526
599.515657	2540.050900
599.866511	2538.228523
600.217312	2537.739531
600.568060	2538.215920
600.918753	2539.324974
601.269392	2538.611651
601.619978	2536.527134
601.970510	2539.680376
602.320988	2537.721887
602.671412	2538.810777
603.021783	2534.533357
603.372100	2537.245498
603.722363	2534.573687
604.072572	2539.130890
604.422728	2538.631816
604.772830	2536.930426
605.122878	2533.547812
605.472872	2537.426980
605.822813	2534.288862
606.172701	2534.901362
606.522534	2540.068544
606.872314	2537.300951
607.222041	2537.222813
607.571714	2536.259953
607.921333	2537.232895
608.270899	2541.033925
608.620411	2538.651980
608.969870	2539.698020
609.319276	2541.190201
609.668627	2540.113915
610.017926	2546.823691
610.367171	2543.735984
610.716362	2542.178267
611.065500	2545.996941
611.414585	2543.506611
611.763616	2539.955118
612.112594	2540.781868
612.461518	2540.492001
612.810389	2537.956301
613.159207	2540.590304
613.507971	2538.130221
613.856682	2540.214738
614.205340	2541.664070
614.553945	2540.108874
614.902496	2538.213400
615.250994	2536.902700
615.599439	2540.421425
615.947830	2537.616023
616.296169	2538.788091
616.644454	2538.110056
616.992686	2538.135262
617.340864	2539.546785
617.688990	2537.628626
618.037063	2540.338246
618.385082	2537.668955
618.733048	2539.869419
619.080961	2540.083668
619.428821	2536.385982
619.776628	2538.717515
620.124382	2541.472506
620.472083	2538.606610
620.819731	2539.546785
621.167326	2540.386137
621.514868	2539.637526
621.862357	2536.779192
622.209793	2536.817000
622.557176	2539.385468
622.904506	2534.361958
623.251783	2534.208203
623.599007	2535.839016
623.946179	2535.418080
624.293297	2534.654345
624.640363	2536.174253
624.987376	2537.931095
625.334336	2540.643236
625.681243	2538.876312
626.028097	2537.870601
626.374899	2537.477391
626.721647	2537.921013
627.068343	2538.586445
627.414987	2539.534182
627.761577	2538.611651
628.108115	2536.751465
628.454600	2540.244985
628.801032	2537.800025
629.147412	2541.787578
629.493739	2537.989068
629.840014	2539.249357
630.186236	2537.142155
630.532405	2536.811959
630.878521	2538.162988
631.224585	2538.001671
631.570597	2538.334387
631.916556	2537.260622
632.262462	2538.465458
632.608316	2539.735828
632.954117	2533.749458
633.299866	2537.580735
633.645562	2539.209028
633.991206	2537.641229
634.336797	2536.817000
634.682336	2536.411187
635.027823	2535.821372
635.373257	2538.669624
635.718639	2538.987217
636.063968	2536.522093
636.409245	2537.121990
636.754470	2535.423121
637.099642	2535.758358
637.444762	2538.258770
637.789829	2538.717515
638.134845	2541.016281
638.479808	2537.860519
638.824719	2537.376568
639.169577	2535.972607
639.514383	2535.841537
639.859137	2536.859850
640.203839	2539.284645
640.548489	2535.556712
640.893086	2535.314736
641.237632	2533.414221
641.582125	2536.259953
641.926566	2532.653007
642.270955	2538.750283
642.615292	2535.720549
642.959576	2539.287166
643.303809	2538.578883
643.647990	2538.659542
643.992118	2536.522093
644.336195	2540.650798
644.680219	2534.200641
645.024192	2539.750952
645.368112	2537.124511
645.711981	2535.987730
646.055797	2538.478060
646.399562	2538.261291
646.743274	2535.844057
647.086935	2537.749614
647.430544	2538.727598
647.774101	2537.056455
648.117606	2535.884387
648.461059	2538.646939
648.804460	2537.578214
649.147810	2539.357742
649.491108	2535.065199
649.834354	2537.709284
650.177548	2538.457896
650.520690	2538.382278
650.863781	2536.925385
651.206820	2538.841023
651.549807	2538.808256
651.892742	2535.166022
652.235626	2536.267514
652.578458	2536.025539
652.921238	2535.370189
653.263967	2536.872453
653.606644	2535.460930
653.949269	2537.104346
654.291843	2532.738707
654.634365	2535.208872
654.976836	2537.855478
655.319255	2539.221631
655.661622	2537.273225
656.003938	2538.256250
656.346203	2535.985210
656.688416	2535.327339
657.030577	2535.768440
657.372687	2538.442772
657.714746	2539.176260
658.056753	2536.476722
658.398708	2532.249715
658.740612	2534.309026
659.082465	2531.407842
659.424266	2534.006557
659.766016	2531.866587
660.107715	2538.014274
660.449362	2536.136444
660.790958	2536.935467
661.132503	2538.130221
661.473996	2537.439583
661.815438	2536.315405
662.156829	2536.663245
662.498168	2540.197094
662.839456	2536.880015
663.180693	2536.605272
663.521879	2536.383461
663.863013	2537.958822
664.204097	2539.718184
664.545129	2536.070909
664.886110	2538.132741
665.227040	2537.164840
665.567918	2536.943029
665.908746	2537.593338
666.249522	2538.283976
666.590248	2537.220293
666.930922	2535.859181
667.271545	2536.353214
667.612118	2537.179963
667.952639	2536.827082
668.293109	2534.679551
668.633528	2535.977648
668.973896	2537.023688
669.314213	2536.305323
669.654480	2537.807587
669.994695	2534.551002
670.334859	2534.455220
670.674973	2534.891279
671.015035	2537.558050
671.355047	2537.091743
671.695008	2535.632329
672.034918	2536.481763
672.374777	2535.612164
672.714585	2535.158461
673.054342	2537.580735
673.394049	2537.358924
673.733705	2537.495035
674.073310	2538.951929
674.412864	2537.197607
674.752368	2536.864891
675.091820	2539.178781
675.431223	2537.293389
675.770574	2537.656352
676.109875	2532.209386
676.449125	2535.039993
676.788324	2533.595703
677.127473	2533.734335
677.466571	2530.389529
677.805619	2538.079809
678.144616	2535.269366
678.483562	2537.638708
678.822458	2536.658204
679.161303	2536.562422
679.500098	2536.368338
679.838842	2536.191897
680.177535	2536.330529
680.516179	2535.271887
680.854771	2537.119469
681.193314	2534.619057
681.531805	2537.021167
681.870247	2540.459234
682.208638	2535.639891
682.546978	2537.984027
682.885268	2536.602751
683.223508	2535.130734
683.561697	2538.803215
683.899836	2535.700385
684.237925	2535.103008
684.575963	2534.689633
684.913951	2537.794984
685.251889	2536.378420
685.589776	2535.052596
685.927614	2537.666435
686.265401	2535.216434
686.603137	2537.159799
686.940824	2537.288348
687.278460	2538.359593
687.616046	2536.713657
687.953582	2535.153419
688.291068	2535.342463
688.628504	2535.314736
688.965889	2536.038142
689.303224	2536.464119
689.640510	2532.879859
689.977745	2535.781043
690.314930	2538.765406
690.652065	2538.740200
690.989150	2539.352701
691.326185	2537.540406
691.663170	2538.954449
692.000105	2535.876825
692.336990	2535.375230
692.673825	2537.086702
693.010610	2537.958822
693.347345	2533.278110
693.684030	2531.503624
694.020665	2536.098636
694.357251	2531.833820
694.693786	2535.536547
695.030272	2535.995292
695.366707	2536.161650
695.703093	2535.536547
696.039429	2536.534696
696.375716	2536.297761
696.711952	2535.929757
697.048139	2532.983203
697.384276	2537.061496
697.720363	2534.654345
698.056400	2538.505787
698.392388	2535.793646
698.728326	2537.711805
699.064214	2534.346835
699.400053	2536.948070
699.735842	2535.818852
700.071581	2537.633667
700.407270	2533.068902
700.742910	2537.192566
701.078501	2534.477905
701.414042	2537.913451
701.749533	2534.024201
702.084974	2534.460261
702.420366	2536.156609
702.755709	2537.321116
703.091002	2535.367668
703.426246	2536.234747
703.761440	2534.077133
704.096584	2535.720549
704.431679	2535.496218
704.766725	2536.343132
705.101721	2535.982689
705.436668	2535.627288
705.771565	2537.855478
706.106413	2534.921526
706.441212	2534.949253
706.775961	2538.276414
707.110661	2534.619057
707.445311	2537.656352
707.779913	2536.822041
708.114465	2535.566794
708.448967	2534.732483
708.783421	2536.759027
709.117825	2536.242309
709.452180	2535.642411
709.786485	2535.420601
710.120742	2535.332380
710.454949	2534.611495
710.789107	2533.489839
711.123216	2533.585621
711.457275	2535.090405
711.791286	2531.402801
712.125247	2532.738707
712.459159	2534.571166
712.793023	2536.451517
713.126837	2536.199459
713.460602	2535.072761
713.794318	2534.926567
714.127985	2536.322967
714.461602	2531.566638
714.795171	2534.671989
715.128691	2536.277597
715.462162	2538.447813
715.795584	2536.859850
716.128957	2534.291382
716.462281	2535.347504
716.795556	2537.855478
717.128782	2535.919675
717.461960	2535.733152
717.795088	2536.383461
718.128167	2533.537730
718.461198	2534.079654
718.794180	2537.852957
719.127113	2534.858512
719.459997	2537.782381
719.792833	2535.397915
720.125619	2536.564943
720.458357	2538.904038
720.791046	2534.195600
721.123686	2536.943029
721.456278	2535.733152
721.788821	2536.423790
722.121315	2536.242309
722.453761	2534.188038
722.786158	2534.621578
723.118506	2534.157792
723.450805	2536.809438
723.783056	2537.464788
724.115259	2535.808769
724.447412	2538.064686
724.779518	2534.477905
725.111574	2536.622916
725.443582	2535.854140
725.775542	2535.614685
726.107453	2533.515044
726.439315	2535.508821
726.771129	2538.687268
727.102895	2535.045035
727.434612	2534.785415
727.766281	2534.926567
728.097901	2533.066382
728.429473	2533.275590
728.760996	2531.339787
729.092471	2532.413552
729.423897	2534.949253
729.755276	2536.282638
730.086606	2535.218954
730.417887	2536.322967
730.749120	2536.199459
731.080305	2533.749458
731.411442	2534.109901
731.742530	2535.851619
732.073570	2536.897659
732.404562	2532.642925
732.735506	2535.990251
733.066401	2536.620395
733.397249	2534.523275
733.728048	2537.109387
734.058798	2533.787267
734.389501	2534.321629
734.720156	2532.824406
735.050762	2535.060158
735.381320	2535.965045
735.711831	2534.719880
736.042293	2534.361958
736.372707	2534.301464
736.703073	2533.356248
737.033391	2535.919675
737.363661	2537.986548
737.693883	2536.600231
738.024056	2535.637370
738.354182	2534.709798
738.684260	2536.743903
739.014290	2534.883718
739.344272	2537.220293
739.674207	2534.389685
740.004093	2536.852288
740.333931	2533.623429
740.663722	2536.597710
740.993464	2535.891948
741.323159	2535.554191
741.652806	2535.861702
741.982405	2537.147196
742.311956	2534.412370
742.641460	2535.730632
742.970915	2532.564787
743.300323	2533.918337
743.629683	2532.297606
743.958996	2536.388502
744.288260	2530.699560
744.617477	2534.540919
744.946647	2529.260311
745.275768	2534.182997
745.604842	2530.553367
745.933869	2531.639735
746.262847	2527.319466
746.591778	2534.929088
746.920662	2534.601413
747.249498	2536.040662
747.578286	2535.067720
747.907027	2535.503780
748.235720	2532.511855
748.564365	2534.167874
748.892963	2534.692154
749.221514	2534.838347
749.550017	2533.666279
749.878473	2536.678368
750.206881	2532.166536
750.535242	2534.566125
750.863555	2537.484953
751.191821	2538.173071
751.520039	2536.277597
751.848210	2535.503780
752.176334	2535.836496
752.504411	2536.602751
752.832440	2532.141330
753.160421	2534.787936
753.488356	2533.827596
753.816243	2537.489994
754.144082	2536.469161
754.471875	2534.591331
754.799620	2534.624098
755.127318	2534.193080
755.454969	2535.065199
755.782572	2534.402287
756.110129	2533.109232
756.437638	2535.203831
756.765100	2532.768954
757.092515	2534.263656
757.419882	2535.619726
757.747203	2537.013605
758.074477	2532.337935
758.401703	2532.254756
758.728882	2534.901362
759.056014	2534.006557
759.383099	2533.177287
759.710138	2536.086033
760.037129	2535.367668
760.364073	2534.913965
760.690970	2534.588810
761.017820	2533.431865
761.344623	2534.619057
761.671379	2533.091587
761.998088	2530.308871
762.324751	2531.947246
762.651366	2528.667975
762.977935	2532.983203
763.304456	2528.990609
763.630931	2535.839016
763.957359	2532.277441
764.283740	2534.354397
764.610074	2532.763913
764.936362	2534.404808
765.262602	2535.211393
765.588796	2533.893131
765.914943	2534.424973
766.241044	2534.203162
766.567097	2535.206352
766.893104	2534.011598
767.219064	2530.931453
767.544978	2531.710311
767.870845	2535.655014
768.196665	2533.058820
768.522438	2533.757020
768.848165	2535.629808
769.173846	2532.572349
769.499479	2532.554705
769.825066	2532.506814
770.150607	2533.172246
770.476101	2532.834489
770.801548	2534.755168
771.126949	2532.746268
771.452303	2537.177443
771.777611	2532.418593
772.102872	2534.470343
772.428087	2533.789787
772.753256	2533.608306
773.078378	2534.556043
773.403453	2532.680733
773.728482	2533.464633
774.053465	2532.544622
774.378401	2532.186700
774.703291	2533.257946
775.028135	2533.608306
775.352932	2533.562935
775.677683	2532.973120
776.002388	2530.729807
776.327046	2536.312885
776.651658	2534.135106
776.976224	2530.782739
777.300743	2532.358100
777.625216	2533.872966
777.949643	2534.540919
778.274024	2535.889428
778.598359	2532.380785
778.922647	2529.729138
779.246889	2531.566638
779.571086	2528.567152
779.895236	2530.538243
780.219339	2534.485467
780.543397	2533.320960
780.867409	2531.307019
781.191374	2532.322812
781.515294	2531.546474
781.839167	2535.851619
782.162995	2531.521268
782.486776	2532.544622
782.810511	2536.464119
783.134201	2533.573018
783.457844	2531.286854
783.781441	2533.817514
784.104993	2532.915147
784.428498	2533.394057
784.751958	2535.312216
785.075372	2530.737369
785.398739	2535.531506
785.722061	2534.631660
786.045337	2532.471526
786.368568	2531.851464
786.691752	2533.182328
787.014891	2532.617719
787.337983	2533.174767
787.661030	2532.821886
787.984031	2533.338604
788.306987	2534.152750
788.629897	2533.809952
788.952760	2531.438089
789.275579	2531.163346
789.598351	2536.290200
789.921078	2532.335414
790.243759	2529.822399
790.566395	2533.197452
790.888984	2531.591844
791.211529	2534.593851
791.534027	2534.228368
791.856480	2532.950435
792.178888	2532.448840
792.501249	2532.010260
792.823566	2536.380940
793.145836	2532.413552
793.468062	2533.492359
793.790241	2534.573687
794.112375	2535.730632
794.434464	2533.983872
794.756507	2531.977493
795.078505	2533.169725
795.400457	2532.731145
795.722364	2526.475073
796.044226	2531.526309
796.366042	2528.864580
796.687812	2528.627646
797.009538	2531.798532
797.331218	2532.983203
797.652852	2534.240971
797.974442	2532.103521
798.295986	2531.211237
798.617484	2533.182328
798.938938	2534.664427
799.260346	2534.175436
799.581709	2533.673841
799.903026	2531.740558
800.224299	2531.980013
800.545526	2534.283820
800.866708	2534.230888
801.187845	2531.773326
801.508936	2531.029756
801.829983	2531.334745
802.150984	2532.327853
802.471940	2535.072761
802.792851	2534.961856
803.113717	2535.387833
803.434538	2532.912627
803.755314	2534.097298
804.076045	2531.980013
804.396731	2532.595034
804.717372	2530.379447
805.037967	2533.015970
805.358518	2533.525127
805.679024	2535.387833
805.999485	2530.835671
806.319901	2530.044210
806.640272	2533.066382
806.960598	2532.554705
807.280879	2534.422452
807.601115	2532.524458
807.921306	2533.840199
808.241453	2532.559746
808.561554	2532.441279
808.881611	2532.602596
809.201623	2535.776002
809.521590	2532.025383
809.841513	2532.189221
810.161390	2533.240302
810.481223	2531.881711
810.801011	2534.170394
811.120755	2533.739376
811.440453	2534.626619
811.760107	2534.543440
812.079716	2528.453726
812.399281	2530.722245
812.718801	2531.155784
813.038276	2527.339631
813.357707	2532.471526
813.677093	2528.988088
813.996434	2534.248532
814.315731	2535.592000
814.634983	2531.785929
814.954191	2531.773326
815.273354	2533.555374
815.592473	2530.838192
815.911547	2531.992616
816.230577	2532.615198
816.549562	2531.307019
816.868502	2532.166536
817.187399	2529.993798
817.506250	2531.745599
817.825058	2533.890610
818.143821	2533.250384
818.462539	2532.940353
818.781213	2531.576721
819.099843	2533.328522
819.418429	2533.600744
819.736970	2533.961187
820.055466	2530.195445
820.373919	2532.196783
820.692327	2532.489170
821.010691	2530.177801
821.329011	2531.612009
821.647286	2533.512524
821.965517	2532.378264
822.283704	2532.469005
822.601847	2530.533202
822.919945	2534.886238
823.237999	2532.597554
823.556010	2533.341125
823.873976	2534.845909
824.191897	2532.741227
824.509775	2531.485980
824.827609	2532.161495
825.145398	2533.043697
825.463144	2533.971269
825.780845	2533.099149
826.098502	2534.140148
826.416116	2532.433717
826.733685	2533.139478
827.051210	2532.431196
827.368692	2531.715353
827.686129	2529.630835
828.003522	2531.150743
828.320872	2528.678057
828.638177	2527.962213
828.955439	2527.803417
829.272656	2529.807276
829.589830	2527.644621
829.906960	2530.944056
830.224046	2532.340456
830.541088	2532.005219
830.858086	2532.831968
831.175041	2531.906916
831.491952	2532.705939
831.808819	2532.743748
832.125642	2535.549150
832.442421	2533.431865
832.759157	2531.218799
833.075849	2532.874818
833.392497	2533.507483
833.709101	2532.534540
834.025662	2532.166536
834.342179	2530.923891
834.658653	2533.068902
834.975083	2529.030938
835.291469	2538.536034
835.607811	2531.062523
835.924110	2531.304498
836.240366	2532.201824
836.556578	2530.371885
836.872746	2531.581762
837.188871	2532.375744
837.504952	2533.336083
837.820990	2532.547143
838.136984	2529.681247
838.452935	2531.556556
838.768842	2531.382636
839.084706	2532.436238
839.400526	2532.040507
839.716303	2533.953625
840.032037	2532.219468
840.347727	2532.534540
840.663373	2529.459436
840.978977	2532.128727
841.294537	2532.073274
841.610054	2531.354910
841.925527	2532.695857
842.240957	2530.749972
842.556344	2531.601927
842.871687	2530.134951
843.186987	2531.710311
843.502244	2532.317770
843.817458	2530.724766
844.132629	2532.622760
844.447756	2533.497400
844.762840	2527.909281
845.077881	2525.353416
845.392879	2528.249559
845.707833	2530.215609
846.022745	2526.321318
846.337613	2532.050589
846.652438	2531.370033
846.967221	2532.025383
847.281960	2531.213758
847.596656	2532.244674
847.911309	2532.166536
848.225919	2529.250228
848.540485	2533.129396
848.855009	2533.187369
849.169490	2529.240146
849.483928	2534.303985
849.798323	2530.472708
850.112675	2533.933460
850.426984	2530.114786
850.741251	2532.080836
851.055474	2530.644107
851.369654	2531.864067
851.683792	2531.402801
851.997887	2530.286185
852.311938	2529.560259
852.625947	2531.327184
852.939914	2530.402132
853.253837	2534.697195
853.567718	2532.196783
853.881555	2532.824406
854.195350	2531.480939
854.509103	2531.014632
854.822812	2531.309540
855.136479	2534.538399
855.450103	2531.049920
855.763685	2532.239633
856.077224	2528.930115
856.390720	2529.812317
856.704173	2532.532019
857.017584	2531.838861
857.330953	2530.150074
857.644278	2535.786084
857.957561	2532.068233
858.270802	2531.606968
858.584000	2530.384488
858.897155	2532.983203
859.210268	2529.101514
859.523339	2532.862215
859.836367	2531.274252
860.149352	2533.915816
860.462295	2529.819879
860.775195	2526.840557
861.088054	2528.562111
861.400869	2528.670496
861.713642	2526.371729
862.026373	2529.910619
862.339062	2530.760054
862.651708	2529.774508
862.964312	2530.807945
863.276873	2532.037986
863.589392	2531.727955
863.901869	2532.670651
864.214303	2531.299457
864.526696	2529.492204
864.839045	2532.184180
865.151353	2531.077647
865.463619	2533.757020
865.775842	2530.933974
866.088023	2532.564787
866.400162	2531.377595
866.712258	2532.458923
867.024313	2533.976310
867.336325	2528.665454
867.648296	2527.329549
867.960224	2532.141330
868.272110	2534.273738
868.583954	2533.078985
868.895755	2531.886752
869.207515	2531.276772
869.519233	2529.590506
869.830909	2529.277955
870.142542	2530.873480
870.454134	2531.387677
870.765684	2531.659900
871.077191	2533.237781
871.388657	2530.273583
871.700081	2532.617719
872.011463	2531.606968
872.322803	2529.414066
872.634101	2529.792152
872.945357	2529.635877
873.256571	2530.513037
873.567744	2531.720394
873.878874	2532.090918
874.189963	2532.237112
874.501010	2532.526978
874.812015	2532.353058
875.122979	2529.653521
875.433900	2531.937163
875.744780	2530.838192
876.055618	2529.325846
876.366415	2532.474046
876.677169	2532.123686
876.987882	2526.792666
877.298554	2526.235618
877.609183	2528.549508
877.919771	2526.036493
878.230317	2530.089580
878.540822	2533.996475
878.851285	2529.794673
879.161707	2531.397760
879.472087	2530.742410
879.782425	2531.228881
880.092722	2532.010260
880.402977	2529.487163
880.713191	2529.419107
881.023363	2531.707791
881.333494	2528.975485
881.643583	2530.392050
881.953631	2531.760723
882.263637	2529.993798
882.573602	2533.192411
882.883526	2531.445651
883.193408	2530.061854
883.503248	2530.341638
883.813048	2530.112266
884.122806	2528.448685
884.432522	2530.553367
884.742197	2529.010773
885.051831	2532.158974
885.361424	2528.277286
885.670975	2531.801052
885.980485	2528.877183
886.289954	2531.785929
886.599382	2532.547143
886.908768	2531.201155
887.218113	2528.355423
887.527417	2531.082688
887.836680	2529.409025
888.145901	2527.455578
888.455082	2529.792152
888.764221	2532.940353
889.073319	2531.425486
889.382376	2528.851977
889.691392	2527.596730
890.000366	2532.103521
890.309300	2528.342821
890.618193	2529.567821
890.927044	2528.819210
891.235855	2531.364992
891.544625	2530.671834
891.853353	2530.255938
892.162041	2528.831812
892.470687	2529.315763
892.779293	2529.429189
893.087858	2526.374250
893.396381	2524.675381
893.704864	2526.454908
894.013306	2525.091276
894.321707	2531.478418
894.630068	2531.402801
894.938387	2528.509179
895.246665	2530.422297
895.554903	2531.206196
895.863100	2529.184693
896.171256	2529.940866
896.479371	2530.346679
896.787446	2531.266690
897.095480	2527.705115
897.403473	2530.644107
897.711425	2530.606299
898.019336	2529.361134
898.327207	2530.553367
898.635038	2529.172090
898.942827	2530.374406
899.250576	2531.410363
899.558284	2530.734848
899.865952	2529.073788
900.173579	2531.811134
900.481165	2531.884231
900.788711	2528.927594
901.096216	2529.325846
901.403681	2528.196627
901.711105	2529.293078
902.018489	2530.697039
902.325832	2536.063348
902.633135	2528.582275
902.940397	2529.214940
903.247619	2530.429858
903.554800	2528.103366
903.861941	2527.430372
904.169041	2529.792152
904.476101	2531.294416
904.783121	2531.775846
905.090100	2529.207378
905.397039	2530.707122
905.703938	2529.131761
906.010796	2532.761392
906.317614	2532.348017
906.624391	2530.139992
906.931129	2529.648479
907.237826	2526.626308
907.544483	2527.276617
907.851099	2530.583613
908.157675	2531.180990
908.464211	2531.987575
908.770707	2526.228057
909.077163	2527.828623
909.383578	2525.265196
909.689954	2527.599250
909.996289	2523.649506
910.302584	2528.763757
910.608839	2530.482790
910.915054	2528.952800
911.221229	2530.336597
911.527363	2526.172604
911.833458	2529.656041
912.139513	2531.443130
912.445527	2528.730989
912.751502	2526.782583
913.057436	2529.154446
913.363331	2528.703263
913.669186	2529.088911
913.975000	2527.871473
914.280775	2529.817358
914.586510	2530.833151
914.892205	2529.320804
915.197859	2529.678726
915.503475	2527.579086
915.809050	2531.833820
916.114585	2531.493542
916.420081	2527.901720
916.725536	2531.037317
917.030952	2532.211906
917.336328	2527.805938
917.641665	2530.684437
917.946961	2529.701412
918.252218	2528.098325
918.557435	2529.381298
918.862612	2529.698891
919.167750	2529.381298
919.472848	2527.604292
919.777906	2531.606968
920.082925	2529.078829
920.387904	2529.971113
920.692843	2531.932122
920.997743	2530.553367
921.302603	2530.669313
921.607423	2530.626463
921.912204	2526.764939
922.216946	2529.678726
922.521647	2528.186545
922.826310	2528.889786
923.130932	2530.452543
923.435516	2528.693181
923.740059	2528.902389
924.044564	2529.570342
924.349028	2530.220650
924.653454	2525.965917
924.957840	2526.036493
925.262186	2524.950124
925.566493	2529.104035
925.870761	2524.501461
926.174989	2529.472039
926.479178	2528.902389
926.783328	2528.415917
927.087438	2530.485311
927.391509	2529.910619
927.695541	2528.080681
927.999533	2528.579755
928.303486	2529.499765
928.607400	2526.729651
928.911275	2527.884076
929.215110	2530.225692
929.518906	2527.253931
929.822663	2529.325846
930.126381	2529.562780
930.430060	2530.394570
930.733699	2528.461288
931.037299	2527.110258
931.340861	2530.323994
931.644383	2529.167049
931.947866	2529.124199
932.251309	2528.045393
932.554714	2531.518748
932.858080	2528.325177
933.161407	2530.271062
933.464694	2528.821730
933.767943	2527.689991
934.071153	2529.141843
934.374323	2527.586648
934.677455	2530.064375
934.980548	2527.490866
935.283602	2530.260980
935.586617	2526.591020
935.889593	2528.617563
936.192530	2529.066226
936.495428	2530.044210
936.798287	2529.608150
937.101108	2529.293078
937.403890	2530.455064
937.706632	2529.739220
938.009336	2528.768798
938.312002	2528.743592
938.614628	2529.134282
938.917216	2530.220650
939.219765	2528.499096
939.522275	2530.404652
939.824747	2528.519261
940.127179	2525.572707
940.429573	2524.816533
940.731929	2526.636390
941.034246	2526.505320
941.336524	2526.228057
941.638763	2528.554549
941.940964	2529.658562
942.243126	2530.351720
942.545250	2530.082019
942.847335	2529.701412
943.149381	2528.441123
943.451389	2528.509179
943.753359	2528.723428
944.055290	2527.269055
944.357182	2528.582275
944.659036	2528.597399
944.960851	2529.053623
945.262628	2527.629497
945.564367	2530.381967
945.866067	2529.023376
946.167729	2530.301309
946.469352	2530.021525
946.770937	2529.966072
947.072484	2528.569673
947.373992	2528.952800
947.675462	2526.767460
947.976893	2528.415917
948.278286	2527.848788
948.579641	2529.845084
948.880958	2527.080012
949.182236	2527.609333
949.483476	2526.291071
949.784678	2528.788963
950.085841	2528.536905
950.386967	2528.652852
950.688054	2531.060002
950.989103	2528.483973
951.290114	2529.777029
951.591087	2529.519930
951.892021	2528.426000
952.192917	2531.632173
952.493776	2528.567152
952.794596	2527.498427
953.095378	2527.400125
953.396122	2526.989271
953.696828	2527.364837
953.997496	2527.765608
954.298126	2526.648993
954.598718	2531.246525
954.899272	2529.414066
955.199788	2529.018335
955.500266	2532.080836
955.800706	2528.867101
956.101108	2522.235463
956.401472	2525.855011
956.701798	2523.021883
957.002087	2526.154960
957.302337	2525.660927
957.602550	2528.564631
957.902724	2528.345341
958.202861	2530.581093
958.502960	2528.035310
958.803022	2529.771988
959.103045	2527.175793
959.403031	2530.074457
959.702979	2528.211751
960.002889	2528.068078
960.302762	2529.088911
960.602596	2528.045393
960.902393	2530.434899
961.202153	2527.569003
961.501875	2530.477749
961.801559	2528.975485
962.101205	2526.356606
962.400814	2529.436751
962.700385	2526.512882
962.999918	2528.899868
963.299414	2528.499096
963.598873	2527.783252
963.898293	2528.252080
964.197677	2530.510517
964.497022	2528.786442
964.796331	2526.439785
965.095601	2529.545136
965.394835	2526.404497
965.694030	2527.102697
965.993189	2528.922553
966.292309	2529.885414
966.591393	2527.211082
966.890439	2525.539939
967.189447	2529.792152
967.488419	2526.517923
967.787353	2528.247039
968.086249	2527.400125
968.385108	2529.769467
968.683930	2529.875331
968.982714	2529.895496
969.281462	2528.131092
969.580172	2528.307532
969.878844	2529.590506
970.177480	2528.405835
970.476078	2525.726462
970.774639	2527.080012
971.073162	2527.816020
971.371649	2526.941380
971.670098	2526.301153
971.968510	2524.693025
972.266885	2523.730165
972.565223	2528.075639
972.863524	2527.904240
973.161788	2529.860208
973.460014	2528.602440
973.758204	2528.569672
974.056356	2527.783253
974.354471	2528.234436
974.652550	2529.371216
974.950591	2528.305012
975.248595	2529.414066
975.546563	2528.133613
975.844493	2526.162522
976.142386	2527.266534
976.440243	2526.654034
976.738062	2527.546318
977.035845	2528.708304
977.333590	2527.866432
977.631299	2526.933818
977.928971	2526.505320
978.226606	2525.948272
978.524204	2525.887779
978.821765	2527.760567
979.119290	2526.676719
979.416777	2527.901720
979.714228	2529.807276
980.011642	2526.391894
980.309020	2530.412214
980.606360	2526.797707
980.903664	2529.898017
981.200931	2528.688140
981.498162	2529.734179
981.795356	2529.575383
982.092513	2529.446833
982.389633	2524.493900
982.686717	2528.219312
982.983764	2525.368540
983.280775	2528.917512
983.577749	2526.071781
983.874686	2528.483973
984.171587	2530.823068
984.468451	2526.863242
984.765279	2527.339631
985.062070	2528.368026
985.358824	2527.906761
985.655543	2529.033459
985.952224	2525.600433
986.248869	2527.256452
986.545478	2523.049609
986.842050	2526.439785
987.138586	2524.529188
987.435086	2527.314425
987.731549	2522.169928
988.027975	2528.695701
988.324366	2526.187727
988.620719	2527.803417
988.917037	2525.736544
989.213318	2529.575383
989.509563	2527.372398
989.805772	2530.258459
990.101944	2525.849970
990.398080	2526.888448
990.694180	2526.520443
990.990244	2528.360465
991.286271	2528.118489
991.582262	2528.002543
991.878217	2525.391225
992.174136	2526.470032
992.470019	2528.007584
992.765865	2528.063037
993.061676	2529.721576
993.357450	2526.659075
993.653188	2530.099663
993.948890	2526.555732
994.244556	2526.475073
994.540186	2526.250742
994.835780	2526.659075
995.131337	2525.055988
995.426859	2526.893489
995.722345	2528.274765
996.017795	2525.227388
996.313208	2527.337110
996.608586	2527.271575
996.903928	2527.402645
997.199234	2526.018849
997.494504	2526.122192
997.789738	2527.095135
998.084936	2526.318797
998.380099	2524.680422
998.675225	2527.135464
998.970316	2527.821061
999.265371	2527.604292
999.560390	2525.759229
999.855373	2530.470187
1000.150320	2523.515916
1000.445232	2528.370547
1000.740108	2524.854342
1001.034948	2526.502799
1001.329752	2524.456091
1001.624521	2529.482121
1001.919254	2523.014321
1002.213951	2525.635721
1002.508613	2521.801923
1002.803239	2526.006246
1003.097829	2519.644310
1003.392384	2527.440454
1003.686903	2523.992305
1003.981386	2526.762419
1004.275834	2525.607995
1004.570246	2530.011442
1004.864623	2524.766122
1005.158964	2527.095135
1005.453270	2527.029600
1005.747540	2526.893489
1006.041775	2525.068591
1006.335974	2526.961544
1006.630138	2527.301822
1006.924266	2527.684950
1007.218359	2525.562624
1007.512416	2528.781401
1007.806438	2527.919364
1008.100425	2525.844929
1008.394376	2528.315094
1008.688292	2526.540608
1008.982172	2527.526154
1009.276017	2526.321318
1009.569827	2527.284178
1009.863602	2529.895496
1010.157341	2523.044568
1010.451045	2526.217974
1010.744714	2524.405679
1011.038347	2527.453057
1011.331945	2527.574045
1011.625508	2524.897192
1011.919036	2528.468849
1012.212528	2526.228057
1012.505986	2526.827954
1012.799408	2526.270906
1013.092795	2526.666637
1013.386147	2527.437933
1013.679464	2525.978519
1013.972745	2527.011956
1014.265992	2524.526667
1014.559204	2530.578572
1014.852380	2525.464322
1015.145521	2529.628315
1015.438628	2525.393746
1015.731699	2526.139836
1016.024736	2523.805782
1016.317737	2528.607481
1016.610703	2527.200999
1016.903635	2525.918026
1017.196531	2524.095648
1017.489393	2522.918539
1017.782219	2522.991636
1018.075011	2524.521626
1018.367768	2526.331400
1018.660490	2526.485155
1018.953177	2526.485155
1019.245829	2526.485155
