Dividing Wavelength (nm)	Counts (n)	Blue Motor Position (mm): 0.000000	Red Motor Position (mm): 16.100000	
326.493990	2130.721811
326.888308	2130.721811
327.282561	2130.721811
327.676750	2095.854670
328.070874	2095.542119
328.464933	2096.865422
328.858929	2101.147882
329.252859	2115.550458
329.646726	2124.697632
330.040528	2137.701288
330.434265	2156.923208
330.827938	2173.987514
331.221547	2192.453260
331.615091	2209.875488
332.008571	2228.973899
332.401986	2249.471231
332.795338	2268.418408
333.188625	2285.979267
333.581847	2303.923254
333.975006	2327.258755
334.368100	2342.173009
334.761129	2362.602285
335.154095	2378.091230
335.546996	2393.020607
335.939833	2409.190108
336.332606	2425.800710
336.725315	2435.893100
337.117960	2446.419029
337.510540	2452.934721
337.903056	2465.230095
338.295508	2473.704275
338.687896	2481.049236
339.080220	2489.936790
339.472480	2497.133037
339.864676	2499.691423
340.256807	2507.016219
340.648875	2507.578308
341.040879	2509.498988
341.432818	2510.177023
341.824694	2514.255316
342.216506	2514.404030
342.608253	2516.201202
342.999937	2517.295132
343.391557	2514.507374
343.783113	2514.202384
344.174605	2512.977384
344.566033	2509.947650
344.957397	2508.432783
345.348697	2507.658966
345.739934	2505.428256
346.131106	2504.578821
346.522215	2502.053203
346.913260	2497.939622
347.304241	2496.984323
347.695159	2498.516834
348.086012	2496.714621
348.476802	2492.129692
348.867528	2490.234218
349.258191	2490.012407
349.648789	2487.403610
350.039324	2486.216418
350.429796	2486.970071
350.820203	2487.068373
351.210548	2484.573002
351.600828	2481.185347
351.991045	2483.894967
352.381198	2482.730461
352.771288	2482.059987
353.161314	2482.110399
353.551276	2483.416058
353.941175	2481.487816
354.331010	2485.256079
354.720782	2479.554534
355.110490	2483.544607
355.500135	2481.001345
355.889717	2483.960502
356.279235	2481.540748
356.668689	2486.775987
357.058080	2485.898826
357.447408	2482.349853
357.836672	2479.494040
358.225873	2480.678711
358.615010	2481.492857
359.004084	2484.242807
359.393095	2486.914618
359.782043	2488.132057
360.170927	2487.973261
360.559748	2486.576861
360.948505	2490.140957
361.337199	2489.364619
361.725830	2490.012407
362.114398	2488.873107
362.502903	2489.939311
362.891344	2491.262613
363.279722	2489.664568
363.668037	2494.020125
364.056289	2493.808396
364.444478	2495.865187
364.832603	2497.581700
365.220665	2496.649086
365.608665	2496.749909
365.996601	2496.432317
366.384474	2498.947853
366.772284	2502.012874
367.160031	2499.000785
367.547715	2501.042452
367.935336	2503.885663
368.322893	2506.885149
368.710388	2509.360356
369.097820	2518.671367
369.485189	2520.201357
369.872495	2524.514064
370.259738	2532.723583
370.646918	2542.069882
371.034035	2546.337219
371.421090	2559.035886
371.808081	2568.533420
372.195010	2574.706312
372.581875	2589.701225
372.968678	2603.302258
373.355418	2609.893566
373.742096	2632.094808
374.128710	2648.226500
374.515262	2660.620177
374.901751	2677.261026
375.288177	2689.102696
375.674540	2711.261088
376.060841	2729.913357
376.447079	2751.287849
376.833254	2768.127824
377.219367	2782.575771
377.605417	2822.587409
377.991404	2825.977585
378.377329	2850.898529
378.763191	2869.558360
379.148991	2907.278793
379.534727	2930.911723
379.920402	2960.883903
380.306013	2970.023515
380.691563	3021.861700
381.077049	3041.892725
381.462474	3059.703121
381.847835	3098.419183
382.233134	3121.979015
382.618371	3120.083541
383.003545	3188.557534
383.388657	3195.020293
383.773706	3225.786455
384.158693	3245.794795
384.543618	3270.163732
384.928480	3308.148827
385.313280	3351.316227
385.698017	3348.558716
386.082692	3402.211716
386.467305	3408.593817
386.851856	3440.945422
387.236344	3462.236735
387.620770	3493.023062
388.005133	3518.826208
388.389435	3549.173954
388.773674	3560.282136
389.157851	3599.124227
389.541965	3610.613016
389.926018	3581.490271
390.310008	3652.600787
390.693936	3670.068385
391.077802	3712.343501
391.461606	3698.308929
391.845348	3763.347375
392.229027	3763.130605
392.612645	3771.619908
392.996200	3849.541023
393.379694	3894.165317
393.763125	3953.595480
394.146494	3922.799071
394.529801	3984.280983
394.913047	4029.863097
395.296230	3993.962519
395.679351	4051.464441
396.062410	4070.222574
396.445408	4052.074420
396.828343	4081.930654
397.211217	4097.858180
397.594028	4019.869009
397.976778	4078.180036
398.359466	4099.874641
398.742092	4119.111684
399.124656	4034.218653
399.507158	4102.027214
399.889598	4117.493474
400.271977	4167.872245
400.654294	4129.362871
401.036549	4121.231489
401.418742	4078.374120
401.800874	4155.181140
402.182944	4155.181140
402.564952	4197.037840
402.946898	4167.350485
403.328783	4139.009118
403.710606	4043.088564
404.092367	4188.286397
404.474067	4128.251296
404.855705	4110.226651
405.237282	4029.437119
405.618797	4086.656736
406.000250	4083.982404
406.381642	4116.611272
406.762972	4053.808577
407.144240	4029.381666
407.525447	3996.800689
407.906593	4006.855270
408.287677	3998.159280
408.668700	3911.438831
409.049661	3906.034714
409.430560	3893.734299
409.811399	3807.646514
410.192176	3866.139022
410.572891	3789.977270
410.953545	3808.566525
411.334138	3700.973178
411.714669	3693.063608
412.095139	3598.040379
412.475547	3622.810088
412.855894	3574.354517
413.236180	3534.110986
413.616405	3473.564208
413.996568	3469.594299
414.376670	3402.315060
414.756711	3349.128366
415.136691	3320.320693
415.516609	3305.963487
415.896466	3288.019499
416.276262	3256.020775
416.655997	3210.108467
417.035670	3220.223542
417.415283	3209.921944
417.794834	3154.600322
418.174324	3111.848817
418.553753	3054.898902
418.933121	3060.812175
419.312428	3035.240922
419.691674	2992.789366
420.070859	2980.403251
420.449983	2933.838113
420.829045	2923.102975
421.208047	2886.468910
421.586988	2864.098790
421.965867	2838.842609
422.344686	2826.706032
422.723444	2792.365692
423.102141	2751.023189
423.480777	2759.482245
423.859352	2722.434805
424.237866	2723.417830
424.616319	2707.644060
424.994712	2696.082174
425.373044	2674.425377
425.751314	2664.101094
426.129524	2644.029740
426.507673	2641.615027
426.885762	2630.461474
427.263789	2616.537807
427.641756	2606.420211
428.019662	2602.034407
428.397508	2594.069384
428.775292	2588.088055
429.153016	2581.345512
429.530679	2577.589852
429.908282	2567.479818
430.285824	2566.146433
430.663305	2564.792883
431.040726	2557.016904
431.418086	2557.692418
431.795385	2554.019938
432.172624	2551.232180
432.549802	2554.065308
432.926920	2547.017775
433.303977	2549.924000
433.680974	2544.928217
434.057910	2545.941489
434.434786	2542.972249
434.811601	2542.054759
435.188355	2543.902342
435.565050	2541.348998
435.941683	2541.233051
436.318257	2540.126518
436.694770	2537.747093
437.071222	2538.883873
437.447614	2536.426311
437.823946	2534.283820
438.200218	2538.684748
438.576429	2537.616023
438.952580	2538.344470
439.328670	2538.737680
439.704700	2536.184335
440.080670	2537.565612
440.456580	2539.539223
440.832429	2538.460416
441.208218	2537.268183
441.583947	2537.023688
441.959616	2536.257432
442.335224	2539.130890
442.710773	2537.152237
443.086261	2540.479398
443.461689	2538.662062
443.837057	2535.831455
444.212365	2538.372196
444.587612	2538.306661
444.962800	2539.362783
445.337927	2537.968904
445.712995	2536.632998
446.088002	2541.270860
446.462949	2537.764737
446.837837	2537.006043
447.212664	2539.609799
447.587431	2540.633154
447.962139	2541.291024
448.336786	2546.178423
448.711374	2546.342260
449.085901	2541.258257
449.460369	2540.882691
449.834776	2543.050387
450.209124	2541.966539
450.583412	2544.051056
450.957640	2542.155582
451.331808	2540.829759
451.705917	2540.756662
452.079965	2542.657177
452.453954	2544.613145
452.827883	2544.267826
453.201752	2543.778834
453.575562	2541.291024
453.949311	2539.703061
454.323001	2540.018133
454.696632	2544.015768
455.070202	2541.901004
455.443713	2542.039636
455.817164	2540.928061
456.190556	2538.810777
456.563888	2539.738349
456.937160	2538.415046
457.310373	2541.989224
457.683526	2543.027702
458.056619	2543.302445
458.429653	2545.744884
458.802628	2544.136756
459.175542	2544.882846
459.548398	2546.027188
459.921194	2546.027188
460.293930	2544.993752
460.666607	2549.465255
461.039224	2548.956099
461.411782	2549.228321
461.784280	2551.121274
462.156719	2551.189330
462.529099	2549.820657
462.901419	2546.617003
463.273680	2547.436191
463.645882	2549.558517
464.018024	2546.289328
464.390106	2547.789072
464.762130	2553.457849
465.134094	2552.126984
465.505999	2556.074208
465.877845	2561.367419
466.249631	2561.473284
466.621358	2560.195351
466.993026	2562.191648
467.364634	2561.992523
467.736184	2559.156873
468.107674	2558.304918
468.479105	2556.243087
468.850477	2555.013045
469.221790	2556.429609
469.593043	2553.198230
469.964238	2553.155380
470.335373	2556.716955
470.706449	2555.186965
471.077467	2555.902809
471.448425	2559.839950
471.819324	2564.258521
472.190164	2564.903789
472.560945	2559.610577
472.931667	2555.433981
473.302330	2554.967675
473.672934	2554.496327
474.043479	2554.881975
474.413965	2557.851215
474.784393	2550.896943
475.154761	2557.425237
475.525070	2552.673950
475.895321	2553.919115
476.265513	2553.954403
476.635645	2559.048489
477.005719	2557.760474
477.375734	2559.494631
477.745691	2560.649055
478.115588	2560.863304
478.485427	2560.694425
478.855207	2564.225754
479.224928	2566.506876
479.594591	2569.458471
479.964194	2569.403019
480.333739	2568.051989
480.703226	2568.581311
481.072653	2569.624829
481.442022	2568.341856
481.811333	2570.340673
482.180584	2568.349418
482.549777	2568.538461
482.918912	2566.214489
483.287988	2568.475446
483.657005	2568.931671
484.025964	2565.828841
484.394864	2566.211968
484.763706	2564.860939
485.132489	2562.070660
485.501213	2566.027966
485.869879	2563.368758
486.238487	2560.172666
486.607036	2564.409756
486.975527	2562.945301
487.343959	2562.385733
487.712333	2562.642831
488.080648	2565.186093
488.448905	2561.372461
488.817104	2565.619633
489.185244	2564.450085
489.553326	2561.417831
489.921350	2566.471588
490.289315	2568.049469
490.657222	2569.546692
491.025070	2570.098698
491.392861	2565.221382
491.760593	2566.743810
492.128267	2566.716084
492.495883	2563.940928
492.863440	2565.496124
493.230939	2564.281206
493.598380	2566.590055
493.965763	2557.558828
494.333088	2562.148798
494.700354	2558.844322
495.067563	2560.996895
495.434713	2561.919426
495.801805	2563.177194
496.168839	2562.078222
496.535815	2561.183417
496.902733	2563.600651
497.269593	2564.429920
497.636395	2563.119220
498.003139	2563.769529
498.369825	2562.337842
498.736453	2562.970506
499.103023	2561.926987
499.469535	2563.754406
499.835989	2563.179714
500.202385	2563.769529
500.568723	2559.111503
500.935003	2562.022769
501.301226	2563.497307
501.667390	2564.901268
502.033497	2566.413614
502.399546	2562.473953
502.765537	2563.182235
503.131470	2564.056875
503.497345	2562.824313
503.863163	2564.629046
504.228923	2565.591906
504.594625	2565.483522
504.960269	2563.814900
505.325856	2565.304561
505.691385	2564.455126
506.056856	2564.961762
506.422270	2563.512430
506.787625	2563.051165
507.152924	2561.755588
507.518164	2564.586196
507.883347	2565.118038
508.248472	2563.237687
508.613540	2565.649880
508.978550	2566.116186
509.343503	2563.124262
509.708398	2565.294478
510.073236	2567.479818
510.438016	2566.940415
510.802738	2564.757595
511.167403	2563.565362
511.532010	2563.207441
511.896561	2566.869839
512.261053	2568.823286
512.625488	2562.910012
512.989866	2559.844991
513.354186	2563.114179
513.718449	2559.913047
514.082655	2565.995199
514.446803	2564.331618
514.810894	2566.585014
515.174927	2565.493604
515.538904	2566.799263
515.902822	2564.863460
516.266684	2566.915209
516.630488	2565.463357
516.994235	2567.227761
517.357925	2565.894376
517.721558	2565.375137
518.085133	2567.305899
518.448651	2564.656772
518.812112	2566.559808
519.175516	2565.233984
519.538863	2566.958059
519.902152	2565.594427
520.265385	2568.140210
520.628560	2566.436300
520.991678	2564.921433
521.354739	2567.830179
521.717743	2564.135013
522.080690	2566.521999
522.443580	2566.055692
522.806413	2566.942936
523.169189	2566.524520
523.531908	2566.484191
523.894569	2563.988819
524.257174	2566.995868
524.619722	2564.450085
524.982213	2568.820765
525.344647	2564.780281
525.707025	2568.304047
526.069345	2568.273800
526.431608	2564.603840
526.793815	2567.036197
527.155964	2566.179201
527.518057	2564.543346
527.880093	2566.151474
528.242072	2567.628532
528.603995	2567.028635
528.965860	2567.139541
529.327669	2568.359500
529.689421	2564.054354
530.051117	2566.383368
530.412755	2565.846485
530.774337	2564.540826
531.135862	2564.074519
531.497331	2566.017884
531.858743	2560.507903
532.220098	2565.208779
532.581396	2562.935218
532.942638	2562.118551
533.303824	2564.230795
533.664953	2562.773901
534.026025	2564.225754
534.387040	2567.091650
534.747999	2564.447564
535.108902	2565.743141
535.469748	2563.845147
535.830537	2565.566701
536.191270	2563.963614
536.551947	2568.351938
536.912567	2566.663152
537.273131	2564.555949
537.633638	2562.862122
537.994089	2567.363872
538.354483	2561.977399
538.714821	2567.759603
539.075103	2565.150805
539.435328	2564.470250
539.795497	2564.313974
540.155609	2566.249777
540.515665	2567.129458
540.875665	2565.521330
541.235609	2566.789180
541.595496	2565.060065
541.955328	2564.359344
542.315102	2569.508883
542.674821	2564.258521
543.034483	2565.765826
543.394090	2565.019735
543.753640	2563.920764
544.113134	2564.419838
544.472571	2564.843295
544.831953	2565.042421
545.191278	2565.228943
545.550548	2567.152143
545.909761	2565.982596
546.268918	2567.507545
546.628019	2567.134499
546.987064	2563.774570
547.346053	2563.812379
547.704986	2562.098387
548.063863	2565.972513
548.422684	2566.378326
548.781449	2563.852708
549.140158	2566.668193
549.498811	2565.133161
549.857408	2561.710218
550.215949	2561.569066
550.574434	2563.739282
550.932864	2562.882286
551.291237	2561.831206
551.649555	2565.251628
552.007817	2564.813048
552.366022	2564.268603
552.724173	2563.585527
553.082267	2563.721638
553.440305	2563.255332
553.798288	2563.893038
554.156215	2564.732390
554.514086	2564.472770
554.871902	2565.493604
555.229661	2566.516958
555.587365	2564.646690
555.945014	2564.702143
556.302606	2563.341031
556.660143	2563.633418
557.017625	2562.781463
557.375050	2566.199365
557.732421	2564.591237
558.089735	2566.544684
558.446994	2565.864129
558.804197	2563.217523
559.161345	2564.198027
559.518437	2565.816238
559.875474	2564.742472
560.232455	2565.546536
560.589381	2564.215671
560.946251	2565.188614
561.303065	2564.707184
561.659825	2564.596278
562.016528	2564.114848
562.373177	2566.106104
562.729770	2565.380178
563.086307	2564.722307
563.442789	2564.871021
563.799216	2561.455640
564.155587	2562.327759
564.511904	2563.819941
564.868164	2562.176525
565.224370	2567.222720
565.580520	2563.683830
565.936615	2563.388922
566.292654	2564.266083
566.648638	2564.074519
567.004567	2563.031000
567.360441	2563.797256
567.716260	2561.553942
568.072023	2564.513099
568.427732	2559.623180
568.783385	2559.915567
569.138982	2558.443550
569.494525	2562.884807
569.850013	2560.810372
570.205445	2562.264745
570.560823	2561.185938
570.916145	2563.494786
571.271412	2564.419838
571.626625	2563.459498
571.981782	2562.766340
572.336884	2561.377502
572.691931	2562.237018
573.046923	2562.080743
573.401860	2560.996895
573.756743	2564.034190
574.111570	2564.729869
574.466342	2563.187276
574.821059	2562.070660
575.175722	2563.164591
575.530330	2560.795248
575.884882	2562.937739
576.239380	2560.724672
576.593823	2563.693912
576.948211	2563.099056
577.302544	2561.047306
577.656823	2560.333983
578.011047	2563.835064
578.365216	2562.393294
578.719330	2561.836247
579.073389	2562.935218
579.427394	2559.227450
579.781344	2561.311967
580.135239	2562.436144
580.489080	2561.473284
580.842866	2560.059240
581.196597	2563.162070
581.550273	2561.422872
581.903895	2560.092007
582.257463	2562.340362
582.610975	2561.095197
582.964434	2560.686864
583.317837	2561.725341
583.671186	2560.906154
584.024481	2559.882800
584.377721	2560.119734
584.730906	2563.235167
585.084037	2561.959755
585.437113	2563.056206
585.790135	2560.946483
586.143103	2560.321380
586.496016	2560.185269
586.848874	2556.422047
587.201679	2558.118396
587.554428	2555.260062
587.907124	2557.861297
588.259765	2558.201575
588.612352	2557.717624
588.964884	2560.623849
589.317362	2558.430947
589.669786	2559.189641
590.022155	2560.533108
590.374470	2557.573951
590.726731	2562.030331
591.078937	2559.353478
591.431090	2559.855073
591.783188	2555.796944
592.135232	2560.162584
592.487222	2558.441030
592.839157	2561.072512
593.191038	2559.875238
593.542866	2560.064281
593.894639	2558.803993
594.246358	2560.389436
594.598022	2557.697459
594.949633	2556.928683
595.301190	2554.912222
595.652692	2559.683674
596.004141	2559.613098
596.355535	2559.698798
596.706876	2557.770556
597.058162	2556.386759
597.409395	2560.936401
597.760573	2559.308108
598.111698	2557.957079
598.462768	2557.989846
598.813785	2556.333827
599.164748	2557.773077
599.515657	2557.284085
599.866511	2557.384908
600.217312	2558.443550
600.568060	2556.280895
600.918753	2560.754919
601.269392	2557.246276
601.619978	2556.903478
601.970510	2557.967161
602.320988	2556.724517
602.671412	2556.908519
603.021783	2557.531101
603.372100	2557.316852
603.722363	2555.751574
604.072572	2559.108982
604.422728	2559.779456
604.772830	2554.206460
605.122878	2552.797458
605.472872	2552.230328
605.822813	2551.113712
606.172701	2554.713096
606.522534	2556.177552
606.872314	2557.324414
607.222041	2555.275185
607.571714	2554.728220
607.921333	2553.707386
608.270899	2559.247614
608.620411	2560.626370
608.969870	2560.122254
609.319276	2559.008159
609.668627	2559.555125
610.017926	2561.599313
610.367171	2563.361196
610.716362	2566.801783
611.065500	2563.721638
611.414585	2565.763306
611.763616	2559.781977
612.112594	2558.932542
612.461518	2559.557645
612.810389	2560.190310
613.159207	2556.790052
613.507971	2560.933880
613.856682	2559.096380
614.205340	2559.262738
614.553945	2561.168294
614.902496	2557.354661
615.250994	2558.625032
615.599439	2559.653427
615.947830	2556.389280
616.296169	2558.662840
616.644454	2557.037068
616.992686	2557.818447
617.340864	2555.323076
617.688990	2557.876420
618.037063	2558.680484
618.385082	2556.054043
618.733048	2557.609239
619.080961	2557.752912
619.428821	2558.841801
619.776628	2559.625701
620.124382	2559.489590
620.472083	2555.244938
620.819731	2559.968499
621.167326	2555.668395
621.514868	2555.728889
621.862357	2554.380380
622.209793	2558.211657
622.557176	2557.768036
622.904506	2554.158569
623.251783	2552.721841
623.599007	2553.145297
623.946179	2551.547252
624.293297	2554.594629
624.640363	2556.043961
624.987376	2558.120916
625.334336	2557.606719
625.681243	2556.812737
626.028097	2555.416337
626.374899	2553.828374
626.721647	2553.399876
627.068343	2555.607901
627.414987	2552.588250
627.761577	2555.963302
628.108115	2552.812581
628.454600	2554.529094
628.801032	2553.379711
629.147412	2556.490103
629.493739	2553.377191
629.840014	2554.587067
630.186236	2556.175031
630.532405	2553.440205
630.878521	2553.178065
631.224585	2557.160577
631.570597	2554.599670
631.916556	2552.353836
632.262462	2554.922304
632.608316	2552.426933
632.954117	2550.982642
633.299866	2554.627397
633.645562	2554.274516
633.991206	2553.533466
634.336797	2551.484237
634.682336	2553.803168
635.027823	2552.119423
635.373257	2553.654454
635.718639	2553.820812
636.063968	2552.336192
636.409245	2551.542211
636.754470	2548.981304
637.099642	2550.352498
637.444762	2550.523897
637.789829	2549.717313
638.134845	2550.176058
638.479808	2549.278733
638.824719	2549.530790
639.169577	2548.424257
639.514383	2550.917107
639.859137	2550.450801
640.203839	2552.900802
640.548489	2551.060780
640.893086	2546.359904
641.237632	2546.682538
641.582125	2548.610780
641.926566	2542.463092
642.270955	2549.288815
642.615292	2551.839639
642.959576	2549.666901
643.303809	2551.103630
643.647990	2549.654298
643.992118	2552.663867
644.336195	2551.635472
644.680219	2551.154042
645.024192	2551.312838
645.368112	2549.210677
645.711981	2548.182282
646.055797	2551.983312
646.399562	2551.398538
646.743274	2551.779145
647.086935	2553.500699
647.430544	2549.288815
647.774101	2551.484237
648.117606	2550.937272
648.461059	2551.496840
648.804460	2551.572458
649.147810	2553.662016
649.491108	2549.341747
649.834354	2553.183106
650.177548	2547.705893
650.520690	2551.988353
650.863781	2551.529608
651.206820	2553.931718
651.549807	2548.830070
651.892742	2549.359391
652.235626	2549.687066
652.578458	2549.850903
652.921238	2548.424257
653.263967	2554.329969
653.606644	2549.094730
653.949269	2550.894422
654.291843	2548.683876
654.634365	2548.983825
654.976836	2548.033568
655.319255	2549.697148
655.661622	2550.806202
656.003938	2546.795964
656.346203	2550.226469
656.688416	2546.803526
657.030577	2547.468958
657.372687	2547.383259
657.714746	2550.518856
658.056753	2547.910059
658.398708	2540.958308
658.740612	2545.787733
659.082465	2543.032743
659.424266	2547.584905
659.766016	2541.003678
660.107715	2548.104144
660.449362	2548.275543
660.790958	2547.234545
661.132503	2551.958106
661.473996	2549.442570
661.815438	2549.976932
662.156829	2550.733105
662.498168	2548.356201
662.839456	2548.550286
663.180693	2546.390151
663.521879	2550.110523
663.863013	2547.567261
664.204097	2550.153373
664.545129	2547.015254
664.886110	2550.959957
665.227040	2548.716644
665.567918	2550.100441
665.908746	2548.875440
666.249522	2548.159596
666.590248	2548.043650
666.930922	2549.374514
667.271545	2546.659853
667.612118	2547.874771
667.952639	2547.557178
668.293109	2550.405430
668.633528	2551.022972
668.973896	2546.138094
669.314213	2549.946685
669.654480	2547.370656
669.994695	2548.996428
670.334859	2550.425595
670.674973	2548.749411
671.015035	2549.150183
671.355047	2547.864689
671.695008	2547.635316
672.034918	2553.198230
672.374777	2549.200595
672.714585	2548.293187
673.054342	2549.674463
673.394049	2548.734288
673.733705	2549.762683
674.073310	2548.691438
674.412864	2548.454504
674.752368	2547.705893
675.091820	2549.515667
675.431223	2546.919472
675.770574	2548.308310
676.109875	2541.253216
676.449125	2546.848896
676.788324	2542.470654
677.127473	2545.911242
677.466571	2540.887732
677.805619	2547.375697
678.144616	2546.934596
678.483562	2548.094061
678.822458	2548.383928
679.161303	2550.657488
679.500098	2549.699669
679.838842	2548.313352
680.177535	2547.342929
680.516179	2546.241437
680.854771	2546.949719
681.193314	2550.564227
681.531805	2549.946685
681.870247	2550.982643
682.208638	2548.767055
682.546978	2547.015254
682.885268	2549.152704
683.223508	2548.346119
683.561697	2546.780841
683.899836	2549.523228
684.237925	2548.076417
684.575963	2547.113557
684.913951	2547.887374
685.251889	2548.429298
685.589776	2547.239586
685.927614	2550.796120
686.265401	2548.363763
686.603137	2550.382745
686.940824	2548.068856
687.278460	2548.696479
687.616046	2547.277394
687.953582	2544.814791
688.291068	2549.520708
688.628504	2548.026006
688.965889	2548.983825
689.303224	2546.236396
689.640510	2546.163299
689.977745	2548.325954
690.314930	2547.431150
690.652065	2548.900646
690.989150	2547.726057
691.326185	2546.853938
691.663170	2545.134904
692.000105	2546.191026
692.336990	2547.731098
692.673825	2546.160779
693.010610	2547.441232
693.347345	2543.972918
693.684030	2540.045859
694.020665	2541.666590
694.357251	2539.839172
694.693786	2543.035263
695.030272	2546.180943
695.366707	2543.935109
695.703093	2544.640871
696.039429	2546.556509
696.375716	2546.649771
696.711952	2543.531817
697.048139	2544.207332
697.384276	2545.795295
697.720363	2543.055428
698.056400	2543.630120
698.392388	2546.241437
698.728326	2544.101467
699.064214	2544.335881
699.400053	2545.694472
699.735842	2545.742363
700.071581	2544.827394
700.407270	2543.216745
700.742910	2545.659184
701.078501	2543.312527
701.414042	2541.797660
701.749533	2543.988042
702.084974	2542.097609
702.420366	2543.002496
702.755709	2543.985521
703.091002	2543.652805
703.426246	2541.853113
703.761440	2544.560212
704.096584	2543.977959
704.431679	2542.334543
704.766725	2541.354039
705.101721	2542.634492
705.436668	2541.036446
705.771565	2543.330171
706.106413	2543.592311
706.441212	2542.647095
706.775961	2543.027702
707.110661	2543.834286
707.445311	2543.395706
707.779913	2544.040974
708.114465	2543.320089
708.448967	2545.250851
708.783421	2546.238917
709.117825	2543.370500
709.452180	2543.025181
709.786485	2542.692465
710.120742	2545.049204
710.454949	2546.001982
710.789107	2542.596683
711.123216	2538.780530
711.457275	2542.765562
711.791286	2541.389327
712.125247	2540.877650
712.459159	2544.908052
712.793023	2544.640871
713.126837	2547.360573
713.460602	2545.691952
713.794318	2544.318237
714.127985	2543.327650
714.461602	2544.093906
714.795171	2542.573998
715.128691	2543.438556
715.462162	2545.712116
715.795584	2541.351518
716.128957	2545.298742
716.462281	2542.173226
716.795556	2543.844369
717.128782	2540.854964
717.461960	2541.049049
717.795088	2544.121632
718.128167	2541.548123
718.461198	2542.321940
718.794180	2541.966539
719.127113	2540.955788
719.459997	2541.538041
719.792833	2543.408309
720.125619	2542.395037
720.458357	2540.691127
720.791046	2541.046528
721.123686	2542.158103
721.456278	2545.213042
721.788821	2541.578370
722.121315	2540.005530
722.453761	2542.067362
722.786158	2540.590304
723.118506	2540.446631
723.450805	2543.922507
723.783056	2540.897814
724.115259	2542.861344
724.447412	2540.683565
724.779518	2541.386806
725.111574	2544.335881
725.443582	2541.994265
725.775542	2544.514842
726.107453	2541.691796
726.439315	2541.404450
726.771129	2545.805378
727.102895	2539.698020
727.434612	2541.807743
727.766281	2542.642053
728.097901	2540.744059
728.429473	2539.713143
728.760996	2537.958822
729.092471	2536.882535
729.423897	2539.294727
729.755276	2543.826725
730.086606	2542.137938
730.417887	2545.452497
730.749120	2541.371683
731.080305	2542.707588
731.411442	2541.235572
731.742530	2542.967208
732.073570	2543.761190
732.404562	2545.674307
732.735506	2542.853782
733.066401	2543.441076
733.397249	2543.935109
733.728048	2542.899152
734.058798	2543.115922
734.389501	2540.618030
734.720156	2543.035263
735.050762	2540.068544
735.381320	2541.606096
735.711831	2539.221631
736.042293	2539.420756
736.372707	2539.385468
736.703073	2543.983000
737.033391	2542.435366
737.363661	2542.886549
737.693883	2539.761034
738.024056	2545.873433
738.354182	2542.435366
738.684260	2540.739018
739.014290	2541.132228
739.344272	2540.454193
739.674207	2541.177598
740.004093	2541.948895
740.333931	2542.185829
740.663722	2541.921168
740.993464	2542.727753
741.323159	2542.906714
741.652806	2541.321271
741.982405	2543.312527
742.311956	2543.491488
742.641460	2541.759852
742.970915	2542.947043
743.300323	2539.861857
743.629683	2541.676673
743.958996	2541.101981
744.288260	2539.390509
744.617477	2541.570808
744.946647	2535.077802
745.275768	2541.260777
745.604842	2536.196938
745.933869	2537.661393
746.262847	2538.702392
746.591778	2539.330015
746.920662	2540.998637
747.249498	2541.835469
747.578286	2540.340767
747.907027	2538.233564
748.235720	2539.322454
748.564365	2541.507794
748.892963	2539.193904
749.221514	2541.170037
749.550017	2538.200797
749.878473	2541.442259
750.206881	2541.192722
750.535242	2539.995448
750.863555	2537.573173
751.191821	2538.069727
751.520039	2539.579553
751.848210	2539.773637
752.176334	2540.187012
752.504411	2539.879501
752.832440	2539.622402
753.160421	2538.314223
753.488356	2539.458565
753.816243	2540.890253
754.144082	2539.934954
754.471875	2538.772968
754.799620	2537.033770
755.127318	2538.359593
755.454969	2539.403112
755.782572	2541.429656
756.110129	2538.536034
756.437638	2542.337064
756.765100	2538.946888
757.092515	2540.529810
757.419882	2540.280273
757.747203	2538.019315
758.074477	2538.727598
758.401703	2539.508976
758.728882	2539.070396
759.056014	2538.798174
759.383099	2538.861188
759.710138	2541.530479
760.037129	2540.514687
760.364073	2537.931095
760.690970	2539.060314
761.017820	2540.139121
761.344623	2540.280273
761.671379	2540.575180
761.998088	2536.703574
762.324751	2539.019984
762.651366	2538.745242
762.977935	2542.884029
763.304456	2542.299255
763.630931	2549.029195
763.957359	2547.675646
764.283740	2545.719678
764.610074	2546.982487
764.936362	2539.939995
765.262602	2540.003009
765.588796	2541.553164
765.914943	2541.611138
766.241044	2537.363965
766.567097	2539.176260
766.893104	2538.024357
767.219064	2540.174409
767.544978	2539.297248
767.870845	2538.382278
768.196665	2541.217928
768.522438	2537.636188
768.848165	2540.723894
769.173846	2541.288504
769.499479	2540.318082
769.825066	2536.285158
770.150607	2538.226003
770.476101	2539.841692
770.801548	2539.783719
771.126949	2537.457227
771.452303	2536.766589
771.777611	2539.597197
772.102872	2536.932947
772.428087	2537.001002
772.753256	2537.600900
773.078378	2537.724408
773.403453	2538.107536
773.728482	2535.087884
774.053465	2537.603420
774.378401	2537.240457
774.703291	2537.429500
775.028135	2537.217772
775.352932	2537.923533
775.677683	2537.875642
776.002388	2538.057124
776.327046	2536.023018
776.651658	2537.046373
776.976224	2536.282638
777.300743	2538.031918
777.625216	2534.936650
777.949643	2538.820859
778.274024	2537.573173
778.598359	2534.193080
778.922647	2534.344314
779.246889	2536.481763
779.571086	2529.754344
779.895236	2536.239788
780.219339	2535.246681
780.543397	2534.286341
780.867409	2537.810107
781.191374	2535.755837
781.515294	2538.770447
781.839167	2531.438089
782.162995	2538.299099
782.486776	2536.015457
782.810511	2534.750127
783.134201	2538.248688
783.457844	2534.571166
783.781441	2535.370189
784.104993	2536.406146
784.428498	2540.799512
784.751958	2534.956814
785.075372	2537.623585
785.398739	2536.648122
785.722061	2537.583256
786.045337	2536.360776
786.368568	2537.482432
786.691752	2534.593851
787.014891	2536.426311
787.337983	2538.835982
787.661030	2535.665097
787.984031	2537.013605
788.306987	2539.410674
788.629897	2537.694161
788.952760	2539.995448
789.275579	2535.758358
789.598351	2537.452186
789.921078	2537.827752
790.243759	2536.295241
790.566395	2533.575538
790.888984	2536.285158
791.211529	2534.114942
791.534027	2535.692823
791.856480	2535.024870
792.178888	2536.948070
792.501249	2535.173584
792.823566	2534.787936
793.145836	2535.818852
793.468062	2537.290869
793.790241	2536.048224
794.112375	2534.303985
794.434464	2536.504449
794.756507	2535.501259
795.078505	2534.563604
795.400457	2532.484128
795.722364	2533.318439
796.044226	2534.235929
796.366042	2531.664941
796.687812	2534.445137
797.009538	2536.975797
797.331218	2534.704757
797.652852	2539.178781
797.974442	2537.600900
798.295986	2534.987061
798.617484	2536.285158
798.938938	2535.781043
799.260346	2536.103677
799.581709	2536.214582
799.903026	2535.942360
800.224299	2537.489994
800.545526	2534.616537
800.866708	2536.017977
801.187845	2536.247350
801.508936	2537.560570
801.829983	2536.559901
802.150984	2536.726259
802.471940	2535.849099
802.792851	2537.298430
803.113717	2535.382792
803.434538	2536.126362
803.755314	2536.398584
804.076045	2533.459592
804.396731	2535.539068
804.717372	2538.019315
805.037967	2535.856660
805.358518	2533.235260
805.679024	2535.866743
805.999485	2535.957483
806.319901	2537.089223
806.640272	2533.668800
806.960598	2536.522093
807.280879	2536.275076
807.601115	2535.765920
807.921306	2534.742565
808.241453	2537.174922
808.561554	2536.305323
808.881611	2536.922864
809.201623	2535.554191
809.521590	2536.696012
809.841513	2533.782226
810.161390	2536.232226
810.481223	2534.616537
810.801011	2534.724921
811.120755	2534.830786
811.440453	2534.225847
811.760107	2536.736342
812.079716	2533.091588
812.399281	2532.867256
812.718801	2532.816845
813.038276	2532.353058
813.357707	2532.920188
813.677093	2534.863553
813.996434	2536.880015
814.315731	2534.240971
814.634983	2534.001516
814.954191	2535.428162
815.273354	2537.270704
815.592473	2534.409849
815.911547	2537.079140
816.230577	2534.684592
816.549562	2532.658048
816.868502	2534.505631
817.187399	2539.377906
817.506250	2536.045704
817.825058	2535.256763
818.143821	2534.510672
818.462539	2536.912782
818.781213	2536.164171
819.099843	2536.007895
819.418429	2540.068544
819.736970	2539.997968
820.055466	2538.636857
820.373919	2538.394881
820.692327	2539.209028
821.010691	2542.722712
821.329011	2548.394010
821.647286	2563.895558
821.965517	2570.388564
822.283704	2578.867785
822.601847	2581.060687
822.919945	2576.435428
823.237999	2566.209448
823.556010	2562.592420
823.873976	2554.592109
824.191897	2551.317879
824.509775	2548.726726
824.827609	2547.289997
825.145398	2545.502908
825.463144	2542.868905
825.780845	2543.705737
826.098502	2545.162630
826.416116	2548.918290
826.733685	2552.459701
827.051210	2556.487582
827.368692	2553.132695
827.686129	2551.164124
828.003522	2546.435522
828.320872	2538.460416
828.638177	2540.842362
828.955439	2537.434542
829.272656	2536.108718
829.589830	2535.337422
829.906960	2535.718029
830.224046	2537.540406
830.541088	2535.284489
830.858086	2535.907072
831.175041	2537.792463
831.491952	2534.220806
831.808819	2535.753317
832.125642	2536.968235
832.442421	2540.222300
832.759157	2537.021167
833.075849	2542.503422
833.392497	2542.470654
833.709101	2546.652291
834.025662	2543.501570
834.342179	2544.436704
834.658653	2542.989893
834.975083	2539.395550
835.291469	2544.640871
835.607811	2538.162988
835.924110	2537.003523
836.240366	2537.623585
836.556578	2535.034952
836.872746	2534.735004
837.188871	2535.317257
837.504952	2536.277597
837.820990	2536.101156
838.136984	2535.619726
838.452935	2534.732483
838.768842	2535.884387
839.084706	2533.575538
839.400526	2534.372041
839.716303	2536.741383
840.032037	2537.051414
840.347727	2538.725077
840.663373	2535.218954
840.978977	2535.750796
841.294537	2537.666435
841.610054	2534.240971
841.925527	2536.212062
842.240957	2534.009078
842.556344	2535.198790
842.871687	2533.646114
843.186987	2532.413552
843.502244	2532.905065
843.817458	2533.472195
844.132629	2533.610826
844.447756	2534.679551
844.762840	2530.608819
845.077881	2532.479087
845.392879	2530.329035
845.707833	2532.327853
846.022745	2529.804755
846.337613	2532.385826
846.652438	2529.237625
846.967221	2532.063192
847.281960	2533.741896
847.596656	2535.917154
847.911309	2533.668800
848.225919	2534.626619
848.540485	2533.830117
848.855009	2533.716691
849.169490	2533.948584
849.483928	2534.324150
849.798323	2532.403470
850.112675	2533.318439
850.426984	2532.912627
850.741251	2534.573687
851.055474	2531.745599
851.369654	2534.545960
851.683792	2534.777853
851.997887	2530.092101
852.311938	2529.298119
852.625947	2532.484128
852.939914	2533.368851
853.253837	2534.949253
853.567718	2531.657379
853.881555	2534.792977
854.195350	2530.704601
854.509103	2532.625281
854.822812	2532.668131
855.136479	2532.859694
855.450103	2529.348531
855.763685	2531.186031
856.077224	2532.355579
856.390720	2532.348017
856.704173	2530.616381
857.017584	2531.803573
857.330953	2534.782895
857.644278	2532.945394
857.957561	2534.137627
858.270802	2532.837009
858.584000	2531.120496
858.897155	2536.396064
859.210268	2530.634025
859.523339	2533.315919
859.836367	2532.746268
860.149352	2534.369520
860.462295	2533.220137
860.775195	2528.131092
861.088054	2528.113448
861.400869	2531.571680
861.713642	2528.131092
862.026373	2530.384488
862.339062	2530.850795
862.651708	2531.007070
862.964312	2533.053779
863.276873	2532.201824
863.589392	2530.644107
863.901869	2533.152081
864.214303	2533.477236
864.526696	2534.717360
864.839045	2533.870446
865.151353	2533.961187
865.463619	2533.028573
865.775842	2533.855322
866.088023	2531.526309
866.400162	2530.626463
866.712258	2532.595034
867.024313	2533.653676
867.336325	2533.845240
867.648296	2532.229550
867.960224	2532.141330
868.272110	2532.116124
868.583954	2531.395239
868.895755	2530.984385
869.207515	2532.600075
869.519233	2533.862884
869.830909	2531.574200
870.142542	2532.186700
870.454134	2532.947915
870.765684	2531.483459
871.077191	2533.194931
871.388657	2534.798018
871.700081	2531.448171
872.011463	2533.320960
872.322803	2532.136289
872.634101	2532.337935
872.945357	2530.306350
873.256571	2532.164015
873.567744	2532.438758
873.878874	2535.564273
874.189963	2530.238294
874.501010	2536.454037
874.812015	2533.658717
875.122979	2536.144006
875.433900	2530.666792
875.744780	2532.647966
876.055618	2532.348017
876.366415	2534.356917
876.677169	2535.649973
876.987882	2529.464477
877.298554	2529.361134
877.609183	2533.194931
877.919771	2528.899868
878.230317	2528.809127
878.540822	2534.828265
878.851285	2535.539068
879.161707	2533.184849
879.472087	2537.442103
879.782425	2538.336908
880.092722	2538.525951
880.402977	2542.329502
880.713191	2549.624052
881.023363	2555.239897
881.333494	2559.098900
881.643583	2562.524364
881.953631	2559.255176
882.263637	2556.822819
882.573602	2558.115875
882.883526	2552.915925
883.193408	2550.274360
883.503248	2548.073897
883.813048	2542.011909
884.122806	2541.805222
884.432522	2539.350180
884.742197	2538.609130
885.051831	2539.277083
885.361424	2537.495035
885.670975	2536.320447
885.980485	2536.945550
886.289954	2535.758358
886.599382	2534.611495
886.908768	2535.844057
887.218113	2533.071423
887.527417	2535.725590
887.836680	2533.076464
888.145901	2533.555374
888.455082	2532.852133
888.764221	2535.692823
889.073319	2533.721732
889.382376	2532.400949
889.691392	2532.204344
890.000366	2533.784746
890.309300	2533.073943
890.618193	2534.389685
890.927044	2531.087729
891.235855	2536.065868
891.544625	2531.138140
891.853353	2534.331711
892.162041	2533.850281
892.470687	2535.846578
892.779293	2532.784077
893.087858	2530.535722
893.396381	2530.412214
893.704864	2537.260622
894.013306	2533.537730
894.321707	2537.792463
894.630068	2540.373534
894.938387	2542.173226
895.246665	2542.208514
895.554903	2538.956970
895.863100	2538.442772
896.171256	2537.759696
896.479371	2534.263656
896.787446	2536.010416
897.095480	2535.738193
897.403473	2533.348686
897.711425	2536.214582
898.019336	2533.177287
898.327207	2535.090405
898.635038	2533.757020
898.942827	2533.394057
899.250576	2534.278779
899.558284	2533.688964
899.865952	2533.797349
900.173579	2533.094108
900.481165	2529.721576
900.788711	2533.257946
901.096216	2530.785260
901.403681	2530.127389
901.711105	2532.978162
902.018489	2532.474046
902.325832	2534.177956
902.633135	2531.980013
902.940397	2533.101670
903.247619	2533.366330
903.554800	2535.057637
903.861941	2538.911600
904.169041	2543.284801
904.476101	2543.935109
904.783121	2544.850079
905.090100	2543.461241
905.397039	2542.478216
905.703938	2536.663245
906.010796	2541.457382
906.317614	2537.472350
906.624391	2533.023532
906.931129	2532.156453
907.237826	2533.250384
907.544483	2534.878677
907.851099	2531.753161
908.157675	2529.950949
908.464211	2533.610826
908.770707	2527.180835
909.077163	2528.383150
909.383578	2530.114786
909.689954	2528.166380
909.996289	2527.407687
910.302584	2531.780887
910.608839	2533.731814
910.915054	2531.256607
911.221229	2531.027235
911.527363	2532.151412
911.833458	2530.366844
912.139513	2531.052441
912.445527	2531.586803
912.751502	2533.353728
913.057436	2533.275590
913.363331	2529.005732
913.669186	2532.766433
913.975000	2534.119983
914.280775	2531.390198
914.586510	2533.734335
914.892205	2534.261135
915.197859	2536.484284
915.503475	2538.382278
915.809050	2541.573329
916.114585	2542.589121
916.420081	2546.369987
916.725536	2544.575336
917.030952	2544.328319
917.336328	2539.566950
917.641665	2541.565767
917.946961	2539.196425
918.252218	2534.498069
918.557435	2535.960004
918.862612	2535.735673
919.167750	2534.556043
919.472848	2532.335414
919.777906	2532.342976
920.082925	2531.612009
920.387904	2533.005888
920.692843	2534.104859
920.997743	2530.724766
921.302603	2532.746268
921.607423	2530.815507
921.912204	2532.340456
922.216946	2534.959335
922.521647	2531.866587
922.826310	2532.116124
923.130932	2531.957328
923.435516	2531.251566
923.740059	2530.583613
924.044564	2532.824406
924.349028	2530.674354
924.653454	2526.888448
924.957840	2529.270393
925.262186	2526.510361
925.566493	2528.146216
925.870761	2526.356606
926.174989	2530.744930
926.479178	2530.876000
926.783328	2531.632173
927.087438	2529.565300
927.391509	2533.429345
927.695541	2530.316432
927.999533	2530.767616
928.303486	2529.855167
928.607400	2531.604447
928.911275	2530.225692
929.215110	2531.120496
929.518906	2530.334076
929.822663	2530.681916
930.126381	2529.217461
930.430060	2530.447502
930.733699	2529.131761
931.037299	2529.991278
931.340861	2529.373737
931.644383	2530.039169
931.947866	2526.832995
932.251309	2530.510517
932.554714	2528.037831
932.858080	2529.620753
933.161407	2529.436751
933.464694	2529.361134
933.767943	2529.766947
934.071153	2530.172759
934.374323	2528.083201
934.677455	2529.845084
934.980548	2530.175280
935.283602	2528.544467
935.586617	2527.969775
935.889593	2531.919519
936.192530	2529.721576
936.495428	2531.251566
936.798287	2529.935825
937.101108	2530.359282
937.403890	2528.423479
937.706632	2532.259797
938.009336	2532.685775
938.312002	2529.882893
938.614628	2529.935825
938.917216	2531.196114
939.219765	2531.188552
939.522275	2532.252235
939.824747	2529.620753
940.127179	2527.838705
940.429573	2526.651513
940.731929	2526.953983
941.034246	2525.706297
941.336524	2528.514220
941.638763	2528.615043
941.940964	2529.971113
942.243126	2528.753675
942.545250	2531.364992
942.847335	2529.587986
943.149381	2530.507996
943.451389	2529.698891
943.753359	2530.853315
944.055290	2530.139992
944.357182	2531.299457
944.659036	2527.369878
944.960851	2529.860208
945.262628	2530.623943
945.564367	2529.835002
945.866067	2528.239477
946.167729	2530.969262
946.469352	2528.579755
946.770937	2530.243336
947.072484	2527.866432
947.373992	2531.445651
947.675462	2528.940197
947.976893	2531.947246
948.278286	2529.330887
948.579641	2527.271575
948.880958	2528.544467
949.182236	2528.892306
949.483476	2529.504807
949.784678	2528.365506
950.085841	2532.733666
950.386967	2527.579086
950.688054	2528.718387
950.989103	2530.460105
951.290114	2529.706453
951.591087	2529.305681
951.892021	2530.719725
952.192917	2533.300795
952.493776	2531.790970
952.794596	2527.092614
953.095378	2530.926412
953.396122	2528.231915
953.696828	2527.707635
953.997496	2530.833151
954.298126	2525.474404
954.598718	2532.093439
954.899272	2529.063706
955.199788	2528.239477
955.500266	2531.057482
955.800706	2525.537418
956.101108	2526.172604
956.401472	2526.759898
956.701798	2525.421472
957.002087	2526.238139
957.302337	2528.582275
957.602550	2529.242667
957.902724	2532.277441
958.202861	2528.710825
958.502960	2527.294261
958.803022	2530.220650
959.103045	2526.621267
959.403031	2527.753006
959.702979	2526.671678
960.002889	2527.841226
960.302762	2530.160157
960.602596	2527.158149
960.902393	2530.255938
961.202153	2525.870135
961.501875	2527.488345
961.801559	2526.044054
962.101205	2528.741072
962.400814	2530.868439
962.700385	2529.439272
962.999918	2527.662265
963.299414	2529.872811
963.598873	2528.108407
963.898293	2528.267203
964.197677	2528.471370
964.497022	2527.442975
964.796331	2529.940866
965.095601	2527.964734
965.394835	2529.504807
965.694030	2531.428007
965.993189	2531.828778
966.292309	2523.495751
966.591393	2528.531864
966.890439	2528.262162
967.189447	2529.129241
967.488419	2526.515402
967.787353	2525.970958
968.086249	2525.292922
968.385108	2531.332225
968.683930	2526.699404
968.982714	2528.670496
969.281462	2527.516071
969.580172	2527.024559
969.878844	2528.851977
970.177480	2529.262831
970.476078	2527.826102
970.774639	2525.345855
971.073162	2526.772501
971.371649	2526.953983
971.670098	2522.863086
971.968510	2527.972296
972.266885	2525.713859
972.565223	2527.349713
972.863524	2527.165711
973.161788	2529.557739
973.460014	2526.719569
973.758204	2527.314425
974.056356	2526.122192
974.354471	2530.757533
974.652550	2527.609333
974.950591	2528.781401
975.248595	2529.305681
975.546563	2527.347193
975.844493	2529.928263
976.142386	2526.321318
976.440243	2529.207378
976.738062	2526.225536
977.035845	2527.553880
977.333590	2528.988088
977.631299	2528.531864
977.928971	2527.790814
978.226606	2526.533046
978.524204	2528.778880
978.821765	2529.454395
979.119290	2528.345341
979.416777	2527.417769
979.714228	2526.472553
980.011642	2528.562111
980.309020	2531.266690
980.606360	2529.104035
980.903664	2525.124044
981.200931	2528.015146
981.498162	2526.880886
981.795356	2527.432892
982.092513	2529.913140
982.389633	2524.052799
982.686717	2529.197296
982.983764	2526.580937
983.280775	2528.136133
983.577749	2526.921215
983.874686	2527.334590
984.171587	2529.240146
984.468451	2529.071267
984.765279	2529.827440
985.062070	2525.219826
985.358824	2528.466329
985.655543	2527.763088
985.952224	2528.088242
986.248869	2524.350227
986.545478	2522.169928
986.842050	2527.707635
987.138586	2523.515916
987.435086	2523.853673
987.731549	2520.597088
988.027975	2526.419620
988.324366	2526.359127
988.620719	2527.621936
988.917037	2525.981040
989.213318	2530.548325
989.509563	2528.426000
989.805772	2527.569003
990.101944	2525.867614
990.398080	2527.561442
990.694180	2526.374250
990.990244	2528.090763
991.286271	2528.050434
991.582262	2525.872655
991.878217	2524.977850
992.174136	2528.932636
992.470019	2526.969106
992.765865	2528.937677
993.061676	2528.725948
993.357450	2529.845084
993.653188	2528.766277
993.948890	2527.816020
994.244556	2528.438603
994.540186	2527.735362
994.835780	2526.873324
995.131337	2526.921215
995.426859	2529.373737
995.722345	2526.223015
996.017795	2527.611853
996.313208	2528.516740
996.608586	2526.704446
996.903928	2526.185207
997.199234	2527.321987
997.494504	2526.878365
997.789738	2525.794517
998.084936	2525.474404
998.380099	2526.996832
998.675225	2524.831657
998.970316	2528.166380
999.265371	2528.559590
999.560390	2528.259642
999.855373	2527.264014
1000.150320	2526.913653
1000.445232	2526.805269
1000.740108	2526.979188
1001.034948	2528.610002
1001.329752	2525.214785
1001.624521	2528.814168
1001.919254	2521.202026
1002.213951	2524.977850
1002.508613	2523.445340
1002.803239	2525.688653
1003.097829	2522.485000
1003.392384	2524.382994
1003.686903	2525.915505
1003.981386	2529.971113
1004.275834	2528.201668
1004.570246	2528.115969
1004.864623	2524.808972
1005.158964	2528.708304
1005.453270	2527.382481
1005.747540	2527.160670
1006.041775	2525.371060
1006.335974	2528.980527
1006.630138	2527.269055
1006.924266	2530.389529
1007.218359	2526.654034
1007.512416	2528.882224
1007.806438	2527.203520
1008.100425	2528.970444
1008.394376	2528.247039
1008.688292	2528.854498
1008.982172	2525.481966
1009.276017	2528.325177
1009.569827	2527.299302
1009.863602	2529.882893
1010.157341	2526.061698
1010.451045	2528.773839
1010.744714	2525.907943
1011.038347	2528.756195
1011.331945	2530.497914
1011.625508	2527.420289
1011.919036	2525.887779
1012.212528	2525.509692
1012.505986	2528.199148
1012.799408	2527.891637
1013.092795	2526.472552
1013.386147	2526.507841
1013.679464	2527.480783
1013.972745	2526.807789
1014.265992	2526.928777
1014.559204	2527.899199
1014.852380	2528.753675
1015.145521	2527.309384
1015.438628	2526.913653
1015.731699	2525.182017
1016.024736	2524.687984
1016.317737	2527.448016
1016.610703	2528.224353
1016.903635	2524.753519
1017.196531	2522.197654
1017.489393	2524.919877
1017.782219	2519.709845
1018.075011	2524.297295
1018.367768	2525.774353
1018.660490	2525.328211
1018.953177	2525.328211
1019.245829	2525.328211
