Dividing Wavelength (nm)	Counts (n)	Blue Motor Position (mm): 0.000000	Red Motor Position (mm): 13.300000	
326.493990	2126.996398
326.888308	2126.996398
327.282561	2126.996398
327.676750	2094.342324
328.070874	2093.865935
328.464933	2095.602613
328.858929	2104.608634
329.252859	2116.651951
329.646726	2123.838115
330.040528	2138.094498
330.434265	2154.536222
330.827938	2170.572132
331.221547	2191.039217
331.615091	2208.700899
332.008571	2228.368961
332.401986	2249.841756
332.795338	2268.778850
333.188625	2285.076901
333.581847	2305.543985
333.975006	2322.991419
334.368100	2342.389779
334.761129	2359.358303
335.154095	2376.117618
335.546996	2394.727038
335.939833	2406.853533
336.332606	2423.486821
336.725315	2434.171546
337.117960	2445.501539
337.510540	2453.562344
337.903056	2464.337811
338.295508	2472.791826
338.687896	2478.813484
339.080220	2491.802017
339.472480	2495.575321
339.864676	2501.609582
340.256807	2502.703512
340.648875	2508.246261
341.040879	2512.211128
341.432818	2511.495284
341.824694	2512.662312
342.216506	2512.811026
342.608253	2514.371263
342.999937	2513.751201
343.391557	2511.830521
343.783113	2510.088803
344.174605	2509.400685
344.566033	2508.117711
344.957397	2507.366579
345.348697	2506.968328
345.739934	2504.639315
346.131106	2503.058913
346.522215	2503.507576
346.913260	2497.163284
347.304241	2495.325783
347.695159	2496.021463
348.086012	2494.229333
348.476802	2491.136585
348.867528	2491.345792
349.258191	2490.004846
349.648789	2490.723210
350.039324	2484.789772
350.429796	2487.668271
350.820203	2483.463948
351.210548	2482.906901
351.600828	2481.376911
351.991045	2482.191057
352.381198	2482.669967
352.771288	2481.185347
353.161314	2481.848259
353.551276	2481.830615
353.941175	2481.898670
354.331010	2480.988742
354.720782	2482.922024
355.110490	2481.112250
355.500135	2482.208701
355.889717	2484.159628
356.279235	2479.935141
356.668689	2482.571664
357.058080	2480.877837
357.447408	2479.196612
357.836672	2480.207363
358.225873	2483.191726
358.615010	2480.557723
359.004084	2484.041161
359.393095	2485.671974
359.782043	2485.850935
360.170927	2485.772797
360.559748	2488.084166
360.948505	2485.293887
361.337199	2489.609115
361.725830	2490.062819
362.114398	2489.425113
362.502903	2492.716986
362.891344	2490.423261
363.279722	2493.226143
363.668037	2494.075577
364.056289	2489.830926
364.444478	2490.231697
364.832603	2495.534991
365.220665	2494.473828
365.608665	2496.071874
365.996601	2494.436020
366.384474	2494.357882
366.772284	2501.607061
367.160031	2500.296361
367.547715	2503.142092
367.935336	2499.913233
368.322893	2507.661487
368.710388	2508.515963
369.097820	2515.099709
369.485189	2515.921418
369.872495	2523.374763
370.259738	2530.681916
370.646918	2539.115766
371.034035	2543.118443
371.421090	2556.447253
371.808081	2563.638459
372.195010	2574.479461
372.581875	2586.159814
372.968678	2599.818820
373.355418	2607.932557
373.742096	2627.348562
374.128710	2642.414050
374.515262	2657.681184
374.901751	2675.078206
375.288177	2686.849300
375.674540	2709.789071
376.060841	2723.344734
376.447079	2747.156624
376.833254	2764.765374
377.219367	2779.167951
377.605417	2814.503919
377.991404	2822.030361
378.377329	2845.249916
378.763191	2865.946373
379.148991	2902.550191
379.534727	2925.061464
379.920402	2955.789817
380.306013	2967.039152
380.691563	3016.439939
381.077049	3034.643545
381.462474	3056.254972
381.847835	3094.638317
382.233134	3116.675721
382.618371	3112.930144
383.003545	3179.972449
383.388657	3187.546783
383.773706	3223.578430
384.158693	3240.678024
384.543618	3265.440171
384.928480	3299.974596
385.313280	3345.372707
385.698017	3345.367666
386.082692	3400.543094
386.467305	3403.058630
386.851856	3431.379832
387.236344	3452.703913
387.620770	3482.890343
388.005133	3508.164167
388.389435	3531.671068
388.773674	3539.154661
389.157851	3576.812080
389.541965	3587.098554
389.926018	3547.734704
390.310008	3608.407512
390.693936	3618.189871
391.077802	3649.576094
391.461606	3623.357053
391.845348	3676.173222
392.229027	3660.200326
392.612645	3656.701765
392.996200	3711.521793
393.379694	3733.813775
393.763125	3769.845422
394.146494	3719.040674
394.529801	3750.333636
394.913047	3769.507665
395.296230	3719.322978
395.679351	3739.578335
396.062410	3730.726068
396.445408	3690.646375
396.828343	3683.795447
397.211217	3673.645083
397.594028	3588.673915
397.976778	3603.174794
398.359466	3588.983946
398.742092	3571.281934
399.124656	3492.282012
399.507158	3509.767254
399.889598	3495.044564
400.271977	3491.281343
400.654294	3435.614402
401.036549	3404.878487
401.418742	3352.679859
401.800874	3364.826519
402.182944	3339.340966
402.564952	3330.319821
402.946898	3287.724592
403.328783	3246.513159
403.710606	3175.226203
404.092367	3210.476471
404.474067	3161.438647
404.855705	3133.104842
405.237282	3074.914803
405.618797	3072.885738
406.000250	3047.377500
406.381642	3037.282589
406.762972	2994.465549
407.144240	2963.835498
407.525447	2935.990685
407.906593	2915.637027
408.287677	2895.542987
408.668700	2853.552696
409.049661	2838.746827
409.430560	2822.254693
409.811399	2786.235648
410.192176	2783.044598
410.572891	2753.445463
410.953545	2744.250399
411.334138	2712.803681
411.714669	2702.587783
412.095139	2679.032991
412.475547	2673.185253
412.855894	2657.005670
413.236180	2642.519914
413.616405	2629.501134
413.996568	2617.709875
414.376670	2608.169492
414.756711	2594.444950
415.136691	2588.667788
415.516609	2582.870461
415.896466	2581.539597
416.276262	2570.635581
416.655997	2561.798438
417.035670	2561.405228
417.415283	2556.719476
417.794834	2553.687222
418.174324	2551.295194
418.553753	2547.005172
418.933121	2543.819163
419.312428	2541.863195
419.691674	2540.557536
420.070859	2539.725746
420.449983	2540.796991
420.829045	2536.249870
421.208047	2536.945550
421.586988	2536.038142
421.965867	2532.526978
422.344686	2533.441948
422.723444	2531.193593
423.102141	2532.801721
423.480777	2533.119314
423.859352	2531.231402
424.237866	2533.739376
424.616319	2528.864580
424.994712	2530.981865
425.373044	2528.184024
425.751314	2531.332225
426.129524	2528.093283
426.507673	2532.773995
426.885762	2530.407173
427.263789	2528.640249
427.641756	2532.615198
428.019662	2530.119827
428.397508	2529.933305
428.775292	2529.073788
429.153016	2529.527492
429.530679	2530.586134
429.908282	2529.640918
430.285824	2529.451874
430.663305	2526.429703
431.040726	2529.378778
431.418086	2529.351051
431.795385	2529.782070
432.172624	2528.806607
432.549802	2529.429189
432.926920	2529.126720
433.303977	2533.484797
433.680974	2530.800383
434.057910	2529.648479
434.434786	2528.375588
434.811601	2533.313398
435.188355	2528.927594
435.565050	2531.493542
435.941683	2531.755682
436.318257	2529.978675
436.694770	2526.356606
437.071222	2529.507327
437.447614	2526.936339
437.823946	2529.603109
438.200218	2531.518748
438.576429	2534.067051
438.952580	2531.428007
439.328670	2532.307688
439.704700	2532.867256
440.080670	2532.005219
440.456580	2532.577390
440.832429	2533.152081
441.208218	2532.342976
441.583947	2533.598223
441.959616	2529.640918
442.335224	2533.252904
442.710773	2531.543953
443.086261	2530.918850
443.461689	2533.431865
443.837057	2531.473377
444.212365	2534.450178
444.587612	2534.356917
444.962800	2535.362627
445.337927	2530.810465
445.712995	2530.722245
446.088002	2534.994623
446.462949	2532.837009
446.837837	2533.136958
447.212664	2534.949253
447.587431	2532.910106
447.962139	2535.917154
448.336786	2540.134079
448.711374	2537.064017
449.085901	2535.385312
449.460369	2533.562935
449.834776	2534.911444
450.209124	2534.593851
450.583412	2536.055786
450.957640	2535.844057
451.331808	2538.883873
451.705917	2535.980169
452.079965	2537.802546
452.453954	2538.848585
452.827883	2536.585107
453.201752	2535.158461
453.575562	2537.056455
453.949311	2535.816331
454.323001	2536.844727
454.696632	2536.421270
455.070202	2538.846065
455.443713	2539.642567
455.817164	2534.487987
456.190556	2536.040663
456.563888	2537.275745
456.937160	2536.885056
457.310373	2539.559388
457.683526	2537.361445
458.056619	2538.074768
458.429653	2539.743390
458.802628	2538.188194
459.175542	2540.418905
459.548398	2540.706250
459.921194	2541.406971
460.293930	2541.374203
460.666607	2541.119625
461.039224	2543.146169
461.411782	2542.226158
461.784280	2545.392003
462.156719	2543.526776
462.529099	2544.136756
462.901419	2541.023843
463.273680	2541.270860
463.645882	2541.260777
464.018024	2543.632640
464.390106	2541.475026
464.762130	2546.753114
465.134094	2544.832435
465.505999	2547.269833
465.877845	2551.983312
466.249631	2552.623538
466.621358	2551.809392
466.993026	2555.043292
467.364634	2553.843497
467.736184	2549.029195
468.107674	2547.035419
468.479105	2547.297559
468.850477	2547.169010
469.221790	2549.855945
469.593043	2546.559030
469.964238	2546.193546
470.335373	2546.874102
470.706449	2549.739998
471.077467	2547.171530
471.448425	2553.982129
471.819324	2552.742005
472.190164	2556.502706
472.560945	2552.605894
472.931667	2549.525749
473.302330	2548.681356
473.672934	2547.776469
474.043479	2548.940975
474.413965	2550.060111
474.784393	2543.834286
475.154761	2546.387631
475.525070	2544.179605
475.895321	2544.318237
476.265513	2542.836138
476.635645	2550.070194
477.005719	2546.034750
477.375734	2551.305276
477.745691	2548.396531
478.115588	2550.261757
478.485427	2550.221428
478.855207	2553.631769
479.224928	2551.872406
479.594591	2556.217881
479.964194	2555.983467
480.333739	2554.705535
480.703226	2553.450287
481.072653	2555.244938
481.442022	2555.454146
481.811333	2553.994732
482.180584	2553.858621
482.549777	2554.672767
482.918912	2553.883827
483.287988	2554.057746
483.657005	2554.551779
484.025964	2553.344423
484.394864	2554.491286
484.763706	2553.881306
485.132489	2552.928528
485.501213	2552.643703
485.869879	2552.618497
486.238487	2550.816284
486.607036	2553.364588
486.975527	2550.775955
487.343959	2550.256716
487.712333	2551.557334
488.080648	2552.283260
488.448905	2553.651933
488.817104	2552.245452
489.185244	2554.340051
489.553326	2552.494989
489.921350	2554.730740
490.289315	2555.814588
490.657222	2560.553273
491.025070	2558.420865
491.392861	2556.260731
491.760593	2559.131668
492.128267	2556.207798
492.495883	2553.662016
492.863440	2555.557490
493.230939	2553.472972
493.598380	2552.787376
493.965763	2545.255892
494.333088	2552.119423
494.700354	2549.059442
495.067563	2551.219577
495.434713	2550.057591
495.801805	2552.752088
496.168839	2553.364588
496.535815	2554.874413
496.902733	2552.111861
497.269593	2554.145967
497.636395	2551.879968
498.003139	2552.270657
498.369825	2553.457849
498.736453	2554.148487
499.103023	2551.907694
499.469535	2550.407951
499.835989	2553.727551
500.202385	2554.166131
500.568723	2551.648075
500.935003	2551.827036
501.301226	2551.259906
501.667390	2551.985832
502.033497	2552.414330
502.399546	2552.207643
502.765537	2553.462890
503.131470	2553.687222
503.497345	2552.734443
503.863163	2556.653941
504.228923	2555.963302
504.594625	2551.869886
504.960269	2551.726213
505.325856	2555.441543
505.691385	2552.648744
506.056856	2554.556821
506.422270	2552.983981
506.787625	2551.585060
507.152924	2552.532797
507.518164	2554.443395
507.883347	2550.433157
508.248472	2553.793086
508.613540	2554.055226
508.978550	2553.556152
509.343503	2554.329969
509.708398	2554.080432
510.073236	2555.822150
510.438016	2555.799465
510.802738	2553.525905
511.167403	2556.316183
511.532010	2553.740154
511.896561	2557.483210
512.261053	2555.267623
512.625488	2551.401058
512.989866	2549.238403
513.354186	2554.400545
513.718449	2549.172868
514.082655	2554.642520
514.446803	2553.987170
514.810894	2556.359033
515.174927	2554.350133
515.538904	2552.530277
515.902822	2554.435833
516.266684	2555.249979
516.630488	2554.997922
516.994235	2554.571944
517.357925	2555.781821
517.721558	2555.073539
518.085133	2556.991698
518.448651	2552.857952
518.812112	2555.365926
519.175516	2555.391132
519.538863	2556.815257
519.902152	2554.362736
520.265385	2556.197716
520.628560	2553.606563
520.991678	2553.316697
521.354739	2555.401214
521.717743	2557.836091
522.080690	2554.035061
522.443580	2556.757284
522.806413	2554.985319
523.169189	2553.520863
523.531908	2556.313663
523.894569	2556.049002
524.257174	2554.113199
524.619722	2554.390462
524.982213	2557.145453
525.344647	2554.889537
525.707025	2554.403065
526.069345	2554.151008
526.431608	2558.521688
526.793815	2554.206460
527.155964	2556.195196
527.518057	2556.696790
527.880093	2555.779300
528.242072	2557.195865
528.603995	2556.785011
528.965860	2556.432130
529.327669	2556.601008
529.689421	2554.690411
530.051117	2557.284085
530.412755	2555.300391
530.774337	2557.238714
531.135862	2556.590926
531.497331	2553.964485
531.858743	2552.522715
532.220098	2553.266285
532.581396	2550.962478
532.942638	2552.772252
533.303824	2555.809547
533.664953	2553.926676
534.026025	2554.080432
534.387040	2554.753426
534.747999	2556.233004
535.108902	2555.953220
535.469748	2557.190823
535.830537	2556.117058
536.191270	2554.299722
536.551947	2553.911553
536.912567	2556.744681
537.273131	2555.350802
537.633638	2557.263920
537.994089	2555.794424
538.354483	2551.857283
538.714821	2554.430792
539.075103	2555.277706
539.435328	2555.290308
539.795497	2553.861141
540.155609	2561.090156
540.515665	2553.921635
540.875665	2552.157231
541.235609	2553.825853
541.595496	2557.977243
541.955328	2557.344579
542.315102	2554.662685
542.674821	2555.045812
543.034483	2555.650751
543.394090	2558.065464
543.753640	2557.362223
544.113134	2552.643703
544.472571	2554.324928
544.831953	2555.751574
545.191278	2555.469269
545.550548	2554.387942
545.909761	2553.896429
546.268918	2555.481872
546.628019	2556.298539
546.987064	2555.484393
547.346053	2554.191337
547.704986	2555.784342
548.063863	2555.426420
548.422684	2555.736451
548.781449	2555.219732
549.140158	2553.939279
549.498811	2553.906512
549.857408	2553.566234
550.215949	2553.621687
550.574434	2552.197561
550.932864	2552.421892
551.291237	2552.653785
551.649555	2558.680484
552.007817	2555.247459
552.366022	2557.684857
552.724173	2556.613611
553.082267	2555.010524
553.440305	2555.832232
553.798288	2556.984136
554.156215	2554.854249
554.514086	2555.496996
554.871902	2552.830225
555.229661	2555.839794
555.587365	2554.579506
555.945014	2557.576472
556.302606	2557.274002
556.660143	2556.792572
557.017625	2555.915412
557.375050	2554.105637
557.732421	2555.229815
558.089735	2558.229301
558.446994	2556.545556
558.804197	2557.578992
559.161345	2554.453477
559.518437	2556.253169
559.875474	2556.129661
560.232455	2555.789383
560.589381	2556.449774
560.946251	2558.093190
561.303065	2558.151163
561.659825	2554.985319
562.016528	2554.125802
562.373177	2555.817109
562.729770	2558.204095
563.086307	2555.575134
563.442789	2555.849877
563.799216	2554.511450
564.155587	2555.827191
564.511904	2556.248128
564.868164	2555.161759
565.224370	2554.254351
565.580520	2556.323745
565.936615	2560.311298
566.292654	2556.016235
566.648638	2555.759136
567.004567	2556.323745
567.360441	2556.066646
567.716260	2554.309804
568.072023	2552.149670
568.427732	2551.605225
568.783385	2552.913404
569.138982	2552.404248
569.494525	2552.293343
569.850013	2549.760163
570.205445	2556.112017
570.560823	2555.580175
570.916145	2556.069167
571.271412	2552.132026
571.626625	2556.512788
571.981782	2556.379198
572.336884	2555.708724
572.691931	2554.176213
573.046923	2557.352140
573.401860	2554.297201
573.756743	2554.934907
574.111570	2554.501368
574.466342	2554.997922
574.821059	2554.892057
575.175722	2557.059753
575.530330	2555.318035
575.884882	2554.040102
576.239380	2552.497509
576.593823	2558.073025
576.948211	2556.260731
577.302544	2555.953220
577.656823	2554.934907
578.011047	2558.423386
578.365216	2554.680329
578.719330	2553.049516
579.073389	2553.523384
579.427394	2552.421892
579.781344	2553.241079
580.135239	2554.471121
580.489080	2555.398693
580.842866	2553.551110
581.196597	2551.131357
581.550273	2555.262582
581.903895	2553.442726
582.257463	2554.468600
582.610975	2554.425751
582.964434	2555.605381
583.317837	2555.403734
583.671186	2553.465411
584.024481	2554.675288
584.377721	2555.378529
584.730906	2551.935421
585.084037	2554.692932
585.437113	2552.787376
585.790135	2555.376008
586.143103	2554.602191
586.496016	2554.927345
586.848874	2550.349978
587.201679	2550.425595
587.554428	2553.137736
587.907124	2549.215718
588.259765	2549.465255
588.612352	2554.249310
588.964884	2553.493137
589.317362	2553.243600
589.669786	2551.380894
590.022155	2556.313663
590.374470	2552.038764
590.726731	2554.524053
591.078937	2553.291491
591.431090	2552.832746
591.783188	2553.442726
592.135232	2553.576316
592.487222	2552.384083
592.839157	2551.718651
593.191038	2551.549772
593.542866	2553.593960
593.894639	2552.558003
594.246358	2551.275029
594.598022	2551.388455
594.949633	2551.093548
595.301190	2550.959957
595.652692	2551.312838
596.004141	2551.078424
596.355535	2552.263096
596.706876	2550.922149
597.058162	2550.342416
597.409395	2553.379711
597.760573	2552.202602
598.111698	2552.684032
598.462768	2552.802499
598.813785	2551.002807
599.164748	2552.111861
599.515657	2552.217725
599.866511	2552.928528
600.217312	2551.131357
600.568060	2552.200081
600.918753	2551.343085
601.269392	2552.230328
601.619978	2551.501881
601.970510	2552.535318
602.320988	2551.617828
602.671412	2550.256716
603.021783	2550.549103
603.372100	2551.085986
603.722363	2552.154711
604.072572	2549.893753
604.422728	2554.077911
604.772830	2547.128680
605.122878	2549.964329
605.472872	2550.143290
605.822813	2549.218239
606.172701	2548.593136
606.522534	2548.353681
606.872314	2551.668239
607.222041	2551.459032
607.571714	2553.011707
607.921333	2549.853424
608.270899	2552.066491
608.620411	2552.011038
608.969870	2552.447098
609.319276	2554.824002
609.668627	2558.015052
610.017926	2557.238714
610.367171	2559.242573
610.716362	2555.668395
611.065500	2553.170503
611.414585	2555.192006
611.763616	2556.162428
612.112594	2553.044474
612.461518	2555.391132
612.810389	2554.292160
613.159207	2553.180586
613.507971	2549.329144
613.856682	2554.972716
614.205340	2552.200081
614.553945	2552.089176
614.902496	2548.653629
615.250994	2551.816953
615.599439	2549.044319
615.947830	2553.921635
616.296169	2555.428940
616.644454	2553.094886
616.992686	2551.474155
617.340864	2553.530946
617.688990	2549.974412
618.037063	2551.123795
618.385082	2550.937272
618.733048	2553.092365
619.080961	2550.468445
619.428821	2552.018600
619.776628	2550.919628
620.124382	2552.157231
620.472083	2552.023641
620.819731	2551.590102
621.167326	2550.886861
621.514868	2552.129505
621.862357	2553.916594
622.209793	2550.302087
622.557176	2548.986346
622.904506	2552.678991
623.251783	2546.896787
623.599007	2547.829401
623.946179	2548.638506
624.293297	2547.090872
624.640363	2552.237890
624.987376	2550.901984
625.334336	2548.242775
625.681243	2550.801161
626.028097	2551.869886
626.374899	2552.489948
626.721647	2548.580533
627.068343	2549.369473
627.414987	2551.121274
627.761577	2549.003990
628.108115	2548.600697
628.454600	2550.934752
628.801032	2548.751932
629.147412	2549.825698
629.493739	2548.104144
629.840014	2547.199257
630.186236	2548.915769
630.532405	2547.353012
630.878521	2549.939124
631.224585	2547.710934
631.570597	2549.248486
631.916556	2548.114226
632.262462	2550.458363
632.608316	2549.099772
632.954117	2546.808567
633.299866	2547.002652
633.645562	2544.492157
633.991206	2547.615152
634.336797	2546.380069
634.682336	2550.491130
635.027823	2546.828732
635.373257	2546.997610
635.718639	2545.144986
636.063968	2549.674463
636.409245	2546.664894
636.754470	2546.911911
637.099642	2545.639019
637.444762	2546.130532
637.789829	2547.766386
638.134845	2545.797816
638.479808	2546.843855
638.824719	2549.225800
639.169577	2549.301418
639.514383	2546.029709
639.859137	2546.417878
640.203839	2545.991900
640.548489	2547.088351
640.893086	2545.891077
641.237632	2542.919317
641.582125	2546.811088
641.926566	2543.037784
642.270955	2546.881664
642.615292	2546.090203
642.959576	2546.354863
643.303809	2546.294369
643.647990	2548.572971
643.992118	2546.241437
644.336195	2545.931406
644.680219	2547.075748
645.024192	2548.888043
645.368112	2547.423588
645.711981	2546.949719
646.055797	2543.940151
646.399562	2545.991900
646.743274	2547.365615
647.086935	2548.603218
647.430544	2547.920142
647.774101	2546.662374
648.117606	2546.720347
648.461059	2546.828732
648.804460	2547.872251
649.147810	2547.547096
649.491108	2544.340922
649.834354	2549.437529
650.177548	2544.890408
650.520690	2547.400903
650.863781	2545.860830
651.206820	2548.033568
651.549807	2545.165151
651.892742	2549.644216
652.235626	2545.349153
652.578458	2544.325799
652.921238	2546.332178
653.263967	2545.041643
653.606644	2546.304452
653.949269	2545.933927
654.291843	2545.180274
654.634365	2545.979297
654.976836	2545.477702
655.319255	2544.958464
655.661622	2543.753628
656.003938	2543.027702
656.346203	2545.318906
656.688416	2545.631458
657.030577	2545.528114
657.372687	2546.783361
657.714746	2543.589790
658.056753	2544.376210
658.398708	2539.942516
658.740612	2542.725233
659.082465	2540.386137
659.424266	2539.478729
659.766016	2540.154244
660.107715	2543.289842
660.449362	2546.664894
660.790958	2546.251520
661.132503	2544.106509
661.473996	2545.621375
661.815438	2542.684903
662.156829	2546.289328
662.498168	2543.688093
662.839456	2545.298742
663.180693	2544.293031
663.521879	2544.643392
663.863013	2545.765048
664.204097	2544.746735
664.545129	2544.265305
664.886110	2545.981818
665.227040	2544.436704
665.567918	2545.422250
665.908746	2543.887218
666.249522	2546.727909
666.590248	2544.333361
666.930922	2546.024668
667.271545	2543.826725
667.612118	2546.417878
667.952639	2544.872764
668.293109	2544.212373
668.633528	2543.902342
668.973896	2543.196580
669.314213	2543.617517
669.654480	2545.606252
669.994695	2544.872764
670.334859	2547.801674
670.674973	2546.770758
671.015035	2545.760007
671.355047	2542.458051
671.695008	2545.283618
672.034918	2546.886705
672.374777	2545.001313
672.714585	2543.138607
673.054342	2544.640871
673.394049	2546.243958
673.733705	2543.804039
674.073310	2546.387631
674.412864	2545.248330
674.752368	2543.849410
675.091820	2542.851261
675.431223	2544.056097
675.770574	2541.772454
676.109875	2538.543595
676.449125	2541.480067
676.788324	2542.208514
677.127473	2540.852444
677.466571	2539.070396
677.805619	2544.124153
678.144616	2544.103988
678.483562	2543.176416
678.822458	2544.053577
679.161303	2547.587425
679.500098	2543.385624
679.838842	2546.511139
680.177535	2546.395192
680.516179	2545.220604
680.854771	2544.822352
681.193314	2544.068700
681.531805	2545.170192
681.870247	2545.064328
682.208638	2544.376210
682.546978	2546.243958
682.885268	2544.620706
683.223508	2544.759338
683.561697	2543.415871
683.899836	2543.710778
684.237925	2543.551982
684.575963	2544.799667
684.913951	2545.102137
685.251889	2545.646581
685.589776	2543.609955
685.927614	2543.536858
686.265401	2543.146169
686.603137	2545.616334
686.940824	2543.446117
687.278460	2542.906714
687.616046	2544.958464
687.953582	2545.137425
688.291068	2541.951415
688.628504	2543.899821
688.965889	2542.203473
689.303224	2544.517363
689.640510	2543.796478
689.977745	2544.955943
690.314930	2541.815304
690.652065	2547.385779
690.989150	2543.201622
691.326185	2546.369987
691.663170	2542.609286
692.000105	2543.088196
692.336990	2539.839172
692.673825	2544.751776
693.010610	2542.122815
693.347345	2540.360931
693.684030	2539.088040
694.020665	2536.481763
694.357251	2536.572504
694.693786	2541.969059
695.030272	2540.744059
695.366707	2541.928730
695.703093	2543.410829
696.039429	2542.455531
696.375716	2540.514687
696.711952	2540.403781
697.048139	2541.122146
697.384276	2542.959646
697.720363	2542.183308
698.056400	2542.551313
698.392388	2543.468803
698.728326	2544.600542
699.064214	2541.142310
699.400053	2541.580891
699.735842	2541.414533
700.071581	2542.475695
700.407270	2539.947557
700.742910	2540.844882
701.078501	2541.384286
701.414042	2540.353370
701.749533	2539.579552
702.084974	2543.138607
702.420366	2538.294058
702.755709	2540.865047
703.091002	2540.686086
703.426246	2542.821014
703.761440	2538.591486
704.096584	2541.701878
704.431679	2541.202804
704.766725	2540.645757
705.101721	2541.648946
705.436668	2540.043339
705.771565	2540.197094
706.106413	2540.083668
706.441212	2539.836651
706.775961	2545.422250
707.110661	2539.158616
707.445311	2541.122146
707.779913	2542.611807
708.114465	2541.391847
708.448967	2540.008051
708.783421	2542.523586
709.117825	2541.119625
709.452180	2540.812115
709.786485	2542.185829
710.120742	2540.368493
710.454949	2542.039636
710.789107	2540.701209
711.123216	2537.908410
711.457275	2538.818338
711.791286	2537.681558
712.125247	2539.811446
712.459159	2540.587783
712.793023	2541.487629
713.126837	2543.448638
713.460602	2543.047866
713.794318	2539.849254
714.127985	2544.146838
714.461602	2541.036446
714.795171	2542.228679
715.128691	2541.762372
715.462162	2537.626105
715.795584	2540.852444
716.128957	2541.580891
716.462281	2539.869419
716.795556	2537.996630
717.128782	2538.624254
717.461960	2542.314378
717.795088	2539.362783
718.128167	2542.568957
718.461198	2537.817669
718.794180	2543.065510
719.127113	2539.798843
719.459997	2539.488812
719.792833	2539.002340
720.125619	2539.128369
720.458357	2536.242309
720.791046	2539.607279
721.123686	2538.896476
721.456278	2541.384286
721.788821	2538.457896
722.121315	2540.227341
722.453761	2540.015612
722.786158	2537.673996
723.118506	2540.282793
723.450805	2542.616848
723.783056	2540.333205
724.115259	2537.931095
724.447412	2538.389840
724.779518	2542.334543
725.111574	2538.815818
725.443582	2538.097453
725.775542	2539.435880
726.107453	2539.272042
726.439315	2540.078627
726.771129	2542.700027
727.102895	2538.624254
727.434612	2539.456044
727.766281	2540.575180
728.097901	2537.600900
728.429473	2538.362114
728.760996	2537.333718
729.092471	2535.009747
729.423897	2541.890922
729.755276	2538.173071
730.086606	2540.270191
730.417887	2536.673327
730.749120	2539.440921
731.080305	2538.354552
731.411442	2540.113915
731.742530	2540.945705
732.073570	2538.649460
732.404562	2540.744059
732.735506	2539.819007
733.066401	2539.027546
733.397249	2541.384286
733.728048	2538.588966
734.058798	2541.767413
734.389501	2537.759696
734.720156	2539.387989
735.050762	2540.270191
735.381320	2539.370345
735.711831	2538.901517
736.042293	2540.791950
736.372707	2539.234233
736.703073	2538.659542
737.033391	2537.290869
737.363661	2540.028215
737.693883	2539.990407
738.024056	2539.922351
738.354182	2539.501415
738.684260	2536.953111
739.014290	2540.391178
739.344272	2538.561239
739.674207	2539.748431
740.004093	2539.393030
740.333931	2538.578883
740.663722	2537.827752
740.993464	2538.830941
741.323159	2539.876981
741.652806	2540.555016
741.982405	2539.866898
742.311956	2538.800694
742.641460	2538.591486
742.970915	2538.253729
743.300323	2537.855478
743.629683	2537.610982
743.958996	2540.116435
744.288260	2537.321116
744.617477	2537.321116
744.946647	2537.767258
745.275768	2535.428162
745.604842	2535.067720
745.933869	2536.675848
746.262847	2533.865405
746.591778	2535.723070
746.920662	2534.689633
747.249498	2536.567463
747.578286	2538.641898
747.907027	2539.677855
748.235720	2541.530479
748.564365	2535.012267
748.892963	2536.411187
749.221514	2537.820190
749.550017	2538.188194
749.878473	2536.625436
750.206881	2536.164171
750.535242	2537.845396
750.863555	2537.139634
751.191821	2541.676673
751.520039	2539.698020
751.848210	2537.694161
752.176334	2538.467978
752.504411	2538.152906
752.832440	2534.964376
753.160421	2538.168029
753.488356	2536.632998
753.816243	2539.758513
754.144082	2534.722401
754.471875	2536.638039
754.799620	2534.631660
755.127318	2537.295910
755.454969	2536.544778
755.782572	2534.470343
756.110129	2538.629295
756.437638	2536.542257
756.765100	2536.219623
757.092515	2538.546116
757.419882	2537.336239
757.747203	2538.130221
758.074477	2537.767258
758.401703	2537.109387
758.728882	2537.361445
759.056014	2536.002854
759.383099	2538.404964
759.710138	2539.468647
760.037129	2536.963194
760.364073	2538.914120
760.690970	2538.117618
761.017820	2539.425797
761.344623	2535.869263
761.671379	2538.679707
761.998088	2533.089067
762.324751	2537.326157
762.651366	2536.726259
762.977935	2541.517876
763.304456	2539.614841
763.630931	2540.875129
763.957359	2542.919317
764.283740	2540.804553
764.610074	2540.875129
764.936362	2537.308513
765.262602	2538.954449
765.588796	2538.750283
765.914943	2538.606610
766.241044	2535.166022
766.567097	2537.258101
766.893104	2536.486805
767.219064	2535.778523
767.544978	2539.960160
767.870845	2535.831455
768.196665	2536.287679
768.522438	2535.251722
768.848165	2536.348173
769.173846	2534.606454
769.499479	2535.831455
769.825066	2537.376568
770.150607	2536.229706
770.476101	2537.404295
770.801548	2537.918492
771.126949	2535.629808
771.452303	2536.612833
771.777611	2537.343801
772.102872	2536.466640
772.428087	2533.709129
772.753256	2534.054448
773.078378	2535.657535
773.403453	2536.333049
773.728482	2535.574356
774.053465	2535.269366
774.378401	2533.923378
774.703291	2534.737524
775.028135	2537.026208
775.352932	2533.376413
775.677683	2536.708615
776.002388	2536.448996
776.327046	2534.982020
776.651658	2534.404808
776.976224	2533.653676
777.300743	2536.587628
777.625216	2533.905734
777.949643	2534.956814
778.274024	2535.090405
778.598359	2531.738038
778.922647	2529.615712
779.246889	2533.658717
779.571086	2532.342976
779.895236	2531.922040
780.219339	2536.464119
780.543397	2534.639222
780.867409	2533.419263
781.191374	2535.221475
781.515294	2537.792463
781.839167	2535.922195
782.162995	2536.842206
782.486776	2533.832637
782.810511	2535.438245
783.134201	2536.272556
783.457844	2535.400436
783.781441	2536.738862
784.104993	2536.877494
784.428498	2536.328008
784.751958	2533.658717
785.075372	2534.251053
785.398739	2532.479087
785.722061	2534.571166
786.045337	2533.570497
786.368568	2538.251208
786.691752	2535.816331
787.014891	2533.691485
787.337983	2536.191897
787.661030	2537.800025
787.984031	2532.438758
788.306987	2535.707946
788.629897	2534.654345
788.952760	2535.884387
789.275579	2534.644263
789.598351	2535.289531
789.921078	2536.033101
790.243759	2536.214582
790.566395	2534.697195
790.888984	2534.939170
791.211529	2533.104190
791.534027	2533.048738
791.856480	2535.922195
792.178888	2537.762217
792.501249	2534.810621
792.823566	2537.273225
793.145836	2532.847092
793.468062	2536.375899
793.790241	2535.145858
794.112375	2534.702236
794.434464	2534.366999
794.756507	2536.242309
795.078505	2533.197452
795.400457	2533.547812
795.722364	2529.484642
796.044226	2534.709798
796.366042	2528.405835
796.687812	2531.617050
797.009538	2533.570497
797.331218	2534.417411
797.652852	2534.598892
797.974442	2536.330529
798.295986	2533.910775
798.617484	2534.349355
798.938938	2534.127545
799.260346	2538.488143
799.581709	2535.390354
799.903026	2536.920344
800.224299	2532.111083
800.545526	2537.800025
800.866708	2535.594520
801.187845	2534.520755
801.508936	2534.886238
801.829983	2533.878007
802.150984	2532.017822
802.471940	2533.807431
802.792851	2529.557739
803.113717	2533.673841
803.434538	2533.315919
803.755314	2533.678882
804.076045	2532.448840
804.396731	2531.972451
804.717372	2532.395908
805.037967	2533.706608
805.358518	2531.685106
805.679024	2534.548481
805.999485	2531.712832
806.319901	2534.556043
806.640272	2533.792308
806.960598	2533.981351
807.280879	2533.507483
807.601115	2533.386495
807.921306	2532.630322
808.241453	2535.579397
808.561554	2530.916330
808.881611	2535.818852
809.201623	2534.982020
809.521590	2533.416742
809.841513	2534.419932
810.161390	2535.728111
810.481223	2534.109901
810.801011	2533.227699
811.120755	2533.305837
811.440453	2535.037473
811.760107	2533.782226
812.079716	2530.409694
812.399281	2529.978675
812.718801	2531.102852
813.038276	2527.964734
813.357707	2534.427493
813.677093	2532.610157
813.996434	2531.818696
814.315731	2534.712318
814.634983	2533.696526
814.954191	2531.944725
815.273354	2533.643594
815.592473	2532.363141
815.911547	2534.225847
816.230577	2533.918337
816.549562	2533.835158
816.868502	2534.669469
817.187399	2534.203162
817.506250	2536.690971
817.825058	2535.844058
818.143821	2535.909592
818.462539	2532.826927
818.781213	2533.941022
819.099843	2532.043027
819.418429	2537.275745
819.736970	2535.995292
820.055466	2535.145858
820.373919	2540.602907
820.692327	2536.859850
821.010691	2538.893956
821.329011	2542.911755
821.647286	2550.528939
821.965517	2558.889692
822.283704	2562.453788
822.601847	2564.548387
822.919945	2557.510937
823.237999	2555.030689
823.556010	2551.005328
823.873976	2545.938968
824.191897	2545.271015
824.509775	2541.485109
824.827609	2543.781354
825.145398	2537.563091
825.463144	2542.347146
825.780845	2539.841692
826.098502	2541.265818
826.416116	2541.560726
826.733685	2546.833773
827.051210	2544.943340
827.368692	2543.741025
827.686129	2541.091899
828.003522	2539.781199
828.320872	2535.624767
828.638177	2536.766589
828.955439	2536.015457
829.272656	2532.123686
829.589830	2530.150074
829.906960	2531.780887
830.224046	2535.072761
830.541088	2537.542926
830.858086	2533.116793
831.175041	2534.188038
831.491952	2533.520086
831.808819	2532.327853
832.125642	2532.907585
832.442421	2533.809952
832.759157	2535.677699
833.075849	2536.877494
833.392497	2536.789274
833.709101	2541.805222
834.025662	2536.811959
834.342179	2538.858667
834.658653	2537.187525
834.975083	2537.530323
835.291469	2537.338760
835.607811	2537.222813
835.924110	2533.502442
836.240366	2535.879346
836.556578	2535.476053
836.872746	2534.530837
837.188871	2533.094108
837.504952	2533.973789
837.820990	2533.502442
838.136984	2531.518748
838.452935	2534.818183
838.768842	2533.777184
839.084706	2534.309026
839.400526	2533.439427
839.716303	2533.787267
840.032037	2534.649304
840.347727	2533.280631
840.663373	2536.726259
840.978977	2535.241640
841.294537	2533.883049
841.610054	2533.890610
841.925527	2533.812473
842.240957	2532.063192
842.556344	2532.221988
842.871687	2532.474046
843.186987	2532.451361
843.502244	2530.187883
843.817458	2533.648635
844.132629	2533.746937
844.447756	2532.690816
844.762840	2529.620753
845.077881	2528.196627
845.392879	2529.164529
845.707833	2531.735517
846.022745	2526.643952
846.337613	2531.715353
846.652438	2533.199972
846.967221	2533.545291
847.281960	2531.352389
847.596656	2530.996988
847.911309	2532.955476
848.225919	2531.160826
848.540485	2532.915147
848.855009	2531.523789
849.169490	2532.937832
849.483928	2530.583613
849.798323	2532.829447
850.112675	2531.823737
850.426984	2532.673172
850.741251	2531.112935
851.055474	2533.739376
851.369654	2531.604447
851.683792	2532.736186
851.997887	2533.391536
852.311938	2530.409694
852.625947	2530.071936
852.939914	2532.287523
853.253837	2531.380116
853.567718	2530.565969
853.881555	2532.826927
854.195350	2528.289888
854.509103	2533.265507
854.822812	2530.064375
855.136479	2531.985054
855.450103	2532.446320
855.763685	2532.731145
856.077224	2530.258459
856.390720	2533.676361
856.704173	2532.070754
857.017584	2532.831968
857.330953	2529.275434
857.644278	2531.155784
857.957561	2533.739376
858.270802	2531.082688
858.584000	2533.613347
858.897155	2530.276103
859.210268	2532.312729
859.523339	2531.916999
859.836367	2529.933305
860.149352	2530.893644
860.462295	2533.326001
860.775195	2525.290402
861.088054	2527.589168
861.400869	2528.993129
861.713642	2526.913653
862.026373	2529.282996
862.339062	2528.922553
862.651708	2530.921371
862.964312	2531.196114
863.276873	2530.235774
863.589392	2532.287523
863.901869	2529.678726
864.214303	2529.484642
864.526696	2529.346010
864.839045	2532.358100
865.151353	2532.476567
865.463619	2531.291896
865.775842	2532.922709
866.088023	2530.079498
866.400162	2532.400949
866.712258	2532.393388
867.024313	2531.680064
867.336325	2531.448171
867.648296	2533.567977
867.960224	2532.768954
868.272110	2533.585621
868.583954	2531.309540
868.895755	2532.509334
869.207515	2531.465815
869.519233	2530.578572
869.830909	2531.599406
870.142542	2531.680064
870.454134	2532.952956
870.765684	2532.781557
871.077191	2530.533202
871.388657	2532.723583
871.700081	2529.250228
872.011463	2530.964221
872.322803	2530.407173
872.634101	2528.824251
872.945357	2530.157636
873.256571	2531.617050
873.567744	2530.986906
873.878874	2529.174611
874.189963	2528.829292
874.501010	2533.275590
874.812015	2531.828778
875.122979	2533.179808
875.433900	2529.903058
875.744780	2531.468336
876.055618	2533.434386
876.366415	2533.739376
876.677169	2532.456402
876.987882	2530.686957
877.298554	2527.206040
877.609183	2528.700743
877.919771	2526.104548
878.230317	2527.385001
878.540822	2530.399611
878.851285	2532.037986
879.161707	2532.532019
879.472087	2533.696526
879.782425	2533.331042
880.092722	2536.501928
880.402977	2538.442772
880.713191	2541.548123
881.023363	2543.403268
881.333494	2548.131870
881.643583	2548.406613
881.953631	2547.824360
882.263637	2545.984338
882.573602	2542.059800
882.883526	2544.535007
883.193408	2542.132897
883.503248	2539.012423
883.813048	2535.377751
884.122806	2535.796167
884.432522	2534.823224
884.742197	2535.297092
885.051831	2536.569984
885.361424	2533.754499
885.670975	2535.176105
885.980485	2532.816845
886.289954	2532.564787
886.599382	2532.975641
886.908768	2533.414221
887.218113	2530.767616
887.527417	2533.633512
887.836680	2530.709642
888.145901	2532.494211
888.455082	2532.360620
888.764221	2529.121679
889.073319	2530.462626
889.382376	2532.937832
889.691392	2530.883562
890.000366	2531.717873
890.309300	2531.740558
890.618193	2530.722245
890.927044	2529.973634
891.235855	2530.961700
891.544625	2531.218799
891.853353	2532.325332
892.162041	2532.469005
892.470687	2533.356248
892.779293	2530.278624
893.087858	2528.904909
893.396381	2529.169570
893.704864	2532.567307
894.013306	2530.495393
894.321707	2539.186343
894.630068	2534.770292
894.938387	2534.291382
895.246665	2534.951773
895.554903	2536.532175
895.863100	2532.070754
896.171256	2535.319777
896.479371	2534.765251
896.787446	2533.890610
897.095480	2532.723583
897.403473	2533.497400
897.711425	2533.482277
898.019336	2531.745599
898.327207	2529.961031
898.635038	2532.249715
898.942827	2532.716022
899.250576	2530.210568
899.558284	2529.121679
899.865952	2529.630835
900.173579	2534.306506
900.481165	2531.092770
900.788711	2530.197965
901.096216	2533.462112
901.403681	2529.041020
901.711105	2531.259128
902.018489	2532.862215
902.325832	2532.955476
902.633135	2530.465146
902.940397	2531.627132
903.247619	2531.740558
903.554800	2528.239477
903.861941	2534.757689
904.169041	2536.126362
904.476101	2538.004192
904.783121	2539.264480
905.090100	2537.452186
905.397039	2534.840868
905.703938	2535.279448
906.010796	2534.563604
906.317614	2531.312060
906.624391	2530.276103
906.931129	2533.147040
907.237826	2529.358613
907.544483	2529.603109
907.851099	2532.118645
908.157675	2531.077647
908.464211	2526.764939
908.770707	2523.727644
909.077163	2528.317615
909.383578	2524.319980
909.689954	2529.761905
909.996289	2522.200175
910.302584	2529.522451
910.608839	2527.478263
910.915054	2529.988757
911.221229	2531.617050
911.527363	2529.363654
911.833458	2530.331556
912.139513	2528.136133
912.445527	2530.565969
912.751502	2532.060672
913.057436	2530.084539
913.363331	2529.396422
913.669186	2530.331556
913.975000	2529.446833
914.280775	2531.922040
914.586510	2531.299457
914.892205	2533.119314
915.197859	2534.742565
915.503475	2532.532019
915.809050	2536.847247
916.114585	2536.380940
916.420081	2536.617875
916.725536	2537.129552
917.030952	2538.528472
917.336328	2534.021680
917.641665	2533.361289
917.946961	2532.098480
918.252218	2533.300795
918.557435	2532.952956
918.862612	2531.745599
919.167750	2531.528830
919.472848	2531.138140
919.777906	2530.500434
920.082925	2533.467153
920.387904	2532.504293
920.692843	2529.724097
920.997743	2529.136802
921.302603	2528.849457
921.607423	2531.821217
921.912204	2531.060002
922.216946	2532.950435
922.521647	2531.831299
922.826310	2531.032276
923.130932	2531.100332
923.435516	2530.099663
923.740059	2530.568490
924.044564	2529.106555
924.349028	2528.907430
924.653454	2525.277799
924.957840	2530.916330
925.262186	2527.649662
925.566493	2525.663447
925.870761	2526.069260
926.174989	2528.567152
926.479178	2531.702750
926.783328	2529.572862
927.087438	2533.048738
927.391509	2531.551515
927.695541	2530.326515
927.999533	2526.026410
928.303486	2528.229395
928.607400	2529.703932
928.911275	2528.141174
929.215110	2527.669827
929.518906	2528.660413
929.822663	2532.484128
930.126381	2528.393232
930.430060	2528.592358
930.733699	2529.461957
931.037299	2529.396422
931.340861	2528.670496
931.644383	2528.047913
931.947866	2526.185207
932.251309	2528.700742
932.554714	2526.477594
932.858080	2531.052441
933.161407	2528.975485
933.464694	2528.199148
933.767943	2528.148736
934.071153	2528.557070
934.374323	2526.533046
934.677455	2528.955321
934.980548	2530.744930
935.283602	2529.829961
935.586617	2527.934487
935.889593	2527.644621
936.192530	2530.734848
936.495428	2528.942718
936.798287	2529.320804
937.101108	2524.501461
937.403890	2529.184693
937.706632	2531.581762
938.009336	2529.522451
938.312002	2531.075126
938.614628	2533.063861
938.917216	2530.931453
939.219765	2529.577903
939.522275	2530.258459
939.824747	2529.940866
940.127179	2527.097656
940.429573	2525.471883
940.731929	2527.634538
941.034246	2523.901564
941.336524	2529.035979
941.638763	2528.153777
941.940964	2527.740403
942.243126	2529.673685
942.545250	2531.112935
942.847335	2527.168232
943.149381	2527.816020
943.451389	2528.489014
943.753359	2527.027079
944.055290	2529.706453
944.357182	2527.763088
944.659036	2527.659744
944.960851	2528.511699
945.262628	2527.337110
945.564367	2528.640249
945.866067	2527.826102
946.167729	2527.909281
946.469352	2526.013808
946.770937	2525.754188
947.072484	2526.754857
947.373992	2527.879034
947.675462	2529.202337
947.976893	2525.774353
948.278286	2527.765608
948.579641	2527.137985
948.880958	2526.230577
949.182236	2529.640918
949.483476	2529.724097
949.784678	2529.840043
950.085841	2525.665968
950.386967	2528.073119
950.688054	2527.019518
950.989103	2526.969106
951.290114	2527.037162
951.591087	2529.217461
951.892021	2527.994981
952.192917	2529.935825
952.493776	2526.792666
952.794596	2529.497245
953.095378	2530.669313
953.396122	2530.029087
953.696828	2528.184024
953.997496	2528.708304
954.298126	2527.442975
954.598718	2527.722759
954.899272	2527.803417
955.199788	2530.167718
955.500266	2531.790970
955.800706	2526.984230
956.101108	2522.396780
956.401472	2526.439785
956.701798	2524.400638
957.002087	2523.896523
957.302337	2527.289219
957.602550	2529.275434
957.902724	2528.756195
958.202861	2527.901720
958.502960	2529.900537
958.803022	2527.745444
959.103045	2526.207892
959.403031	2529.807276
959.702979	2527.057326
960.002889	2531.788449
960.302762	2526.291071
960.602596	2526.747295
960.902393	2528.153777
961.202153	2527.148067
961.501875	2528.700743
961.801559	2529.159488
962.101205	2531.662420
962.400814	2527.702594
962.700385	2527.082532
962.999918	2530.515558
963.299414	2527.793335
963.598873	2527.415248
963.898293	2525.212264
964.197677	2528.546987
964.497022	2526.177645
964.796331	2527.989940
965.095601	2528.980527
965.394835	2528.937677
965.694030	2526.540608
965.993189	2527.521112
966.292309	2527.889117
966.591393	2528.491535
966.890439	2526.628828
967.189447	2527.929446
967.488419	2527.715197
967.787353	2529.403983
968.086249	2526.901051
968.385108	2527.374919
968.683930	2528.110927
968.982714	2529.605630
969.281462	2526.767460
969.580172	2529.255269
969.878844	2526.288550
970.177480	2526.344003
970.476078	2526.510361
970.774639	2526.432223
971.073162	2527.269055
971.371649	2523.384846
971.670098	2523.909126
971.968510	2529.401463
972.266885	2522.802593
972.565223	2526.154960
972.863524	2525.487007
973.161788	2528.733510
973.460014	2526.071781
973.758204	2529.792152
974.056356	2526.848118
974.354471	2527.516071
974.652550	2528.950280
974.950591	2526.870804
975.248595	2528.574714
975.546563	2529.648479
975.844493	2526.049096
976.142386	2528.824251
976.440243	2528.123530
976.738062	2525.749147
977.035845	2523.009280
977.333590	2526.139836
977.631299	2530.666793
977.928971	2529.514889
978.226606	2525.802079
978.524204	2526.167563
978.821765	2528.221833
979.119290	2527.647141
979.416777	2526.825433
979.714228	2528.443644
980.011642	2527.758047
980.309020	2532.534540
980.606360	2526.913653
980.903664	2526.785104
981.200931	2527.387522
981.498162	2526.280989
981.795356	2528.012625
982.092513	2527.717718
982.389633	2527.715197
982.686717	2529.320804
982.983764	2528.413397
983.280775	2529.194776
983.577749	2526.931298
983.874686	2530.727286
984.171587	2524.390556
984.468451	2529.023376
984.765279	2526.601102
985.062070	2528.539426
985.358824	2526.316277
985.655543	2527.987419
985.952224	2525.479445
986.248869	2526.449867
986.545478	2523.773015
986.842050	2524.637573
987.138586	2524.607326
987.435086	2525.466842
987.731549	2520.511388
988.027975	2525.570186
988.324366	2525.373581
988.620719	2525.681091
988.917037	2525.902902
989.213318	2524.193951
989.509563	2524.851822
989.805772	2527.314425
990.101944	2525.033303
990.398080	2525.144208
990.694180	2525.063550
990.990244	2525.728982
991.286271	2529.502286
991.582262	2526.308715
991.878217	2527.780732
992.174136	2525.315608
992.470019	2527.624456
992.765865	2528.635208
993.061676	2526.389373
993.357450	2527.785773
993.653188	2525.207223
993.948890	2526.817872
994.244556	2525.136647
994.540186	2523.026924
994.835780	2523.851153
995.131337	2528.282327
995.426859	2526.364168
995.722345	2526.843077
996.017795	2523.911646
996.313208	2528.567152
996.608586	2527.959693
996.903928	2525.860052
997.199234	2526.442306
997.494504	2524.871986
997.789738	2527.022038
998.084936	2527.059847
998.380099	2525.451719
998.675225	2526.255783
998.970316	2526.263345
999.265371	2525.696215
999.560390	2524.821575
999.855373	2526.918695
1000.150320	2525.713859
1000.445232	2526.560773
1000.740108	2526.306194
1001.034948	2527.758047
1001.329752	2527.072450
1001.624521	2529.197296
1001.919254	2523.581451
1002.213951	2526.331400
1002.508613	2520.768487
1002.803239	2523.722603
1003.097829	2522.575741
1003.392384	2525.731503
1003.686903	2528.327697
1003.981386	2525.837367
1004.275834	2525.923067
1004.570246	2526.321318
1004.864623	2526.994312
1005.158964	2527.831143
1005.453270	2524.468694
1005.747540	2526.719569
1006.041775	2524.259486
1006.335974	2527.836185
1006.630138	2526.805269
1006.924266	2526.666637
1007.218359	2525.817203
1007.512416	2526.351565
1007.806438	2528.483973
1008.100425	2525.938190
1008.394376	2526.890968
1008.688292	2528.426000
1008.982172	2523.818385
1009.276017	2527.876514
1009.569827	2525.023221
1009.863602	2527.319466
1010.157341	2525.237470
1010.451045	2527.347193
1010.744714	2526.580937
1011.038347	2526.631349
1011.331945	2525.308046
1011.625508	2529.199817
1011.919036	2527.657224
1012.212528	2526.230577
1012.505986	2524.531708
1012.799408	2524.690505
1013.092795	2527.604292
1013.386147	2526.628828
1013.679464	2528.801566
1013.972745	2524.267048
1014.265992	2525.560104
1014.559204	2527.528674
1014.852380	2523.868797
1015.145521	2526.200330
1015.438628	2525.645803
1015.731699	2525.696215
1016.024736	2525.350896
1016.317737	2526.129754
1016.610703	2527.390042
1016.903635	2521.675895
1017.196531	2525.474404
1017.489393	2521.290246
1017.782219	2523.024403
1018.075011	2524.153622
1018.367768	2525.872655
1018.660490	2526.838036
1018.953177	2526.838036
1019.245829	2526.838036
