Dividing Wavelength (nm)	Counts (n)	Blue Motor Position (mm): 0.000000	Red Motor Position (mm): 37.900000	
326.493990	2128.445730
326.888308	2128.445730
327.282561	2128.445730
327.676750	2096.184866
328.070874	2093.699577
328.464933	2095.867273
328.858929	2101.394898
329.252859	2112.593822
329.646726	2124.538836
330.040528	2135.586524
330.434265	2154.800882
330.827938	2172.618841
331.221547	2189.620132
331.615091	2209.389017
332.008571	2227.433827
332.401986	2246.910325
332.795338	2267.115269
333.188625	2283.836777
333.581847	2305.740590
333.975006	2322.290698
334.368100	2341.021105
334.761129	2357.074660
335.154095	2374.804398
335.546996	2395.974723
335.939833	2415.012641
336.332606	2431.381268
336.725315	2442.665890
337.117960	2452.954885
337.510540	2460.539301
337.903056	2473.810139
338.295508	2478.228710
338.687896	2491.270175
339.080220	2497.435506
339.472480	2501.745693
339.864676	2505.768534
340.256807	2513.184071
340.648875	2513.486540
341.040879	2517.514422
341.432818	2519.407375
341.824694	2520.206398
342.216506	2519.387211
342.608253	2518.852848
342.999937	2520.498785
343.391557	2521.776718
343.783113	2519.235976
344.174605	2515.707168
344.566033	2515.807992
344.957397	2514.139370
345.348697	2514.235152
345.739934	2512.785820
346.131106	2512.687517
346.522215	2507.066631
346.913260	2507.684172
347.304241	2504.737618
347.695159	2504.755262
348.086012	2503.099243
348.476802	2502.433810
348.867528	2499.025990
349.258191	2496.117245
349.648789	2498.617657
350.039324	2494.229333
350.429796	2497.553973
350.820203	2490.846718
351.210548	2491.479383
351.600828	2491.181955
351.991045	2493.339569
352.381198	2489.185658
352.771288	2489.858652
353.161314	2489.236070
353.551276	2489.367140
353.941175	2488.384115
354.331010	2490.740854
354.720782	2489.654485
355.110490	2490.884527
355.500135	2489.200782
355.889717	2489.770432
356.279235	2492.399394
356.668689	2491.547439
357.058080	2492.069198
357.447408	2490.004846
357.836672	2486.649958
358.225873	2487.567448
358.615010	2485.734988
359.004084	2492.916112
359.393095	2491.819661
359.782043	2490.841677
360.170927	2493.606750
360.559748	2495.645897
360.948505	2497.594303
361.337199	2498.206803
361.725830	2496.933912
362.114398	2497.800990
362.502903	2498.877276
362.891344	2500.792915
363.279722	2498.784015
363.668037	2501.919613
364.056289	2503.530261
364.444478	2501.007164
364.832603	2502.915241
365.220665	2501.886845
365.608665	2504.046980
365.996601	2505.876918
366.384474	2506.297855
366.772284	2509.209121
367.160031	2507.600993
367.547715	2510.645850
367.935336	2511.555778
368.322893	2513.806653
368.710388	2519.477952
369.097820	2524.725793
369.485189	2529.003212
369.872495	2534.382123
370.259738	2539.584594
370.646918	2549.674463
371.034035	2554.892057
371.421090	2567.467216
371.808081	2576.110274
372.195010	2584.455904
372.581875	2599.894438
372.968678	2610.828700
373.355418	2618.912191
373.742096	2639.623771
374.128710	2654.096924
374.515262	2668.537309
374.901751	2684.797551
375.288177	2695.061340
375.674540	2721.078735
376.060841	2738.654718
376.447079	2755.890423
376.833254	2776.985131
377.219367	2789.497275
377.605417	2828.372133
377.991404	2835.147444
378.377329	2860.494365
378.763191	2876.469782
379.148991	2913.945719
379.534727	2938.017229
379.920402	2968.488483
380.306013	2981.408961
380.691563	3028.884027
381.077049	3051.165927
381.462474	3068.157136
381.847835	3108.229268
382.233134	3132.512506
382.618371	3127.920015
383.003545	3199.025490
383.388657	3200.825182
383.773706	3235.997312
384.158693	3251.647574
384.543618	3278.496760
384.928480	3316.350784
385.313280	3361.663195
385.698017	3361.942979
386.082692	3414.771751
386.467305	3417.259561
386.851856	3449.709468
387.236344	3473.687716
387.620770	3505.401615
388.005133	3529.972199
388.389435	3559.359605
388.773674	3571.705391
389.157851	3612.102677
389.541965	3628.186479
389.926018	3596.500306
390.310008	3664.361799
390.693936	3683.094726
391.077802	3720.774831
391.461606	3714.428018
391.845348	3776.207358
392.229027	3770.384826
392.612645	3786.897125
392.996200	3867.787480
393.379694	3906.816093
393.763125	3967.879589
394.146494	3936.379940
394.529801	3996.442767
394.913047	4045.599058
395.296230	4011.644367
395.679351	4069.113520
396.062410	4091.554217
396.445408	4071.934046
396.828343	4108.563070
397.211217	4133.335300
397.594028	4051.852610
397.976778	4116.515490
398.359466	4142.313595
398.742092	4170.221423
399.124656	4092.020523
399.507158	4175.950694
399.889598	4198.300649
400.271977	4261.980505
400.654294	4231.267275
401.036549	4238.418152
401.418742	4212.612485
401.800874	4309.286693
402.182944	4333.844673
402.564952	4394.855238
402.946898	4384.599010
403.328783	4383.757138
403.710606	4293.107109
404.092367	4486.957119
404.474067	4452.987303
404.855705	4460.208756
405.237282	4391.412130
405.618797	4494.954909
406.000250	4532.186351
406.381642	4613.202734
406.762972	4575.033638
407.144240	4583.711984
407.525447	4583.074278
407.906593	4644.498218
408.287677	4684.577911
408.668700	4613.641315
409.049661	4667.473276
409.430560	4706.713618
409.811399	4635.905571
410.192176	4794.200322
410.572891	4731.226228
410.953545	4837.098021
411.334138	4717.766347
411.714669	4783.218168
412.095139	4677.679092
412.475547	4823.378521
412.855894	4804.340603
413.236180	4811.143640
413.616405	4761.284108
413.996568	4853.048232
414.376670	4795.604283
414.756711	4753.702213
415.136691	4782.910658
415.516609	4858.386813
415.896466	4896.364346
416.276262	4931.823822
416.655997	4914.699023
417.035670	5087.993727
417.415283	5183.397564
417.794834	5128.547289
418.174324	5083.013067
418.553753	4989.741639
418.933121	5173.224515
419.312428	5242.240432
419.691674	5181.045865
420.070859	5304.642355
420.449983	5219.986258
420.829045	5334.811140
421.208047	5237.027879
421.586988	5312.564528
421.965867	5327.383000
422.344686	5453.903358
422.723444	5313.494621
423.102141	5130.079800
423.480777	5427.432260
423.859352	5197.656467
424.237866	5455.428308
424.616319	5449.348676
424.994712	5553.040169
425.373044	5429.146252
425.751314	5575.097738
426.129524	5378.550711
426.507673	5573.877779
426.885762	5660.625954
427.263789	5588.560139
427.641756	5468.777283
428.019662	5589.870839
428.397508	5596.734370
428.775292	5540.865783
429.153016	5647.675230
429.530679	5571.813426
429.908282	5653.601106
430.285824	5523.201580
430.663305	5801.511081
431.040726	5536.898395
431.418086	5534.176172
431.795385	5641.414117
432.172624	5653.712012
432.549802	5643.972502
432.926920	5658.702754
433.303977	5667.025699
433.680974	5706.165217
434.057910	5725.664401
434.434786	5728.162292
434.811601	5698.409402
435.188355	5931.149393
435.565050	5808.422503
435.941683	5786.596827
436.318257	6008.639489
436.694770	5986.599565
437.071222	6020.297158
437.447614	5948.498524
437.823946	5865.995000
438.200218	6021.527199
438.576429	5888.009719
438.952580	5984.583103
439.328670	6029.673704
439.704700	5932.389517
440.080670	5924.459782
440.456580	6194.257295
440.832429	6075.588533
441.208218	5920.943577
441.583947	6076.692546
441.959616	6082.973823
442.335224	6009.892216
442.710773	6145.920191
443.086261	6168.005486
443.461689	5966.051822
443.837057	6112.762002
444.212365	6272.115395
444.587612	6163.297048
444.962800	6317.329504
445.337927	6301.041536
445.712995	5906.987143
446.088002	6484.814279
446.462949	6313.929246
446.837837	6245.505665
447.212664	6420.075781
447.587431	6560.492080
447.962139	7100.674400
448.336786	8022.076336
448.711374	7767.248529
449.085901	6845.236614
449.460369	6763.930364
449.834776	6695.746238
450.209124	7085.180414
450.583412	7239.689259
450.957640	7385.519757
451.331808	7151.806824
451.705917	6702.811415
452.079965	6629.190404
452.453954	6838.728485
452.827883	6716.052006
453.201752	6807.611962
453.575562	6608.413289
453.949311	6810.288815
454.323001	6700.023657
454.696632	6778.927797
455.070202	6912.843528
455.443713	7068.403454
455.817164	7171.792478
456.190556	7252.665189
456.563888	7324.148750
456.937160	7366.834720
457.310373	7026.367793
457.683526	7048.183386
458.056619	6935.906807
458.429653	6928.869357
458.802628	6865.088678
459.175542	6972.467776
459.548398	7329.527661
459.921194	7483.340827
460.293930	7486.587330
460.666607	8019.207919
461.039224	8328.210485
461.411782	8457.180845
461.784280	8474.119122
462.156719	8366.689613
462.529099	8243.637568
462.901419	7833.602717
463.273680	7725.243115
463.645882	7742.176351
464.018024	7598.276614
464.390106	7769.272553
464.762130	8159.039444
465.134094	8628.338100
465.505999	9645.486670
465.877845	10865.070335
466.249631	11511.121927
466.621358	11127.149841
466.993026	10501.106589
467.364634	10247.937323
467.736184	9884.500377
468.107674	9554.372856
468.479105	9585.302855
468.850477	9350.614458
469.221790	9122.524932
469.593043	8791.338768
469.964238	8652.936410
470.335373	8665.940067
470.706449	8722.713541
471.077467	8711.736429
471.448425	10011.071147
471.819324	11084.758779
472.190164	11114.010074
472.560945	9864.575217
472.931667	9077.313344
473.302330	8943.448024
473.672934	8590.184127
474.043479	8948.491698
474.413965	8880.526862
474.784393	8765.535622
475.154761	8926.227442
475.525070	9014.301441
475.895321	8833.613885
476.265513	9013.663735
476.635645	9179.482409
477.005719	9175.391513
477.375734	9293.702352
477.745691	9532.148929
478.115588	9662.810596
478.485427	9908.607175
478.855207	10446.173136
479.224928	11257.950140
479.594591	11881.611447
479.964194	11697.758045
480.333739	11639.815023
480.703226	11558.539020
481.072653	11642.365847
481.442022	11884.063968
481.811333	12074.997670
482.180584	11875.315045
482.549777	11587.628998
482.918912	11407.133005
483.287988	11433.006727
483.657005	11453.841816
484.025964	11128.899122
484.394864	11258.648339
484.763706	11228.935779
485.132489	10985.695064
485.501213	10957.439397
485.869879	11026.568740
486.238487	10865.168638
486.607036	10978.403035
486.975527	10757.809705
487.343959	10947.054620
487.712333	10997.027578
488.080648	10931.548031
488.448905	10970.138064
488.817104	10906.672457
489.185244	11175.179435
489.553326	11328.385141
489.921350	11871.728264
490.289315	12917.576124
490.657222	13268.362293
491.025070	13179.978264
491.392861	13051.665775
491.760593	12673.435563
492.128267	12322.362048
492.495883	11992.703354
492.863440	11656.720532
493.230939	11322.633185
493.598380	11256.659604
493.965763	11124.581373
494.333088	11028.000428
494.700354	10950.175094
495.067563	11002.877837
495.434713	10838.765594
495.801805	10965.843001
496.168839	10886.427183
496.535815	10821.774385
496.902733	10815.969497
497.269593	10753.968346
497.636395	10855.986176
498.003139	10840.766933
498.369825	10708.103928
498.736453	10864.795592
499.103023	10795.756990
499.469535	10820.231792
499.835989	10802.623042
500.202385	10773.142374
500.568723	10624.884560
500.935003	10848.759682
501.301226	10651.038066
501.667390	10910.660010
502.033497	11008.851605
502.399546	10875.742458
502.765537	10773.376788
503.131470	10851.940650
503.497345	11022.482885
503.863163	10635.402928
504.228923	10953.247678
504.594625	11003.021510
504.960269	10754.842986
505.325856	10978.834054
505.691385	10771.990471
506.056856	10927.416805
506.422270	10948.176277
506.787625	10839.935142
507.152924	10950.396905
507.518164	10929.168606
507.883347	10855.595487
508.248472	10774.367375
508.613540	11012.796307
508.978550	10888.670497
509.343503	10872.556449
509.708398	10986.446196
510.073236	11096.698752
510.438016	11106.912129
510.802738	11046.824096
511.167403	11102.259144
511.532010	11002.023362
511.896561	11234.526418
512.261053	11301.999742
512.625488	11167.912611
512.989866	11153.658749
513.354186	11139.808179
513.718449	11049.841227
514.082655	11234.987684
514.446803	11125.566919
514.810894	11253.130797
515.174927	11120.137596
515.538904	11145.015691
515.902822	11295.620162
516.266684	11182.592451
516.630488	11125.413164
516.994235	11180.523058
517.357925	11240.651420
517.721558	11335.195740
518.085133	11346.543377
518.448651	11353.739624
518.812112	11238.219063
519.175516	11250.413615
519.538863	11375.013294
519.902152	11290.309306
520.265385	11447.835282
520.628560	11357.316323
520.991678	11336.866883
521.354739	11398.479865
521.717743	11329.602580
522.080690	11315.903244
522.443580	11448.919130
522.806413	11398.598332
523.169189	11431.070924
523.531908	11488.945891
523.894569	11301.034361
524.257174	11305.175669
524.619722	11426.065059
524.982213	11377.261648
525.344647	11422.291755
525.707025	11378.963038
526.069345	11467.238683
526.431608	11382.244829
526.793815	11491.889925
527.155964	11275.276585
527.518057	11333.219608
527.880093	11288.867536
528.242072	11354.689882
528.603995	11260.150603
528.965860	11179.839981
529.327669	11229.994421
529.689421	11180.243274
530.051117	11149.719087
530.412755	11252.049469
530.774337	11143.946966
531.135862	11124.170519
531.497331	11141.867490
531.858743	10989.712864
532.220098	11156.544809
532.581396	11028.897753
532.942638	11008.765905
533.303824	10969.681839
533.664953	10979.650721
534.026025	10893.220138
534.387040	10993.884419
534.747999	10998.058494
535.108902	11048.475074
535.469748	10808.591768
535.830537	10908.754454
536.191270	10880.488704
536.551947	10902.158104
536.912567	10898.674667
537.273131	10818.958901
537.633638	10795.429315
537.994089	10789.808429
538.354483	10730.358102
538.714821	10875.649197
539.075103	10877.358148
539.435328	10840.635863
539.795497	10665.337299
540.155609	10820.493932
540.515665	10900.605429
540.875665	10642.669751
541.235609	10704.116375
541.595496	10700.131343
541.955328	10840.358599
542.315102	10729.748122
542.674821	10673.607312
543.034483	10665.158338
543.394090	10670.902733
543.753640	10595.698800
544.113134	10800.848556
544.472571	10662.829325
544.831953	10793.581733
545.191278	10595.051012
545.550548	10627.470672
545.909761	10753.247461
546.268918	10721.412574
546.628019	10791.885384
546.987064	10651.640484
547.346053	10573.913454
547.704986	10657.533593
548.063863	10646.100256
548.422684	10625.093768
548.781449	10531.960971
549.140158	10628.625096
549.498811	10497.398821
549.857408	10356.208704
550.215949	10566.467669
550.574434	10412.319267
550.932864	10498.611218
551.291237	10549.078209
551.649555	10486.726698
552.007817	10487.971863
552.366022	10449.104567
552.724173	10432.251989
553.082267	10400.280992
553.440305	10514.813487
553.798288	10321.822994
554.156215	10458.150917
554.514086	10418.787067
554.871902	10265.309139
555.229661	10282.799422
555.587365	10244.678217
555.945014	10143.955963
556.302606	10244.716025
556.660143	10129.182861
557.017625	10262.047512
557.375050	10150.990893
557.732421	10257.238251
558.089735	10162.512450
558.446994	10143.658535
558.804197	10164.906998
559.161345	10151.111881
559.518437	9997.646555
559.875474	10057.462366
560.232455	10062.679960
560.589381	10013.445531
560.946251	9977.134100
561.303065	10068.210106
561.659825	9988.055759
562.016528	9902.764478
562.373177	9788.410944
562.729770	9854.636582
563.086307	9772.347307
563.442789	9834.124127
563.799216	9696.198157
564.155587	9720.824194
564.511904	9656.055449
564.868164	9628.001428
565.224370	9628.079566
565.580520	9519.674594
565.936615	9523.589050
566.292654	9365.054844
566.648638	9467.859094
567.004567	9400.131192
567.360441	9368.782777
567.716260	9256.019727
568.072023	9322.656219
568.427732	9244.664528
568.783385	9154.848811
569.138982	9175.857819
569.494525	9170.945215
569.850013	9043.469558
570.205445	9079.138242
570.560823	8969.165470
570.916145	8868.682671
571.271412	8904.961335
571.626625	8829.490221
571.981782	8789.728120
572.336884	8733.017660
572.691931	8719.053663
573.046923	8633.946384
573.401860	8580.469824
573.756743	8496.602668
574.111570	8498.117534
574.466342	8464.765261
574.821059	8455.502140
575.175722	8342.391251
575.530330	8314.717837
575.884882	8287.992160
576.239380	8194.859363
576.593823	8160.332500
576.948211	8131.618088
577.302544	8028.715535
577.656823	7995.411152
578.011047	7972.544478
578.365216	7906.477637
578.719330	7825.761202
579.073389	7790.276520
579.427394	7732.706543
579.781344	7683.520005
580.135239	7614.229345
580.489080	7587.899399
580.842866	7480.089283
581.196597	7457.557846
581.550273	7461.069009
581.903895	7398.382261
582.257463	7416.490086
582.610975	7290.234388
582.964434	7290.667927
583.317837	7198.634102
583.671186	7168.346849
584.024481	7128.788915
584.377721	7042.043260
584.730906	6997.028277
585.084037	6986.588048
585.437113	6917.531802
585.790135	6896.495067
586.143103	6800.803884
586.496016	6757.117245
586.848874	6754.647080
587.201679	6722.839919
587.554428	6616.121213
587.907124	6615.924608
588.259765	6568.134470
588.612352	6531.944026
588.964884	6434.405261
589.317362	6411.213433
589.669786	6377.790583
590.022155	6387.588065
590.374470	6356.708477
590.726731	6303.075642
591.078937	6178.763308
591.431090	6204.942020
591.783188	6110.107834
592.135232	6069.723151
592.487222	6050.256735
592.839157	6042.881527
593.191038	5975.637576
593.542866	5924.043887
593.894639	5834.820505
594.246358	5836.395865
594.598022	5814.703780
594.949633	5734.713272
595.301190	5690.968659
595.652692	5679.469787
596.004141	5702.313776
596.355535	5567.329320
596.706876	5523.231827
597.058162	5457.215397
597.409395	5469.450277
597.760573	5477.354806
598.111698	5403.486779
598.462768	5364.649730
598.813785	5331.660419
599.164748	5281.906751
599.515657	5258.808184
599.866511	5182.986710
600.217312	5223.419284
600.568060	5127.460921
600.918753	5150.115866
601.269392	5108.954845
601.619978	5037.536818
601.970510	5041.733579
602.320988	5020.568294
602.671412	5013.346842
603.021783	4962.335406
603.372100	4924.824180
603.722363	4891.870157
604.072572	4869.109348
604.422728	4847.137479
604.772830	4790.253099
605.122878	4764.031537
605.472872	4746.591665
605.822813	4732.095827
606.172701	4687.930278
606.522534	4695.381104
606.872314	4671.816230
607.222041	4629.914159
607.571714	4630.057832
607.921333	4588.584260
608.270899	4569.382505
608.620411	4577.274431
608.969870	4524.395248
609.319276	4495.786700
609.668627	4476.441272
610.017926	4470.112103
610.367171	4462.527687
610.716362	4430.876803
611.065500	4406.853184
611.414585	4386.423908
611.763616	4366.894478
612.112594	4337.139067
612.461518	4314.534534
612.810389	4319.210204
613.159207	4272.498872
613.507971	4239.098708
613.856682	4247.580449
614.205340	4219.917117
614.553945	4222.599011
614.902496	4171.007843
615.250994	4170.435672
615.599439	4147.415243
615.947830	4125.304742
616.296169	4100.300619
616.644454	4086.762600
616.992686	4066.754260
617.340864	4063.457346
617.688990	4019.175850
618.037063	4031.292264
618.385082	3997.975278
618.733048	3996.967047
619.080961	3967.864466
619.428821	3955.667394
619.776628	3934.842388
620.124382	3904.224940
620.472083	3874.847616
620.819731	3870.010629
621.167326	3824.189061
621.514868	3809.161381
621.862357	3766.873662
622.209793	3751.425046
622.557176	3717.949264
622.904506	3689.597815
623.251783	3661.450532
623.599007	3627.034575
623.946179	3612.377420
624.293297	3588.391610
624.640363	3557.953123
624.987376	3535.409083
625.334336	3515.226824
625.681243	3488.612052
626.028097	3471.915751
626.374899	3456.847742
626.721647	3433.504679
627.068343	3415.737132
627.414987	3400.069226
627.761577	3375.838920
628.108115	3368.851881
628.454600	3341.909434
628.801032	3333.974658
629.147412	3317.820280
629.493739	3304.264618
629.840014	3285.793830
630.186236	3283.921041
630.532405	3255.698142
630.878521	3253.096906
631.224585	3238.807756
631.570597	3214.542162
631.916556	3210.542006
632.262462	3200.469781
632.608316	3186.714992
632.954117	3172.254442
633.299866	3162.351096
633.645562	3151.290804
633.991206	3130.236425
634.336797	3110.696913
634.682336	3094.008173
635.027823	3080.386975
635.373257	3068.474729
635.718639	3048.539486
636.063968	3044.015050
636.409245	3022.179292
636.754470	3012.936337
637.099642	2998.803462
637.444762	2986.593788
637.789829	2978.049032
638.134845	2966.134265
638.479808	2958.184365
638.824719	2950.380659
639.169577	2937.162753
639.514383	2929.296033
639.859137	2918.208015
640.203839	2914.548137
640.548489	2902.898031
640.893086	2896.296640
641.237632	2883.010679
641.582125	2881.372304
641.926566	2872.109184
642.270955	2870.140613
642.615292	2864.169366
642.959576	2861.406814
643.303809	2856.133767
643.647990	2848.982890
643.992118	2842.986438
644.336195	2831.916064
644.680219	2830.373471
645.024192	2823.318376
645.368112	2829.022442
645.711981	2826.290136
646.055797	2827.167297
646.399562	2824.470280
646.743274	2827.840291
647.086935	2829.637462
647.430544	2824.815599
647.774101	2823.872903
648.117606	2818.698159
648.461059	2814.806388
648.804460	2806.072589
649.147810	2794.422482
649.491108	2788.680608
649.834354	2783.110133
650.177548	2774.320881
650.520690	2764.241094
650.863781	2757.579209
651.206820	2757.750609
651.549807	2748.185019
651.892742	2741.611355
652.235626	2739.032804
652.578458	2730.598954
652.921238	2725.575444
653.263967	2726.578634
653.606644	2719.785679
653.949269	2717.983467
654.291843	2713.176726
654.634365	2711.984493
654.976836	2706.950901
655.319255	2704.992413
655.661622	2699.517720
656.003938	2699.449664
656.346203	2694.219467
656.688416	2689.120340
657.030577	2689.044723
657.372687	2684.197653
657.714746	2680.721778
658.056753	2679.988290
658.398708	2671.884635
658.740612	2672.895387
659.082465	2671.660304
659.424266	2667.992864
659.766016	2666.946825
660.107715	2667.463543
660.449362	2666.412463
660.790958	2665.694098
661.132503	2663.806186
661.473996	2663.019766
661.815438	2658.207985
662.156829	2657.154384
662.498168	2656.645227
662.839456	2655.440391
663.180693	2650.452170
663.521879	2650.502581
663.863013	2649.030564
664.204097	2647.213228
664.545129	2649.595173
664.886110	2650.361429
665.227040	2646.872950
665.567918	2644.914462
665.908746	2642.005716
666.249522	2641.380613
666.590248	2639.381796
666.930922	2639.316261
667.271545	2638.529841
667.612118	2638.723925
667.952639	2636.934316
668.293109	2635.774850
668.633528	2634.867442
668.973896	2631.310908
669.314213	2629.324694
669.654480	2628.434930
669.994695	2627.517440
670.334859	2628.482821
670.674973	2625.022069
671.015035	2623.665999
671.355047	2625.405197
671.695008	2618.740791
672.034918	2620.361522
672.374777	2622.287243
672.714585	2618.135853
673.054342	2620.661471
673.394049	2618.962602
673.733705	2620.974022
674.073310	2618.261882
674.412864	2615.065790
674.752368	2613.039246
675.091820	2615.917745
675.431223	2612.494802
675.770574	2611.421036
676.109875	2606.452979
676.449125	2603.556836
676.788324	2605.321240
677.127473	2605.666559
677.466571	2600.481732
677.805619	2603.881990
678.144616	2600.978286
678.483562	2598.719849
678.822458	2601.066506
679.161303	2602.258739
679.500098	2600.638008
679.838842	2600.885024
680.177535	2599.102977
680.516179	2600.582555
680.854771	2597.260435
681.193314	2600.287648
681.531805	2602.772937
681.870247	2604.617999
682.208638	2607.234358
682.546978	2604.880139
682.885268	2604.325612
683.223508	2603.191352
683.561697	2599.281937
683.899836	2602.465426
684.237925	2597.414190
684.575963	2598.346803
684.913951	2596.063161
685.251889	2597.487287
685.589776	2599.763368
685.927614	2599.186156
686.265401	2597.426793
686.603137	2599.445775
686.940824	2597.124324
687.278460	2599.173553
687.616046	2598.760178
687.953582	2599.400405
688.291068	2598.634149
688.628504	2599.717997
688.965889	2598.742534
689.303224	2600.295209
689.640510	2597.242791
689.977745	2595.054930
690.314930	2594.681885
690.652065	2590.018817
690.989150	2589.169383
691.326185	2587.498240
691.663170	2586.217787
692.000105	2587.253744
692.336990	2584.276943
692.673825	2582.928434
693.010610	2582.532704
693.347345	2578.915676
693.684030	2575.560788
694.020665	2578.721592
694.357251	2574.381158
694.693786	2578.356108
695.030272	2576.548854
695.366707	2578.416602
695.703093	2577.758731
696.039429	2573.614903
696.375716	2577.428536
696.711952	2579.223186
697.048139	2576.861406
697.384276	2576.334605
697.720363	2574.731518
698.056400	2573.791343
698.392388	2573.693041
698.728326	2574.950808
699.064214	2574.608010
699.400053	2574.754203
699.735842	2572.410067
700.071581	2575.901066
700.407270	2572.195818
700.742910	2572.906621
701.078501	2575.099523
701.414042	2569.385375
701.749533	2568.172977
702.084974	2570.723801
702.420366	2568.724983
702.755709	2570.133986
703.091002	2568.551064
703.426246	2566.693398
703.761440	2570.438976
704.096584	2569.493759
704.431679	2567.666341
704.766725	2567.772205
705.101721	2564.278686
705.436668	2567.847823
705.771565	2567.963769
706.106413	2566.816907
706.441212	2566.567370
706.775961	2569.085426
707.110661	2566.758933
707.445311	2566.554767
707.779913	2568.772874
708.114465	2569.423183
708.448967	2570.081054
708.783421	2568.581311
709.117825	2567.278172
709.452180	2570.570046
709.786485	2570.524675
710.120742	2570.438976
710.454949	2572.727660
710.789107	2571.195149
711.123216	2569.690364
711.457275	2572.465520
711.791286	2571.784964
712.125247	2570.691033
712.459159	2575.442321
712.793023	2576.508525
713.126837	2573.816549
713.460602	2574.731518
713.794318	2573.367886
714.127985	2570.133986
714.461602	2569.524006
714.795171	2572.215982
715.128691	2569.672720
715.462162	2568.893862
715.795584	2566.262380
716.128957	2567.273131
716.462281	2568.500652
716.795556	2566.854715
717.128782	2567.371434
717.461960	2563.925805
717.795088	2564.485373
718.128167	2566.567370
718.461198	2564.392112
718.794180	2565.256670
719.127113	2562.494117
719.459997	2563.434293
719.792833	2562.980589
720.125619	2561.939590
720.458357	2559.781977
720.791046	2560.084446
721.123686	2560.316339
721.456278	2561.498489
721.788821	2558.970351
722.121315	2563.288099
722.453761	2560.323901
722.786158	2559.333314
723.118506	2560.714590
723.450805	2562.126113
723.783056	2560.190310
724.115259	2561.932029
724.447412	2560.923798
724.779518	2562.032852
725.111574	2559.403890
725.443582	2564.019066
725.775542	2562.824313
726.107453	2564.182904
726.439315	2558.330124
726.771129	2564.591237
727.102895	2560.757440
727.434612	2563.346072
727.766281	2563.192317
728.097901	2560.928839
728.429473	2558.950186
728.760996	2559.613098
729.092471	2558.793910
729.423897	2561.871535
729.755276	2561.884138
730.086606	2564.752554
730.417887	2566.121227
730.749120	2564.694581
731.080305	2564.818089
731.411442	2567.129458
731.742530	2566.721125
732.073570	2566.191804
732.404562	2566.675754
732.735506	2567.348748
733.066401	2568.442679
733.397249	2567.333625
733.728048	2562.431103
734.058798	2559.522357
734.389501	2561.160732
734.720156	2557.780638
735.050762	2558.670402
735.381320	2558.985474
735.711831	2560.417162
736.042293	2557.710062
736.372707	2555.262582
736.703073	2558.216698
737.033391	2556.885834
737.363661	2563.265414
737.693883	2558.919939
738.024056	2562.874724
738.354182	2561.707697
738.684260	2562.504200
739.014290	2560.775084
739.344272	2563.872873
739.674207	2561.969837
740.004093	2561.523695
740.333931	2561.019580
740.663722	2562.199210
740.993464	2559.355999
741.323159	2560.918757
741.652806	2560.036555
741.982405	2560.248283
742.311956	2557.730227
742.641460	2560.172666
742.970915	2560.754919
743.300323	2558.433468
743.629683	2560.349106
743.958996	2561.145609
744.288260	2556.825340
744.617477	2557.415155
744.946647	2554.264434
745.275768	2556.706873
745.604842	2554.584547
745.933869	2553.475493
746.262847	2552.515153
746.591778	2554.657644
746.920662	2555.865000
747.249498	2552.520194
747.578286	2554.408107
747.907027	2556.225442
748.235720	2557.624363
748.564365	2556.606050
748.892963	2555.935576
749.221514	2557.200906
749.550017	2558.030176
749.878473	2556.364074
750.206881	2555.650751
750.535242	2554.531615
750.863555	2553.898950
751.191821	2556.064126
751.520039	2557.367264
751.848210	2556.737120
752.176334	2556.782490
752.504411	2555.822150
752.832440	2553.125133
753.160421	2556.008673
753.488356	2553.135215
753.816243	2555.101265
754.144082	2553.752757
754.471875	2553.455328
754.799620	2553.921635
755.127318	2553.745195
755.454969	2556.013714
755.782572	2553.909032
756.110129	2552.963816
756.437638	2555.270144
756.765100	2552.873075
757.092515	2553.722510
757.419882	2553.331820
757.747203	2554.564382
758.074477	2555.784342
758.401703	2553.949362
758.728882	2555.902809
759.056014	2556.590926
759.383099	2552.726882
759.710138	2554.390463
760.037129	2555.126471
760.364073	2559.285423
760.690970	2556.001111
761.017820	2554.776111
761.344623	2556.785011
761.671379	2555.973385
761.998088	2556.837943
762.324751	2559.048489
762.651366	2563.207441
762.977935	2575.089440
763.304456	2578.963567
763.630931	2581.925245
763.957359	2581.592529
764.283740	2574.106415
764.610074	2567.139541
764.936362	2563.318346
765.262602	2561.783315
765.588796	2560.772563
765.914943	2557.657130
766.241044	2555.386090
766.567097	2555.680998
766.893104	2553.354505
767.219064	2555.988508
767.544978	2552.941131
767.870845	2547.816798
768.196665	2551.017931
768.522438	2550.118085
768.848165	2549.092210
769.173846	2551.907694
769.499479	2549.220759
769.825066	2552.215205
770.150607	2547.529452
770.476101	2549.253527
770.801548	2549.427447
771.126949	2548.494833
771.452303	2547.912580
771.777611	2546.720347
772.102872	2547.834442
772.428087	2548.850234
772.753256	2548.343598
773.078378	2546.760676
773.403453	2547.789072
773.728482	2546.821170
774.053465	2548.946016
774.378401	2548.578012
774.703291	2548.391489
775.028135	2546.193546
775.352932	2546.664894
775.677683	2547.179092
776.002388	2546.982487
776.327046	2547.438711
776.651658	2547.073228
776.976224	2543.854451
777.300743	2547.206818
777.625216	2547.070707
777.949643	2544.250182
778.274024	2545.240768
778.598359	2547.204298
778.922647	2540.741538
779.246889	2545.197918
779.571086	2540.837320
779.895236	2543.221786
780.219339	2548.333516
780.543397	2544.167002
780.867409	2547.849565
781.191374	2547.186654
781.515294	2545.235727
781.839167	2545.523073
782.162995	2545.787733
782.486776	2544.640871
782.810511	2546.087682
783.134201	2544.953423
783.457844	2546.304452
783.781441	2544.900490
784.104993	2544.459389
784.428498	2545.878474
784.751958	2544.519883
785.075372	2547.564740
785.398739	2546.226314
785.722061	2543.819163
786.045337	2546.090203
786.368568	2543.436035
786.691752	2545.838145
787.014891	2544.960984
787.337983	2547.083310
787.661030	2547.262271
787.984031	2550.763352
788.306987	2548.845193
788.629897	2549.568599
788.952760	2550.125646
789.275579	2546.979966
789.598351	2548.338557
789.921078	2547.416026
790.243759	2550.009700
790.566395	2545.122301
790.888984	2546.269164
791.211529	2545.883515
791.534027	2547.887374
791.856480	2545.412167
792.178888	2546.372507
792.501249	2545.641540
792.823566	2545.863351
793.145836	2543.824204
793.468062	2543.562064
793.790241	2542.871426
794.112375	2547.461397
794.434464	2543.471323
794.756507	2542.644574
795.078505	2544.734132
795.400457	2545.356715
795.722364	2542.916796
796.044226	2543.657846
796.366042	2544.991231
796.687812	2546.533824
797.009538	2547.519370
797.331218	2546.947199
797.652852	2545.364277
797.974442	2545.215562
798.295986	2548.391489
798.617484	2545.165151
798.938938	2543.998124
799.260346	2545.444935
799.581709	2543.491488
799.903026	2548.507436
800.224299	2545.165151
800.545526	2545.230686
800.866708	2544.822352
801.187845	2544.408978
801.508936	2544.300593
801.829983	2544.703885
802.150984	2540.257588
802.471940	2543.791437
802.792851	2545.278577
803.113717	2543.340253
803.434538	2544.086344
803.755314	2544.822353
804.076045	2540.494522
804.396731	2540.544933
804.717372	2541.477547
805.037967	2544.416540
805.358518	2543.819163
805.679024	2541.701878
805.999485	2541.056611
806.319901	2544.177085
806.640272	2540.620551
806.960598	2542.306817
807.280879	2543.637681
807.601115	2541.719522
807.921306	2542.117773
808.241453	2544.053577
808.561554	2544.464431
808.881611	2544.661036
809.201623	2544.746735
809.521590	2543.272198
809.841513	2543.766231
810.161390	2542.644574
810.481223	2542.659698
810.801011	2541.953936
811.120755	2544.398896
811.440453	2545.271015
811.760107	2543.602393
812.079716	2538.190715
812.399281	2538.717515
812.718801	2543.073072
813.038276	2539.110725
813.357707	2543.181457
813.677093	2538.188194
813.996434	2544.330840
814.315731	2546.014585
814.634983	2543.322609
814.954191	2542.437887
815.273354	2543.572146
815.592473	2544.857641
815.911547	2543.723381
816.230577	2544.040974
816.549562	2545.936448
816.868502	2544.701365
817.187399	2544.870243
817.506250	2544.051056
817.825058	2545.442414
818.143821	2546.896787
818.462539	2545.944009
818.781213	2547.214380
819.099843	2549.238403
819.418429	2548.918290
819.736970	2555.607901
820.055466	2557.077398
820.373919	2557.994887
820.692327	2562.539488
821.010691	2570.118863
821.329011	2588.753488
821.647286	2627.613222
821.965517	2665.925991
822.283704	2691.111596
822.601847	2698.088553
822.919945	2682.811336
823.237999	2657.832419
823.556010	2633.176135
823.873976	2613.929010
824.191897	2602.558687
824.509775	2589.852459
824.827609	2580.652353
825.145398	2577.249575
825.463144	2577.105902
825.780845	2576.843762
826.098502	2579.949112
826.416116	2591.087542
826.733685	2603.367793
827.051210	2611.468927
827.368692	2605.119594
827.686129	2589.998653
828.003522	2582.205029
828.320872	2568.147771
828.638177	2565.642318
828.955439	2557.573951
829.272656	2553.064639
829.589830	2545.374359
829.906960	2550.140770
830.224046	2547.247148
830.541088	2548.699000
830.858086	2546.881664
831.175041	2547.383259
831.491952	2546.604400
831.808819	2548.832590
832.125642	2547.484082
832.442421	2549.989535
832.759157	2553.805689
833.075849	2561.443037
833.392497	2568.203224
833.709101	2576.299317
834.025662	2575.185222
834.342179	2569.957546
834.658653	2564.949159
834.975083	2562.499158
835.291469	2561.001936
835.607811	2551.864844
835.924110	2550.536500
836.240366	2546.947199
836.556578	2546.596839
836.872746	2546.995090
837.188871	2541.835469
837.504952	2544.242620
837.820990	2543.078113
838.136984	2542.803370
838.452935	2540.542413
838.768842	2542.742877
839.084706	2539.718184
839.400526	2548.371325
839.716303	2548.502395
840.032037	2558.541853
840.347727	2553.354505
840.663373	2551.060780
840.978977	2549.704710
841.294537	2544.552651
841.610054	2545.528114
841.925527	2544.419060
842.240957	2542.170706
842.556344	2541.631302
842.871687	2542.556354
843.186987	2537.913451
843.502244	2538.094933
843.817458	2537.366486
844.132629	2540.121477
844.447756	2538.488143
844.762840	2533.164684
845.077881	2534.626619
845.392879	2533.401618
845.707833	2538.218441
846.022745	2531.959848
846.337613	2536.839685
846.652438	2537.074099
846.967221	2536.859850
847.281960	2535.092926
847.596656	2538.273894
847.911309	2539.088040
848.225919	2538.316743
848.540485	2536.786753
848.855009	2535.385312
849.169490	2536.867412
849.483928	2537.575694
849.798323	2535.849099
850.112675	2537.926054
850.426984	2538.057124
850.741251	2535.823893
851.055474	2535.589479
851.369654	2536.638039
851.683792	2537.104346
851.997887	2532.852133
852.311938	2535.362627
852.625947	2537.926054
852.939914	2535.453368
853.253837	2536.169212
853.567718	2534.969417
853.881555	2537.127031
854.195350	2537.381609
854.509103	2536.759027
854.822812	2536.597710
855.136479	2539.559388
855.450103	2535.382792
855.763685	2539.211548
856.077224	2536.559901
856.390720	2539.075437
856.704173	2538.246167
857.017584	2534.384643
857.330953	2536.887576
857.644278	2539.093081
857.957561	2539.977804
858.270802	2535.188708
858.584000	2535.251722
858.897155	2537.797505
859.210268	2535.241640
859.523339	2539.299768
859.836367	2538.155427
860.149352	2534.460261
860.462295	2538.001671
860.775195	2532.761392
861.088054	2531.690147
861.400869	2532.499252
861.713642	2531.526309
862.026373	2534.001516
862.339062	2538.231044
862.651708	2537.220293
862.964312	2533.814993
863.276873	2535.844057
863.589392	2536.620395
863.901869	2536.665766
864.214303	2537.363965
864.526696	2537.958822
864.839045	2536.811959
865.151353	2537.696682
865.463619	2535.907072
865.775842	2538.042001
866.088023	2537.442103
866.400162	2538.362114
866.712258	2540.736497
867.024313	2538.528472
867.336325	2536.015457
867.648296	2535.468492
867.960224	2537.300951
868.272110	2541.601055
868.583954	2537.237937
868.895755	2536.645601
869.207515	2536.280117
869.519233	2537.129552
869.830909	2537.308513
870.142542	2538.964532
870.454134	2538.709953
870.765684	2538.455375
871.077191	2539.120807
871.388657	2541.701878
871.700081	2539.506456
872.011463	2537.585776
872.322803	2540.071065
872.634101	2538.972093
872.945357	2538.914120
873.256571	2542.692465
873.567744	2538.803215
873.878874	2539.725746
874.189963	2537.457227
874.501010	2541.371683
874.812015	2537.890766
875.122979	2541.018802
875.433900	2538.140303
875.744780	2543.418391
876.055618	2540.169368
876.366415	2539.357742
876.677169	2542.906714
876.987882	2538.631816
877.298554	2538.228523
877.609183	2538.898997
877.919771	2537.863040
878.230317	2537.885725
878.540822	2545.487785
878.851285	2542.886549
879.161707	2546.354863
879.472087	2550.884340
879.782425	2554.249310
880.092722	2563.391443
880.402977	2573.173802
880.713191	2591.531163
881.023363	2613.931531
881.333494	2628.434930
881.643583	2632.137658
881.953631	2628.737399
882.263637	2623.497120
882.573602	2615.907663
882.883526	2606.268977
883.193408	2597.467122
883.503248	2589.481934
883.813048	2580.415419
884.122806	2572.062227
884.432522	2569.985272
884.742197	2563.308264
885.051831	2560.381874
885.361424	2551.383414
885.670975	2554.390463
885.980485	2548.257899
886.289954	2550.438198
886.599382	2550.133208
886.908768	2546.087682
887.218113	2544.983669
887.527417	2544.575336
887.836680	2544.373690
888.145901	2545.001313
888.455082	2544.915614
888.764221	2541.578370
889.073319	2540.602907
889.382376	2541.550644
889.691392	2542.173226
890.000366	2543.123484
890.309300	2539.904707
890.618193	2542.412681
890.927044	2542.034594
891.235855	2541.202804
891.544625	2538.853626
891.853353	2543.977959
892.162041	2543.211704
892.470687	2547.289997
892.779293	2544.199770
893.087858	2544.857641
893.396381	2546.133052
893.704864	2549.324103
894.013306	2551.453990
894.321707	2562.289951
894.630068	2569.002247
894.938387	2572.992320
895.246665	2569.700447
895.554903	2566.892524
895.863100	2563.560321
896.171256	2558.675443
896.479371	2553.006666
896.787446	2552.880637
897.095480	2549.545914
897.403473	2550.412992
897.711425	2543.292362
898.019336	2547.388300
898.327207	2546.115408
898.635038	2545.069369
898.942827	2545.341591
899.250576	2544.499719
899.558284	2545.334030
899.865952	2542.347146
900.173579	2541.958977
900.481165	2540.930582
900.788711	2542.543751
901.096216	2539.914789
901.403681	2541.868236
901.711105	2541.540561
902.018489	2540.222300
902.325832	2541.006199
902.633135	2540.676003
902.940397	2542.652136
903.247619	2546.727909
903.554800	2553.936759
903.861941	2563.220043
904.169041	2573.612382
904.476101	2585.063363
904.783121	2582.260482
905.090100	2574.897876
905.397039	2572.094995
905.703938	2561.324570
906.010796	2556.164949
906.317614	2549.833259
906.624391	2548.378887
906.931129	2547.395862
907.237826	2544.514842
907.544483	2543.090716
907.851099	2539.892104
908.157675	2539.294727
908.464211	2539.198945
908.770707	2534.772812
909.077163	2535.528985
909.383578	2532.532019
909.689954	2535.523944
909.996289	2532.176618
910.302584	2534.119983
910.608839	2535.932278
910.915054	2539.929913
911.221229	2534.024201
911.527363	2538.805735
911.833458	2535.493697
912.139513	2537.810108
912.445527	2538.175591
912.751502	2536.486805
913.057436	2538.306661
913.363331	2536.239788
913.669186	2539.892104
913.975000	2542.309337
914.280775	2544.144317
914.586510	2548.134391
914.892205	2549.979453
915.197859	2556.288457
915.503475	2561.100238
915.809050	2567.772205
916.114585	2578.542631
916.420081	2580.894329
916.725536	2577.804102
917.030952	2574.537434
917.336328	2565.755744
917.641665	2563.819941
917.946961	2559.096380
918.252218	2557.165618
918.557435	2552.694114
918.862612	2550.234031
919.167750	2547.027857
919.472848	2545.127342
919.777906	2546.233876
920.082925	2547.108516
920.387904	2540.733977
920.692843	2541.729605
920.997743	2541.255736
921.302603	2536.481763
921.607423	2537.759696
921.912204	2539.909748
922.216946	2536.154088
922.521647	2540.028215
922.826310	2535.511341
923.130932	2539.045190
923.435516	2535.957483
923.740059	2537.356404
924.044564	2533.396577
924.349028	2538.387320
924.653454	2531.057482
924.957840	2532.887421
925.262186	2531.440610
925.566493	2534.203162
925.870761	2527.624456
926.174989	2536.229706
926.479178	2534.266176
926.783328	2532.559746
927.087438	2534.735004
927.391509	2533.681403
927.695541	2533.734335
927.999533	2534.190559
928.303486	2531.841381
928.607400	2531.914478
928.911275	2531.889272
929.215110	2532.685775
929.518906	2531.861546
929.822663	2531.412883
930.126381	2532.627801
930.430060	2535.130734
930.733699	2531.947246
931.037299	2532.342976
931.340861	2534.624098
931.644383	2533.366330
931.947866	2534.616537
932.251309	2533.910775
932.554714	2530.029087
932.858080	2532.937832
933.161407	2532.209386
933.464694	2533.895652
933.767943	2532.894982
934.071153	2533.865405
934.374323	2533.084026
934.677455	2533.386495
934.980548	2531.581762
935.283602	2532.690816
935.586617	2531.428007
935.889593	2530.707122
936.192530	2532.658048
936.495428	2533.928419
936.798287	2533.182328
937.101108	2532.496731
937.403890	2533.457071
937.706632	2533.701567
938.009336	2534.135106
938.312002	2536.161650
938.614628	2537.258101
938.917216	2536.897659
939.219765	2533.583100
939.522275	2534.001516
939.824747	2535.173584
940.127179	2531.289375
940.429573	2533.439427
940.731929	2532.108563
941.034246	2529.802235
941.336524	2532.320291
941.638763	2534.677030
941.940964	2534.767771
942.243126	2534.009078
942.545250	2536.126362
942.847335	2532.123686
943.149381	2530.966741
943.451389	2535.145858
943.753359	2532.302647
944.055290	2534.089736
944.357182	2532.216947
944.659036	2533.542771
944.960851	2531.049920
945.262628	2531.478418
945.564367	2532.907585
945.866067	2533.656197
946.167729	2531.853984
946.469352	2530.951618
946.770937	2532.307688
947.072484	2532.405991
947.373992	2531.349869
947.675462	2529.348531
947.976893	2532.872297
948.278286	2533.570497
948.579641	2531.778367
948.880958	2532.857174
949.182236	2533.479756
949.483476	2531.422966
949.784678	2534.644263
950.085841	2530.571011
950.386967	2532.279962
950.688054	2530.051772
950.989103	2531.606968
951.290114	2531.995137
951.591087	2536.184335
951.892021	2533.147040
952.192917	2533.431865
952.493776	2532.831968
952.794596	2533.081505
953.095378	2533.658717
953.396122	2535.965045
953.696828	2535.400436
953.997496	2534.324150
954.298126	2532.383305
954.598718	2533.237781
954.899272	2530.293747
955.199788	2533.683923
955.500266	2532.544622
955.800706	2529.711494
956.101108	2528.937677
956.401472	2530.515558
956.701798	2526.631349
957.002087	2525.824764
957.302337	2531.465815
957.602550	2528.499096
957.902724	2531.508665
958.202861	2530.162677
958.502960	2528.983047
958.803022	2530.361803
959.103045	2530.820548
959.403031	2530.281144
959.702979	2528.113448
960.002889	2529.875331
960.302762	2529.091432
960.602596	2529.928263
960.902393	2528.771319
961.202153	2532.141330
961.501875	2529.804755
961.801559	2529.822399
962.101205	2527.778211
962.400814	2530.515558
962.700385	2527.208561
962.999918	2529.416586
963.299414	2528.426000
963.598873	2530.928932
963.898293	2530.076977
964.197677	2530.863397
964.497022	2530.197965
964.796331	2530.192924
965.095601	2527.790814
965.394835	2531.523789
965.694030	2528.176462
965.993189	2529.411545
966.292309	2527.468180
966.591393	2530.258459
966.890439	2528.269724
967.189447	2528.214271
967.488419	2527.896678
967.787353	2525.900382
968.086249	2527.763088
968.385108	2529.240146
968.683930	2528.625125
968.982714	2528.945238
969.281462	2528.912471
969.580172	2530.059333
969.878844	2528.811648
970.177480	2529.943387
970.476078	2529.545136
970.774639	2529.154446
971.073162	2529.590506
971.371649	2528.012625
971.670098	2526.578417
971.968510	2526.515402
972.266885	2523.006759
972.565223	2528.453726
972.863524	2529.618233
973.161788	2528.753675
973.460014	2527.415248
973.758204	2528.526823
974.056356	2531.191073
974.354471	2529.973634
974.652550	2527.531195
974.950591	2530.495393
975.248595	2527.884076
975.546563	2528.821730
975.844493	2527.695032
976.142386	2529.335928
976.440243	2528.342821
976.738062	2530.762574
977.035845	2527.644621
977.333590	2530.407173
977.631299	2525.567665
977.928971	2528.229395
978.226606	2527.533715
978.524204	2529.383819
978.821765	2526.369209
979.119290	2530.654190
979.416777	2527.697553
979.714228	2528.546987
980.011642	2528.042872
980.309020	2530.787780
980.606360	2528.529343
980.903664	2529.376257
981.200931	2529.214940
981.498162	2526.888448
981.795356	2527.516071
982.092513	2530.331556
982.389633	2527.989940
982.686717	2531.117976
982.983764	2532.700898
983.280775	2530.737369
983.577749	2530.167718
983.874686	2529.376257
984.171587	2530.606299
984.468451	2527.155629
984.765279	2525.461801
985.062070	2530.109745
985.358824	2530.744930
985.655543	2530.956659
985.952224	2528.655372
986.248869	2526.580937
986.545478	2523.561286
986.842050	2527.448016
987.138586	2522.006090
987.435086	2524.294774
987.731549	2524.262007
988.027975	2529.835002
988.324366	2526.162522
988.620719	2525.378622
988.917037	2526.734692
989.213318	2524.808972
989.509563	2525.285361
989.805772	2527.458098
990.101944	2529.260311
990.398080	2528.221833
990.694180	2528.834333
990.990244	2528.771319
991.286271	2528.448685
991.582262	2529.356093
991.878217	2527.543798
992.174136	2525.124044
992.470019	2525.126564
992.765865	2526.727131
993.061676	2526.999353
993.357450	2527.969775
993.653188	2525.887779
993.948890	2527.647141
994.244556	2524.645134
994.540186	2528.567152
994.835780	2528.665454
995.131337	2526.432223
995.426859	2525.905423
995.722345	2526.119672
996.017795	2527.521113
996.313208	2527.516071
996.608586	2527.538757
996.903928	2528.045392
997.199234	2529.267872
997.494504	2527.977337
997.789738	2528.834333
998.084936	2527.218643
998.380099	2529.250228
998.675225	2526.517923
998.970316	2525.159332
999.265371	2527.332069
999.560390	2525.623118
999.855373	2528.204189
1000.150320	2525.338293
1000.445232	2526.623787
1000.740108	2529.003212
1001.034948	2525.993643
1001.329752	2528.541946
1001.624521	2526.381812
1001.919254	2521.958199
1002.213951	2523.556245
1002.508613	2522.336286
1002.803239	2524.808972
1003.097829	2523.614218
1003.392384	2525.335772
1003.686903	2527.793335
1003.981386	2530.074457
1004.275834	2524.642614
1004.570246	2525.842408
1004.864623	2527.596730
1005.158964	2524.950124
1005.453270	2527.455578
1005.747540	2525.141688
1006.041775	2524.970289
1006.335974	2526.883407
1006.630138	2529.739220
1006.924266	2525.086235
1007.218359	2527.001874
1007.512416	2526.344003
1007.806438	2529.759385
1008.100425	2525.819723
1008.394376	2524.224198
1008.688292	2528.662934
1008.982172	2524.844260
1009.276017	2525.933149
1009.569827	2526.059178
1009.863602	2528.118489
1010.157341	2526.147398
1010.451045	2527.374919
1010.744714	2524.975330
1011.038347	2526.560773
1011.331945	2525.212264
1011.625508	2526.984230
1011.919036	2526.217974
1012.212528	2527.175793
1012.505986	2526.086904
1012.799408	2526.200330
1013.092795	2526.308715
1013.386147	2524.196472
1013.679464	2523.876358
1013.972745	2525.897861
1014.265992	2525.895340
1014.559204	2525.988602
1014.852380	2524.078004
1015.145521	2528.186545
1015.438628	2525.061029
1015.731699	2526.207892
1016.024736	2524.556914
1016.317737	2526.023890
1016.610703	2526.986750
1016.903635	2520.516429
1017.196531	2522.116996
1017.489393	2522.951307
1017.782219	2522.608508
1018.075011	2525.408869
1018.367768	2527.216123
1018.660490	2526.230577
1018.953177	2526.230577
1019.245829	2526.230577
