Dividing Wavelength (nm)	Counts (n)	Blue Motor Position (mm): 0.000000	Red Motor Position (mm): 2.800000	
326.493990	2087.037692
326.888308	2087.037692
327.282561	2087.037692
327.676750	2114.764038
328.070874	1996.296923
328.464933	2112.243462
328.858929	1998.817500
329.252859	2099.640577
329.646726	2139.969808
330.040528	2142.490385
330.434265	2124.846346
330.827938	2157.613846
331.221547	2122.325769
331.615091	2152.572692
332.008571	2160.134423
332.401986	2160.134423
332.795338	2208.025385
333.188625	2145.010962
333.581847	2225.669423
333.975006	2303.807308
334.368100	2339.095385
334.761129	2394.548077
335.154095	2361.780577
335.546996	2356.739423
335.939833	2291.204423
336.332606	2369.342308
336.725315	2351.698269
337.117960	2374.383462
337.510540	2381.945192
337.903056	2485.288846
338.295508	2379.424615
338.687896	2500.412308
339.080220	2482.768269
339.472480	2525.618077
339.864676	2467.644808
340.256807	2455.041923
340.648875	2455.041923
341.040879	2530.659231
341.432818	2593.673654
341.824694	2502.932885
342.216506	2422.274423
342.608253	2412.192115
342.999937	2450.000769
343.391557	2434.877308
343.783113	2389.506923
344.174605	2540.741538
344.566033	2470.165385
344.957397	2555.865000
345.348697	2452.521346
345.739934	2510.494615
346.131106	2455.041923
346.522215	2470.165385
346.913260	2432.356731
347.304241	2555.865000
347.695159	2439.918462
348.086012	2452.521346
348.476802	2460.083077
348.867528	2409.671538
349.258191	2477.727115
349.648789	2439.918462
350.039324	2470.165385
350.429796	2500.412308
350.820203	2424.795000
351.210548	2457.562500
351.600828	2465.124231
351.991045	2500.412308
352.381198	2434.877308
352.771288	2477.727115
353.161314	2351.698269
353.551276	2442.439038
353.941175	2505.453462
354.331010	2397.068654
354.720782	2447.480192
355.110490	2434.877308
355.500135	2495.371154
355.889717	2487.809423
356.279235	2497.891731
356.668689	2407.150962
357.058080	2442.439038
357.447408	2427.315577
357.836672	2392.027500
358.225873	2326.492500
358.615010	2467.644808
359.004084	2399.589231
359.393095	2482.768269
359.782043	2409.671538
360.170927	2361.780577
360.559748	2462.603654
360.948505	2525.618077
361.337199	2414.712692
361.725830	2444.959615
362.114398	2429.836154
362.502903	2414.712692
362.891344	2482.768269
363.279722	2341.615962
363.668037	2507.974038
364.056289	2424.795000
364.444478	2507.974038
364.832603	2465.124231
365.220665	2364.301154
365.608665	2482.768269
365.996601	2397.068654
366.384474	2442.439038
366.772284	2482.768269
367.160031	2447.480192
367.547715	2414.712692
367.935336	2422.274423
368.322893	2409.671538
368.710388	2515.535769
369.097820	2497.891731
369.485189	2422.274423
369.872495	2419.753846
370.259738	2399.589231
370.646918	2442.439038
371.034035	2467.644808
371.421090	2480.247692
371.808081	2485.288846
372.195010	2455.041923
372.581875	2480.247692
372.968678	2462.603654
373.355418	2434.877308
373.742096	2447.480192
374.128710	2472.685962
374.515262	2555.865000
374.901751	2419.753846
375.288177	2467.644808
375.674540	2447.480192
376.060841	2470.165385
376.447079	2447.480192
376.833254	2450.000769
377.219367	2497.891731
377.605417	2462.603654
377.991404	2424.795000
378.377329	2472.685962
378.763191	2450.000769
379.148991	2417.233269
379.534727	2470.165385
379.920402	2497.891731
380.306013	2439.918462
380.691563	2424.795000
381.077049	2467.644808
381.462474	2520.576923
381.847835	2376.904038
382.233134	2490.330000
382.618371	2447.480192
383.003545	2467.644808
383.388657	2450.000769
383.773706	2482.768269
384.158693	2374.383462
384.543618	2417.233269
384.928480	2518.056346
385.313280	2480.247692
385.698017	2470.165385
386.082692	2462.603654
386.467305	2402.109808
386.851856	2462.603654
387.236344	2535.700385
387.620770	2485.288846
388.005133	2505.453462
388.389435	2450.000769
388.773674	2439.918462
389.157851	2452.521346
389.541965	2437.397885
389.926018	2417.233269
390.310008	2444.959615
390.693936	2439.918462
391.077802	2490.330000
391.461606	2497.891731
391.845348	2528.138654
392.229027	2432.356731
392.612645	2495.371154
392.996200	2510.494615
393.379694	2341.615962
393.763125	2462.603654
394.146494	2470.165385
394.529801	2472.685962
394.913047	2485.288846
395.296230	2465.124231
395.679351	2429.836154
396.062410	2510.494615
396.445408	2480.247692
396.828343	2513.015192
397.211217	2472.685962
397.594028	2490.330000
397.976778	2510.494615
398.359466	2480.247692
398.742092	2460.083077
399.124656	2419.753846
399.507158	2480.247692
399.889598	2455.041923
400.271977	2520.576923
400.654294	2505.453462
401.036549	2414.712692
401.418742	2480.247692
401.800874	2477.727115
402.182944	2510.494615
402.564952	2417.233269
402.946898	2518.056346
403.328783	2550.823846
403.710606	2331.533654
404.092367	2505.453462
404.474067	2442.439038
404.855705	2432.356731
405.237282	2525.618077
405.618797	2455.041923
406.000250	2467.644808
406.381642	2535.700385
406.762972	2525.618077
407.144240	2497.891731
407.525447	2497.891731
407.906593	2386.986346
408.287677	2502.932885
408.668700	2447.480192
409.049661	2513.015192
409.430560	2437.397885
409.811399	2457.562500
410.192176	2505.453462
410.572891	2412.192115
410.953545	2490.330000
411.334138	2457.562500
411.714669	2467.644808
412.095139	2513.015192
412.475547	2515.535769
412.855894	2475.206538
413.236180	2538.220962
413.616405	2518.056346
413.996568	2480.247692
414.376670	2462.603654
414.756711	2467.644808
415.136691	2477.727115
415.516609	2437.397885
415.896466	2455.041923
416.276262	2485.288846
416.655997	2432.356731
417.035670	2497.891731
417.415283	2482.768269
417.794834	2513.015192
418.174324	2457.562500
418.553753	2419.753846
418.933121	2543.262115
419.312428	2510.494615
419.691674	2475.206538
420.070859	2452.521346
420.449983	2475.206538
420.829045	2505.453462
421.208047	2404.630385
421.586988	2442.439038
421.965867	2465.124231
422.344686	2432.356731
422.723444	2442.439038
423.102141	2518.056346
423.480777	2510.494615
423.859352	2543.262115
424.237866	2475.206538
424.616319	2495.371154
424.994712	2533.179808
425.373044	2555.865000
425.751314	2490.330000
426.129524	2487.809423
426.507673	2528.138654
426.885762	2515.535769
427.263789	2467.644808
427.641756	2480.247692
428.019662	2462.603654
428.397508	2518.056346
428.775292	2472.685962
429.153016	2356.739423
429.530679	2429.836154
429.908282	2419.753846
430.285824	2447.480192
430.663305	2510.494615
431.040726	2477.727115
431.418086	2434.877308
431.795385	2374.383462
432.172624	2528.138654
432.549802	2455.041923
432.926920	2492.850577
433.303977	2487.809423
433.680974	2598.714808
434.057910	2502.932885
434.434786	2432.356731
434.811601	2434.877308
435.188355	2402.109808
435.565050	2558.385577
435.941683	2520.576923
436.318257	2530.659231
436.694770	2407.150962
437.071222	2475.206538
437.447614	2492.850577
437.823946	2490.330000
438.200218	2465.124231
438.576429	2497.891731
438.952580	2487.809423
439.328670	2470.165385
439.704700	2485.288846
440.080670	2472.685962
440.456580	2477.727115
440.832429	2497.891731
441.208218	2530.659231
441.583947	2568.467885
441.959616	2545.782692
442.335224	2477.727115
442.710773	2492.850577
443.086261	2444.959615
443.461689	2548.303269
443.837057	2502.932885
444.212365	2492.850577
444.587612	2434.877308
444.962800	2457.562500
445.337927	2482.768269
445.712995	2545.782692
446.088002	2500.412308
446.462949	2528.138654
446.837837	2482.768269
447.212664	2439.918462
447.587431	2452.521346
447.962139	2525.618077
448.336786	2533.179808
448.711374	2480.247692
449.085901	2545.782692
449.460369	2505.453462
449.834776	2518.056346
450.209124	2394.548077
450.583412	2480.247692
450.957640	2472.685962
451.331808	2457.562500
451.705917	2467.644808
452.079965	2518.056346
452.453954	2490.330000
452.827883	2525.618077
453.201752	2462.603654
453.575562	2487.809423
453.949311	2457.562500
454.323001	2540.741538
454.696632	2523.097500
455.070202	2530.659231
455.443713	2437.397885
455.817164	2462.603654
456.190556	2480.247692
456.563888	2465.124231
456.937160	2505.453462
457.310373	2427.315577
457.683526	2530.659231
458.056619	2530.659231
458.429653	2477.727115
458.802628	2523.097500
459.175542	2553.344423
459.548398	2565.947308
459.921194	2570.988462
460.293930	2533.179808
460.666607	2480.247692
461.039224	2535.700385
461.411782	2472.685962
461.784280	2429.836154
462.156719	2535.700385
462.529099	2455.041923
462.901419	2492.850577
463.273680	2409.671538
463.645882	2520.576923
464.018024	2437.397885
464.390106	2467.644808
464.762130	2525.618077
465.134094	2530.659231
465.505999	2560.906154
465.877845	2492.850577
466.249631	2482.768269
466.621358	2507.974038
466.993026	2555.865000
467.364634	2495.371154
467.736184	2485.288846
468.107674	2465.124231
468.479105	2518.056346
468.850477	2573.509038
469.221790	2613.838269
469.593043	2457.562500
469.964238	2518.056346
470.335373	2477.727115
470.706449	2550.823846
471.077467	2586.111923
471.448425	2482.768269
471.819324	2563.426731
472.190164	2533.179808
472.560945	2581.070769
472.931667	2452.521346
473.302330	2540.741538
473.672934	2570.988462
474.043479	2550.823846
474.413965	2455.041923
474.784393	2409.671538
475.154761	2480.247692
475.525070	2520.576923
475.895321	2465.124231
476.265513	2437.397885
476.635645	2505.453462
477.005719	2419.753846
477.375734	2470.165385
477.745691	2457.562500
478.115588	2583.591346
478.485427	2442.439038
478.855207	2560.906154
479.224928	2525.618077
479.594591	2583.591346
479.964194	2414.712692
480.333739	2510.494615
480.703226	2475.206538
481.072653	2457.562500
481.442022	2505.453462
481.811333	2548.303269
482.180584	2485.288846
482.549777	2492.850577
482.918912	2457.562500
483.287988	2507.974038
483.657005	2513.015192
484.025964	2432.356731
484.394864	2470.165385
484.763706	2482.768269
485.132489	2533.179808
485.501213	2450.000769
485.869879	2485.288846
486.238487	2444.959615
486.607036	2485.288846
486.975527	2470.165385
487.343959	2450.000769
487.712333	2457.562500
488.080648	2462.603654
488.448905	2432.356731
488.817104	2470.165385
489.185244	2455.041923
489.553326	2573.509038
489.921350	2545.782692
490.289315	2475.206538
490.657222	2570.988462
491.025070	2497.891731
491.392861	2525.618077
491.760593	2407.150962
492.128267	2513.015192
492.495883	2470.165385
492.863440	2477.727115
493.230939	2497.891731
493.598380	2487.809423
493.965763	2409.671538
494.333088	2490.330000
494.700354	2513.015192
495.067563	2452.521346
495.434713	2573.509038
495.801805	2545.782692
496.168839	2485.288846
496.535815	2525.618077
496.902733	2450.000769
497.269593	2480.247692
497.636395	2447.480192
498.003139	2533.179808
498.369825	2487.809423
498.736453	2465.124231
499.103023	2495.371154
499.469535	2467.644808
499.835989	2419.753846
500.202385	2462.603654
500.568723	2492.850577
500.935003	2457.562500
501.301226	2502.932885
501.667390	2460.083077
502.033497	2389.506923
502.399546	2550.823846
502.765537	2472.685962
503.131470	2495.371154
503.497345	2565.947308
503.863163	2550.823846
504.228923	2540.741538
504.594625	2530.659231
504.960269	2492.850577
505.325856	2502.932885
505.691385	2444.959615
506.056856	2525.618077
506.422270	2470.165385
506.787625	2485.288846
507.152924	2560.906154
507.518164	2487.809423
507.883347	2533.179808
508.248472	2530.659231
508.613540	2533.179808
508.978550	2520.576923
509.343503	2457.562500
509.708398	2475.206538
510.073236	2429.836154
510.438016	2515.535769
510.802738	2505.453462
511.167403	2533.179808
511.532010	2553.344423
511.896561	2565.947308
512.261053	2583.591346
512.625488	2472.685962
512.989866	2455.041923
513.354186	2465.124231
513.718449	2452.521346
514.082655	2439.918462
514.446803	2434.877308
514.810894	2518.056346
515.174927	2513.015192
515.538904	2439.918462
515.902822	2490.330000
516.266684	2507.974038
516.630488	2583.591346
516.994235	2455.041923
517.357925	2470.165385
517.721558	2570.988462
518.085133	2548.303269
518.448651	2455.041923
518.812112	2528.138654
519.175516	2515.535769
519.538863	2480.247692
519.902152	2487.809423
520.265385	2538.220962
520.628560	2497.891731
520.991678	2467.644808
521.354739	2540.741538
521.717743	2528.138654
522.080690	2543.262115
522.443580	2447.480192
522.806413	2523.097500
523.169189	2515.535769
523.531908	2492.850577
523.894569	2540.741538
524.257174	2513.015192
524.619722	2424.795000
524.982213	2523.097500
525.344647	2460.083077
525.707025	2565.947308
526.069345	2505.453462
526.431608	2543.262115
526.793815	2520.576923
527.155964	2565.947308
527.518057	2422.274423
527.880093	2558.385577
528.242072	2495.371154
528.603995	2520.576923
528.965860	2538.220962
529.327669	2399.589231
529.689421	2548.303269
530.051117	2452.521346
530.412755	2591.153077
530.774337	2523.097500
531.135862	2550.823846
531.497331	2482.768269
531.858743	2485.288846
532.220098	2490.330000
532.581396	2490.330000
532.942638	2535.700385
533.303824	2485.288846
533.664953	2467.644808
534.026025	2460.083077
534.387040	2565.947308
534.747999	2523.097500
535.108902	2457.562500
535.469748	2568.467885
535.830537	2540.741538
536.191270	2538.220962
536.551947	2505.453462
536.912567	2487.809423
537.273131	2583.591346
537.633638	2510.494615
537.994089	2523.097500
538.354483	2497.891731
538.714821	2442.439038
539.075103	2465.124231
539.435328	2535.700385
539.795497	2570.988462
540.155609	2548.303269
540.515665	2434.877308
540.875665	2507.974038
541.235609	2502.932885
541.595496	2550.823846
541.955328	2543.262115
542.315102	2477.727115
542.674821	2442.439038
543.034483	2520.576923
543.394090	2555.865000
543.753640	2505.453462
544.113134	2507.974038
544.472571	2444.959615
544.831953	2500.412308
545.191278	2442.439038
545.550548	2513.015192
545.909761	2452.521346
546.268918	2563.426731
546.628019	2495.371154
546.987064	2530.659231
547.346053	2555.865000
547.704986	2525.618077
548.063863	2344.136538
548.422684	2578.550192
548.781449	2490.330000
549.140158	2482.768269
549.498811	2563.426731
549.857408	2502.932885
550.215949	2412.192115
550.574434	2434.877308
550.932864	2495.371154
551.291237	2576.029615
551.649555	2409.671538
552.007817	2480.247692
552.366022	2558.385577
552.724173	2533.179808
553.082267	2412.192115
553.440305	2490.330000
553.798288	2606.276538
554.156215	2487.809423
554.514086	2500.412308
554.871902	2495.371154
555.229661	2530.659231
555.587365	2518.056346
555.945014	2543.262115
556.302606	2505.453462
556.660143	2533.179808
557.017625	2490.330000
557.375050	2603.755962
557.732421	2525.618077
558.089735	2497.891731
558.446994	2500.412308
558.804197	2520.576923
559.161345	2450.000769
559.518437	2523.097500
559.875474	2432.356731
560.232455	2565.947308
560.589381	2465.124231
560.946251	2545.782692
561.303065	2460.083077
561.659825	2530.659231
562.016528	2502.932885
562.373177	2538.220962
562.729770	2507.974038
563.086307	2560.906154
563.442789	2621.400000
563.799216	2490.330000
564.155587	2422.274423
564.511904	2502.932885
564.868164	2515.535769
565.224370	2560.906154
565.580520	2450.000769
565.936615	2560.906154
566.292654	2404.630385
566.648638	2502.932885
567.004567	2490.330000
567.360441	2505.453462
567.716260	2485.288846
568.072023	2502.932885
568.427732	2439.918462
568.783385	2490.330000
569.138982	2452.521346
569.494525	2472.685962
569.850013	2520.576923
570.205445	2470.165385
570.560823	2570.988462
570.916145	2495.371154
571.271412	2520.576923
571.626625	2500.412308
571.981782	2505.453462
572.336884	2434.877308
572.691931	2563.426731
573.046923	2434.877308
573.401860	2576.029615
573.756743	2563.426731
574.111570	2452.521346
574.466342	2485.288846
574.821059	2518.056346
575.175722	2507.974038
575.530330	2550.823846
575.884882	2495.371154
576.239380	2482.768269
576.593823	2482.768269
576.948211	2538.220962
577.302544	2465.124231
577.656823	2578.550192
578.011047	2495.371154
578.365216	2465.124231
578.719330	2452.521346
579.073389	2548.303269
579.427394	2598.714808
579.781344	2518.056346
580.135239	2462.603654
580.489080	2424.795000
580.842866	2437.397885
581.196597	2528.138654
581.550273	2538.220962
581.903895	2520.576923
582.257463	2598.714808
582.610975	2482.768269
582.964434	2482.768269
583.317837	2513.015192
583.671186	2596.194231
584.024481	2502.932885
584.377721	2475.206538
584.730906	2434.877308
585.084037	2419.753846
585.437113	2502.932885
585.790135	2444.959615
586.143103	2437.397885
586.496016	2482.768269
586.848874	2495.371154
587.201679	2465.124231
587.554428	2472.685962
587.907124	2593.673654
588.259765	2485.288846
588.612352	2487.809423
588.964884	2432.356731
589.317362	2576.029615
589.669786	2500.412308
590.022155	2427.315577
590.374470	2442.439038
590.726731	2495.371154
591.078937	2513.015192
591.431090	2540.741538
591.783188	2548.303269
592.135232	2510.494615
592.487222	2558.385577
592.839157	2475.206538
593.191038	2500.412308
593.542866	2528.138654
593.894639	2429.836154
594.246358	2487.809423
594.598022	2437.397885
594.949633	2495.371154
595.301190	2518.056346
595.652692	2429.836154
596.004141	2507.974038
596.355535	2492.850577
596.706876	2518.056346
597.058162	2507.974038
597.409395	2409.671538
597.760573	2502.932885
598.111698	2601.235385
598.462768	2543.262115
598.813785	2513.015192
599.164748	2505.453462
599.515657	2414.712692
599.866511	2515.535769
600.217312	2460.083077
600.568060	2545.782692
600.918753	2548.303269
601.269392	2477.727115
601.619978	2492.850577
601.970510	2439.918462
602.320988	2528.138654
602.671412	2573.509038
603.021783	2558.385577
603.372100	2460.083077
603.722363	2515.535769
604.072572	2492.850577
604.422728	2540.741538
604.772830	2467.644808
605.122878	2414.712692
605.472872	2502.932885
605.822813	2490.330000
606.172701	2525.618077
606.522534	2507.974038
606.872314	2492.850577
607.222041	2480.247692
607.571714	2480.247692
607.921333	2533.179808
608.270899	2518.056346
608.620411	2545.782692
608.969870	2510.494615
609.319276	2470.165385
609.668627	2510.494615
610.017926	2588.632500
610.367171	2528.138654
610.716362	2490.330000
611.065500	2621.400000
611.414585	2450.000769
611.763616	2553.344423
612.112594	2457.562500
612.461518	2455.041923
612.810389	2470.165385
613.159207	2485.288846
613.507971	2480.247692
613.856682	2528.138654
614.205340	2502.932885
614.553945	2455.041923
614.902496	2442.439038
615.250994	2550.823846
615.599439	2427.315577
615.947830	2510.494615
616.296169	2482.768269
616.644454	2535.700385
616.992686	2500.412308
617.340864	2593.673654
617.688990	2480.247692
618.037063	2429.836154
618.385082	2548.303269
618.733048	2510.494615
619.080961	2540.741538
619.428821	2444.959615
619.776628	2470.165385
620.124382	2482.768269
620.472083	2495.371154
620.819731	2525.618077
621.167326	2523.097500
621.514868	2500.412308
621.862357	2409.671538
622.209793	2462.603654
622.557176	2442.439038
622.904506	2515.535769
623.251783	2434.877308
623.599007	2576.029615
623.946179	2515.535769
624.293297	2545.782692
624.640363	2518.056346
624.987376	2538.220962
625.334336	2533.179808
625.681243	2477.727115
626.028097	2472.685962
626.374899	2487.809423
626.721647	2497.891731
627.068343	2434.877308
627.414987	2538.220962
627.761577	2525.618077
628.108115	2518.056346
628.454600	2462.603654
628.801032	2487.809423
629.147412	2462.603654
629.493739	2613.838269
629.840014	2497.891731
630.186236	2465.124231
630.532405	2422.274423
630.878521	2490.330000
631.224585	2500.412308
631.570597	2507.974038
631.916556	2376.904038
632.262462	2455.041923
632.608316	2576.029615
632.954117	2560.906154
633.299866	2447.480192
633.645562	2543.262115
633.991206	2432.356731
634.336797	2487.809423
634.682336	2429.836154
635.027823	2528.138654
635.373257	2485.288846
635.718639	2475.206538
636.063968	2502.932885
636.409245	2535.700385
636.754470	2502.932885
637.099642	2528.138654
637.444762	2477.727115
637.789829	2490.330000
638.134845	2457.562500
638.479808	2470.165385
638.824719	2462.603654
639.169577	2412.192115
639.514383	2611.317692
639.859137	2502.932885
640.203839	2545.782692
640.548489	2611.317692
640.893086	2515.535769
641.237632	2490.330000
641.582125	2495.371154
641.926566	2497.891731
642.270955	2586.111923
642.615292	2482.768269
642.959576	2505.453462
643.303809	2553.344423
643.647990	2513.015192
643.992118	2507.974038
644.336195	2540.741538
644.680219	2543.262115
645.024192	2576.029615
645.368112	2515.535769
645.711981	2628.961731
646.055797	2510.494615
646.399562	2465.124231
646.743274	2523.097500
647.086935	2447.480192
647.430544	2538.220962
647.774101	2490.330000
648.117606	2518.056346
648.461059	2429.836154
648.804460	2543.262115
649.147810	2442.439038
649.491108	2576.029615
649.834354	2472.685962
650.177548	2490.330000
650.520690	2495.371154
650.863781	2530.659231
651.206820	2497.891731
651.549807	2525.618077
651.892742	2485.288846
652.235626	2518.056346
652.578458	2465.124231
652.921238	2432.356731
653.263967	2442.439038
653.606644	2583.591346
653.949269	2457.562500
654.291843	2513.015192
654.634365	2450.000769
654.976836	2525.618077
655.319255	2455.041923
655.661622	2497.891731
656.003938	2591.153077
656.346203	2505.453462
656.688416	2513.015192
657.030577	2573.509038
657.372687	2518.056346
657.714746	2475.206538
658.056753	2467.644808
658.398708	2495.371154
658.740612	2470.165385
659.082465	2528.138654
659.424266	2462.603654
659.766016	2477.727115
660.107715	2518.056346
660.449362	2460.083077
660.790958	2472.685962
661.132503	2490.330000
661.473996	2442.439038
661.815438	2437.397885
662.156829	2586.111923
662.498168	2485.288846
662.839456	2530.659231
663.180693	2419.753846
663.521879	2472.685962
663.863013	2457.562500
664.204097	2442.439038
664.545129	2555.865000
664.886110	2515.535769
665.227040	2570.988462
665.567918	2472.685962
665.908746	2475.206538
666.249522	2533.179808
666.590248	2528.138654
666.930922	2470.165385
667.271545	2429.836154
667.612118	2447.480192
667.952639	2485.288846
668.293109	2472.685962
668.633528	2460.083077
668.973896	2465.124231
669.314213	2452.521346
669.654480	2502.932885
669.994695	2530.659231
670.334859	2419.753846
670.674973	2563.426731
671.015035	2460.083077
671.355047	2560.906154
671.695008	2576.029615
672.034918	2540.741538
672.374777	2525.618077
672.714585	2515.535769
673.054342	2490.330000
673.394049	2507.974038
673.733705	2434.877308
674.073310	2513.015192
674.412864	2452.521346
674.752368	2626.441154
675.091820	2528.138654
675.431223	2502.932885
675.770574	2485.288846
676.109875	2490.330000
676.449125	2457.562500
676.788324	2507.974038
677.127473	2525.618077
677.466571	2472.685962
677.805619	2485.288846
678.144616	2376.904038
678.483562	2417.233269
678.822458	2528.138654
679.161303	2500.412308
679.500098	2487.809423
679.838842	2462.603654
680.177535	2487.809423
680.516179	2437.397885
680.854771	2525.618077
681.193314	2497.891731
681.531805	2475.206538
681.870247	2452.521346
682.208638	2467.644808
682.546978	2492.850577
682.885268	2447.480192
683.223508	2397.068654
683.561697	2500.412308
683.899836	2533.179808
684.237925	2495.371154
684.575963	2422.274423
684.913951	2472.685962
685.251889	2505.453462
685.589776	2525.618077
685.927614	2533.179808
686.265401	2455.041923
686.603137	2450.000769
686.940824	2518.056346
687.278460	2583.591346
687.616046	2510.494615
687.953582	2477.727115
688.291068	2460.083077
688.628504	2578.550192
688.965889	2596.194231
689.303224	2510.494615
689.640510	2487.809423
689.977745	2480.247692
690.314930	2523.097500
690.652065	2538.220962
690.989150	2475.206538
691.326185	2482.768269
691.663170	2525.618077
692.000105	2485.288846
692.336990	2437.397885
692.673825	2507.974038
693.010610	2480.247692
693.347345	2507.974038
693.684030	2467.644808
694.020665	2523.097500
694.357251	2563.426731
694.693786	2530.659231
695.030272	2457.562500
695.366707	2457.562500
695.703093	2586.111923
696.039429	2520.576923
696.375716	2394.548077
696.711952	2558.385577
697.048139	2568.467885
697.384276	2553.344423
697.720363	2374.383462
698.056400	2427.315577
698.392388	2523.097500
698.728326	2447.480192
699.064214	2485.288846
699.400053	2558.385577
699.735842	2472.685962
700.071581	2485.288846
700.407270	2573.509038
700.742910	2477.727115
701.078501	2437.397885
701.414042	2465.124231
701.749533	2492.850577
702.084974	2520.576923
702.420366	2472.685962
702.755709	2513.015192
703.091002	2533.179808
703.426246	2510.494615
703.761440	2475.206538
704.096584	2475.206538
704.431679	2409.671538
704.766725	2581.070769
705.101721	2525.618077
705.436668	2507.974038
705.771565	2518.056346
706.106413	2555.865000
706.441212	2555.865000
706.775961	2523.097500
707.110661	2482.768269
707.445311	2497.891731
707.779913	2563.426731
708.114465	2412.192115
708.448967	2505.453462
708.783421	2470.165385
709.117825	2593.673654
709.452180	2490.330000
709.786485	2520.576923
710.120742	2457.562500
710.454949	2535.700385
710.789107	2475.206538
711.123216	2439.918462
711.457275	2510.494615
711.791286	2497.891731
712.125247	2513.015192
712.459159	2588.632500
712.793023	2520.576923
713.126837	2560.906154
713.460602	2447.480192
713.794318	2455.041923
714.127985	2452.521346
714.461602	2500.412308
714.795171	2555.865000
715.128691	2518.056346
715.462162	2457.562500
715.795584	2535.700385
716.128957	2525.618077
716.462281	2518.056346
716.795556	2523.097500
717.128782	2437.397885
717.461960	2492.850577
717.795088	2452.521346
718.128167	2654.167500
718.461198	2500.412308
718.794180	2492.850577
719.127113	2424.795000
719.459997	2475.206538
719.792833	2470.165385
720.125619	2530.659231
720.458357	2475.206538
720.791046	2467.644808
721.123686	2502.932885
721.456278	2505.453462
721.788821	2500.412308
722.121315	2588.632500
722.453761	2502.932885
722.786158	2510.494615
723.118506	2538.220962
723.450805	2495.371154
723.783056	2437.397885
724.115259	2429.836154
724.447412	2515.535769
724.779518	2452.521346
725.111574	2558.385577
725.443582	2533.179808
725.775542	2535.700385
726.107453	2477.727115
726.439315	2510.494615
726.771129	2583.591346
727.102895	2444.959615
727.434612	2513.015192
727.766281	2518.056346
728.097901	2470.165385
728.429473	2505.453462
728.760996	2518.056346
729.092471	2470.165385
729.423897	2402.109808
729.755276	2560.906154
730.086606	2548.303269
730.417887	2467.644808
730.749120	2560.906154
731.080305	2470.165385
731.411442	2490.330000
731.742530	2417.233269
732.073570	2613.838269
732.404562	2450.000769
732.735506	2581.070769
733.066401	2470.165385
733.397249	2477.727115
733.728048	2475.206538
734.058798	2621.400000
734.389501	2545.782692
734.720156	2424.795000
735.050762	2533.179808
735.381320	2533.179808
735.711831	2540.741538
736.042293	2497.891731
736.372707	2497.891731
736.703073	2429.836154
737.033391	2409.671538
737.363661	2460.083077
737.693883	2351.698269
738.024056	2497.891731
738.354182	2460.083077
738.684260	2470.165385
739.014290	2550.823846
739.344272	2444.959615
739.674207	2497.891731
740.004093	2581.070769
740.333931	2424.795000
740.663722	2470.165385
740.993464	2533.179808
741.323159	2538.220962
741.652806	2515.535769
741.982405	2487.809423
742.311956	2515.535769
742.641460	2510.494615
742.970915	2482.768269
743.300323	2502.932885
743.629683	2502.932885
743.958996	2497.891731
744.288260	2490.330000
744.617477	2550.823846
744.946647	2565.947308
745.275768	2369.342308
745.604842	2417.233269
745.933869	2495.371154
746.262847	2611.317692
746.591778	2492.850577
746.920662	2520.576923
747.249498	2497.891731
747.578286	2538.220962
747.907027	2591.153077
748.235720	2475.206538
748.564365	2505.453462
748.892963	2482.768269
749.221514	2482.768269
749.550017	2495.371154
749.878473	2533.179808
750.206881	2412.192115
750.535242	2581.070769
750.863555	2455.041923
751.191821	2482.768269
751.520039	2465.124231
751.848210	2465.124231
752.176334	2576.029615
752.504411	2487.809423
752.832440	2550.823846
753.160421	2497.891731
753.488356	2497.891731
753.816243	2553.344423
754.144082	2422.274423
754.471875	2530.659231
754.799620	2452.521346
755.127318	2568.467885
755.454969	2495.371154
755.782572	2525.618077
756.110129	2495.371154
756.437638	2550.823846
756.765100	2548.303269
757.092515	2437.397885
757.419882	2497.891731
757.747203	2502.932885
758.074477	2500.412308
758.401703	2558.385577
758.728882	2523.097500
759.056014	2548.303269
759.383099	2470.165385
759.710138	2434.877308
760.037129	2432.356731
760.364073	2475.206538
760.690970	2497.891731
761.017820	2555.865000
761.344623	2513.015192
761.671379	2520.576923
761.998088	2548.303269
762.324751	2513.015192
762.651366	2472.685962
762.977935	2419.753846
763.304456	2495.371154
763.630931	2523.097500
763.957359	2505.453462
764.283740	2535.700385
764.610074	2480.247692
764.936362	2432.356731
765.262602	2480.247692
765.588796	2497.891731
765.914943	2457.562500
766.241044	2520.576923
766.567097	2570.988462
766.893104	2460.083077
767.219064	2492.850577
767.544978	2492.850577
767.870845	2465.124231
768.196665	2510.494615
768.522438	2460.083077
768.848165	2490.330000
769.173846	2515.535769
769.499479	2427.315577
769.825066	2515.535769
770.150607	2490.330000
770.476101	2460.083077
770.801548	2447.480192
771.126949	2523.097500
771.452303	2447.480192
771.777611	2475.206538
772.102872	2490.330000
772.428087	2533.179808
772.753256	2510.494615
773.078378	2583.591346
773.403453	2528.138654
773.728482	2520.576923
774.053465	2460.083077
774.378401	2495.371154
774.703291	2465.124231
775.028135	2452.521346
775.352932	2515.535769
775.677683	2414.712692
776.002388	2523.097500
776.327046	2553.344423
776.651658	2470.165385
776.976224	2563.426731
777.300743	2472.685962
777.625216	2500.412308
777.949643	2414.712692
778.274024	2545.782692
778.598359	2480.247692
778.922647	2485.288846
779.246889	2455.041923
779.571086	2543.262115
779.895236	2442.439038
780.219339	2505.453462
780.543397	2452.521346
780.867409	2528.138654
781.191374	2555.865000
781.515294	2485.288846
781.839167	2502.932885
782.162995	2434.877308
782.486776	2518.056346
782.810511	2437.397885
783.134201	2477.727115
783.457844	2520.576923
783.781441	2472.685962
784.104993	2558.385577
784.428498	2548.303269
784.751958	2497.891731
785.075372	2480.247692
785.398739	2500.412308
785.722061	2507.974038
786.045337	2518.056346
786.368568	2548.303269
786.691752	2515.535769
787.014891	2419.753846
787.337983	2528.138654
787.661030	2528.138654
787.984031	2482.768269
788.306987	2447.480192
788.629897	2560.906154
788.952760	2452.521346
789.275579	2518.056346
789.598351	2586.111923
789.921078	2482.768269
790.243759	2455.041923
790.566395	2510.494615
790.888984	2492.850577
791.211529	2467.644808
791.534027	2510.494615
791.856480	2482.768269
792.178888	2429.836154
792.501249	2520.576923
792.823566	2487.809423
793.145836	2550.823846
793.468062	2470.165385
793.790241	2465.124231
794.112375	2550.823846
794.434464	2497.891731
794.756507	2515.535769
795.078505	2525.618077
795.400457	2497.891731
795.722364	2450.000769
796.044226	2518.056346
796.366042	2558.385577
796.687812	2462.603654
797.009538	2477.727115
797.331218	2444.959615
797.652852	2432.356731
797.974442	2487.809423
798.295986	2495.371154
798.617484	2487.809423
798.938938	2487.809423
799.260346	2480.247692
799.581709	2528.138654
799.903026	2523.097500
800.224299	2507.974038
800.545526	2447.480192
800.866708	2565.947308
801.187845	2457.562500
801.508936	2540.741538
801.829983	2427.315577
802.150984	2381.945192
802.471940	2507.974038
802.792851	2482.768269
803.113717	2485.288846
803.434538	2548.303269
803.755314	2424.795000
804.076045	2548.303269
804.396731	2465.124231
804.717372	2518.056346
805.037967	2487.809423
805.358518	2457.562500
805.679024	2563.426731
805.999485	2518.056346
806.319901	2523.097500
806.640272	2558.385577
806.960598	2543.262115
807.280879	2480.247692
807.601115	2457.562500
807.921306	2480.247692
808.241453	2518.056346
808.561554	2490.330000
808.881611	2444.959615
809.201623	2452.521346
809.521590	2530.659231
809.841513	2472.685962
810.161390	2470.165385
810.481223	2568.467885
810.801011	2460.083077
811.120755	2485.288846
811.440453	2586.111923
811.760107	2535.700385
812.079716	2477.727115
812.399281	2444.959615
812.718801	2492.850577
813.038276	2437.397885
813.357707	2513.015192
813.677093	2422.274423
813.996434	2482.768269
814.315731	2434.877308
814.634983	2447.480192
814.954191	2505.453462
815.273354	2510.494615
815.592473	2550.823846
815.911547	2482.768269
816.230577	2533.179808
816.549562	2457.562500
816.868502	2530.659231
817.187399	2515.535769
817.506250	2480.247692
817.825058	2424.795000
818.143821	2422.274423
818.462539	2475.206538
818.781213	2442.439038
819.099843	2525.618077
819.418429	2538.220962
819.736970	2450.000769
820.055466	2487.809423
820.373919	2389.506923
820.692327	2467.644808
821.010691	2513.015192
821.329011	2460.083077
821.647286	2472.685962
821.965517	2520.576923
822.283704	2482.768269
822.601847	2540.741538
822.919945	2560.906154
823.237999	2444.959615
823.556010	2510.494615
823.873976	2525.618077
824.191897	2500.412308
824.509775	2500.412308
824.827609	2462.603654
825.145398	2520.576923
825.463144	2462.603654
825.780845	2581.070769
826.098502	2520.576923
826.416116	2535.700385
826.733685	2455.041923
827.051210	2495.371154
827.368692	2470.165385
827.686129	2560.906154
828.003522	2543.262115
828.320872	2477.727115
828.638177	2492.850577
828.955439	2515.535769
829.272656	2586.111923
829.589830	2465.124231
829.906960	2477.727115
830.224046	2520.576923
830.541088	2467.644808
830.858086	2543.262115
831.175041	2482.768269
831.491952	2457.562500
831.808819	2520.576923
832.125642	2477.727115
832.442421	2535.700385
832.759157	2505.453462
833.075849	2497.891731
833.392497	2450.000769
833.709101	2442.439038
834.025662	2543.262115
834.342179	2452.521346
834.658653	2472.685962
834.975083	2450.000769
835.291469	2500.412308
835.607811	2485.288846
835.924110	2570.988462
836.240366	2495.371154
836.556578	2510.494615
836.872746	2465.124231
837.188871	2533.179808
837.504952	2485.288846
837.820990	2462.603654
838.136984	2525.618077
838.452935	2538.220962
838.768842	2444.959615
839.084706	2543.262115
839.400526	2455.041923
839.716303	2492.850577
840.032037	2477.727115
840.347727	2432.356731
840.663373	2490.330000
840.978977	2543.262115
841.294537	2495.371154
841.610054	2487.809423
841.925527	2384.465769
842.240957	2515.535769
842.556344	2560.906154
842.871687	2507.974038
843.186987	2533.179808
843.502244	2613.838269
843.817458	2513.015192
844.132629	2480.247692
844.447756	2482.768269
844.762840	2540.741538
845.077881	2439.918462
845.392879	2465.124231
845.707833	2510.494615
846.022745	2500.412308
846.337613	2525.618077
846.652438	2429.836154
846.967221	2513.015192
847.281960	2419.753846
847.596656	2515.535769
847.911309	2563.426731
848.225919	2470.165385
848.540485	2500.412308
848.855009	2470.165385
849.169490	2548.303269
849.483928	2460.083077
849.798323	2576.029615
850.112675	2500.412308
850.426984	2505.453462
850.741251	2412.192115
851.055474	2525.618077
851.369654	2528.138654
851.683792	2515.535769
851.997887	2538.220962
852.311938	2490.330000
852.625947	2477.727115
852.939914	2507.974038
853.253837	2497.891731
853.567718	2497.891731
853.881555	2525.618077
854.195350	2432.356731
854.509103	2482.768269
854.822812	2487.809423
855.136479	2518.056346
855.450103	2442.439038
855.763685	2515.535769
856.077224	2500.412308
856.390720	2558.385577
856.704173	2392.027500
857.017584	2560.906154
857.330953	2533.179808
857.644278	2460.083077
857.957561	2523.097500
858.270802	2495.371154
858.584000	2530.659231
858.897155	2515.535769
859.210268	2439.918462
859.523339	2475.206538
859.836367	2447.480192
860.149352	2460.083077
860.462295	2437.397885
860.775195	2444.959615
861.088054	2462.603654
861.400869	2502.932885
861.713642	2515.535769
862.026373	2573.509038
862.339062	2497.891731
862.651708	2475.206538
862.964312	2500.412308
863.276873	2523.097500
863.589392	2490.330000
863.901869	2538.220962
864.214303	2492.850577
864.526696	2485.288846
864.839045	2444.959615
865.151353	2490.330000
865.463619	2487.809423
865.775842	2480.247692
866.088023	2412.192115
866.400162	2452.521346
866.712258	2444.959615
867.024313	2477.727115
867.336325	2525.618077
867.648296	2505.453462
867.960224	2444.959615
868.272110	2533.179808
868.583954	2457.562500
868.895755	2467.644808
869.207515	2442.439038
869.519233	2467.644808
869.830909	2414.712692
870.142542	2553.344423
870.454134	2553.344423
870.765684	2409.671538
871.077191	2487.809423
871.388657	2381.945192
871.700081	2475.206538
872.011463	2565.947308
872.322803	2525.618077
872.634101	2462.603654
872.945357	2444.959615
873.256571	2472.685962
873.567744	2523.097500
873.878874	2533.179808
874.189963	2500.412308
874.501010	2528.138654
874.812015	2505.453462
875.122979	2429.836154
875.433900	2434.877308
875.744780	2515.535769
876.055618	2447.480192
876.366415	2447.480192
876.677169	2505.453462
876.987882	2467.644808
877.298554	2482.768269
877.609183	2412.192115
877.919771	2422.274423
878.230317	2477.727115
878.540822	2543.262115
878.851285	2505.453462
879.161707	2460.083077
879.472087	2540.741538
879.782425	2497.891731
880.092722	2510.494615
880.402977	2427.315577
880.713191	2500.412308
881.023363	2515.535769
881.333494	2533.179808
881.643583	2530.659231
881.953631	2548.303269
882.263637	2495.371154
882.573602	2457.562500
882.883526	2510.494615
883.193408	2535.700385
883.503248	2528.138654
883.813048	2568.467885
884.122806	2502.932885
884.432522	2450.000769
884.742197	2422.274423
885.051831	2492.850577
885.361424	2376.904038
885.670975	2570.988462
885.980485	2570.988462
886.289954	2455.041923
886.599382	2455.041923
886.908768	2457.562500
887.218113	2500.412308
887.527417	2389.506923
887.836680	2432.356731
888.145901	2543.262115
888.455082	2487.809423
888.764221	2455.041923
889.073319	2490.330000
889.382376	2460.083077
889.691392	2500.412308
890.000366	2507.974038
890.309300	2588.632500
890.618193	2460.083077
890.927044	2550.823846
891.235855	2450.000769
891.544625	2533.179808
891.853353	2467.644808
892.162041	2540.741538
892.470687	2555.865000
892.779293	2465.124231
893.087858	2535.700385
893.396381	2492.850577
893.704864	2480.247692
894.013306	2412.192115
894.321707	2462.603654
894.630068	2502.932885
894.938387	2444.959615
895.246665	2520.576923
895.554903	2560.906154
895.863100	2576.029615
896.171256	2500.412308
896.479371	2543.262115
896.787446	2450.000769
897.095480	2540.741538
897.403473	2477.727115
897.711425	2560.906154
898.019336	2480.247692
898.327207	2596.194231
898.635038	2470.165385
898.942827	2548.303269
899.250576	2510.494615
899.558284	2444.959615
899.865952	2442.439038
900.173579	2470.165385
900.481165	2543.262115
900.788711	2540.741538
901.096216	2467.644808
901.403681	2495.371154
901.711105	2480.247692
902.018489	2495.371154
902.325832	2465.124231
902.633135	2487.809423
902.940397	2457.562500
903.247619	2515.535769
903.554800	2543.262115
903.861941	2538.220962
904.169041	2482.768269
904.476101	2507.974038
904.783121	2467.644808
905.090100	2505.453462
905.397039	2558.385577
905.703938	2581.070769
906.010796	2472.685962
906.317614	2533.179808
906.624391	2432.356731
906.931129	2507.974038
907.237826	2560.906154
907.544483	2515.535769
907.851099	2510.494615
908.157675	2540.741538
908.464211	2497.891731
908.770707	2555.865000
909.077163	2467.644808
909.383578	2530.659231
909.689954	2485.288846
909.996289	2507.974038
910.302584	2412.192115
910.608839	2497.891731
910.915054	2480.247692
911.221229	2492.850577
911.527363	2487.809423
911.833458	2460.083077
912.139513	2528.138654
912.445527	2490.330000
912.751502	2520.576923
913.057436	2442.439038
913.363331	2495.371154
913.669186	2422.274423
913.975000	2465.124231
914.280775	2480.247692
914.586510	2429.836154
914.892205	2467.644808
915.197859	2465.124231
915.503475	2472.685962
915.809050	2500.412308
916.114585	2450.000769
916.420081	2497.891731
916.725536	2437.397885
917.030952	2505.453462
917.336328	2565.947308
917.641665	2460.083077
917.946961	2467.644808
918.252218	2467.644808
918.557435	2497.891731
918.862612	2412.192115
919.167750	2550.823846
919.472848	2507.974038
919.777906	2472.685962
920.082925	2502.932885
920.387904	2455.041923
920.692843	2500.412308
920.997743	2492.850577
921.302603	2394.548077
921.607423	2565.947308
921.912204	2613.838269
922.216946	2545.782692
922.521647	2490.330000
922.826310	2513.015192
923.130932	2502.932885
923.435516	2480.247692
923.740059	2513.015192
924.044564	2465.124231
924.349028	2500.412308
924.653454	2465.124231
924.957840	2475.206538
925.262186	2490.330000
925.566493	2502.932885
925.870761	2490.330000
926.174989	2518.056346
926.479178	2467.644808
926.783328	2495.371154
927.087438	2455.041923
927.391509	2606.276538
927.695541	2457.562500
927.999533	2447.480192
928.303486	2563.426731
928.607400	2427.315577
928.911275	2528.138654
929.215110	2482.768269
929.518906	2487.809423
929.822663	2460.083077
930.126381	2578.550192
930.430060	2487.809423
930.733699	2520.576923
931.037299	2447.480192
931.340861	2490.330000
931.644383	2518.056346
931.947866	2457.562500
932.251309	2470.165385
932.554714	2482.768269
932.858080	2470.165385
933.161407	2452.521346
933.464694	2553.344423
933.767943	2525.618077
934.071153	2525.618077
934.374323	2475.206538
934.677455	2485.288846
934.980548	2490.330000
935.283602	2477.727115
935.586617	2497.891731
935.889593	2467.644808
936.192530	2487.809423
936.495428	2470.165385
936.798287	2462.603654
937.101108	2538.220962
937.403890	2528.138654
937.706632	2467.644808
938.009336	2439.918462
938.312002	2480.247692
938.614628	2437.397885
938.917216	2528.138654
939.219765	2452.521346
939.522275	2520.576923
939.824747	2475.206538
940.127179	2568.467885
940.429573	2523.097500
940.731929	2520.576923
941.034246	2450.000769
941.336524	2507.974038
941.638763	2573.509038
941.940964	2444.959615
942.243126	2475.206538
942.545250	2500.412308
942.847335	2528.138654
943.149381	2470.165385
943.451389	2533.179808
943.753359	2497.891731
944.055290	2500.412308
944.357182	2472.685962
944.659036	2550.823846
944.960851	2500.412308
945.262628	2487.809423
945.564367	2570.988462
945.866067	2495.371154
946.167729	2530.659231
946.469352	2465.124231
946.770937	2492.850577
947.072484	2505.453462
947.373992	2573.509038
947.675462	2470.165385
947.976893	2492.850577
948.278286	2596.194231
948.579641	2543.262115
948.880958	2565.947308
949.182236	2515.535769
949.483476	2515.535769
949.784678	2442.439038
950.085841	2576.029615
950.386967	2437.397885
950.688054	2447.480192
950.989103	2477.727115
951.290114	2500.412308
951.591087	2477.727115
951.892021	2513.015192
952.192917	2437.397885
952.493776	2543.262115
952.794596	2490.330000
953.095378	2412.192115
953.396122	2520.576923
953.696828	2452.521346
953.997496	2581.070769
954.298126	2414.712692
954.598718	2510.494615
954.899272	2480.247692
955.199788	2485.288846
955.500266	2480.247692
955.800706	2487.809423
956.101108	2480.247692
956.401472	2540.741538
956.701798	2528.138654
957.002087	2424.795000
957.302337	2371.862885
957.602550	2455.041923
957.902724	2570.988462
958.202861	2528.138654
958.502960	2502.932885
958.803022	2520.576923
959.103045	2462.603654
959.403031	2565.947308
959.702979	2492.850577
960.002889	2434.877308
960.302762	2485.288846
960.602596	2495.371154
960.902393	2533.179808
961.202153	2495.371154
961.501875	2528.138654
961.801559	2467.644808
962.101205	2578.550192
962.400814	2470.165385
962.700385	2482.768269
962.999918	2407.150962
963.299414	2528.138654
963.598873	2462.603654
963.898293	2434.877308
964.197677	2505.453462
964.497022	2472.685962
964.796331	2482.768269
965.095601	2500.412308
965.394835	2467.644808
965.694030	2432.356731
965.993189	2480.247692
966.292309	2475.206538
966.591393	2500.412308
966.890439	2558.385577
967.189447	2460.083077
967.488419	2450.000769
967.787353	2497.891731
968.086249	2565.947308
968.385108	2472.685962
968.683930	2495.371154
968.982714	2510.494615
969.281462	2543.262115
969.580172	2507.974038
969.878844	2500.412308
970.177480	2447.480192
970.476078	2505.453462
970.774639	2485.288846
971.073162	2427.315577
971.371649	2480.247692
971.670098	2442.439038
971.968510	2452.521346
972.266885	2407.150962
972.565223	2477.727115
972.863524	2505.453462
973.161788	2525.618077
973.460014	2460.083077
973.758204	2452.521346
974.056356	2507.974038
974.354471	2447.480192
974.652550	2452.521346
974.950591	2404.630385
975.248595	2535.700385
975.546563	2392.027500
975.844493	2528.138654
976.142386	2545.782692
976.440243	2467.644808
976.738062	2492.850577
977.035845	2495.371154
977.333590	2462.603654
977.631299	2497.891731
977.928971	2523.097500
978.226606	2500.412308
978.524204	2502.932885
978.821765	2439.918462
979.119290	2523.097500
979.416777	2510.494615
979.714228	2596.194231
980.011642	2520.576923
980.309020	2550.823846
980.606360	2485.288846
980.903664	2530.659231
981.200931	2558.385577
981.498162	2576.029615
981.795356	2485.288846
982.092513	2548.303269
982.389633	2505.453462
982.686717	2578.550192
982.983764	2492.850577
983.280775	2502.932885
983.577749	2477.727115
983.874686	2533.179808
984.171587	2482.768269
984.468451	2500.412308
984.765279	2465.124231
985.062070	2492.850577
985.358824	2465.124231
985.655543	2495.371154
985.952224	2495.371154
986.248869	2422.274423
986.545478	2535.700385
986.842050	2497.891731
987.138586	2447.480192
987.435086	2497.891731
987.731549	2520.576923
988.027975	2538.220962
988.324366	2523.097500
988.620719	2558.385577
988.917037	2477.727115
989.213318	2586.111923
989.509563	2533.179808
989.805772	2500.412308
990.101944	2437.397885
990.398080	2548.303269
990.694180	2497.891731
990.990244	2520.576923
991.286271	2419.753846
991.582262	2467.644808
991.878217	2502.932885
992.174136	2487.809423
992.470019	2560.906154
992.765865	2510.494615
993.061676	2457.562500
993.357450	2414.712692
993.653188	2462.603654
993.948890	2444.959615
994.244556	2429.836154
994.540186	2568.467885
994.835780	2442.439038
995.131337	2520.576923
995.426859	2437.397885
995.722345	2540.741538
996.017795	2482.768269
996.313208	2470.165385
996.608586	2525.618077
996.903928	2502.932885
997.199234	2520.576923
997.494504	2470.165385
997.789738	2540.741538
998.084936	2497.891731
998.380099	2434.877308
998.675225	2510.494615
998.970316	2439.918462
999.265371	2485.288846
999.560390	2457.562500
999.855373	2442.439038
1000.150320	2475.206538
1000.445232	2485.288846
1000.740108	2482.768269
1001.034948	2502.932885
1001.329752	2520.576923
1001.624521	2578.550192
1001.919254	2437.397885
1002.213951	2535.700385
1002.508613	2424.795000
1002.803239	2520.576923
1003.097829	2442.439038
1003.392384	2507.974038
1003.686903	2487.809423
1003.981386	2553.344423
1004.275834	2434.877308
1004.570246	2419.753846
1004.864623	2523.097500
1005.158964	2417.233269
1005.453270	2460.083077
1005.747540	2507.974038
1006.041775	2530.659231
1006.335974	2455.041923
1006.630138	2497.891731
1006.924266	2455.041923
1007.218359	2397.068654
1007.512416	2530.659231
1007.806438	2523.097500
1008.100425	2492.850577
1008.394376	2452.521346
1008.688292	2492.850577
1008.982172	2505.453462
1009.276017	2520.576923
1009.569827	2500.412308
1009.863602	2465.124231
1010.157341	2500.412308
1010.451045	2437.397885
1010.744714	2515.535769
1011.038347	2510.494615
1011.331945	2497.891731
1011.625508	2525.618077
1011.919036	2528.138654
1012.212528	2593.673654
1012.505986	2490.330000
1012.799408	2533.179808
1013.092795	2457.562500
1013.386147	2492.850577
1013.679464	2475.206538
1013.972745	2439.918462
1014.265992	2490.330000
1014.559204	2482.768269
1014.852380	2495.371154
1015.145521	2447.480192
1015.438628	2419.753846
1015.731699	2434.877308
1016.024736	2555.865000
1016.317737	2538.220962
1016.610703	2447.480192
1016.903635	2490.330000
1017.196531	2608.797115
1017.489393	2487.809423
1017.782219	2507.974038
1018.075011	2497.891731
1018.367768	2520.576923
1018.660490	2553.344423
1018.953177	2553.344423
1019.245829	2553.344423
