Dividing Wavelength (nm)	Counts (n)	Blue Motor Position (mm): 0.000000	Red Motor Position (mm): 9.500000	
326.493990	2083.632393
326.888308	2083.632393
327.282561	2083.632393
327.676750	2062.031049
328.070874	2064.448282
328.464933	2070.308623
328.858929	2079.183575
329.252859	2092.640935
329.646726	2106.557040
330.040528	2121.524226
330.434265	2142.707154
330.827938	2161.833292
331.221547	2182.323062
331.615091	2200.783767
332.008571	2221.397045
332.401986	2245.554254
332.795338	2262.679054
333.188625	2282.362239
333.581847	2300.565846
333.975006	2316.747950
334.368100	2337.202431
334.761129	2354.576768
335.154095	2371.888090
335.546996	2387.124978
335.939833	2400.340363
336.332606	2414.178330
336.725315	2426.990422
337.117960	2434.809252
337.510540	2441.221600
337.903056	2453.325410
338.295508	2456.279526
338.687896	2464.110959
339.080220	2471.801239
339.472480	2477.893473
339.864676	2479.267188
340.256807	2483.718527
340.648875	2483.572333
341.040879	2486.231542
341.432818	2486.019813
341.824694	2487.242293
342.216506	2485.009062
342.608253	2485.750112
342.999937	2487.338075
343.391557	2483.247179
343.783113	2482.344812
344.174605	2479.178968
344.566033	2483.544607
344.957397	2480.005717
345.348697	2476.265181
345.739934	2474.135293
346.131106	2474.765438
346.522215	2474.268884
346.913260	2468.905096
347.304241	2468.201855
347.695159	2466.722277
348.086012	2467.606999
348.476802	2464.244549
348.867528	2461.534929
349.258191	2461.214816
349.648789	2464.284879
350.039324	2460.418314
350.429796	2460.138530
350.820203	2458.336317
351.210548	2459.228601
351.600828	2458.611060
351.991045	2457.736420
352.381198	2458.079218
352.771288	2458.734568
353.161314	2457.179372
353.551276	2459.251287
353.941175	2456.483693
354.331010	2459.052161
354.720782	2456.521502
355.110490	2459.941925
355.500135	2461.330762
355.889717	2458.323714
356.279235	2459.110134
356.668689	2461.416462
357.058080	2462.235650
357.447408	2459.301698
357.836672	2456.826492
358.225873	2459.251287
358.615010	2455.175514
359.004084	2461.713890
359.393095	2463.324539
359.782043	2464.247070
360.170927	2464.922585
360.559748	2466.515589
360.948505	2467.412915
361.337199	2469.547843
361.725830	2470.243522
362.114398	2467.385188
362.502903	2470.041876
362.891344	2471.181177
363.279722	2467.042390
363.668037	2470.861064
364.056289	2469.510035
364.444478	2472.018009
364.832603	2471.612196
365.220665	2473.558081
365.608665	2471.405508
365.996601	2473.865592
366.384474	2474.604121
366.772284	2472.685962
367.160031	2475.385499
367.547715	2479.660398
367.935336	2476.088740
368.322893	2476.328195
368.710388	2475.062866
369.097820	2484.220122
369.485189	2475.922382
369.872495	2480.950933
370.259738	2483.582416
370.646918	2482.317086
371.034035	2483.695842
371.421090	2488.701707
371.808081	2488.242962
372.195010	2494.299909
372.581875	2493.190855
372.968678	2498.884838
373.355418	2505.967659
373.742096	2516.428053
374.128710	2522.530370
374.515262	2534.727442
374.901751	2544.187167
375.288177	2561.299364
375.674540	2577.463824
376.060841	2595.352358
376.447079	2618.960082
376.833254	2642.698875
377.219367	2662.359375
377.605417	2694.461443
377.991404	2719.841132
378.377329	2755.923190
378.763191	2786.969136
379.148991	2829.541681
379.534727	2878.582025
379.920402	2919.541400
380.306013	2963.202834
380.691563	3024.069725
381.077049	3073.800708
381.462474	3128.000673
381.847835	3195.060622
382.233134	3262.349944
382.618371	3319.259530
383.003545	3396.179976
383.388657	3473.554126
383.773706	3556.556724
384.158693	3625.439050
384.543618	3709.248233
384.928480	3779.615178
385.313280	3877.774006
385.698017	3975.005260
386.082692	4083.415274
386.467305	4137.196824
386.851856	4248.447527
387.236344	4386.159247
387.620770	4440.328966
388.005133	4541.457033
388.389435	4662.785003
388.773674	4728.970312
389.157851	4831.840097
389.541965	4942.311943
389.926018	4944.588024
390.310008	5080.237912
390.693936	5166.900388
391.077802	5236.243979
391.461606	5327.322506
391.845348	5391.261981
392.229027	5465.608918
392.612645	5610.655517
392.996200	5662.954967
393.379694	5761.547334
393.763125	5891.288990
394.146494	5912.938225
394.529801	5961.839938
394.913047	6087.218475
395.296230	6021.577611
395.679351	6002.484241
396.062410	6121.929340
396.445408	5976.920549
396.828343	6012.561507
397.211217	6030.137490
397.594028	5875.744592
397.976778	5929.833652
398.359466	5949.809224
398.742092	5854.891859
399.124656	5854.856571
399.507158	5877.778697
399.889598	5799.875226
400.271977	5826.303475
400.654294	5748.132823
401.036549	5757.632878
401.418742	5670.541904
401.800874	5719.262135
402.182944	5654.851312
402.564952	5720.104008
402.946898	5537.377304
403.328783	5453.590807
403.710606	5430.353608
404.092367	5423.719450
404.474067	5452.958142
404.855705	5272.404176
405.237282	5139.133712
405.618797	5175.331718
406.000250	5146.937418
406.381642	5143.728724
406.762972	5017.462944
407.144240	4852.072768
407.525447	4811.367972
407.906593	4693.548644
408.287677	4650.628261
408.668700	4579.726952
409.049661	4472.131085
409.430560	4403.420158
409.811399	4301.177997
410.192176	4240.734562
410.572891	4150.389523
410.953545	4138.401659
411.334138	3965.951348
411.714669	3963.529074
412.095139	3780.436887
412.475547	3761.804782
412.855894	3667.331038
413.236180	3627.452991
413.616405	3518.818646
413.996568	3479.737101
414.376670	3409.102974
414.756711	3336.041531
415.136691	3298.104328
415.516609	3248.164137
415.896466	3198.554142
416.276262	3165.637928
416.655997	3135.280100
417.035670	3087.293356
417.415283	3074.650142
417.794834	3028.649613
418.174324	2980.052890
418.553753	2936.756941
418.933121	2916.393200
419.312428	2874.428114
419.691674	2837.594924
420.070859	2821.780824
420.449983	2786.228087
420.829045	2773.088319
421.208047	2745.477920
421.586988	2736.015674
421.965867	2719.357181
422.344686	2699.626105
422.723444	2696.051927
423.102141	2662.470280
423.480777	2664.708553
423.859352	2646.242806
424.237866	2649.267498
424.616319	2633.186218
424.994712	2634.413739
425.373044	2618.524022
425.751314	2621.314300
426.129524	2609.200408
426.507673	2612.698968
426.885762	2604.701178
427.263789	2601.164808
427.641756	2594.618870
428.019662	2592.516709
428.397508	2588.970257
428.775292	2588.738364
429.153016	2584.241655
429.530679	2586.036306
429.908282	2580.811150
430.285824	2576.632033
430.663305	2578.981211
431.040726	2574.187074
431.418086	2572.200859
431.795385	2574.338308
432.172624	2575.709502
432.549802	2569.410580
432.926920	2569.219017
433.303977	2570.582649
433.680974	2570.476784
434.057910	2569.526527
434.434786	2570.144068
434.811601	2567.099211
435.188355	2568.399829
435.565050	2567.232802
435.941683	2567.613409
436.318257	2569.007288
436.694770	2562.448747
437.071222	2568.712381
437.447614	2560.344065
437.823946	2561.924467
438.200218	2564.886145
438.576429	2563.817420
438.952580	2564.860939
439.328670	2568.417473
439.704700	2566.058213
440.080670	2564.394632
440.456580	2566.259859
440.832429	2567.164746
441.208218	2563.046124
441.583947	2564.692060
441.959616	2561.417831
442.335224	2567.031156
442.710773	2566.491752
443.086261	2567.026115
443.461689	2564.734910
443.837057	2566.600137
444.212365	2565.493604
444.587612	2569.014850
444.962800	2570.292782
445.337927	2567.822617
445.712995	2562.073181
446.088002	2569.975190
446.462949	2574.290417
446.837837	2573.942578
447.212664	2573.163719
447.587431	2582.227714
447.962139	2591.095104
448.336786	2599.095415
448.711374	2592.287337
449.085901	2585.857345
449.460369	2578.582960
449.834776	2583.137642
450.209124	2590.926225
450.583412	2588.549321
450.957640	2590.497727
451.331808	2585.297777
451.705917	2580.851479
452.079965	2578.885429
452.453954	2582.492375
452.827883	2581.857189
453.201752	2581.194277
453.575562	2581.645461
453.949311	2583.949268
454.323001	2583.561099
454.696632	2583.949268
455.070202	2589.532346
455.443713	2588.503951
455.817164	2591.079980
456.190556	2587.677201
456.563888	2587.931780
456.937160	2587.173086
457.310373	2589.968406
457.683526	2588.022520
458.056619	2588.279619
458.429653	2586.507654
458.802628	2592.070567
459.175542	2591.006883
459.548398	2592.708273
459.921194	2596.879828
460.293930	2599.901999
460.666607	2605.487598
461.039224	2612.010851
461.411782	2613.263578
461.784280	2608.419029
462.156719	2608.721498
462.529099	2608.235027
462.901419	2603.030035
463.273680	2602.538523
463.645882	2601.283276
464.018024	2597.915785
464.390106	2602.702360
464.762130	2612.096551
465.134094	2625.357306
465.505999	2642.963536
465.877845	2654.464928
466.249631	2659.221257
466.621358	2652.965185
466.993026	2648.239103
467.364634	2644.498567
467.736184	2636.588997
468.107674	2632.263687
468.479105	2630.960548
468.850477	2628.719755
469.221790	2626.604991
469.593043	2618.836573
469.964238	2618.347581
470.335373	2616.663836
470.706449	2623.630711
471.077467	2631.704118
471.448425	2648.327323
471.819324	2654.217912
472.190164	2648.407982
472.560945	2637.841723
472.931667	2629.440640
473.302330	2623.862604
473.672934	2620.313631
474.043479	2622.083076
474.413965	2617.924124
474.784393	2613.939092
475.154761	2618.319855
475.525070	2614.511263
475.895321	2612.998917
476.265513	2609.971704
476.635645	2618.322376
477.005719	2617.493106
477.375734	2617.828343
477.745691	2617.709875
478.115588	2623.635752
478.485427	2627.162039
478.855207	2632.016670
479.224928	2640.649646
479.594591	2642.824904
479.964194	2641.128556
480.333739	2639.948926
480.703226	2638.192083
481.072653	2639.744759
481.442022	2637.456075
481.811333	2637.400622
482.180584	2633.954994
482.549777	2631.482308
482.918912	2627.204889
483.287988	2626.841926
483.657005	2622.231790
484.025964	2622.360340
484.394864	2619.610390
484.763706	2617.109978
485.132489	2612.706530
485.501213	2614.571757
485.869879	2609.923813
486.238487	2610.397682
486.607036	2609.903649
486.975527	2609.326437
487.343959	2607.960284
487.712333	2608.565222
488.080648	2607.015067
488.448905	2610.057404
488.817104	2608.514811
489.185244	2607.393154
489.553326	2613.170316
489.921350	2615.128805
490.289315	2624.427213
490.657222	2625.821092
491.025070	2625.334621
491.392861	2623.880248
491.760593	2618.430760
492.128267	2617.770369
492.495883	2611.284925
492.863440	2607.173864
493.230939	2605.399378
493.598380	2603.864346
493.965763	2598.172884
494.333088	2594.691967
494.700354	2595.407811
495.067563	2594.941504
495.434713	2591.165680
495.801805	2593.182141
496.168839	2593.161977
496.535815	2594.586103
496.902733	2592.322625
497.269593	2596.068202
497.636395	2593.968561
498.003139	2593.653489
498.369825	2593.845053
498.736453	2588.821543
499.103023	2589.502099
499.469535	2591.967223
499.835989	2592.131061
500.202385	2590.953951
500.568723	2587.475555
500.935003	2591.248859
501.301226	2591.737851
501.667390	2588.405648
502.033497	2589.819692
502.399546	2590.074270
502.765537	2588.503951
503.131470	2589.605443
503.497345	2587.727613
503.863163	2585.696028
504.228923	2584.080338
504.594625	2585.756522
504.960269	2581.118660
505.325856	2583.598908
505.691385	2582.666294
506.056856	2582.946078
506.422270	2582.159658
506.787625	2584.715523
507.152924	2583.372056
507.518164	2584.899526
507.883347	2582.147056
508.248472	2581.605132
508.613540	2578.101530
508.978550	2583.717375
509.343503	2581.839545
509.708398	2580.191088
510.073236	2583.654361
510.438016	2581.877354
510.802738	2577.206725
511.167403	2582.504978
511.532010	2581.340471
511.896561	2578.852662
512.261053	2584.251737
512.625488	2578.383834
512.989866	2576.639595
513.354186	2576.465675
513.718449	2574.471899
514.082655	2575.371745
514.446803	2579.192939
514.810894	2581.894998
515.174927	2579.626479
515.538904	2577.105902
515.902822	2579.329051
516.266684	2576.450552
516.630488	2577.494071
516.994235	2577.489029
517.357925	2576.329564
517.721558	2575.649008
518.085133	2577.771334
518.448651	2576.969791
518.812112	2577.955336
519.175516	2575.767475
519.538863	2574.585325
519.902152	2576.410222
520.265385	2577.428536
520.628560	2577.615058
520.991678	2575.167578
521.354739	2573.425859
521.717743	2574.829821
522.080690	2575.941395
522.443580	2577.017682
522.806413	2573.869481
523.169189	2578.303176
523.531908	2573.700602
523.894569	2575.167578
524.257174	2572.621795
524.619722	2575.086920
524.982213	2574.693710
525.344647	2571.220355
525.707025	2573.685479
526.069345	2572.263873
526.431608	2573.458627
526.793815	2573.662794
527.155964	2573.158678
527.518057	2571.507700
527.880093	2570.532237
528.242072	2572.664645
528.603995	2573.322516
528.965860	2569.700447
529.327669	2571.356466
529.689421	2570.940571
530.051117	2572.417629
530.412755	2569.105591
530.774337	2569.327401
531.135862	2568.737586
531.497331	2566.753892
531.858743	2567.094170
532.220098	2565.493604
532.581396	2564.253480
532.942638	2564.127451
533.303824	2565.564180
533.664953	2567.757082
534.026025	2564.762637
534.387040	2567.711712
534.747999	2565.586865
535.108902	2564.417318
535.469748	2564.928995
535.830537	2565.906978
536.191270	2566.295147
536.551947	2565.458316
536.912567	2567.938563
537.273131	2565.274314
537.633638	2564.482853
537.994089	2565.075188
538.354483	2563.600651
538.714821	2565.629715
539.075103	2562.726010
539.435328	2562.688202
539.795497	2563.159550
540.155609	2564.896227
540.515665	2564.616443
540.875665	2563.499827
541.235609	2562.201730
541.595496	2563.083932
541.955328	2563.719118
542.315102	2563.154508
542.674821	2559.355999
543.034483	2563.797256
543.394090	2562.317677
543.753640	2560.868345
544.113134	2560.076884
544.472571	2560.870866
544.831953	2560.346586
545.191278	2563.000753
545.550548	2560.570917
545.909761	2562.640311
546.268918	2561.869014
546.628019	2562.274827
546.987064	2557.493293
547.346053	2560.230639
547.704986	2560.583520
548.063863	2559.844991
548.422684	2559.819785
548.781449	2557.576472
549.140158	2560.354148
549.498811	2561.359858
549.857408	2556.422048
550.215949	2557.730227
550.574434	2556.003632
550.932864	2554.738302
551.291237	2554.166131
551.649555	2558.254507
552.007817	2556.227963
552.366022	2557.296688
552.724173	2556.321224
553.082267	2556.182593
553.440305	2556.774928
553.798288	2559.928170
554.156215	2557.576472
554.514086	2558.733417
554.871902	2556.601008
555.229661	2556.535473
555.587365	2559.189641
555.945014	2557.546225
556.302606	2557.934394
556.660143	2556.275854
557.017625	2556.626214
557.375050	2557.833571
557.732421	2558.859445
558.089735	2557.188303
558.446994	2556.573282
558.804197	2555.209650
559.161345	2556.903478
559.518437	2553.261244
559.875474	2554.970195
560.232455	2557.397511
560.589381	2555.902809
560.946251	2559.398849
561.303065	2557.979764
561.659825	2557.581513
562.016528	2554.768549
562.373177	2555.237376
562.729770	2554.095555
563.086307	2554.098076
563.442789	2558.902295
563.799216	2557.707542
564.155587	2552.545400
564.511904	2555.814588
564.868164	2556.507747
565.224370	2554.740823
565.580520	2554.783672
565.936615	2553.629248
566.292654	2555.270144
566.648638	2554.690411
567.004567	2555.862479
567.360441	2554.256872
567.716260	2555.277706
568.072023	2556.036399
568.427732	2548.000800
568.783385	2554.370298
569.138982	2550.145811
569.494525	2552.074052
569.850013	2549.944165
570.205445	2554.317366
570.560823	2553.120092
570.916145	2552.033723
571.271412	2553.505740
571.626625	2554.894578
571.981782	2553.929197
572.336884	2552.449618
572.691931	2553.606563
573.046923	2553.518343
573.401860	2552.802499
573.756743	2553.299053
574.111570	2551.257385
574.466342	2551.602704
574.821059	2551.464073
575.175722	2550.808723
575.530330	2551.280071
575.884882	2551.834597
576.239380	2550.521377
576.593823	2552.653785
576.948211	2547.665563
577.302544	2550.707900
577.656823	2550.783517
578.011047	2548.946016
578.365216	2550.130687
578.719330	2550.297046
579.073389	2549.220759
579.427394	2547.048022
579.781344	2548.827549
580.135239	2548.915769
580.489080	2548.946016
580.842866	2550.050029
581.196597	2553.263765
581.550273	2549.538352
581.903895	2549.873589
582.257463	2549.054401
582.610975	2546.443083
582.964434	2546.281767
583.317837	2549.251006
583.671186	2551.461552
584.024481	2548.439380
584.377721	2546.969884
584.730906	2547.647919
585.084037	2547.713454
585.437113	2547.375697
585.790135	2545.656663
586.143103	2546.969884
586.496016	2543.869574
586.848874	2542.851261
587.201679	2543.798998
587.554428	2543.027702
587.907124	2544.197249
588.259765	2542.679862
588.612352	2544.605583
588.964884	2543.945192
589.317362	2547.282436
589.669786	2545.147507
590.022155	2545.182795
590.374470	2545.918803
590.726731	2543.612476
591.078937	2545.520552
591.431090	2546.496016
591.783188	2546.251520
592.135232	2544.071221
592.487222	2544.882846
592.839157	2546.841335
593.191038	2546.188505
593.542866	2542.117773
593.894639	2542.301776
594.246358	2544.771941
594.598022	2543.395706
594.949633	2543.509132
595.301190	2541.996786
595.652692	2544.744215
596.004141	2543.060469
596.355535	2545.021478
596.706876	2542.989893
597.058162	2541.774975
597.409395	2539.075437
597.760573	2544.207332
598.111698	2543.173895
598.462768	2543.264636
598.813785	2542.667259
599.164748	2544.151879
599.515657	2541.706919
599.866511	2543.330171
600.217312	2543.433515
600.568060	2544.537527
600.918753	2543.670449
601.269392	2540.376055
601.619978	2539.241795
601.970510	2540.091230
602.320988	2541.535520
602.671412	2539.534182
603.021783	2541.777496
603.372100	2543.325130
603.722363	2540.519728
604.072572	2539.264480
604.422728	2541.291024
604.772830	2537.792463
605.122878	2535.193749
605.472872	2538.667104
605.822813	2534.377082
606.172701	2538.941847
606.522534	2540.542413
606.872314	2538.301620
607.222041	2543.075593
607.571714	2541.979142
607.921333	2540.416384
608.270899	2538.641898
608.620411	2538.687268
608.969870	2540.965870
609.319276	2539.730787
609.668627	2539.617361
610.017926	2542.752959
610.367171	2542.904193
610.716362	2542.009389
611.065500	2541.895963
611.414585	2542.301776
611.763616	2542.488298
612.112594	2542.034594
612.461518	2539.577032
612.810389	2541.192722
613.159207	2539.579553
613.507971	2539.846734
613.856682	2540.214738
614.205340	2539.834131
614.553945	2543.279759
614.902496	2539.672814
615.250994	2539.400592
615.599439	2539.393030
615.947830	2542.594162
616.296169	2539.939995
616.644454	2542.304296
616.992686	2542.001827
617.340864	2539.841693
617.688990	2542.447969
618.037063	2539.846734
618.385082	2542.372352
618.733048	2539.874460
619.080961	2541.177598
619.428821	2541.588452
619.776628	2542.705068
620.124382	2542.538710
620.472083	2541.457382
620.819731	2541.356559
621.167326	2539.655170
621.514868	2543.569626
621.862357	2539.740869
622.209793	2539.395550
622.557176	2541.318751
622.904506	2538.054603
623.251783	2533.774664
623.599007	2535.198790
623.946179	2536.189377
624.293297	2536.701054
624.640363	2540.204656
624.987376	2537.245498
625.334336	2538.767927
625.681243	2538.384799
626.028097	2536.199459
626.374899	2538.591486
626.721647	2537.248019
627.068343	2537.164840
627.414987	2537.346321
627.761577	2537.374048
628.108115	2537.253060
628.454600	2540.381096
628.801032	2534.959335
629.147412	2536.627957
629.493739	2538.036959
629.840014	2540.008051
630.186236	2535.874304
630.532405	2538.682227
630.878521	2537.343801
631.224585	2536.174253
631.570597	2534.762730
631.916556	2534.861032
632.262462	2534.712318
632.608316	2535.047555
632.954117	2535.755837
633.299866	2535.372710
633.645562	2536.151568
633.991206	2534.188038
634.336797	2535.450848
634.682336	2535.793646
635.027823	2533.648635
635.373257	2536.254912
635.718639	2535.092926
636.063968	2535.730632
636.409245	2532.569828
636.754470	2536.527134
637.099642	2535.307175
637.444762	2533.313398
637.789829	2532.612678
638.134845	2532.181659
638.479808	2532.728624
638.824719	2528.458767
639.169577	2533.126876
639.514383	2532.481608
639.859137	2534.092257
640.203839	2534.004036
640.548489	2531.796011
640.893086	2530.452543
641.237632	2527.906761
641.582125	2530.830630
641.926566	2528.655372
642.270955	2531.536392
642.615292	2532.373223
642.959576	2532.224509
643.303809	2528.622605
643.647990	2531.128058
643.992118	2535.977648
644.336195	2532.164015
644.680219	2532.252235
645.024192	2530.329035
645.368112	2531.070085
645.711981	2533.240302
646.055797	2533.205013
646.399562	2531.717873
646.743274	2537.598379
647.086935	2531.536392
647.430544	2531.201155
647.774101	2532.791639
648.117606	2530.805424
648.461059	2532.842050
648.804460	2533.419263
649.147810	2532.143851
649.491108	2531.750641
649.834354	2529.227543
650.177548	2534.157792
650.520690	2529.454395
650.863781	2531.097811
651.206820	2531.768285
651.549807	2534.961856
651.892742	2532.985723
652.235626	2528.562111
652.578458	2529.169570
652.921238	2532.630322
653.263967	2533.452030
653.606644	2529.305681
653.949269	2530.928932
654.291843	2528.932636
654.634365	2532.645445
654.976836	2526.780063
655.319255	2531.952287
655.661622	2531.662420
656.003938	2529.411545
656.346203	2529.083870
656.688416	2528.181504
657.030577	2529.325846
657.372687	2528.504137
657.714746	2528.907430
658.056753	2530.535722
658.398708	2523.606657
658.740612	2530.533202
659.082465	2524.057840
659.424266	2526.059178
659.766016	2525.028262
660.107715	2529.691329
660.449362	2530.369364
660.790958	2530.089580
661.132503	2529.731658
661.473996	2527.969775
661.815438	2527.284178
662.156829	2529.174611
662.498168	2528.214271
662.839456	2532.020342
663.180693	2526.878365
663.521879	2526.026410
663.863013	2526.938859
664.204097	2527.213602
664.545129	2529.867770
664.886110	2530.513037
665.227040	2530.190403
665.567918	2529.172090
665.908746	2531.780887
666.249522	2527.727800
666.590248	2529.802235
666.930922	2530.954138
667.271545	2532.030425
667.612118	2530.298788
667.952639	2530.029087
668.293109	2531.213758
668.633528	2529.898017
668.973896	2530.054292
669.314213	2529.088911
669.654480	2528.831813
669.994695	2529.497245
670.334859	2527.193438
670.674973	2525.726462
671.015035	2527.861390
671.355047	2528.612522
671.695008	2527.057326
672.034918	2529.383819
672.374777	2526.480114
672.714585	2527.511030
673.054342	2529.419107
673.394049	2529.653521
673.733705	2528.100845
674.073310	2528.592358
674.412864	2527.478263
674.752368	2527.369878
675.091820	2531.816176
675.431223	2527.672347
675.770574	2527.246370
676.109875	2522.711852
676.449125	2523.999867
676.788324	2521.935514
677.127473	2527.319466
677.466571	2524.864424
677.805619	2526.601102
678.144616	2526.273427
678.483562	2528.494055
678.822458	2529.058664
679.161303	2526.197810
679.500098	2524.009949
679.838842	2528.355423
680.177535	2525.517254
680.516179	2528.249559
680.854771	2526.810310
681.193314	2527.115300
681.531805	2529.656041
681.870247	2527.823582
682.208638	2529.247708
682.546978	2528.191586
682.885268	2529.058664
683.223508	2528.887265
683.561697	2527.256452
683.899836	2527.949611
684.237925	2527.616894
684.575963	2528.234436
684.913951	2529.880372
685.251889	2527.405166
685.589776	2526.170083
685.927614	2528.002543
686.265401	2530.192924
686.603137	2530.024045
686.940824	2531.327184
687.278460	2529.683768
687.616046	2528.168901
687.953582	2529.842564
688.291068	2530.500434
688.628504	2526.979188
688.965889	2530.245856
689.303224	2527.442975
689.640510	2530.044210
689.977745	2527.359796
690.314930	2528.108407
690.652065	2528.211751
690.989150	2527.480783
691.326185	2528.380629
691.663170	2526.344003
692.000105	2524.403159
692.336990	2524.967768
692.673825	2525.688653
693.010610	2524.597243
693.347345	2522.918539
693.684030	2521.075997
694.020665	2521.925432
694.357251	2517.584998
694.693786	2521.539783
695.030272	2522.900895
695.366707	2523.261337
695.703093	2521.691018
696.039429	2523.359640
696.375716	2524.630011
696.711952	2521.839732
697.048139	2523.778056
697.384276	2523.755371
697.720363	2523.157994
698.056400	2525.741585
698.392388	2522.800072
698.728326	2522.704290
699.064214	2522.328724
699.400053	2523.553724
699.735842	2519.840915
700.071581	2524.009949
700.407270	2521.910308
700.742910	2521.033147
701.078501	2520.173631
701.414042	2522.618590
701.749533	2519.977026
702.084974	2524.483817
702.420366	2520.619773
702.755709	2520.672705
703.091002	2521.292767
703.426246	2521.393590
703.761440	2522.747140
704.096584	2519.077180
704.431679	2522.669002
704.766725	2521.940555
705.101721	2520.372756
705.436668	2521.194464
705.771565	2520.418127
706.106413	2521.781759
706.441212	2520.052643
706.775961	2522.938704
707.110661	2522.043899
707.445311	2522.212777
707.779913	2520.682787
708.114465	2520.866789
708.448967	2522.996677
708.783421	2522.011131
709.117825	2521.270082
709.452180	2522.885772
709.786485	2521.905267
710.120742	2525.164373
710.454949	2522.719413
710.789107	2521.754033
711.123216	2516.249093
711.457275	2522.192613
711.791286	2519.256141
712.125247	2521.570030
712.459159	2522.472397
712.793023	2523.326873
713.126837	2523.616739
713.460602	2523.830988
713.794318	2523.215967
714.127985	2521.015503
714.461602	2523.324352
714.795171	2526.265865
715.128691	2522.888292
715.462162	2522.999198
715.795584	2521.643127
716.128957	2523.629342
716.462281	2519.482993
716.795556	2521.524660
717.128782	2520.884433
717.461960	2518.638599
717.795088	2522.366533
718.128167	2522.245545
718.461198	2521.365864
718.794180	2521.033148
719.127113	2518.321007
719.459997	2519.682118
719.792833	2517.514422
720.125619	2518.910822
720.458357	2519.800585
720.791046	2520.952489
721.123686	2518.656243
721.456278	2518.399145
721.788821	2519.465349
722.121315	2521.716224
722.453761	2518.900739
722.786158	2518.583147
723.118506	2519.135153
723.450805	2517.834535
723.783056	2520.055164
724.115259	2519.465349
724.447412	2516.112981
724.779518	2520.085411
725.111574	2519.891326
725.443582	2520.919722
725.775542	2517.582478
726.107453	2519.702283
726.439315	2520.806296
726.771129	2521.307890
727.102895	2518.505009
727.434612	2522.240504
727.766281	2518.507529
728.097901	2517.718589
728.429473	2516.183558
728.760996	2518.505009
729.092471	2515.974350
729.423897	2521.746471
729.755276	2517.534587
730.086606	2519.195647
730.417887	2521.680936
730.749120	2520.357633
731.080305	2517.617766
731.411442	2522.122037
731.742530	2521.073477
732.073570	2520.324865
732.404562	2518.300842
732.735506	2523.599095
733.066401	2521.754033
733.397249	2522.968951
733.728048	2521.829650
734.058798	2518.847807
734.389501	2518.885616
734.720156	2519.268744
735.050762	2522.182531
735.381320	2521.005421
735.711831	2520.806296
736.042293	2517.595081
736.372707	2519.609022
736.703073	2519.475431
737.033391	2516.233969
737.363661	2520.541635
737.693883	2517.688342
738.024056	2520.324865
738.354182	2517.506860
738.684260	2518.416789
739.014290	2515.863444
739.344272	2517.965605
739.674207	2521.277643
740.004093	2518.515091
740.333931	2518.557941
740.663722	2520.138343
740.993464	2519.039371
741.323159	2518.683970
741.652806	2521.701100
741.982405	2520.173631
742.311956	2520.085411
742.641460	2521.144053
742.970915	2517.713548
743.300323	2519.286388
743.629683	2516.125584
743.958996	2518.983918
744.288260	2516.175996
744.617477	2516.115502
744.946647	2514.278001
745.275768	2513.794051
745.604842	2514.517456
745.933869	2513.668022
746.262847	2512.657270
746.591778	2515.359329
746.920662	2516.934689
747.249498	2518.187416
747.578286	2515.825636
747.907027	2517.244720
748.235720	2515.566016
748.564365	2518.152128
748.892963	2519.114988
749.221514	2517.395955
749.550017	2519.266223
749.878473	2517.509381
750.206881	2516.594412
750.535242	2517.090965
750.863555	2519.112468
751.191821	2515.046777
751.520039	2517.723630
751.848210	2514.729185
752.176334	2515.795389
752.504411	2516.178516
752.832440	2519.533404
753.160421	2518.888137
753.488356	2517.237159
753.816243	2516.170955
754.144082	2511.991838
754.471875	2519.760256
754.799620	2513.869668
755.127318	2515.271109
755.454969	2515.082065
755.782572	2516.339833
756.110129	2516.246572
756.437638	2516.105420
756.765100	2517.421161
757.092515	2514.545183
757.419882	2516.569206
757.747203	2515.180368
758.074477	2516.438136
758.401703	2515.868485
758.728882	2515.250944
759.056014	2517.953003
759.383099	2516.607014
759.710138	2519.530884
760.037129	2516.483506
760.364073	2517.912673
760.690970	2518.081552
761.017820	2517.330420
761.344623	2518.777231
761.671379	2520.105575
761.998088	2512.377486
762.324751	2514.499812
762.651366	2517.728671
762.977935	2524.045237
763.304456	2522.384177
763.630931	2526.570855
763.957359	2522.837881
764.283740	2523.931811
764.610074	2522.704290
764.936362	2522.358971
765.262602	2517.015348
765.588796	2517.199350
765.914943	2514.265398
766.241044	2518.371418
766.567097	2513.214318
766.893104	2513.020233
767.219064	2511.470079
767.544978	2518.308404
767.870845	2514.772034
768.196665	2513.927641
768.522438	2513.355470
768.848165	2514.610717
769.173846	2513.753721
769.499479	2512.775737
769.825066	2510.890346
770.150607	2514.459483
770.476101	2512.773217
770.801548	2515.450070
771.126949	2512.508556
771.452303	2513.388238
771.777611	2511.996879
772.102872	2515.616428
772.428087	2515.424864
772.753256	2514.018382
773.078378	2513.516787
773.403453	2512.944616
773.728482	2512.851355
774.053465	2515.127436
774.378401	2513.731036
774.703291	2514.610718
775.028135	2509.796416
775.352932	2511.636437
775.677683	2514.489730
776.002388	2512.601818
776.327046	2510.799605
776.651658	2511.407064
776.976224	2512.934534
777.300743	2513.458814
777.625216	2513.743639
777.949643	2511.404544
778.274024	2511.739780
778.598359	2510.005623
778.922647	2510.096364
779.246889	2510.325737
779.571086	2507.802639
779.895236	2512.737929
780.219339	2511.117198
780.543397	2512.506036
780.867409	2511.646519
781.191374	2512.644668
781.515294	2513.559637
781.839167	2510.479492
782.162995	2511.807836
782.486776	2511.167609
782.810511	2511.523011
783.134201	2512.533762
783.457844	2512.979904
783.781441	2509.952691
784.104993	2513.458814
784.428498	2513.310100
784.751958	2512.720285
785.075372	2512.256499
785.398739	2513.791530
785.722061	2512.332116
786.045337	2514.792199
786.368568	2512.417816
786.691752	2512.929493
787.014891	2513.680625
787.337983	2511.628875
787.661030	2513.846983
787.984031	2511.298679
788.306987	2511.941427
788.629897	2513.262209
788.952760	2512.216169
789.275579	2512.274143
789.598351	2514.474606
789.921078	2512.077538
790.243759	2510.459327
790.566395	2512.377486
790.888984	2511.828001
791.211529	2511.218021
791.534027	2513.466376
791.856480	2509.304903
792.178888	2512.090141
792.501249	2512.937054
792.823566	2512.833711
793.145836	2512.243896
793.468062	2510.497136
793.790241	2510.643329
794.112375	2511.006293
794.434464	2511.767507
794.756507	2515.006448
795.078505	2511.580984
795.400457	2509.294821
795.722364	2509.330109
796.044226	2510.333298
796.366042	2507.762310
796.687812	2508.863802
797.009538	2512.206087
797.331218	2517.542148
797.652852	2514.991325
797.974442	2511.172651
798.295986	2511.449914
798.617484	2511.659122
798.938938	2512.493433
799.260346	2514.416633
799.581709	2514.305728
799.903026	2511.185253
800.224299	2512.080058
800.545526	2509.793895
800.866708	2511.137362
801.187845	2510.885305
801.508936	2514.058711
801.829983	2513.037877
802.150984	2510.686179
802.471940	2510.234996
802.792851	2511.311282
803.113717	2511.424708
803.434538	2509.335150
803.755314	2513.355470
804.076045	2511.197856
804.396731	2510.262722
804.717372	2509.519152
805.037967	2510.787002
805.358518	2511.127280
805.679024	2512.627023
805.999485	2511.835562
806.319901	2512.790861
806.640272	2511.059225
806.960598	2512.624503
807.280879	2510.406395
807.601115	2512.339678
807.921306	2510.547548
808.241453	2509.612413
808.561554	2510.545027
808.881611	2511.835562
809.201623	2512.226252
809.521590	2512.095182
809.841513	2512.453104
810.161390	2512.639626
810.481223	2510.114008
810.801011	2509.272136
811.120755	2511.452435
811.440453	2510.882784
811.760107	2508.488236
812.079716	2507.411950
812.399281	2508.147958
812.718801	2507.911024
813.038276	2504.893893
813.357707	2510.131652
813.677093	2510.797085
813.996434	2510.345901
814.315731	2509.062928
814.634983	2512.264060
814.954191	2510.519821
815.273354	2510.149296
815.592473	2510.776920
815.911547	2511.606190
816.230577	2513.340347
816.549562	2514.121726
816.868502	2510.668535
817.187399	2512.359842
817.506250	2510.403875
817.825058	2512.238855
818.143821	2510.809687
818.462539	2513.305059
818.781213	2512.614421
819.099843	2511.898577
819.418429	2513.501664
819.736970	2518.315966
820.055466	2513.577281
820.373919	2515.770183
820.692327	2519.057015
821.010691	2521.824609
821.329011	2531.717873
821.647286	2545.071890
821.965517	2557.909188
822.283704	2563.086453
822.601847	2564.858418
822.919945	2559.497151
823.237999	2552.366439
823.556010	2546.203629
823.873976	2539.153575
824.191897	2535.965045
824.509775	2530.082019
824.827609	2527.274096
825.145398	2525.625639
825.463144	2524.274609
825.780845	2523.261338
826.098502	2526.530526
826.416116	2528.708304
826.733685	2530.860877
827.051210	2530.291227
827.368692	2529.983716
827.686129	2525.895340
828.003522	2524.932480
828.320872	2514.565347
828.638177	2517.025430
828.955439	2514.048629
829.272656	2515.815553
829.589830	2511.840603
829.906960	2514.104082
830.224046	2512.236334
830.541088	2513.012672
830.858086	2508.188288
831.175041	2508.798267
831.491952	2512.596777
831.808819	2510.371107
832.125642	2512.178361
832.442421	2512.430418
832.759157	2514.956037
833.075849	2516.864113
833.392497	2518.638599
833.709101	2518.492406
834.025662	2519.629186
834.342179	2518.908301
834.658653	2517.310255
834.975083	2516.664988
835.291469	2521.431399
835.607811	2515.119874
835.924110	2513.942765
836.240366	2511.931344
836.556578	2512.155676
836.872746	2512.304390
837.188871	2509.965294
837.504952	2511.898577
837.820990	2506.267608
838.136984	2510.156858
838.452935	2507.956394
838.768842	2508.130314
839.084706	2509.246930
839.400526	2512.571571
839.716303	2511.767507
840.032037	2513.980573
840.347727	2512.049811
840.663373	2513.269771
840.978977	2508.697444
841.294537	2509.136024
841.610054	2509.317506
841.925527	2509.748525
842.240957	2510.164420
842.556344	2510.018226
842.871687	2509.103257
843.186987	2510.078720
843.502244	2507.238030
843.817458	2509.713237
844.132629	2502.862308
844.447756	2508.447907
844.762840	2505.087978
845.077881	2504.722494
845.392879	2504.440190
845.707833	2506.302896
846.022745	2504.215858
846.337613	2506.998575
846.652438	2509.035201
846.967221	2509.083092
847.281960	2506.721312
847.596656	2510.222393
847.911309	2507.283400
848.225919	2507.500170
848.540485	2506.471775
848.855009	2508.526045
849.169490	2508.210973
849.483928	2507.318688
849.798323	2507.933709
850.112675	2508.745335
850.426984	2510.174502
850.741251	2508.019409
851.055474	2505.541682
851.369654	2507.832886
851.683792	2506.771723
851.997887	2507.469923
852.311938	2507.671569
852.625947	2507.757269
852.939914	2508.979749
853.253837	2509.130983
853.567718	2504.309120
853.881555	2508.102588
854.195350	2509.385562
854.509103	2510.406395
854.822812	2506.300375
855.136479	2508.818432
855.450103	2505.624861
855.763685	2509.312465
856.077224	2508.468072
856.390720	2507.066631
856.704173	2508.727691
857.017584	2508.377331
857.330953	2507.296003
857.644278	2510.948319
857.957561	2511.359173
858.270802	2509.625016
858.584000	2508.757938
858.897155	2509.544358
859.210268	2506.804491
859.523339	2507.290962
859.836367	2506.877588
860.149352	2509.690551
860.462295	2506.930520
860.775195	2502.227123
861.088054	2502.496825
861.400869	2505.576970
861.713642	2502.370796
862.026373	2507.205262
862.339062	2509.549399
862.651708	2506.711229
862.964312	2505.355159
863.276873	2506.567557
863.589392	2508.589059
863.901869	2507.117042
864.214303	2507.487567
864.526696	2506.212155
864.839045	2508.037053
865.151353	2508.452948
865.463619	2508.021929
865.775842	2506.239882
866.088023	2508.465551
866.400162	2508.291631
866.712258	2508.578977
867.024313	2508.616786
867.336325	2508.591580
867.648296	2507.588390
867.960224	2507.550582
868.272110	2506.867505
868.583954	2504.387257
868.895755	2506.088647
869.207515	2505.453462
869.519233	2507.167454
869.830909	2507.575787
870.142542	2510.088802
870.454134	2506.822135
870.765684	2508.979749
871.077191	2506.267608
871.388657	2508.152999
871.700081	2508.228617
872.011463	2506.872546
872.322803	2506.854902
872.634101	2507.306086
872.945357	2506.917917
873.256571	2508.939419
873.567744	2507.328771
873.878874	2510.262722
874.189963	2507.905983
874.501010	2509.020078
874.812015	2508.445386
875.122979	2507.560664
875.433900	2507.787516
875.744780	2509.970335
876.055618	2507.164933
876.366415	2505.803822
876.677169	2509.546878
876.987882	2505.047649
877.298554	2502.643018
877.609183	2507.613596
877.919771	2506.940602
878.230317	2506.416322
878.540822	2508.659635
878.851285	2510.429080
879.161707	2509.418329
879.472087	2509.103257
879.782425	2512.662312
880.092722	2516.843949
880.402977	2517.983249
880.713191	2524.098169
881.023363	2530.447502
881.333494	2533.893131
881.643583	2529.073788
881.953631	2532.345497
882.263637	2528.962883
882.573602	2528.146216
882.883526	2529.562780
883.193408	2525.378622
883.503248	2521.000380
883.813048	2521.665812
884.122806	2520.486182
884.432522	2520.135822
884.742197	2517.252282
885.051831	2515.623989
885.361424	2514.847652
885.670975	2510.413957
885.980485	2511.596108
886.289954	2510.650891
886.599382	2511.593587
886.908768	2512.349760
887.218113	2508.450428
887.527417	2510.028309
887.836680	2507.336333
888.145901	2510.545027
888.455082	2506.623009
888.764221	2507.376662
889.073319	2508.079903
889.382376	2508.689882
889.691392	2508.261384
890.000366	2507.424553
890.309300	2511.091992
890.618193	2509.075531
890.927044	2508.152999
891.235855	2505.571929
891.544625	2509.831704
891.853353	2508.203411
892.162041	2507.217865
892.470687	2509.851868
892.779293	2509.219203
893.087858	2506.358349
893.396381	2505.403050
893.704864	2509.584687
894.013306	2508.490757
894.321707	2512.851355
894.630068	2513.829339
894.938387	2515.523166
895.246665	2514.777076
895.554903	2513.473937
895.863100	2513.322703
896.171256	2510.686179
896.479371	2512.755573
896.787446	2509.809018
897.095480	2511.167609
897.403473	2509.967815
897.711425	2507.578308
898.019336	2508.987310
898.327207	2511.245747
898.635038	2507.273318
898.942827	2508.616786
899.250576	2507.953874
899.558284	2507.517814
899.865952	2509.902280
900.173579	2505.818945
900.481165	2507.900942
900.788711	2508.246261
901.096216	2507.709378
901.403681	2507.787516
901.711105	2508.095026
902.018489	2506.779285
902.325832	2510.093844
902.633135	2506.691065
902.940397	2507.522855
903.247619	2509.211642
903.554800	2510.928155
903.861941	2514.474606
904.169041	2515.596263
904.476101	2517.781603
904.783121	2517.781603
905.090100	2514.550224
905.397039	2513.904956
905.703938	2514.167096
906.010796	2511.260871
906.317614	2508.526045
906.624391	2511.013854
906.931129	2509.856909
907.237826	2508.236178
907.544483	2508.505880
907.851099	2507.595952
908.157675	2505.203924
908.464211	2505.972700
908.770707	2501.266783
909.077163	2507.275839
909.383578	2502.874911
909.689954	2504.946826
909.996289	2502.060765
910.302584	2504.815756
910.608839	2504.828358
910.915054	2505.763492
911.221229	2504.276352
911.527363	2507.232989
911.833458	2506.428925
912.139513	2505.755931
912.445527	2505.876918
912.751502	2506.801970
913.057436	2505.362721
913.363331	2506.176867
913.669186	2506.731394
913.975000	2504.956908
914.280775	2507.916065
914.586510	2508.591580
914.892205	2510.129132
915.197859	2513.108454
915.503475	2514.409071
915.809050	2514.235152
916.114585	2516.944772
916.420081	2514.598115
916.725536	2516.521315
917.030952	2515.334123
917.336328	2513.552075
917.641665	2513.078207
917.946961	2513.705830
918.252218	2511.497805
918.557435	2510.025788
918.862612	2514.212466
919.167750	2509.133504
919.472848	2509.854389
919.777906	2511.069307
920.082925	2509.035201
920.387904	2508.306755
920.692843	2506.504542
920.997743	2508.412619
921.302603	2509.118380
921.607423	2505.478667
921.912204	2505.443379
922.216946	2505.418173
922.521647	2506.237361
922.826310	2505.836589
923.130932	2507.890859
923.435516	2503.041269
923.740059	2510.335819
924.044564	2504.210817
924.349028	2509.461179
924.653454	2501.339880
924.957840	2502.819459
925.262186	2501.216372
925.566493	2502.854747
925.870761	2499.882987
926.174989	2506.648215
926.479178	2505.314830
926.783328	2507.543020
927.087438	2504.450272
927.391509	2506.867505
927.695541	2503.363903
927.999533	2504.062103
928.303486	2505.592093
928.607400	2504.838441
928.911275	2501.964983
929.215110	2505.702999
929.518906	2500.593789
929.822663	2504.311640
930.126381	2502.837103
930.430060	2502.572442
930.733699	2500.387102
931.037299	2506.207114
931.340861	2504.402381
931.644383	2507.308606
931.947866	2503.353821
932.251309	2504.977073
932.554714	2504.725015
932.858080	2505.939933
933.161407	2504.283914
933.464694	2503.943636
933.767943	2504.843482
934.071153	2505.508914
934.374323	2505.191322
934.677455	2505.226610
934.980548	2502.343070
935.283602	2504.951867
935.586617	2501.269304
935.889593	2503.502535
936.192530	2505.266939
936.495428	2504.427587
936.798287	2503.752072
937.101108	2506.565036
937.403890	2503.404232
937.706632	2507.119563
938.009336	2502.978255
938.312002	2504.571260
938.614628	2501.859119
938.917216	2504.470437
939.219765	2505.123266
939.522275	2504.546054
939.824747	2505.803822
940.127179	2502.630415
940.429573	2500.243429
940.731929	2500.795435
941.034246	2499.880466
941.336524	2504.667042
941.638763	2505.428256
941.940964	2507.704337
942.243126	2504.258708
942.545250	2505.645025
942.847335	2503.999089
943.149381	2505.944974
943.451389	2504.362052
943.753359	2504.906496
944.055290	2502.963132
944.357182	2503.502535
944.659036	2504.447751
944.960851	2503.994047
945.262628	2505.708040
945.564367	2504.616630
945.866067	2504.624192
946.167729	2502.832062
946.469352	2503.061434
946.770937	2503.928513
947.072484	2504.730056
947.373992	2504.972031
947.675462	2503.081599
947.976893	2504.472957
948.278286	2503.946157
948.579641	2504.162926
948.880958	2505.166116
949.182236	2502.141423
949.483476	2504.656959
949.784678	2504.498163
950.085841	2504.130159
950.386967	2504.112515
950.688054	2504.417504
950.989103	2502.224603
951.290114	2501.470950
951.591087	2504.135200
951.892021	2504.906496
952.192917	2506.595283
952.493776	2505.771054
952.794596	2501.574294
953.095378	2506.620489
953.396122	2504.727535
953.696828	2503.757113
953.997496	2505.256857
954.298126	2503.215189
954.598718	2507.686693
954.899272	2502.970693
955.199788	2504.820797
955.500266	2502.017915
955.800706	2499.555312
956.101108	2501.158398
956.401472	2501.443224
956.701798	2497.773264
957.002087	2500.659324
957.302337	2502.045642
957.602550	2503.779798
957.902724	2503.411794
958.202861	2504.954387
958.502960	2503.532782
958.803022	2503.041269
959.103045	2501.478512
959.403031	2502.418687
959.702979	2506.244923
960.002889	2503.734428
960.302762	2502.700992
960.602596	2503.530261
960.902393	2502.403563
961.202153	2503.273163
961.501875	2502.446413
961.801559	2501.337359
962.101205	2501.539006
962.400814	2500.752586
962.700385	2506.439007
962.999918	2503.689058
963.299414	2506.761641
963.598873	2502.181753
963.898293	2501.579335
964.197677	2506.030674
964.497022	2501.178563
964.796331	2502.045642
965.095601	2499.726711
965.394835	2505.143431
965.694030	2502.688389
965.993189	2502.882473
966.292309	2501.861639
966.591393	2502.945488
966.890439	2501.113028
967.189447	2500.697133
967.488419	2499.283089
967.787353	2500.500528
968.086249	2500.896258
968.385108	2505.118225
968.683930	2501.944818
968.982714	2502.332987
969.281462	2503.376506
969.580172	2503.217710
969.878844	2499.560353
970.177480	2504.553616
970.476078	2504.367093
970.774639	2503.331136
971.073162	2500.729900
971.371649	2503.358862
971.670098	2501.649911
971.968510	2500.586227
972.266885	2497.667399
972.565223	2503.316012
972.863524	2502.751403
973.161788	2499.726711
973.460014	2503.870539
973.758204	2505.019922
974.056356	2504.326764
974.354471	2503.736949
974.652550	2503.484891
974.950591	2501.513800
975.248595	2501.271824
975.546563	2504.672083
975.844493	2503.303409
976.142386	2503.106804
976.440243	2502.736280
976.738062	2502.093533
977.035845	2502.297699
977.333590	2501.526403
977.631299	2504.800632
977.928971	2501.415497
978.226606	2503.182422
978.524204	2504.679644
978.821765	2504.757782
979.119290	2504.362052
979.416777	2501.735611
979.714228	2502.184273
980.011642	2502.146465
980.309020	2508.190808
980.606360	2503.515138
980.903664	2502.693430
981.200931	2502.128821
981.498162	2502.499345
981.795356	2503.270642
982.092513	2500.319046
982.389633	2503.457165
982.686717	2505.866836
982.983764	2505.418173
983.280775	2503.442041
983.577749	2503.005981
983.874686	2503.492453
984.171587	2504.359531
984.468451	2504.782988
984.765279	2501.080261
985.062070	2502.257370
985.358824	2501.576814
985.655543	2504.188132
985.952224	2505.796260
986.248869	2503.116887
986.545478	2500.455157
986.842050	2500.727380
987.138586	2500.341732
987.435086	2498.721001
987.731549	2495.701349
988.027975	2501.730569
988.324366	2499.230157
988.620719	2503.467247
988.917037	2502.464057
989.213318	2501.743172
989.509563	2499.522544
989.805772	2505.836589
990.101944	2499.411639
990.398080	2505.332474
990.694180	2503.462206
990.990244	2502.854747
991.286271	2500.515651
991.582262	2504.092350
991.878217	2500.487925
992.174136	2502.133862
992.470019	2501.223933
992.765865	2500.510610
993.061676	2501.271824
993.357450	2503.676455
993.653188	2501.654952
993.948890	2504.732577
994.244556	2505.952536
994.540186	2502.940446
994.835780	2503.472288
995.131337	2502.446413
995.426859	2502.582524
995.722345	2499.845178
996.017795	2502.143944
996.313208	2502.927843
996.608586	2505.022443
996.903928	2502.527072
997.199234	2503.794922
997.494504	2501.838954
997.789738	2506.474295
998.084936	2503.497494
998.380099	2499.804849
998.675225	2501.808707
998.970316	2502.428769
999.265371	2501.347442
999.560390	2502.847185
999.855373	2502.093532
1000.150320	2500.341732
1000.445232	2502.325426
1000.740108	2500.757627
1001.034948	2500.160250
1001.329752	2500.432472
1001.624521	2503.636126
1001.919254	2498.819303
1002.213951	2501.609582
1002.508613	2498.360558
1002.803239	2500.238388
1003.097829	2497.947183
1003.392384	2501.647390
1003.686903	2499.494818
1003.981386	2502.547236
1004.275834	2499.222595
1004.570246	2502.615292
1004.864623	2503.101763
1005.158964	2502.239726
1005.453270	2502.358193
1005.747540	2500.548419
1006.041775	2500.624036
1006.335974	2502.718636
1006.630138	2500.550939
1006.924266	2501.533964
1007.218359	2501.723008
1007.512416	2502.418687
1007.806438	2500.092194
1008.100425	2501.143275
1008.394376	2500.407267
1008.688292	2500.611433
1008.982172	2501.735611
1009.276017	2500.576145
1009.569827	2497.954745
1009.863602	2503.018584
1010.157341	2501.513800
1010.451045	2499.537668
1010.744714	2499.126813
1011.038347	2499.827534
1011.331945	2500.921464
1011.625508	2504.150323
1011.919036	2502.363234
1012.212528	2500.470281
1012.505986	2500.404746
1012.799408	2500.722339
1013.092795	2501.478512
1013.386147	2501.806187
1013.679464	2502.300220
1013.972745	2499.119252
1014.265992	2500.518172
1014.559204	2501.445744
1014.852380	2505.196363
1015.145521	2501.470950
1015.438628	2500.319046
1015.731699	2503.908348
1016.024736	2500.724859
1016.317737	2503.973883
1016.610703	2503.961280
1016.903635	2498.199241
1017.196531	2495.935763
1017.489393	2499.351145
1017.782219	2496.880979
1018.075011	2501.261742
1018.367768	2501.339880
1018.660490	2500.187976
1018.953177	2500.187976
1019.245829	2500.187976
