Dividing Wavelength (nm)	Counts (n)	Blue Motor Position (mm): 0.000000	Red Motor Position (mm): 34.000000	
326.493990	2141.104067
326.888308	2141.104067
327.282561	2141.104067
327.676750	2114.413678
328.070874	2118.121447
328.464933	2123.938938
328.858929	2131.001595
329.252859	2142.840745
329.646726	2158.004536
330.040528	2173.622030
330.434265	2192.425534
330.827938	2212.287680
331.221547	2229.266286
331.615091	2249.932497
332.008571	2270.442431
332.401986	2290.234001
332.795338	2308.069603
333.188625	2330.016267
333.581847	2349.994359
333.975006	2369.281814
334.368100	2384.990049
334.761129	2404.451424
335.154095	2421.286357
335.546996	2440.510797
335.939833	2456.450926
336.332606	2470.888790
336.725315	2484.565441
337.117960	2489.815802
337.510540	2497.420383
337.903056	2508.465551
338.295508	2517.035513
338.687896	2518.411748
339.080220	2530.946577
339.472480	2534.697195
339.864676	2541.301107
340.256807	2542.231199
340.648875	2545.288659
341.040879	2547.395862
341.432818	2545.749925
341.824694	2549.031716
342.216506	2548.361243
342.608253	2549.389638
342.999937	2546.080120
343.391557	2547.242106
343.783113	2544.713968
344.174605	2541.278421
344.566033	2543.554502
344.957397	2539.025026
345.348697	2540.353370
345.739934	2535.536547
346.131106	2533.794828
346.522215	2532.771474
346.913260	2531.090249
347.304241	2530.568490
347.695159	2528.368026
348.086012	2526.512882
348.476802	2524.814013
348.867528	2523.367202
349.258191	2523.213447
349.648789	2523.405010
350.039324	2521.696059
350.429796	2524.753519
350.820203	2518.305883
351.210548	2516.337313
351.600828	2517.882426
351.991045	2513.373114
352.381198	2517.343023
352.771288	2515.588701
353.161314	2516.546521
353.551276	2517.237159
353.941175	2516.884278
354.331010	2513.637775
354.720782	2518.623476
355.110490	2516.130625
355.500135	2518.726820
355.889717	2517.481655
356.279235	2513.909997
356.668689	2518.857890
357.058080	2518.522653
357.447408	2515.984432
357.836672	2515.876047
358.225873	2518.099196
358.615010	2513.859586
359.004084	2519.122550
359.393095	2522.782428
359.782043	2521.111285
360.170927	2520.178672
360.559748	2521.416275
360.948505	2522.318642
361.337199	2526.863242
361.725830	2523.573889
362.114398	2524.478776
362.502903	2523.662109
362.891344	2525.895340
363.279722	2526.394415
363.668037	2525.867614
364.056289	2526.956503
364.444478	2526.094466
364.832603	2528.110927
365.220665	2530.926412
365.608665	2526.069260
365.996601	2530.354241
366.384474	2527.788294
366.772284	2529.126720
367.160031	2528.776360
367.547715	2530.024045
367.935336	2529.837523
368.322893	2531.846423
368.710388	2532.799201
369.097820	2535.932278
369.485189	2529.129241
369.872495	2534.097298
370.259738	2532.912627
370.646918	2531.276772
371.034035	2529.661082
371.421090	2535.990251
371.808081	2533.502442
372.195010	2535.097967
372.581875	2537.724408
372.968678	2534.180477
373.355418	2537.822710
373.742096	2539.090561
374.128710	2538.160468
374.515262	2540.318082
374.901751	2537.532844
375.288177	2541.732125
375.674540	2541.850592
376.060841	2543.884698
376.447079	2547.773948
376.833254	2547.652960
377.219367	2545.598690
377.605417	2550.344937
377.991404	2549.271171
378.377329	2553.417520
378.763191	2556.333827
379.148991	2562.514282
379.534727	2567.172308
379.920402	2571.197669
380.306013	2574.681107
380.691563	2581.688311
381.077049	2580.894329
381.462474	2585.938003
381.847835	2591.619384
382.233134	2597.227667
382.618371	2598.808069
383.003545	2607.859461
383.388657	2612.542693
383.773706	2620.364043
384.158693	2628.860908
384.543618	2635.207720
384.928480	2641.834317
385.313280	2649.181799
385.698017	2656.027686
386.082692	2667.042607
386.467305	2669.598472
386.851856	2679.191788
387.236344	2690.408355
387.620770	2695.565455
388.005133	2708.120449
388.389435	2716.766028
388.773674	2721.787017
389.157851	2730.684654
389.541965	2744.804926
389.926018	2746.128228
390.310008	2760.238418
390.693936	2764.740168
391.077802	2775.049328
391.461606	2784.987963
391.845348	2798.904068
392.229027	2802.563946
392.612645	2817.027016
392.996200	2825.450784
393.379694	2838.552743
393.763125	2856.342975
394.146494	2864.166846
394.529801	2876.328629
394.913047	2891.101731
395.296230	2896.455436
395.679351	2900.921898
396.062410	2919.367480
396.445408	2913.275246
396.828343	2925.258069
397.211217	2933.384409
397.594028	2928.849891
397.976778	2941.931685
398.359466	2953.962399
398.742092	2950.287398
399.124656	2969.383288
399.507158	2979.841162
399.889598	2982.752428
400.271977	2998.427896
400.654294	3008.116994
401.036549	3020.349354
401.418742	3027.177597
401.800874	3049.595608
402.182944	3057.767318
402.564952	3082.242120
402.946898	3073.901531
403.328783	3083.260433
403.710606	3098.091508
404.092367	3123.662761
404.474067	3146.048004
404.855705	3140.742190
405.237282	3136.724390
405.618797	3171.226047
406.000250	3194.349820
406.381642	3224.309397
406.762972	3225.819223
407.144240	3215.971329
407.525447	3241.509814
407.906593	3241.338415
408.287677	3256.106475
408.668700	3283.416926
409.049661	3278.201852
409.430560	3295.109882
409.811399	3298.845377
410.192176	3319.383038
410.572891	3325.026610
410.953545	3365.963300
411.334138	3335.814679
411.714669	3385.104561
412.095139	3332.984071
412.475547	3382.039539
412.855894	3371.669886
413.236180	3406.037952
413.616405	3383.083058
413.996568	3409.057603
414.376670	3410.224630
414.756711	3407.290679
415.136691	3430.341355
415.516609	3456.678863
415.896466	3459.925366
416.276262	3487.578616
416.655997	3517.760004
417.035670	3523.035571
417.415283	3590.740788
417.794834	3613.337760
418.174324	3599.744289
418.553753	3598.395780
418.933121	3640.749034
419.312428	3629.383753
419.691674	3624.022486
420.070859	3662.491531
420.449983	3643.670383
420.829045	3696.015204
421.208047	3675.923685
421.586988	3723.464286
421.965867	3752.282042
422.344686	3761.817385
422.723444	3802.181904
423.102141	3704.380998
423.480777	3806.141730
423.859352	3774.967235
424.237866	3873.587327
424.616319	3857.052343
424.994712	3917.921755
425.373044	3904.827358
425.751314	3973.452585
426.129524	3903.468767
426.507673	4004.967358
426.885762	3978.007267
427.263789	4002.698839
427.641756	4011.016743
428.019662	4036.293088
428.397508	4041.624108
428.775292	4078.459820
429.153016	4085.981221
429.530679	4096.393724
429.908282	4104.162143
430.285824	4086.059359
430.663305	4156.000328
431.040726	4112.427114
431.418086	4107.753965
431.795385	4185.062579
432.172624	4215.203638
432.549802	4182.947815
432.926920	4202.215105
433.303977	4192.654557
433.680974	4235.501844
434.057910	4259.497737
434.434786	4264.306997
434.811601	4255.956326
435.188355	4362.874158
435.565050	4331.102286
435.941683	4332.034899
436.318257	4418.904062
436.694770	4423.463786
437.071222	4479.506293
437.447614	4418.538579
437.823946	4419.960184
438.200218	4438.612453
438.576429	4418.059669
438.952580	4443.691416
439.328670	4446.179225
439.704700	4491.201770
440.080670	4452.825987
440.456580	4512.475439
440.832429	4550.755441
441.208218	4455.696924
441.583947	4508.828165
441.959616	4519.228065
442.335224	4547.549267
442.710773	4569.067433
443.086261	4623.068272
443.461689	4578.312909
443.837057	4587.303807
444.212365	4662.081762
444.587612	4668.539480
444.962800	4636.820540
445.337927	4672.516951
445.712995	4565.810847
446.088002	4754.791102
446.462949	4775.122075
446.837837	4792.776196
447.212664	4783.054331
447.587431	5007.408362
447.962139	5299.109688
448.336786	5639.856400
448.711374	5630.449607
449.085901	5271.784114
449.460369	5210.917223
449.834776	5145.321729
450.209124	5377.413931
450.583412	5389.182505
450.957640	5510.507954
451.331808	5373.877562
451.705917	5226.035643
452.079965	5216.124734
452.453954	5256.930354
452.827883	5219.131783
453.201752	5223.802412
453.575562	5256.370786
453.949311	5389.542947
454.323001	5397.969236
454.696632	5388.320467
455.070202	5543.401483
455.443713	5573.708900
455.817164	5663.479247
456.190556	5736.737295
456.563888	5710.742585
456.937160	5790.546571
457.310373	5632.629906
457.683526	5691.077044
458.056619	5679.482390
458.429653	5661.903887
458.802628	5710.558583
459.175542	5737.740485
459.548398	5879.742227
459.921194	6061.327109
460.293930	6121.281552
460.666607	6373.961826
461.039224	6583.618374
461.411782	6716.072170
461.784280	6632.414222
462.156719	6635.806919
462.529099	6597.297545
462.901419	6455.184897
463.273680	6327.532799
463.645882	6314.151057
464.018024	6316.321273
464.390106	6377.863679
464.762130	6631.915148
465.134094	7023.164139
465.505999	7653.411714
465.877845	8360.395732
466.249631	8708.827683
466.621358	8637.326477
466.993026	8446.042415
467.364634	8237.928461
467.736184	7950.383566
468.107674	7798.922099
468.479105	7707.863737
468.850477	7640.130794
469.221790	7477.601473
469.593043	7245.347954
469.964238	7151.897564
470.335373	7126.767412
470.706449	7280.605784
471.077467	7458.011549
471.448425	8116.159390
471.819324	8692.577523
472.190164	8740.075275
472.560945	8264.089529
472.931667	7793.885986
473.302330	7599.743590
473.672934	7478.924776
474.043479	7555.126858
474.413965	7456.594985
474.784393	7407.267295
475.154761	7561.335039
475.525070	7569.806698
475.895321	7520.857094
476.265513	7622.156560
476.635645	7783.836446
477.005719	7772.183819
477.375734	7858.188424
477.745691	7961.655586
478.115588	8171.803646
478.485427	8401.803770
478.855207	8864.984985
479.224928	9300.031521
479.594591	9686.108288
479.964194	9706.046052
480.333739	9788.027816
480.703226	9786.293659
481.072653	9880.570798
481.442022	9991.907201
481.811333	10145.453185
482.180584	9987.705399
482.549777	9927.887068
482.918912	9868.030928
483.287988	9852.383186
483.657005	9762.222149
484.025964	9672.126648
484.394864	9740.199869
484.763706	9699.938694
485.132489	9609.225651
485.501213	9602.853632
485.869879	9661.141974
486.238487	9598.732489
486.607036	9671.309981
486.975527	9615.184295
487.343959	9676.426752
487.712333	9717.282783
488.080648	9757.823743
488.448905	9858.266213
488.817104	9867.536894
489.185244	10028.886585
489.553326	10236.829140
489.921350	10702.800634
490.289315	11323.575880
490.657222	11622.070161
491.025070	11792.204063
491.392861	11710.723893
491.760593	11557.140100
492.128267	11304.994187
492.495883	11068.496016
492.863440	10831.831487
493.230939	10614.802252
493.598380	10426.527759
493.965763	10405.657382
494.333088	10273.944635
494.700354	10205.768071
495.067563	10180.758906
495.434713	10177.131796
495.801805	10224.253982
496.168839	10181.003402
496.535815	10152.248661
496.902733	10193.044198
497.269593	10148.694647
497.636395	10155.482561
498.003139	10259.252192
498.369825	10196.353716
498.736453	10285.524166
499.103023	10229.438808
499.469535	10230.409231
499.835989	10279.053845
500.202385	10247.886911
500.568723	10266.884499
500.935003	10330.309776
501.301226	10299.634355
501.667390	10466.945210
502.033497	10562.906094
502.399546	10494.175003
502.765537	10398.017514
503.131470	10497.156845
503.497345	10593.326937
503.863163	10362.474858
504.228923	10499.057360
504.594625	10609.879566
504.960269	10516.159475
505.325856	10659.751701
505.691385	10536.200582
506.056856	10598.226939
506.422270	10696.668070
506.787625	10636.567434
507.152924	10681.398415
507.518164	10750.278221
507.883347	10616.299475
508.248472	10684.718015
508.613540	10797.957454
508.978550	10862.388441
509.343503	10836.625625
509.708398	10885.476926
510.073236	11010.679023
510.438016	11021.492298
510.802738	10935.744792
511.167403	11057.607124
511.532010	11109.762902
511.896561	11204.955010
512.261053	11396.682693
512.625488	11303.126440
512.989866	11290.727722
513.354186	11256.158009
513.718449	11262.817374
514.082655	11401.025648
514.446803	11347.768378
514.810894	11449.123296
515.174927	11444.334200
515.538904	11425.399626
515.902822	11570.136194
516.266684	11442.035434
516.630488	11535.863910
516.994235	11523.734894
517.357925	11621.702157
517.721558	11668.854590
518.085133	11731.153169
518.448651	11751.985737
518.812112	11705.899509
519.175516	11705.710465
519.538863	11782.295675
519.902152	11780.911878
520.265385	11877.944007
520.628560	11891.512273
520.991678	11826.715802
521.354739	11868.078469
521.717743	11923.286665
522.080690	11887.078578
522.443580	12002.198367
522.806413	12001.999242
523.169189	11983.644400
523.531908	12032.828418
523.894569	11977.685757
524.257174	11971.964047
524.619722	12061.986452
524.982213	12020.422138
525.344647	12010.236487
525.707025	12002.825991
526.069345	12071.612535
526.431608	12051.911706
526.793815	12101.428439
527.155964	11982.742034
527.518057	11995.251657
527.880093	11934.931731
528.242072	12013.969461
528.603995	11929.472161
528.965860	11920.962693
529.327669	11931.266812
529.689421	11862.208045
530.051117	11853.996006
530.412755	11861.572860
530.774337	11848.758247
531.135862	11783.170315
531.497331	11808.862555
531.858743	11751.494225
532.220098	11807.365333
532.581396	11712.702546
532.942638	11620.542692
533.303824	11653.221972
533.664953	11608.136412
534.026025	11547.400591
534.387040	11599.947058
534.747999	11536.799044
535.108902	11556.341077
535.469748	11419.012484
535.830537	11412.348079
536.191270	11414.969479
536.551947	11316.606485
536.912567	11347.738131
537.273131	11342.886020
537.633638	11203.919053
537.994089	11213.603109
538.354483	11112.724580
538.714821	11182.741165
539.075103	11212.214271
539.435328	11122.217072
539.795497	11064.122815
540.155609	11025.298369
540.515665	11066.401417
540.875665	10915.804507
541.235609	10951.584097
541.595496	10876.206244
541.955328	10966.279060
542.315102	10816.526544
542.674821	10725.468182
543.034483	10687.737666
543.394090	10646.611933
543.753640	10587.184291
544.113134	10719.940557
544.472571	10498.928811
544.831953	10652.817594
545.191278	10478.623043
545.550548	10384.335822
545.909761	10413.602241
546.268918	10397.730168
546.628019	10397.465507
546.987064	10271.862639
547.346053	10114.308937
547.704986	10204.066681
548.063863	10074.070447
548.422684	10062.264065
548.781449	9983.609462
549.140158	9990.374690
549.498811	9908.158512
549.857408	9770.368654
550.215949	9842.323563
550.574434	9769.587275
550.932864	9675.554633
551.291237	9754.161344
551.649555	9631.598292
552.007817	9621.490778
552.366022	9511.192852
552.724173	9474.825969
553.082267	9472.456626
553.440305	9467.395308
553.798288	9311.941247
554.156215	9296.515316
554.514086	9269.605637
554.871902	9173.526286
555.229661	9130.565573
555.587365	9037.992344
555.945014	8997.958021
556.302606	8924.712576
556.660143	8898.364985
557.017625	8863.530612
557.375050	8776.313609
557.732421	8768.653576
558.089735	8708.162251
558.446994	8640.164647
558.804197	8644.731932
559.161345	8578.937313
559.518437	8412.654853
559.875474	8403.086743
560.232455	8358.626287
560.589381	8322.513981
560.946251	8229.892862
561.303065	8264.578521
561.659825	8173.358842
562.016528	8064.227943
562.373177	7972.599931
562.729770	7977.822567
563.086307	7856.754216
563.442789	7850.152825
563.799216	7806.135990
564.155587	7718.553504
564.511904	7665.152561
564.868164	7613.770600
565.224370	7577.290291
565.580520	7490.290058
565.936615	7460.121272
566.292654	7368.808332
566.648638	7345.142635
567.004567	7281.901360
567.360441	7218.768470
567.716260	7146.957234
568.072023	7120.108048
568.427732	7053.118675
568.783385	6952.028417
569.138982	6946.997346
569.494525	6882.987295
569.850013	6805.106509
570.205445	6746.233394
570.560823	6697.344284
570.916145	6619.972655
571.271412	6571.817033
571.626625	6496.464385
571.981782	6441.291477
572.336884	6362.646957
572.691931	6336.377504
573.046923	6246.468525
573.401860	6187.189597
573.756743	6131.242872
574.111570	6083.437610
574.466342	6028.350401
574.821059	5992.167519
575.175722	5899.440535
575.530330	5850.634604
575.884882	5781.243122
576.239380	5726.985183
576.593823	5672.520557
576.948211	5619.704388
577.302544	5540.553231
577.656823	5490.605479
578.011047	5459.161282
578.365216	5400.489813
578.719330	5340.661399
579.073389	5283.212410
579.427394	5241.080967
579.781344	5194.336868
580.135239	5134.090038
580.489080	5091.827525
580.842866	5021.173233
581.196597	5007.393239
581.550273	4962.300118
581.903895	4915.780350
582.257463	4895.925766
582.610975	4821.883818
582.964434	4798.321465
583.317837	4738.508175
583.671186	4699.129202
584.024481	4669.678781
584.377721	4608.612764
584.730906	4579.061520
585.084037	4550.694947
585.437113	4495.398531
585.790135	4464.634889
586.143103	4410.273607
586.496016	4382.819483
586.848874	4349.701623
587.201679	4314.474040
587.554428	4260.284157
587.907124	4234.690218
588.259765	4195.676729
588.612352	4175.522196
588.964884	4121.584370
589.317362	4106.765898
589.669786	4070.583017
590.022155	4033.974157
590.374470	4018.071838
590.726731	3975.363182
591.078937	3927.555400
591.431090	3902.228643
591.783188	3867.938714
592.135232	3829.048733
592.487222	3810.530054
592.839157	3785.611631
593.191038	3751.036877
593.542866	3720.394224
593.894639	3675.898479
594.246358	3658.970285
594.598022	3635.261738
594.949633	3603.439454
595.301190	3581.069334
595.652692	3550.245199
596.004141	3540.147768
596.355535	3496.710666
596.706876	3472.152685
597.058162	3448.673511
597.409395	3435.700101
597.760573	3421.103440
598.111698	3390.705283
598.462768	3367.483208
598.813785	3351.898480
599.164748	3325.601301
599.515657	3313.850372
599.866511	3284.223511
600.217312	3281.644960
600.568060	3244.158940
600.918753	3243.342273
601.269392	3225.380642
601.619978	3202.471119
601.970510	3192.315714
602.320988	3179.105371
602.671412	3172.536747
603.021783	3149.854075
603.372100	3130.574182
603.722363	3121.265692
604.072572	3110.533075
604.422728	3095.172680
604.772830	3075.423959
605.122878	3063.461301
605.472872	3053.298335
605.822813	3042.225441
606.172701	3030.449305
606.522534	3022.887575
606.872314	3014.743591
607.222041	3002.788494
607.571714	2994.518481
607.921333	2981.144300
608.270899	2973.310347
608.620411	2967.507979
608.969870	2954.600105
609.319276	2945.891511
609.668627	2939.214503
610.017926	2930.364758
610.367171	2925.547935
610.716362	2915.203487
611.065500	2910.298445
611.414585	2901.826786
611.763616	2896.127761
612.112594	2890.947976
612.461518	2883.482027
612.810389	2880.986656
613.159207	2867.002495
613.507971	2865.540560
613.856682	2861.583254
614.205340	2852.196626
614.553945	2852.569671
614.902496	2841.002744
615.250994	2837.965449
615.599439	2832.362206
615.947830	2827.525219
616.296169	2823.378870
616.644454	2818.773776
616.992686	2816.729588
617.340864	2815.910401
617.688990	2809.009061
618.037063	2805.772640
618.385082	2801.686785
618.733048	2801.412042
619.080961	2797.182514
619.428821	2793.978861
619.776628	2786.429733
620.124382	2782.303548
620.472083	2778.893208
620.819731	2775.644184
621.167326	2769.388112
621.514868	2762.128851
621.862357	2757.264137
622.209793	2755.000659
622.557176	2748.026223
622.904506	2741.500449
623.251783	2736.471898
623.599007	2729.394118
623.946179	2728.098542
624.293297	2721.308107
624.640363	2722.805330
624.987376	2718.268292
625.334336	2712.972560
625.681243	2710.646067
626.028097	2706.068699
626.374899	2703.132227
626.721647	2701.851774
627.068343	2700.344469
627.414987	2697.919674
627.761577	2695.537729
628.108115	2694.342976
628.454600	2691.358612
628.801032	2689.405165
629.147412	2686.761080
629.493739	2686.985412
629.840014	2685.442818
630.186236	2681.876202
630.532405	2682.236645
630.878521	2678.675069
631.224585	2677.543330
631.570597	2677.460151
631.916556	2674.392609
632.262462	2674.609379
632.608316	2675.068124
632.954117	2674.783299
633.299866	2670.621826
633.645562	2670.107628
633.991206	2666.548574
634.336797	2666.046979
634.682336	2666.157884
635.027823	2660.166473
635.373257	2659.589261
635.718639	2656.655309
636.063968	2657.557676
636.409245	2652.768580
636.754470	2653.164310
637.099642	2652.425781
637.444762	2650.805050
637.789829	2648.970070
638.134845	2651.475524
638.479808	2648.130718
638.824719	2645.610141
639.169577	2646.709113
639.514383	2645.020326
639.859137	2640.979842
640.203839	2642.383803
640.548489	2642.777013
640.893086	2639.119656
641.237632	2633.992802
641.582125	2632.896351
641.926566	2636.778040
642.270955	2638.925571
642.615292	2636.468009
642.959576	2639.588483
643.303809	2635.585807
643.647990	2635.916002
643.992118	2634.713687
644.336195	2636.460447
644.680219	2635.132103
645.024192	2635.149747
645.368112	2634.093625
645.711981	2634.151599
646.055797	2635.653862
646.399562	2636.183184
646.743274	2637.135962
647.086935	2637.057824
647.430544	2638.149234
647.774101	2637.264511
648.117606	2638.161837
648.461059	2634.577576
648.804460	2635.855509
649.147810	2634.718728
649.491108	2634.514562
649.834354	2632.382154
650.177548	2629.942235
650.520690	2630.673202
650.863781	2629.463326
651.206820	2633.022380
651.549807	2628.543315
651.892742	2627.391411
652.235626	2623.877727
652.578458	2624.104579
652.921238	2625.919394
653.263967	2627.976185
653.606644	2623.557614
653.949269	2626.161370
654.291843	2621.652058
654.634365	2623.776904
654.976836	2622.035185
655.319255	2623.272789
655.661622	2623.255145
656.003938	2623.035854
656.346203	2624.230608
656.688416	2622.680453
657.030577	2619.033178
657.372687	2620.563168
657.714746	2620.187602
658.056753	2620.422016
658.398708	2614.493619
658.740612	2613.994545
659.082465	2615.277519
659.424266	2616.479834
659.766016	2615.688373
660.107715	2619.073507
660.449362	2618.385390
660.790958	2619.060905
661.132503	2618.922273
661.473996	2617.785493
661.815438	2618.861779
662.156829	2617.601491
662.498168	2615.413630
662.839456	2620.883282
663.180693	2619.194495
663.521879	2617.208281
663.863013	2616.076542
664.204097	2618.158538
664.545129	2619.433950
664.886110	2617.404886
665.227040	2616.310955
665.567918	2618.740791
665.908746	2618.208950
666.249522	2616.583178
666.590248	2617.268774
666.930922	2618.430760
667.271545	2618.385390
667.612118	2618.385390
667.952639	2615.637961
668.293109	2618.158538
668.633528	2616.757097
668.973896	2614.775924
669.314213	2616.890688
669.654480	2616.812550
669.994695	2614.662498
670.334859	2613.283742
670.674973	2613.772734
671.015035	2617.190637
671.355047	2613.855913
671.695008	2616.028651
672.034918	2615.685852
672.374777	2615.338012
672.714585	2616.245420
673.054342	2614.294494
673.394049	2613.901284
673.733705	2616.268105
674.073310	2616.086624
674.412864	2617.256172
674.752368	2614.168465
675.091820	2616.628548
675.431223	2612.008330
675.770574	2613.046808
676.109875	2610.501025
676.449125	2611.872219
676.788324	2609.581015
677.127473	2610.339708
677.466571	2608.124121
677.805619	2609.908690
678.144616	2609.795264
678.483562	2610.059924
678.822458	2611.894904
679.161303	2611.466406
679.500098	2611.239554
679.838842	2612.346088
680.177535	2611.035388
680.516179	2611.756273
680.854771	2607.420880
681.193314	2610.609410
681.531805	2612.146962
681.870247	2613.387086
682.208638	2613.639144
682.546978	2615.706017
682.885268	2616.832715
683.223508	2614.541510
683.561697	2614.022271
683.899836	2613.954216
684.237925	2612.343567
684.575963	2611.479009
684.913951	2611.390789
685.251889	2613.374483
685.589776	2611.282404
685.927614	2612.915738
686.265401	2613.954216
686.603137	2612.368773
686.940824	2608.524893
687.278460	2615.196860
687.616046	2612.368773
687.953582	2611.390789
688.291068	2614.896912
688.628504	2613.503032
688.965889	2613.860954
689.303224	2613.377004
689.640510	2614.523866
689.977745	2613.797940
690.314930	2614.133177
690.652065	2611.171499
690.989150	2611.685697
691.326185	2610.032198
691.663170	2608.817280
692.000105	2608.466920
692.336990	2608.235027
692.673825	2607.105808
693.010610	2608.298041
693.347345	2600.310333
693.684030	2600.060796
694.020665	2598.999633
694.357251	2601.588265
694.693786	2599.463419
695.030272	2602.097422
695.366707	2602.069696
695.703093	2600.990889
696.039429	2601.512648
696.375716	2602.823348
696.711952	2601.948708
697.048139	2599.649942
697.384276	2601.167329
697.720363	2598.966865
698.056400	2602.198245
698.392388	2599.501228
698.728326	2604.055910
699.064214	2601.618512
699.400053	2600.602720
699.735842	2599.402925
700.071581	2601.273193
700.407270	2598.863522
700.742910	2597.010898
701.078501	2599.649942
701.414042	2597.729262
701.749533	2597.986361
702.084974	2596.015270
702.420366	2598.339242
702.755709	2596.554673
703.091002	2597.610795
703.426246	2594.293716
703.761440	2596.257245
704.096584	2596.668099
704.431679	2594.180290
704.766725	2593.761874
705.101721	2594.417224
705.436668	2594.397059
705.771565	2595.455702
706.106413	2596.166504
706.441212	2594.273551
706.775961	2596.534509
707.110661	2594.112234
707.445311	2598.132554
707.779913	2596.622729
708.114465	2596.161463
708.448967	2596.073243
708.783421	2598.487956
709.117825	2597.895620
709.452180	2598.790425
709.786485	2596.884869
710.120742	2599.193717
710.454949	2600.678337
710.789107	2598.913933
711.123216	2596.587441
711.457275	2596.310177
711.791286	2599.276896
712.125247	2601.628595
712.459159	2602.629264
712.793023	2603.942484
713.126837	2603.337546
713.460602	2600.574993
713.794318	2602.024325
714.127985	2602.319233
714.461602	2599.211361
714.795171	2602.049531
715.128691	2600.264962
715.462162	2596.337904
715.795584	2595.722883
716.128957	2595.846391
716.462281	2598.765219
716.795556	2598.205651
717.128782	2595.780856
717.461960	2595.380084
717.795088	2593.852615
718.128167	2596.393356
718.461198	2588.889599
718.794180	2590.832964
719.127113	2593.280444
719.459997	2592.776328
719.792833	2593.535022
720.125619	2591.916812
720.458357	2590.906060
720.791046	2593.167018
721.123686	2590.419589
721.456278	2593.865218
721.788821	2590.217943
722.121315	2591.329517
722.453761	2590.192737
722.786158	2589.897830
723.118506	2590.336410
723.450805	2590.359095
723.783056	2591.437902
724.115259	2590.827922
724.447412	2588.647623
724.779518	2590.459918
725.111574	2591.251379
725.443582	2591.931935
725.775542	2591.059816
726.107453	2592.751123
726.439315	2592.269692
726.771129	2592.383118
727.102895	2591.879003
727.434612	2592.597367
727.766281	2592.615012
728.097901	2590.180134
728.429473	2588.904722
728.760996	2588.965216
729.092471	2587.573858
729.423897	2594.104672
729.755276	2595.198603
730.086606	2595.047368
730.417887	2594.187852
730.749120	2594.918819
731.080305	2593.444281
731.411442	2594.563417
731.742530	2596.741196
732.073570	2600.892586
732.404562	2598.926536
732.735506	2598.545929
733.066401	2595.780856
733.397249	2597.749427
733.728048	2597.842688
734.058798	2595.541401
734.389501	2591.359764
734.720156	2593.668613
735.050762	2592.463777
735.381320	2591.253900
735.711831	2590.676688
736.042293	2590.538056
736.372707	2590.220463
736.703073	2588.997984
737.033391	2591.790783
737.363661	2590.651482
737.693883	2590.233066
738.024056	2591.800865
738.354182	2591.183324
738.684260	2590.253231
739.014290	2591.281626
739.344272	2592.909919
739.674207	2591.211050
740.004093	2594.087028
740.333931	2596.002667
740.663722	2592.970413
740.993464	2589.960844
741.323159	2590.081832
741.652806	2591.231215
741.982405	2592.226843
742.311956	2592.002511
742.641460	2593.058633
742.970915	2589.043354
743.300323	2593.340938
743.629683	2589.615525
743.958996	2589.176945
744.288260	2588.146029
744.617477	2588.025041
744.946647	2586.636203
745.275768	2588.501430
745.604842	2583.382138
745.933869	2583.157807
746.262847	2582.885585
746.591778	2585.287694
746.920662	2586.631162
747.249498	2587.848601
747.578286	2588.282140
747.907027	2587.311718
748.235720	2591.750454
748.564365	2587.702407
748.892963	2589.791965
749.221514	2588.125864
749.550017	2586.449680
749.878473	2591.286667
750.206881	2587.621749
750.535242	2588.347675
750.863555	2589.585278
751.191821	2589.975967
751.520039	2587.707448
751.848210	2588.287181
752.176334	2586.242993
752.504411	2590.913622
752.832440	2585.769125
753.160421	2585.184351
753.488356	2586.051429
753.816243	2585.506985
754.144082	2588.506471
754.471875	2586.936152
754.799620	2587.039495
755.127318	2584.468507
755.454969	2583.576223
755.782572	2585.829618
756.110129	2587.024372
756.437638	2587.049578
756.765100	2585.711151
757.092515	2587.440267
757.419882	2586.182499
757.747203	2586.361460
758.074477	2587.142839
758.401703	2587.276430
758.728882	2586.999166
759.056014	2587.334403
759.383099	2587.737695
759.710138	2589.489496
760.037129	2587.324321
760.364073	2588.022520
760.690970	2585.075966
761.017820	2587.533528
761.344623	2585.920359
761.671379	2588.539239
761.998088	2589.383632
762.324751	2584.972622
762.651366	2591.810948
762.977935	2600.469129
763.304456	2602.021805
763.630931	2608.908021
763.957359	2609.490274
764.283740	2607.700664
764.610074	2603.045159
764.936362	2600.045672
765.262602	2597.696495
765.588796	2592.226843
765.914943	2589.880186
766.241044	2590.260793
766.567097	2590.349013
766.893104	2584.781058
767.219064	2583.041860
767.544978	2585.791810
767.870845	2581.799216
768.196665	2585.106213
768.522438	2582.275605
768.848165	2585.063363
769.173846	2582.225193
769.499479	2583.263671
769.825066	2581.640420
770.150607	2582.250399
770.476101	2580.843917
770.801548	2581.184195
771.126949	2580.024730
771.452303	2581.824422
771.777611	2580.682600
772.102872	2578.890470
772.428087	2580.407858
772.753256	2581.358115
773.078378	2581.446335
773.403453	2580.919535
773.728482	2577.418453
774.053465	2577.211766
774.378401	2578.535069
774.703291	2575.933833
775.028135	2578.184709
775.352932	2580.589339
775.677683	2576.637074
776.002388	2579.273598
776.327046	2577.514235
776.651658	2575.061714
776.976224	2578.706468
777.300743	2577.345357
777.625216	2574.592887
777.949643	2575.961560
778.274024	2579.969277
778.598359	2571.716908
778.922647	2573.264542
779.246889	2572.455437
779.571086	2571.432083
779.895236	2573.383010
780.219339	2574.023236
780.543397	2575.911148
780.867409	2575.064234
781.191374	2575.616241
781.515294	2578.383834
781.839167	2577.741087
782.162995	2579.321489
782.486776	2580.543969
782.810511	2576.354770
783.134201	2577.804102
783.457844	2574.088771
783.781441	2575.759914
784.104993	2575.583473
784.428498	2575.326374
784.751958	2576.432908
785.075372	2575.785119
785.398739	2575.613720
785.722061	2573.279666
786.045337	2575.727146
786.368568	2576.037177
786.691752	2575.407033
787.014891	2579.329051
787.337983	2577.012640
787.661030	2578.078844
787.984031	2580.251582
788.306987	2578.988773
788.629897	2577.917527
788.952760	2582.583115
789.275579	2580.954823
789.598351	2582.570512
789.921078	2578.010789
790.243759	2578.242682
790.566395	2577.166396
790.888984	2575.525500
791.211529	2575.341498
791.534027	2575.659091
791.856480	2576.253947
792.178888	2577.632702
792.501249	2573.488874
792.823566	2578.310737
793.145836	2575.946436
793.468062	2576.563978
793.790241	2576.523648
794.112375	2575.109605
794.434464	2577.524318
794.756507	2576.710171
795.078505	2574.048442
795.400457	2575.596076
795.722364	2573.947619
796.044226	2574.978535
796.366042	2573.166240
796.687812	2575.434759
797.009538	2578.953485
797.331218	2578.424163
797.652852	2580.879205
797.974442	2576.054821
798.295986	2576.243864
798.617484	2576.886612
798.938938	2577.710840
799.260346	2578.063721
799.581709	2579.434915
799.903026	2576.049780
800.224299	2578.260326
800.545526	2576.543813
800.866708	2573.047773
801.187845	2578.519945
801.508936	2574.454255
801.829983	2574.345870
802.150984	2572.881415
802.471940	2574.131621
802.792851	2573.690520
803.113717	2573.012485
803.434538	2575.293607
803.755314	2576.261508
804.076045	2575.381827
804.396731	2575.127249
804.717372	2576.473237
805.037967	2577.431056
805.358518	2574.892835
805.679024	2575.964080
805.999485	2571.258163
806.319901	2576.226220
806.640272	2575.366704
806.960598	2575.028946
807.280879	2575.122208
807.601115	2575.638926
807.921306	2573.188925
808.241453	2574.297979
808.561554	2575.401992
808.881611	2574.363514
809.201623	2574.121539
809.521590	2573.443503
809.841513	2574.371076
810.161390	2574.613051
810.481223	2574.449214
810.801011	2574.300500
811.120755	2571.598441
811.440453	2572.878894
811.760107	2574.683627
812.079716	2572.916703
812.399281	2569.161043
812.718801	2570.948132
813.038276	2570.880077
813.357707	2573.874522
813.677093	2572.800756
813.996434	2572.359655
814.315731	2571.477453
814.634983	2575.379307
814.954191	2572.082392
815.273354	2573.869481
815.592473	2575.359142
815.911547	2573.740932
816.230577	2575.898545
816.549562	2574.746642
816.868502	2576.006930
817.187399	2574.040880
817.506250	2575.422156
817.825058	2575.979204
818.143821	2574.522310
818.462539	2577.468865
818.781213	2578.156982
819.099843	2576.470716
819.418429	2581.542117
819.736970	2583.379618
820.055466	2583.510688
820.373919	2588.057808
820.692327	2590.318766
821.010691	2602.291506
821.329011	2612.787189
821.647286	2641.355407
821.965517	2668.968328
822.283704	2693.788449
822.601847	2709.000130
822.919945	2700.591486
823.237999	2691.464477
823.556010	2679.063238
823.873976	2666.581341
824.191897	2654.306132
824.509775	2640.632002
824.827609	2629.312091
825.145398	2622.501492
825.463144	2619.812037
825.780845	2615.799278
826.098502	2617.087293
826.416116	2620.437140
826.733685	2628.568521
827.051210	2631.429376
827.368692	2632.850981
827.686129	2624.094497
828.003522	2618.029989
828.320872	2606.546240
828.638177	2600.600199
828.955439	2596.983171
829.272656	2593.098962
829.589830	2588.307346
829.906960	2587.210895
830.224046	2584.745770
830.541088	2583.175451
830.858086	2581.007755
831.175041	2582.194947
831.491952	2577.388206
831.808819	2575.500294
832.125642	2580.864082
832.442421	2582.447004
832.759157	2584.445822
833.075849	2592.020155
833.392497	2594.303798
833.709101	2602.263780
834.025662	2603.937443
834.342179	2602.619181
834.658653	2598.924016
834.975083	2593.940835
835.291469	2593.532502
835.607811	2591.498396
835.924110	2582.749473
836.240366	2582.817529
836.556578	2580.846438
836.872746	2579.107240
837.188871	2578.887950
837.504952	2575.757393
837.820990	2573.330078
838.136984	2573.604820
838.452935	2574.613051
838.768842	2573.919892
839.084706	2576.387537
839.400526	2572.594069
839.716303	2580.029771
840.032037	2582.003383
840.347727	2584.443301
840.663373	2582.005903
840.978977	2579.689493
841.294537	2576.929461
841.610054	2575.492732
841.925527	2576.377455
842.240957	2574.968452
842.556344	2575.641447
842.871687	2572.752865
843.186987	2571.787484
843.502244	2570.912844
843.817458	2571.384192
844.132629	2569.453430
844.447756	2569.902093
844.762840	2568.457802
845.077881	2565.039900
845.392879	2566.073337
845.707833	2566.350600
846.022745	2563.925805
846.337613	2566.665672
846.652438	2565.554098
846.967221	2568.553584
847.281960	2569.922258
847.596656	2570.716239
847.911309	2567.832699
848.225919	2566.474108
848.540485	2567.071485
848.855009	2568.961918
849.169490	2569.007288
849.483928	2568.127607
849.798323	2565.251628
850.112675	2568.714901
850.426984	2566.370765
850.741251	2566.090981
851.055474	2566.416135
851.369654	2569.629871
851.683792	2569.816393
851.997887	2569.206414
852.311938	2565.360013
852.625947	2567.555436
852.939914	2565.367575
853.253837	2568.677092
853.567718	2565.811197
853.881555	2569.541650
854.195350	2564.263562
854.509103	2566.516958
854.822812	2566.451423
855.136479	2567.565518
855.450103	2566.779098
855.763685	2563.613253
856.077224	2567.134499
856.390720	2566.252297
856.704173	2565.155847
857.017584	2567.857905
857.330953	2565.934705
857.644278	2566.353121
857.957561	2568.699778
858.270802	2567.331104
858.584000	2566.567370
858.897155	2565.919581
859.210268	2566.537123
859.523339	2570.643143
859.836367	2566.953018
860.149352	2566.058213
860.462295	2567.061403
860.775195	2563.860270
861.088054	2564.921433
861.400869	2564.823130
861.713642	2561.022100
862.026373	2562.574776
862.339062	2566.073337
862.651708	2567.479818
862.964312	2567.895714
863.276873	2569.488718
863.589392	2564.056875
863.901869	2568.687175
864.214303	2570.504511
864.526696	2568.430076
864.839045	2568.251115
865.151353	2570.050807
865.463619	2566.529561
865.775842	2568.581311
866.088023	2568.067113
866.400162	2568.278841
866.712258	2566.390929
867.024313	2566.723645
867.336325	2567.931002
867.648296	2569.055179
867.960224	2568.530899
868.272110	2568.356979
868.583954	2569.345045
868.895755	2569.337484
869.207515	2566.748851
869.519233	2567.706670
869.830909	2569.670200
870.142542	2569.559294
870.454134	2566.547205
870.765684	2567.560477
871.077191	2566.877401
871.388657	2569.035014
871.700081	2568.147771
872.011463	2571.225396
872.322803	2569.612227
872.634101	2567.331104
872.945357	2570.527196
873.256571	2570.438976
873.567744	2568.581311
873.878874	2570.547361
874.189963	2569.491239
874.501010	2571.646332
874.812015	2570.078533
875.122979	2571.923596
875.433900	2570.955694
875.744780	2572.107598
876.055618	2571.905952
876.366415	2570.116342
876.677169	2572.178174
876.987882	2567.210117
877.298554	2567.867987
877.609183	2566.620302
877.919771	2569.365210
878.230317	2570.002916
878.540822	2575.200346
878.851285	2575.039029
879.161707	2577.398289
879.472087	2578.116653
879.782425	2582.056315
880.092722	2588.375401
880.402977	2596.748758
880.713191	2605.792588
881.023363	2618.299690
881.333494	2629.475928
881.643583	2638.721405
881.953631	2639.333905
882.263637	2634.592700
882.573602	2633.501290
882.883526	2630.441309
883.193408	2625.732872
883.503248	2619.620473
883.813048	2617.122581
884.122806	2613.248454
884.432522	2608.154368
884.742197	2602.165477
885.051831	2595.768253
885.361424	2591.702563
885.670975	2589.396235
885.980485	2585.295256
886.289954	2583.094792
886.599382	2580.798547
886.908768	2577.478947
887.218113	2576.180850
887.527417	2575.195304
887.836680	2575.580953
888.145901	2573.801425
888.455082	2572.798236
888.764221	2574.514749
889.073319	2573.277145
889.382376	2570.587690
889.691392	2573.246898
890.000366	2573.788823
890.309300	2570.738924
890.618193	2574.240006
890.927044	2571.197669
891.235855	2573.078020
891.544625	2570.721280
891.853353	2569.312278
892.162041	2573.914851
892.470687	2572.334450
892.779293	2571.515262
893.087858	2570.895200
893.396381	2572.372258
893.704864	2574.933164
894.013306	2579.334092
894.321707	2586.744588
894.630068	2588.917325
894.938387	2591.526122
895.246665	2591.306832
895.554903	2593.040989
895.863100	2584.075297
896.171256	2584.763414
896.479371	2585.196954
896.787446	2582.192426
897.095480	2579.775193
897.403473	2581.101016
897.711425	2581.055646
898.019336	2578.378793
898.327207	2576.322002
898.635038	2574.915520
898.942827	2576.014492
899.250576	2571.694223
899.558284	2576.397620
899.865952	2571.966445
900.173579	2574.570201
900.481165	2572.379820
900.788711	2570.146589
901.096216	2570.796898
901.403681	2568.498132
901.711105	2572.382341
902.018489	2566.597617
902.325832	2571.966445
902.633135	2568.820765
902.940397	2570.948132
903.247619	2569.793708
903.554800	2577.489029
903.861941	2582.762076
904.169041	2591.659713
904.476101	2594.200454
904.783121	2595.619539
905.090100	2592.262131
905.397039	2590.714497
905.703938	2587.382294
906.010796	2588.773652
906.317614	2585.023034
906.624391	2582.265523
906.931129	2579.444997
907.237826	2580.566654
907.544483	2575.651529
907.851099	2577.186560
908.157675	2574.371076
908.464211	2572.851168
908.770707	2566.975703
909.077163	2566.849674
909.383578	2564.487894
909.689954	2566.280024
909.996289	2561.112841
910.302584	2565.415466
910.608839	2564.876062
910.915054	2568.697257
911.221229	2564.273645
911.527363	2567.371434
911.833458	2566.574931
912.139513	2566.756413
912.445527	2566.355641
912.751502	2568.447720
913.057436	2569.133317
913.363331	2569.082905
913.669186	2567.971331
913.975000	2573.776220
914.280775	2571.956363
914.586510	2571.356466
914.892205	2574.602969
915.197859	2579.697055
915.503475	2582.615883
915.809050	2588.682912
916.114585	2591.415217
916.420081	2592.836822
916.725536	2595.911926
917.030952	2596.567276
917.336328	2593.414034
917.641665	2593.913109
917.946961	2590.152408
918.252218	2587.094948
918.557435	2586.353898
918.862612	2584.435739
919.167750	2582.999011
919.472848	2582.086562
919.777906	2580.140676
920.082925	2577.814184
920.387904	2576.450552
920.692843	2574.668504
920.997743	2575.202866
921.302603	2573.768658
921.607423	2572.188256
921.912204	2571.812690
922.216946	2570.436455
922.521647	2570.766651
922.826310	2568.031825
923.130932	2569.735735
923.435516	2567.258008
923.740059	2567.510065
924.044564	2567.764644
924.349028	2566.927812
924.653454	2562.662996
924.957840	2565.032338
925.262186	2560.928839
925.566493	2561.828685
925.870761	2560.374312
926.174989	2563.711556
926.479178	2564.833213
926.783328	2564.840774
927.087438	2564.404715
927.391509	2563.898079
927.695541	2566.653069
927.999533	2562.761298
928.303486	2564.631567
928.607400	2563.353634
928.911275	2563.552760
929.215110	2564.308933
929.518906	2564.102245
929.822663	2564.127451
930.126381	2563.663665
930.430060	2564.215671
930.733699	2562.529405
931.037299	2565.138202
931.340861	2564.331618
931.644383	2563.386402
931.947866	2562.680640
932.251309	2562.889848
932.554714	2564.918912
932.858080	2564.752554
933.161407	2563.194838
933.464694	2566.653069
933.767943	2564.553429
934.071153	2564.669375
934.374323	2560.505382
934.677455	2562.917574
934.980548	2561.916905
935.283602	2561.589230
935.586617	2563.199879
935.889593	2563.517472
936.192530	2561.770712
936.495428	2561.294323
936.798287	2563.335990
937.101108	2561.800959
937.403890	2561.737944
937.706632	2567.068964
938.009336	2561.924467
938.312002	2566.194324
938.614628	2561.135526
938.917216	2564.293809
939.219765	2565.176011
939.522275	2565.866649
939.824747	2567.492421
940.127179	2560.664178
940.429573	2565.032338
940.731929	2563.625856
941.034246	2561.034703
941.336524	2561.069991
941.638763	2564.581155
941.940964	2565.473439
942.243126	2564.586196
942.545250	2565.365054
942.847335	2563.456978
943.149381	2563.265414
943.451389	2563.083932
943.753359	2564.046793
944.055290	2560.523026
944.357182	2564.240877
944.659036	2562.647873
944.960851	2563.371278
945.262628	2562.105948
945.564367	2562.166442
945.866067	2564.818089
946.167729	2563.610733
946.469352	2563.615774
946.770937	2563.583007
947.072484	2563.388922
947.373992	2566.038048
947.675462	2563.847667
947.976893	2566.007802
948.278286	2566.332956
948.579641	2562.168963
948.880958	2563.207441
949.182236	2563.837585
949.483476	2565.085270
949.784678	2566.143913
950.085841	2565.002091
950.386967	2563.754406
950.688054	2561.541339
950.989103	2562.985630
951.290114	2565.642318
951.591087	2560.724672
951.892021	2563.716597
952.192917	2563.756926
952.493776	2565.029818
952.794596	2566.458985
953.095378	2563.167111
953.396122	2564.913871
953.696828	2563.729200
953.997496	2563.988819
954.298126	2565.712894
954.598718	2565.107956
954.899272	2562.320197
955.199788	2563.951011
955.500266	2563.903120
955.800706	2560.996895
956.101108	2561.795917
956.401472	2561.165773
956.701798	2559.570248
957.002087	2560.064281
957.302337	2560.028993
957.602550	2560.966648
957.902724	2559.245094
958.202861	2563.860270
958.502960	2562.615105
958.803022	2558.168807
959.103045	2561.737944
959.403031	2561.264076
959.702979	2561.526216
960.002889	2563.880435
960.302762	2561.024621
960.602596	2563.063768
960.902393	2561.750547
961.202153	2562.612584
961.501875	2562.166442
961.801559	2561.886658
962.101205	2561.798438
962.400814	2560.470094
962.700385	2557.788200
962.999918	2558.879610
963.299414	2560.134857
963.598873	2561.548901
963.898293	2557.435319
964.197677	2559.570248
964.497022	2560.192831
964.796331	2560.003787
965.095601	2561.294323
965.394835	2559.708880
965.694030	2560.714590
965.993189	2559.792059
966.292309	2559.640824
966.591393	2560.356668
966.890439	2558.236863
967.189447	2558.420865
967.488419	2558.766184
967.787353	2560.205433
968.086249	2560.664178
968.385108	2561.788356
968.683930	2558.519167
968.982714	2560.999415
969.281462	2560.941442
969.580172	2561.818603
969.878844	2563.252811
970.177480	2559.908005
970.476078	2557.450443
970.774639	2561.455640
971.073162	2560.649055
971.371649	2556.971533
971.670098	2553.999773
971.968510	2555.718807
972.266885	2557.205947
972.565223	2559.025803
972.863524	2560.701987
973.161788	2558.501523
973.460014	2557.057233
973.758204	2561.430434
974.056356	2559.950855
974.354471	2558.226781
974.652550	2558.299877
974.950591	2561.342214
975.248595	2560.051678
975.546563	2561.473284
975.844493	2556.903478
976.142386	2560.722152
976.440243	2557.478169
976.738062	2561.042265
977.035845	2563.877914
977.333590	2558.912378
977.631299	2557.881462
977.928971	2559.116544
978.226606	2557.669733
978.524204	2557.412634
978.821765	2559.154353
979.119290	2557.054712
979.416777	2558.912377
979.714228	2560.104610
980.011642	2558.534291
980.309020	2562.350444
980.606360	2559.204764
980.903664	2559.524878
981.200931	2558.148643
981.498162	2560.502862
981.795356	2559.615618
982.092513	2565.002091
982.389633	2559.345917
982.686717	2561.475804
982.983764	2565.047462
983.280775	2562.388253
983.577749	2563.663665
983.874686	2565.082750
984.171587	2565.095353
984.468451	2560.817934
984.765279	2565.586865
985.062070	2561.359858
985.358824	2561.826164
985.655543	2561.990002
985.952224	2560.621329
986.248869	2559.819785
986.545478	2556.442212
986.842050	2556.127140
987.138586	2555.686039
987.435086	2556.563200
987.731549	2555.544887
988.027975	2561.241391
988.324366	2559.555125
988.620719	2558.786349
988.917037	2559.522357
989.213318	2559.489590
989.509563	2557.881462
989.805772	2558.680484
990.101944	2559.635783
990.398080	2559.005639
990.694180	2556.958930
990.990244	2555.983467
991.286271	2557.120247
991.582262	2558.405742
991.878217	2558.637635
992.174136	2556.154866
992.470019	2558.438509
992.765865	2560.492779
993.061676	2558.922460
993.357450	2557.863818
993.653188	2559.020762
993.948890	2557.614280
994.244556	2556.593447
994.540186	2561.964796
994.835780	2559.754250
995.131337	2559.575289
995.426859	2559.040927
995.722345	2557.946997
996.017795	2557.843653
996.313208	2559.716442
996.608586	2559.706359
996.903928	2559.197203
997.199234	2559.935732
997.494504	2559.905485
997.789738	2558.254507
998.084936	2564.273645
998.380099	2563.020918
998.675225	2559.557645
998.970316	2560.031514
999.265371	2560.694425
999.560390	2560.386915
999.855373	2559.459343
1000.150320	2558.904816
1000.445232	2559.456822
1000.740108	2554.599670
1001.034948	2557.100083
1001.329752	2559.451781
1001.624521	2559.572769
1001.919254	2554.529094
1002.213951	2553.941800
1002.508613	2555.237376
1002.803239	2555.355843
1003.097829	2553.409958
1003.392384	2559.371122
1003.686903	2556.966492
1003.981386	2560.031514
1004.275834	2557.573951
1004.570246	2557.944476
1004.864623	2558.239383
1005.158964	2557.591595
1005.453270	2557.314332
1005.747540	2557.394990
1006.041775	2558.050340
1006.335974	2554.612273
1006.630138	2559.061092
1006.924266	2555.781821
1007.218359	2558.345248
1007.512416	2558.879610
1007.806438	2556.580844
1008.100425	2557.077397
1008.394376	2554.211502
1008.688292	2554.740823
1008.982172	2561.833726
1009.276017	2556.414486
1009.569827	2557.253838
1009.863602	2557.195865
1010.157341	2556.477500
1010.451045	2556.684187
1010.744714	2557.299208
1011.038347	2557.982285
1011.331945	2555.529763
1011.625508	2555.302911
1011.919036	2555.386090
1012.212528	2555.600339
1012.505986	2556.601008
1012.799408	2556.817778
1013.092795	2557.843653
1013.386147	2557.710062
1013.679464	2556.971533
1013.972745	2556.873231
1014.265992	2559.053530
1014.559204	2558.418344
1014.852380	2556.686708
1015.145521	2557.599157
1015.438628	2557.450443
1015.731699	2558.415824
1016.024736	2559.154353
1016.317737	2556.379198
1016.610703	2557.132850
1016.903635	2552.794937
1017.196531	2552.792417
1017.489393	2552.328631
1017.782219	2554.372818
1018.075011	2554.438353
1018.367768	2558.420865
1018.660490	2557.306770
1018.953177	2557.306770
1019.245829	2557.306770
