Dividing Wavelength (nm)	Counts (n)	Blue Motor Position (mm): 0.000000	Red Motor Position (mm): 44.500000	
326.493990	2076.781465
326.888308	2076.781465
327.282561	2076.781465
327.676750	2054.083670
328.070874	2054.270192
328.464933	2061.579865
328.858929	2073.930692
329.252859	2087.783783
329.646726	2100.058993
330.040528	2112.480396
330.434265	2134.185084
330.827938	2152.454225
331.221547	2171.988696
331.615091	2192.521316
332.008571	2215.181303
332.401986	2236.152503
332.795338	2256.997674
333.188625	2274.651794
333.581847	2297.478139
333.975006	2311.767290
334.368100	2330.296051
334.761129	2346.306755
335.154095	2361.838550
335.546996	2402.729870
335.939833	2475.090592
336.332606	2486.597026
336.725315	2498.002636
337.117960	2508.218534
337.510540	2515.923938
337.903056	2525.149250
338.295508	2531.581762
338.687896	2540.988555
339.080220	2547.136242
339.472480	2549.218239
339.864676	2555.277706
340.256807	2559.378684
340.648875	2555.628066
341.040879	2558.340207
341.432818	2563.341031
341.824694	2560.709549
342.216506	2563.719118
342.608253	2561.145609
342.999937	2559.020762
343.391557	2561.259035
343.783113	2557.531101
344.174605	2557.954558
344.566033	2555.837274
344.957397	2555.350802
345.348697	2552.578168
345.739934	2553.099927
346.131106	2549.122457
346.522215	2547.284956
346.913260	2546.511139
347.304241	2545.283618
347.695159	2541.011240
348.086012	2544.414019
348.476802	2540.658359
348.867528	2541.858154
349.258191	2543.310006
349.648789	2539.317412
350.039324	2537.283307
350.429796	2538.276414
350.820203	2536.431352
351.210548	2535.904551
351.600828	2532.731145
351.991045	2537.641229
352.381198	2532.897503
352.771288	2537.462268
353.161314	2535.183666
353.551276	2533.913296
353.941175	2534.014119
354.331010	2534.238450
354.720782	2536.257432
355.110490	2538.856147
355.500135	2535.226516
355.889717	2534.321629
356.279235	2537.159799
356.668689	2536.839685
357.058080	2539.463606
357.447408	2536.713657
357.836672	2534.913965
358.225873	2538.226003
358.615010	2538.334387
359.004084	2539.902186
359.393095	2541.832948
359.782043	2541.550644
360.170927	2544.129194
360.559748	2546.458207
360.948505	2546.848896
361.337199	2549.606408
361.725830	2546.566592
362.114398	2549.722354
362.502903	2548.177240
362.891344	2552.323589
363.279722	2548.701520
363.668037	2551.607746
364.056289	2552.250493
364.444478	2552.668908
364.832603	2553.326779
365.220665	2555.865000
365.608665	2555.325597
365.996601	2558.090669
366.384474	2557.246276
366.772284	2560.323901
367.160031	2559.678633
367.547715	2561.654765
367.935336	2560.767522
368.322893	2563.784653
368.710388	2560.580999
369.097820	2565.838923
369.485189	2566.779098
369.872495	2569.171126
370.259738	2570.501990
370.646918	2570.000395
371.034035	2572.911662
371.421090	2578.323340
371.808081	2576.843762
372.195010	2582.242838
372.581875	2585.554876
372.968678	2592.282295
373.355418	2599.400405
373.742096	2606.644543
374.128710	2618.803806
374.515262	2627.051133
374.901751	2642.098978
375.288177	2656.015083
375.674540	2672.033349
376.060841	2691.091431
376.447079	2711.248485
376.833254	2734.042062
377.219367	2754.955289
377.605417	2787.843777
377.991404	2813.599032
378.377329	2849.668487
378.763191	2883.040926
379.148991	2927.206475
379.534727	2972.707929
379.920402	3016.003879
380.306013	3064.020869
380.691563	3122.621762
381.077049	3175.258970
381.462474	3225.690673
381.847835	3297.935449
382.233134	3366.495141
382.618371	3419.666712
383.003545	3505.532685
383.388657	3580.045980
383.773706	3667.759536
384.158693	3740.722677
384.543618	3827.049916
384.928480	3900.055906
385.313280	4002.940814
385.698017	4098.974795
386.082692	4216.637847
386.467305	4276.418369
386.851856	4394.288108
387.236344	4542.760171
387.620770	4606.006487
388.005133	4717.577304
388.389435	4856.463613
388.773674	4941.795224
389.157851	5068.744081
389.541965	5188.506773
389.926018	5219.590528
390.310008	5390.926744
390.693936	5509.315722
391.077802	5619.139779
391.461606	5754.484677
391.845348	5856.366396
392.229027	5979.224357
392.612645	6191.963570
392.996200	6310.176107
393.379694	6480.231870
393.763125	6692.708943
394.146494	6777.821264
394.529801	6913.390494
394.913047	7148.124261
395.296230	7145.177706
395.679351	7198.510593
396.062410	7446.981505
396.445408	7352.210333
396.828343	7509.169179
397.211217	7639.115001
397.594028	7531.030142
397.976778	7732.809887
398.359466	7893.894917
398.742092	7875.933286
399.124656	8013.271960
399.507158	8204.006537
399.889598	8226.487562
400.271977	8438.823483
400.654294	8467.152247
401.036549	8667.031476
401.418742	8700.053555
401.800874	8993.017690
402.182944	9074.820493
402.564952	9429.889123
402.946898	9264.151108
403.328783	9324.503802
403.710606	9519.742649
404.092367	9772.687585
404.474067	10122.916707
404.855705	9926.084855
405.237282	9882.488957
405.618797	10304.370519
406.000250	10553.242202
406.381642	10907.368137
406.762972	10857.087668
407.144240	10677.060503
407.525447	10922.882288
407.906593	10872.201047
408.287677	11138.799948
408.668700	11278.344128
409.049661	11271.619228
409.430560	11423.443659
409.811399	11408.093345
410.192176	11565.538662
410.572891	11645.977833
410.953545	12119.410235
411.334138	11608.416196
411.714669	12186.767612
412.095139	11541.777183
412.475547	12008.870334
412.855894	11880.189841
413.236180	12205.843338
413.616405	11895.449414
413.996568	12168.274139
414.376670	12150.403249
414.756711	12033.614838
415.136691	12316.814258
415.516609	12490.071154
415.896466	12574.107189
416.276262	12863.013195
416.655997	13313.364674
417.035670	13363.851830
417.415283	13976.732629
417.794834	14065.948449
418.174324	13817.222960
418.553753	13733.494435
418.933121	14213.223238
419.312428	14050.013362
419.691674	13958.760916
420.070859	14420.276030
420.449983	14078.558896
420.829045	14629.035252
421.208047	14386.954003
421.586988	14845.003323
421.965867	15087.719758
422.344686	15086.164562
422.723444	15659.419371
423.102141	14352.696842
423.480777	15553.010696
423.859352	15051.584767
424.237866	16154.352294
424.616319	15874.709408
424.994712	16517.983324
425.373044	16317.486553
425.751314	17008.114548
426.129524	16142.621529
426.507673	17211.603243
426.885762	16951.688913
427.263789	17132.908311
427.641756	17307.425496
428.019662	17369.630814
428.397508	17428.108198
428.775292	17704.635651
429.153016	17688.841716
429.530679	17762.747552
429.908282	17810.318401
430.285824	17529.155607
430.663305	18244.951562
431.040726	17861.355042
431.418086	17697.845217
431.795385	18340.902363
432.172624	18780.433006
432.549802	18334.134614
432.926920	18550.551349
433.303977	18425.465199
433.680974	18687.605199
434.057910	18981.963213
434.434786	19033.806439
434.811601	18962.615264
435.188355	20005.869450
435.565050	19673.765796
435.941683	19629.224682
436.318257	20529.594923
436.694770	20335.071920
437.071222	20943.597162
437.447614	20001.019860
437.823946	20040.071158
438.200218	20222.099662
438.576429	19984.749536
438.952580	20300.507248
439.328670	20262.096177
439.704700	20689.996877
440.080670	20265.057854
440.456580	20878.215917
440.832429	21045.133562
441.208218	20052.210257
441.583947	20493.979171
441.959616	20612.179105
442.335224	20868.909947
442.710773	21018.909480
443.086261	21562.376112
443.461689	20900.550749
443.837057	21067.405380
444.212365	21732.845249
444.587612	21728.547666
444.962800	21324.441212
445.337927	21761.282398
445.712995	20459.220415
446.088002	22372.224874
446.462949	22579.970824
446.837837	22744.872008
447.212664	22772.152212
447.587431	25721.690998
447.962139	28725.442352
448.336786	31055.897199
448.711374	29400.614169
449.085901	25647.659133
449.460369	25659.205896
449.834776	25644.233669
450.209124	28213.029228
450.583412	27690.758128
450.957640	28193.519963
451.331808	26844.103902
451.705917	25442.242196
452.079965	25495.862429
452.453954	25884.260648
452.827883	25791.735310
453.201752	25592.473622
453.575562	25751.111172
453.949311	26892.272127
454.323001	26957.827291
454.696632	26737.155823
455.070202	28356.835704
455.443713	28539.451502
455.817164	29119.985738
456.190556	29691.708036
456.563888	29106.508213
456.937160	29549.086232
457.310373	27833.619387
457.683526	28267.009904
458.056619	28272.328321
458.429653	28245.295134
458.802628	28861.813126
459.175542	29004.681946
459.548398	30385.882483
459.921194	32012.269619
460.293930	32745.581063
460.666607	34848.803380
461.039224	36663.676738
461.411782	37016.186982
461.784280	35738.743474
462.156719	35175.177762
462.529099	34616.748986
462.901419	33271.922895
463.273680	32219.312328
463.645882	32358.720396
464.018024	32359.708463
464.390106	33290.292860
464.762130	36188.414397
465.134094	40535.270289
465.505999	46028.013217
465.877845	50611.576487
466.249631	51634.502220
466.621358	49802.073044
466.993026	47571.995132
467.364634	45436.166632
467.736184	43465.083040
468.107674	42164.051973
468.479105	41397.506722
468.850477	40642.571248
469.221790	39192.884116
469.593043	37413.530728
469.964238	36508.187388
470.335373	36445.407379
470.706449	38313.117070
471.077467	41082.225399
471.448425	45783.930630
471.819324	48570.272143
472.190164	46600.327851
472.560945	42924.973817
472.931667	39741.729659
473.302330	38645.984459
473.672934	37786.371946
474.043479	38337.236471
474.413965	37529.109262
474.784393	37161.823396
475.154761	38096.995243
475.525070	38146.219590
475.895321	37664.776795
476.265513	38288.117988
476.635645	39302.947628
477.005719	39151.471037
477.375734	39659.374849
477.745691	40387.388041
478.115588	41775.782304
478.485427	43886.367226
478.855207	47390.241371
479.224928	50042.795702
479.594591	51588.242072
479.964194	50495.569455
480.333739	50648.563433
480.703226	50716.545913
481.072653	51372.301726
481.442022	51827.878361
481.811333	52053.565778
482.180584	50774.352824
482.549777	50256.712024
482.918912	49709.819928
483.287988	49404.925903
483.657005	48576.303883
484.025964	47891.115294
484.394864	47885.554901
484.763706	47439.763146
485.132489	46553.535861
485.501213	46386.088895
485.869879	46527.972170
486.238487	46113.493542
486.607036	46309.541495
486.975527	45749.761689
487.343959	45988.843452
487.712333	46056.778041
488.080648	45933.998218
488.448905	46405.154539
488.817104	46213.688995
489.185244	47212.639000
489.553326	48984.229011
489.921350	51726.347002
490.289315	54541.642382
490.657222	55078.825215
491.025070	55303.184288
491.392861	54387.413321
491.760593	53153.079240
492.128267	51451.500774
492.495883	49901.698847
492.863440	48475.233790
493.230939	47092.266329
493.598380	46001.481624
493.965763	45659.386404
494.333088	44831.833109
494.700354	44328.259648
495.067563	44019.342782
495.434713	43879.854055
495.801805	43955.368019
496.168839	43556.020414
496.535815	43215.213208
496.902733	43229.088984
497.269593	42789.230667
497.636395	42732.711771
498.003139	43117.931542
498.369825	42568.317223
498.736453	42882.068556
499.103023	42401.742377
499.469535	42273.518108
499.835989	42361.990358
500.202385	42008.403827
500.568723	42015.637883
500.935003	42221.616909
501.301226	42010.382480
501.667390	42638.600990
502.033497	42885.090728
502.399546	42318.979233
502.765537	41590.444282
503.131470	41979.165135
503.497345	42347.015611
503.863163	40978.811169
504.228923	41630.629840
504.594625	42025.936960
504.960269	41279.095059
505.325856	41983.520692
505.691385	41353.741945
506.056856	41494.044818
506.422270	41934.934051
506.787625	41487.327481
507.152924	41682.677233
507.518164	41786.247739
507.883347	40981.467857
508.248472	41231.821639
508.613540	41717.524209
508.978550	42013.175279
509.343503	41770.136211
509.708398	41959.693678
510.073236	42501.194260
510.438016	42504.259281
510.802738	41935.191150
511.167403	42576.183944
511.532010	42808.286229
511.896561	43097.650980
512.261053	43970.577180
512.625488	43498.329449
512.989866	43363.322308
513.354186	43221.582706
513.718449	43207.419584
514.082655	43894.642280
514.446803	43553.910691
514.810894	44096.081746
515.174927	43988.395138
515.538904	43889.593564
515.902822	44562.373353
516.266684	43996.115665
516.630488	44446.076455
516.994235	44293.972240
517.357925	44855.274474
517.721558	45025.194126
518.085133	45344.710019
518.448651	45450.639785
518.812112	45227.334313
519.175516	45327.058419
519.538863	45656.712072
519.902152	45603.613598
520.265385	46083.052535
520.628560	46090.493278
520.991678	45891.707979
521.354739	46122.852444
521.717743	46432.066739
522.080690	46326.815008
522.443580	46864.960702
522.806413	46894.721154
523.169189	46842.096549
523.531908	47033.811629
523.894569	46888.805360
524.257174	47041.670788
524.619722	47329.538317
524.982213	47304.302301
525.344647	47225.332626
525.707025	47290.096329
526.069345	47691.861167
526.431608	47588.472143
526.793815	47902.112571
527.155964	47430.731919
527.518057	47592.726877
527.880093	47378.066984
528.242072	47896.428670
528.603995	47585.850743
528.965860	47586.548943
529.327669	47679.701904
529.689421	47587.337883
530.051117	47528.820170
530.412755	47680.705094
530.774337	47749.539529
531.135862	47557.554747
531.497331	47736.205677
531.858743	47634.112229
532.220098	47983.819592
532.581396	47669.601953
532.942638	47332.678956
533.303824	47650.067481
533.664953	47615.568345
534.026025	47324.103953
534.387040	47786.725600
534.747999	47750.152029
535.108902	47909.192871
535.469748	47402.312414
535.830537	47520.590486
536.191270	47693.983493
536.551947	47352.500773
536.912567	47673.420627
537.273131	47792.475036
537.633638	47274.337682
537.994089	47607.373949
538.354483	47198.372535
538.714821	47790.796332
539.075103	48124.301427
539.435328	47878.714055
539.795497	47748.145650
540.155609	47751.508100
540.515665	48215.072443
540.875665	47651.499169
541.235609	47974.188468
541.595496	47944.400290
541.955328	48619.604874
542.315102	47976.845156
542.674821	47741.934948
543.034483	47776.953324
543.394090	47759.644522
543.753640	47714.538798
544.113134	48724.418024
544.472571	47705.084114
544.831953	48951.476635
545.191278	48149.489552
545.550548	47863.855254
545.909761	48329.322633
546.268918	48513.228966
546.628019	48814.019493
546.987064	48378.070591
547.346053	47620.733007
547.704986	48507.169499
548.063863	48064.004185
548.422684	48235.163961
548.781449	48051.338286
549.140158	48473.217328
549.498811	48286.538360
549.857408	47717.956700
550.215949	48544.794151
550.574434	48477.023399
550.932864	48221.205006
551.291237	48944.030851
551.649555	48561.230833
552.007817	48780.326941
552.366022	48428.509855
552.724173	48599.707440
553.082267	48991.616822
553.440305	49257.411659
553.798288	48549.341272
554.156215	48840.921610
554.514086	49065.084078
554.871902	48764.406977
555.229661	48789.884969
555.587365	48605.378738
555.945014	48709.229028
556.302606	48627.806832
556.660143	48853.116162
557.017625	48908.888967
557.375050	48708.067042
557.732421	49031.704078
558.089735	49002.130149
558.446994	48912.697559
558.804197	49362.348317
559.161345	49290.176638
559.518437	48506.879633
559.875474	48824.495011
560.232455	49015.075832
560.589381	49153.268982
560.946251	48830.980455
561.303065	49506.479947
561.659825	49287.371236
562.016528	48955.244897
562.373177	48659.745062
562.729770	49158.035393
563.086307	48652.589144
563.442789	49107.908680
563.799216	49122.033993
564.155587	48922.719373
564.511904	48938.538513
564.868164	49008.484523
565.224370	49222.950331
565.580520	48972.641919
565.936615	49169.841775
566.292654	48872.902690
566.648638	49129.588162
567.004567	49068.998534
567.360441	49112.544021
567.716260	48963.096494
568.072023	49235.850644
568.427732	49207.325275
568.783385	48750.042209
569.138982	49126.424838
569.494525	49074.374924
569.850013	48813.144853
570.205445	48802.510539
570.560823	48719.979288
570.916145	48604.678018
571.271412	48639.114140
571.626625	48371.305362
571.981782	48397.849558
572.336884	48085.522351
572.691931	48398.366276
573.046923	47987.192124
573.401860	47807.570772
573.756743	47784.457081
574.111570	47887.140344
574.466342	47737.125688
574.821059	47837.268209
575.175722	47341.379987
575.530330	47380.764002
575.884882	47062.523521
576.239380	47011.040737
576.593823	46986.427304
576.948211	46902.822288
577.302544	46410.606547
577.656823	46413.754747
578.011047	46631.151987
578.365216	46364.779938
578.719330	46123.517877
579.073389	45973.425083
579.427394	46045.861422
579.781344	45995.649009
580.135239	45644.162119
580.489080	45713.636781
580.842866	45188.398962
581.196597	45612.135669
581.550273	45555.654581
581.903895	45422.616010
582.257463	45830.798237
582.610975	45202.710797
582.964434	45488.266957
583.317837	45098.492503
583.671186	44926.415237
584.024481	45152.972253
584.377721	44651.654709
584.730906	44933.772801
585.084037	44975.190921
585.437113	44679.028174
585.790135	44688.006469
586.143103	44264.478970
586.496016	44383.031785
586.848874	44396.496707
587.201679	44402.815793
587.554428	43868.876942
587.907124	44058.520109
588.259765	43803.389833
588.612352	44044.525866
588.964884	43408.967436
589.317362	43693.129716
589.669786	43642.297242
590.022155	43402.860078
590.374470	43809.802181
590.726731	43311.653002
591.078937	42825.834485
591.431090	42908.259871
591.783188	42562.535020
592.135232	42234.943199
592.487222	42497.327695
592.839157	42550.524471
593.191038	42207.363046
593.542866	41952.351238
593.894639	41359.975332
594.246358	41630.876857
594.598022	41582.058323
594.949633	41199.144880
595.301190	41147.876345
595.652692	40983.988434
596.004141	41297.402009
596.355535	40304.589609
596.706876	40233.191747
597.058162	40060.975850
597.409395	40525.810563
597.760573	40613.025046
598.111698	40189.167351
598.462768	40192.313031
598.813785	40224.596580
599.164748	39660.171351
599.515657	40055.952340
599.866511	39535.992609
600.217312	40152.480354
600.568060	39107.958318
600.918753	39850.255619
601.269392	39811.511831
601.619978	39462.384201
601.970510	39662.502885
602.320988	39821.994910
602.671412	40130.218618
603.021783	39871.420903
603.372100	39523.117502
603.722363	39617.006472
604.072572	39679.201707
604.422728	39696.755005
604.772830	39507.908341
605.122878	39594.724572
605.472872	39525.527173
605.822813	39787.810846
606.172701	39623.892688
606.522534	39879.365762
606.872314	40115.987441
607.222041	39870.105162
607.571714	40246.059293
607.921333	39687.265033
608.270899	39986.069345
608.620411	40338.261996
608.969870	40112.229261
609.319276	40118.034149
609.668627	40160.543679
610.017926	40631.042129
610.367171	40792.515328
610.716362	40868.470393
611.065500	40802.955558
611.414585	40978.659934
611.763616	41265.907401
612.112594	41207.520757
612.461518	41417.270566
612.810389	41701.213556
613.159207	41550.409959
613.507971	41634.695531
613.856682	42092.328957
614.205340	41973.831594
614.553945	42677.795961
614.902496	42109.415947
615.250994	42573.960795
615.599439	42620.311684
615.947830	42823.535719
616.296169	42891.245977
616.644454	42987.653003
616.992686	43157.360927
617.340864	43647.159434
617.688990	43356.985578
618.037063	43973.057428
618.385082	43889.805292
618.733048	44187.800499
619.080961	44192.060274
619.428821	44200.415987
619.776628	44300.654290
620.124382	44112.117657
620.472083	44236.409825
620.819731	44364.699629
621.167326	44012.675856
621.514868	43988.259027
621.862357	43537.496694
622.209793	43570.647322
622.557176	43235.554264
622.904506	42953.166470
623.251783	42604.636216
623.599007	42387.523802
623.946179	42162.355625
624.293297	42100.669546
624.640363	41517.778570
624.987376	41486.939312
625.334336	41247.665986
625.681243	40875.200334
626.028097	40855.809535
626.374899	40688.334843
626.721647	40659.461634
627.068343	40548.949460
627.414987	40316.665693
627.761577	40082.511659
628.108115	40396.938507
628.454600	39839.510399
628.801032	40026.801868
629.147412	39962.476745
629.493739	39938.359865
629.840014	39582.449362
630.186236	39916.753479
630.532405	39487.559723
630.878521	39698.118637
631.224585	39552.467099
631.570597	39245.382692
631.916556	39380.306654
632.262462	39317.259464
632.608316	39321.108385
632.954117	39207.145540
633.299866	39182.940440
633.645562	39102.382802
633.991206	38602.685988
634.336797	38157.922629
634.682336	38135.164340
635.027823	37908.035153
635.373257	37712.145997
635.718639	37459.700136
636.063968	37328.851947
636.409245	36741.169355
636.754470	36783.520088
637.099642	36554.755047
637.444762	36041.321090
637.789829	36199.376386
638.134845	35850.745310
638.479808	35781.721831
638.824719	35663.418553
639.169577	35279.280110
639.514383	35335.093244
639.859137	35015.726066
640.203839	35252.604844
640.548489	34868.035382
640.893086	34918.144451
641.237632	34661.441335
641.582125	34771.207419
641.926566	34673.353582
642.270955	34636.364116
642.615292	34643.464581
642.959576	34590.661015
643.303809	34578.474025
643.647990	34711.651228
643.992118	34655.891025
644.336195	34635.136595
644.680219	34683.478739
645.024192	34989.978373
645.368112	35461.255681
645.711981	35443.286488
646.055797	36260.076920
646.399562	36153.857287
646.743274	37055.187869
647.086935	37434.007895
647.430544	37315.452560
647.774101	37391.047182
648.117606	37601.966538
648.461059	37874.899649
648.804460	37477.341654
649.147810	36863.646708
649.491108	36601.698272
649.834354	36250.012256
650.177548	35433.115960
650.520690	34997.779558
650.863781	34998.702089
651.206820	34835.179662
651.549807	34391.958895
651.892742	33908.499638
652.235626	33711.267014
652.578458	33575.576797
652.921238	32951.683597
653.263967	33265.318983
653.606644	32914.898297
653.949269	32855.324462
654.291843	32453.610035
654.634365	32820.565706
654.976836	32410.150248
655.319255	32384.546228
655.661622	32367.764226
656.003938	32149.509991
656.346203	32007.586387
656.688416	32186.060877
657.030577	31979.988590
657.372687	31811.969453
657.714746	32033.102187
658.056753	32141.136635
658.398708	31588.474938
658.740612	31624.609929
659.082465	31864.599099
659.424266	31685.353313
659.766016	31778.937292
660.107715	31627.622019
660.449362	31723.567779
660.790958	31675.694462
661.132503	31674.945850
661.473996	31669.594666
661.815438	31763.833996
662.156829	31926.577565
662.498168	31682.613445
662.839456	31682.769721
663.180693	31807.815542
663.521879	31931.356579
663.863013	31861.229088
664.204097	31838.506087
664.545129	32233.790522
664.886110	32171.781809
665.227040	32223.166290
665.567918	32295.166570
665.908746	32332.221571
666.249522	32439.197376
666.590248	32417.175096
666.930922	32493.283916
667.271545	32437.256532
667.612118	32467.155616
667.952639	32260.816147
668.293109	32288.600467
668.633528	32153.706752
668.973896	32075.457962
669.314213	32075.405030
669.654480	31820.829281
669.994695	31810.731850
670.334859	31695.506196
670.674973	31563.120455
671.015035	31678.361232
671.355047	31603.847937
671.695008	31532.432431
672.034918	31409.277043
672.374777	31461.994909
672.714585	31274.022885
673.054342	31450.725410
673.394049	31207.550230
673.733705	31424.377819
674.073310	31090.446747
674.412864	31133.871246
674.752368	30749.949572
675.091820	31014.804234
675.431223	30592.232033
675.770574	30307.515226
676.109875	30165.619348
676.449125	29892.671114
676.788324	29799.324068
677.127473	29284.763413
677.466571	29192.807725
677.805619	28859.010244
678.144616	28840.063067
678.483562	28708.811586
678.822458	28408.399146
679.161303	28323.811105
679.500098	28221.566423
679.838842	28103.429503
680.177535	28214.435710
680.516179	28448.491442
680.854771	28636.448343
681.193314	29361.174702
681.531805	30332.907517
681.870247	30957.052775
682.208638	31568.085992
682.546978	31719.363457
682.885268	31772.303134
683.223508	31272.119849
683.561697	30954.088577
683.899836	30747.131567
684.237925	30262.069224
684.575963	30094.357597
684.913951	29661.514045
685.251889	29747.483363
685.589776	29706.526508
685.927614	29670.452011
686.265401	29750.734907
686.603137	29776.878331
686.940824	30192.163543
687.278460	30461.882918
687.616046	30536.408816
687.953582	31014.995797
688.291068	30830.035863
688.628504	31029.625226
688.965889	30953.196293
689.303224	30591.087691
689.640510	30275.103127
689.977745	29596.687327
690.314930	28860.076448
690.652065	28398.952023
690.989150	27736.869563
691.326185	26937.241739
691.663170	26328.610633
692.000105	25664.269735
692.336990	25055.850357
692.673825	24645.087059
693.010610	24197.931672
693.347345	23686.486449
693.684030	23096.686573
694.020665	22829.800326
694.357251	22224.957647
694.693786	22161.706289
695.030272	21940.891148
695.366707	21455.508691
695.703093	21185.118843
696.039429	21167.996564
696.375716	20916.826115
696.711952	20859.742609
697.048139	20698.425686
697.384276	20520.273830
697.720363	20605.439083
698.056400	20401.050541
698.392388	20197.892041
698.728326	20147.941768
699.064214	19947.220666
699.400053	19881.625172
699.735842	19557.723476
700.071581	19309.454211
700.407270	19052.367968
700.742910	18866.558598
701.078501	18630.304923
701.414042	18373.430409
701.749533	18113.705121
702.084974	17791.600596
702.420366	17938.167103
702.755709	17547.518009
703.091002	17282.068492
703.426246	17274.204292
703.761440	17166.832756
704.096584	16927.937517
704.431679	16867.511726
704.766725	16771.540760
705.101721	16711.039352
705.436668	16764.107578
705.771565	16470.125130
706.106413	16728.491826
706.441212	16716.889611
706.775961	16797.346426
707.110661	16822.113615
707.445311	17102.553003
707.779913	16938.990246
708.114465	17112.058099
708.448967	17314.992268
708.783421	17856.129886
709.117825	18047.187096
709.452180	18202.137042
709.786485	18500.656529
710.120742	19103.422253
710.454949	19086.829295
710.789107	19433.206976
711.123216	19960.970413
711.457275	20026.906185
711.791286	20429.323853
712.125247	20453.675146
712.459159	20182.100627
712.793023	20681.918428
713.126837	19774.677093
713.460602	19961.900506
713.794318	19640.080806
714.127985	19319.838988
714.461602	18582.250124
714.795171	18530.802629
715.128691	17704.207153
715.462162	17250.059686
715.795584	16896.430305
716.128957	16683.101277
716.462281	16351.572315
716.795556	16149.389278
717.128782	15752.466468
717.461960	15309.407019
717.795088	15228.746037
718.128167	14899.057096
718.461198	14543.186922
718.794180	14417.465586
719.127113	14135.733142
719.459997	13968.187873
719.792833	13684.325541
720.125619	13649.954954
720.458357	13389.072722
720.791046	13236.923138
721.123686	13097.076489
721.456278	12903.755800
721.788821	12858.947504
722.121315	12640.025316
722.453761	12677.047550
722.786158	12602.612393
723.118506	12602.808998
723.450805	12477.526243
723.783056	12576.879823
724.115259	12491.084426
724.447412	12416.913929
724.779518	12581.341244
725.111574	12574.006366
725.443582	12730.579563
725.775542	12702.825490
726.107453	13029.600644
726.439315	12928.318822
726.771129	13218.822875
727.102895	13461.357827
727.434612	13598.293210
727.766281	13662.073888
728.097901	13829.906503
728.429473	13837.115353
728.760996	13811.430674
729.092471	13854.613198
729.423897	13747.206374
729.755276	13634.327378
730.086606	13698.778529
730.417887	14050.338516
730.749120	14393.152101
731.080305	14488.555938
731.411442	14699.437486
731.742530	14730.521240
732.073570	14776.312561
732.404562	14971.364886
732.735506	14812.971832
733.066401	14588.779117
733.397249	14186.179968
733.728048	13727.470257
734.058798	13123.892907
734.389501	12606.184051
734.720156	12257.126997
735.050762	11875.352854
735.381320	11602.790268
735.711831	11425.455079
736.042293	11167.983188
736.372707	11163.005048
736.703073	11004.153249
737.033391	11113.563932
737.363661	11090.798081
737.693883	11145.686164
738.024056	11248.518141
738.354182	11366.183713
738.684260	11553.386961
739.014290	11696.969105
739.344272	11810.135447
739.674207	11990.225627
740.004093	12053.240050
740.333931	12037.919983
740.663722	12042.414172
740.993464	12014.072805
741.323159	11875.645241
741.652806	11673.005980
741.982405	11506.776452
742.311956	11252.598955
742.641460	11152.945426
742.970915	10928.992166
743.300323	10685.537203
743.629683	10527.537359
743.958996	10315.367796
744.288260	10120.035688
744.617477	9909.328060
744.946647	9845.648204
745.275768	9648.665118
745.604842	9513.915076
745.933869	9396.370491
746.262847	9344.207152
746.591778	9294.569431
746.920662	9211.400474
747.249498	9201.111479
747.578286	9259.157845
747.907027	9351.912556
748.235720	9478.556423
748.564365	9486.735695
748.892963	9405.711749
749.221514	9432.558414
749.550017	9324.854162
749.878473	9287.529459
750.206881	9137.255184
750.535242	9063.926560
750.863555	8993.794028
751.191821	8924.011855
751.520039	8921.975229
751.848210	8849.889250
752.176334	8864.783339
752.504411	8790.454046
752.832440	8685.081328
753.160421	8704.988844
753.488356	8629.978996
753.816243	8560.539622
754.144082	8457.553890
754.471875	8407.376765
754.799620	8364.048048
755.127318	8330.405908
755.454969	8299.256618
755.782572	8258.156091
756.110129	8258.125844
756.437638	8198.975465
756.765100	8188.522633
757.092515	8177.343874
757.419882	8186.226387
757.747203	8177.459821
758.074477	8219.417344
758.401703	8187.400976
758.728882	8273.428266
759.056014	8294.311246
759.383099	8363.339766
759.710138	8419.808251
760.037129	8460.717214
760.364073	8465.413049
760.690970	8445.500491
761.017820	8435.024973
761.344623	8536.090026
761.671379	8722.380825
761.998088	9089.389428
762.324751	10056.794413
762.651366	11828.636481
762.977935	14031.822358
763.304456	15332.331666
763.630931	15550.646395
763.957359	14782.372028
764.283740	13598.061317
764.610074	12419.225298
764.936362	11155.208904
765.262602	10225.824301
765.588796	9332.249535
765.914943	8713.785658
766.241044	8196.001184
766.567097	7804.243037
766.893104	7462.021787
767.219064	7235.676500
767.544978	7002.192939
767.870845	6806.059287
768.196665	6681.598240
768.522438	6561.268418
768.848165	6448.573424
769.173846	6344.375294
769.499479	6259.454537
769.825066	6160.463920
770.150607	6047.085849
770.476101	6000.666905
770.801548	5924.101860
771.126949	5838.036761
771.452303	5776.948059
771.777611	5679.764695
772.102872	5656.368700
772.428087	5586.704995
772.753256	5505.998642
773.078378	5448.758861
773.403453	5364.168299
773.728482	5292.074758
774.053465	5253.351135
774.378401	5194.344429
774.703291	5141.858456
775.028135	5077.215740
775.352932	5048.695412
775.677683	4999.927290
776.002388	4944.416624
776.327046	4941.999391
776.651658	4884.747007
776.976224	4838.174307
777.300743	4829.039736
777.625216	4784.927120
777.949643	4762.209160
778.274024	4757.722533
778.598359	4717.947829
778.922647	4711.122107
779.246889	4688.550340
779.571086	4689.089744
779.895236	4698.151218
780.219339	4692.018654
780.543397	4690.239127
780.867409	4713.385585
781.191374	4710.204617
781.515294	4683.698230
781.839167	4703.285633
782.162995	4683.305020
782.486776	4651.306296
782.810511	4624.918376
783.134201	4581.748455
783.457844	4568.293615
783.781441	4536.932597
784.104993	4507.996374
784.428498	4487.163806
784.751958	4474.553360
785.075372	4460.175989
785.398739	4429.601391
785.722061	4439.413997
786.045337	4436.522895
786.368568	4491.161441
786.691752	4502.680477
787.014891	4642.902692
787.337983	4802.888751
787.661030	5048.902100
787.984031	5273.238487
788.306987	5398.967384
788.629897	5421.334984
788.952760	5358.053380
789.275579	5246.848047
789.598351	5080.537861
789.921078	4929.938431
790.243759	4778.305564
790.566395	4663.768028
790.888984	4559.458993
791.211529	4480.501921
791.534027	4396.604518
791.856480	4321.387982
792.178888	4291.267088
792.501249	4251.983897
792.823566	4198.088921
793.145836	4192.626831
793.468062	4177.405067
793.790241	4156.335564
794.112375	4174.524047
794.434464	4220.340574
794.756507	4238.997884
795.078505	4302.024910
795.400457	4421.795164
795.722364	4545.484915
796.044226	4651.999454
796.366042	4724.224066
796.687812	4689.467830
797.009538	4695.502092
797.331218	4639.215088
797.652852	4592.392851
797.974442	4527.661915
798.295986	4480.877487
798.617484	4416.138989
798.938938	4354.218497
799.260346	4321.882015
799.581709	4245.115325
799.903026	4216.327816
800.224299	4177.473122
800.545526	4120.079586
800.866708	4085.842589
801.187845	4062.570103
801.508936	4021.590563
801.829983	4006.792256
802.150984	3947.087350
802.471940	3935.412038
802.792851	3927.956172
803.113717	3917.054676
803.434538	3902.125299
803.755314	3886.706930
804.076045	3879.503121
804.396731	3862.486707
804.717372	3871.139847
805.037967	3872.619426
805.358518	3887.994945
805.679024	3916.280859
805.999485	3919.338319
806.319901	3928.810647
806.640272	3935.323818
806.960598	3956.539514
807.280879	3946.764717
807.601115	3968.562666
807.921306	3942.691464
808.241453	3939.938994
808.561554	3937.983027
808.881611	3919.240017
809.201623	3916.200201
809.521590	3888.821694
809.841513	3876.276783
810.161390	3878.358779
810.481223	3833.585772
810.801011	3822.401972
811.120755	3809.221875
811.440453	3779.957977
811.760107	3764.290071
812.079716	3749.078389
812.399281	3718.143348
812.718801	3715.358111
813.038276	3692.143597
813.357707	3671.837830
813.677093	3685.005324
813.996434	3653.714882
814.315731	3660.691839
814.634983	3656.880726
814.954191	3658.929955
815.273354	3684.670087
815.592473	3698.069474
815.911547	3733.781008
816.230577	3758.684308
816.549562	3795.061274
816.868502	3818.424501
817.187399	3834.949404
817.506250	3866.459136
817.825058	3874.328377
818.143821	3941.978141
818.462539	4013.358359
818.781213	4114.703195
819.099843	4283.354997
819.418429	4575.467177
819.736970	4857.814642
820.055466	5163.996683
820.373919	5558.635850
820.692327	6208.337237
821.010691	7511.399889
821.329011	10745.617674
821.647286	15966.992770
821.965517	21784.864916
822.283704	24676.591750
822.601847	24967.269722
822.919945	21964.589612
823.237999	18958.473957
823.556010	16170.998184
823.873976	13820.658506
824.191897	11773.299736
824.509775	10303.977309
824.827609	9013.318416
825.145398	8250.024710
825.463144	7888.810913
825.780845	8029.995988
826.098502	8652.792737
826.416116	9782.686713
826.733685	10789.758017
827.051210	10955.901845
827.368692	10232.723120
827.686129	9059.918843
828.003522	7941.556506
828.320872	6961.825900
828.638177	6241.876034
828.955439	5688.863978
829.272656	5219.461978
829.589830	4843.906099
829.906960	4522.179661
830.224046	4281.000778
830.541088	4101.606278
830.858086	3986.985562
831.175041	3897.721851
831.491952	3865.803786
831.808819	3876.289386
832.125642	3977.251094
832.442421	4214.545768
832.759157	4713.302406
833.075849	5504.466132
833.392497	6320.260935
833.709101	6781.362674
834.025662	6629.099664
834.342179	6131.981401
834.658653	5561.897477
834.975083	5091.366259
835.291469	4709.793763
835.607811	4396.917070
835.924110	4177.677289
836.240366	3975.211948
836.556578	3782.173564
836.872746	3633.149495
837.188871	3517.046680
837.504952	3423.230807
837.820990	3356.349819
838.136984	3304.703198
838.452935	3286.875158
838.768842	3300.531643
839.084706	3432.158691
839.400526	3762.233280
839.716303	4146.349038
840.032037	4370.440930
840.347727	4282.661838
840.663373	4016.567053
840.978977	3775.418418
841.294537	3596.291098
841.610054	3460.449646
841.925527	3360.700335
842.240957	3275.996348
842.556344	3198.738144
842.871687	3131.363123
843.186987	3068.383988
843.502244	3020.523273
843.817458	2987.576813
844.132629	2956.813171
844.447756	2937.790377
844.762840	2916.695669
845.077881	2901.068092
845.392879	2884.858262
845.707833	2875.905173
846.022745	2865.774974
846.337613	2861.074098
846.652438	2852.110926
846.967221	2846.580781
847.281960	2840.186077
847.596656	2833.463698
847.911309	2831.938749
848.225919	2825.654951
848.540485	2819.625731
848.855009	2817.558858
849.169490	2812.918476
849.483928	2811.345636
849.798323	2810.644915
850.112675	2804.920685
850.426984	2804.817342
850.741251	2802.228709
851.055474	2800.416414
851.369654	2799.148564
851.683792	2799.007412
851.997887	2800.607978
852.311938	2798.687298
852.625947	2797.474901
852.939914	2796.559932
853.253837	2797.210240
853.567718	2796.025569
853.881555	2794.490538
854.195350	2794.949283
854.509103	2796.025569
854.822812	2793.094138
855.136479	2789.822429
855.450103	2790.873510
855.763685	2790.261010
856.077224	2792.020372
856.390720	2794.984571
856.704173	2796.386012
857.017584	2802.858853
857.330953	2802.579069
857.644278	2804.628298
857.957561	2806.065027
858.270802	2803.862043
858.584000	2800.648307
858.897155	2799.292237
859.210268	2794.455250
859.523339	2790.092131
859.836367	2788.020217
860.149352	2785.998714
860.462295	2784.766152
860.775195	2779.215842
861.088054	2778.671397
861.400869	2779.364556
861.713642	2776.859102
862.026373	2781.396141
862.339062	2783.221038
862.651708	2785.177006
862.964312	2793.333593
863.276873	2796.108748
863.589392	2807.287507
863.901869	2815.691110
864.214303	2828.740137
864.526696	2835.528051
864.839045	2840.302023
865.151353	2844.322344
865.463619	2844.453414
865.775842	2842.623475
866.088023	2843.810667
866.400162	2842.182374
866.712258	2840.201200
867.024313	2839.997034
867.336325	2838.560305
867.648296	2839.165243
867.960224	2837.789008
868.272110	2840.027281
868.583954	2839.634071
868.895755	2840.370079
869.207515	2839.288752
869.519233	2843.906448
869.830909	2850.560772
870.142542	2853.265351
870.454134	2855.133098
870.765684	2858.142667
871.077191	2865.835468
871.388657	2870.231354
871.700081	2878.271994
872.011463	2887.335989
872.322803	2893.156001
872.634101	2901.347876
872.945357	2910.532858
873.256571	2924.552307
873.567744	2927.168666
873.878874	2930.581527
874.189963	2931.761157
874.501010	2932.003133
874.812015	2933.891045
875.122979	2936.441868
875.433900	2935.630243
875.744780	2938.307095
876.055618	2936.761982
876.366415	2937.034204
876.677169	2938.899431
876.987882	2940.129473
877.298554	2946.337653
877.609183	2962.308029
877.919771	2977.519711
878.230317	3000.837568
878.540822	3039.246119
878.851285	3091.613625
879.161707	3175.087571
879.472087	3312.852223
879.782425	3554.641085
880.092722	4047.713822
880.402977	4950.438283
880.713191	6157.144320
881.023363	7358.536981
881.333494	7997.059610
881.643583	8091.518230
881.953631	7736.747028
882.263637	7240.571461
882.573602	6743.092755
882.883526	6293.908303
883.193408	5872.452718
883.503248	5482.000229
883.813048	5131.667763
884.122806	4813.134896
884.432522	4493.621524
884.742197	4205.244839
885.051831	3972.283037
885.361424	3762.434926
885.670975	3604.901389
885.980485	3475.817604
886.289954	3370.870863
886.599382	3285.529169
886.908768	3220.578943
887.218113	3154.086124
887.527417	3104.929833
887.836680	3058.750343
888.145901	3020.125022
888.455082	2991.463542
888.764221	2964.337093
889.073319	2943.033177
889.382376	2930.591609
889.691392	2919.680032
890.000366	2917.698858
890.309300	2918.079466
890.618193	2920.509302
890.927044	2920.138777
891.235855	2921.464600
891.544625	2923.002152
891.853353	2934.911878
892.162041	2960.011783
892.470687	2993.480004
892.779293	3038.542878
893.087858	3101.244749
893.396381	3210.231975
893.704864	3370.707025
894.013306	3592.351437
894.321707	3810.225065
894.630068	3934.270217
894.938387	3931.311059
895.246665	3853.624358
895.554903	3732.866038
895.863100	3601.992643
896.171256	3504.272397
896.479371	3417.844334
896.787446	3334.998012
897.095480	3262.730551
897.403473	3208.555791
897.711425	3156.957061
898.019336	3111.715226
898.327207	3066.183524
898.635038	3032.387629
898.942827	2989.230311
899.250576	2960.772998
899.558284	2929.595982
899.865952	2908.957498
900.173579	2885.090155
900.481165	2868.923174
900.788711	2853.477079
901.096216	2843.160358
901.403681	2831.200220
901.711105	2826.789211
902.018489	2826.630414
902.325832	2840.816221
902.633135	2857.618387
902.940397	2926.591454
903.247619	3087.631113
903.554800	3391.335427
903.861941	3773.459930
904.169041	4034.742933
904.476101	4095.103189
904.783121	3970.732882
905.090100	3806.988644
905.397039	3650.821259
905.703938	3521.311497
906.010796	3398.019997
906.317614	3305.971048
906.624391	3219.681618
906.931129	3147.978766
907.237826	3076.936306
907.544483	3014.249558
907.851099	2949.395113
908.157675	2889.922101
908.464211	2835.170129
908.770707	2796.726290
909.077163	2767.807711
909.383578	2746.004720
909.689954	2728.438820
909.996289	2716.012375
910.302584	2712.332333
910.608839	2709.287476
910.915054	2706.610623
911.221229	2705.720860
911.527363	2704.016950
911.833458	2706.988710
912.139513	2711.243444
912.445527	2715.586398
912.751502	2727.869169
913.057436	2740.638412
913.363331	2764.404932
913.669186	2796.791825
913.975000	2837.806652
914.280775	2906.809966
914.586510	3004.883094
914.892205	3151.600835
915.197859	3344.379599
915.503475	3563.785738
915.809050	3746.562853
916.114585	3845.450127
916.420081	3861.685163
916.725536	3827.952282
917.030952	3737.589599
917.336328	3656.923576
917.641665	3581.633943
917.946961	3497.161849
918.252218	3424.906991
918.557435	3338.357941
918.862612	3269.745317
919.167750	3206.214175
919.472848	3136.908392
919.777906	3077.206007
920.082925	3016.092099
920.387904	2959.636217
920.692843	2920.562234
920.997743	2884.550751
921.302603	2850.114629
921.607423	2825.942297
921.912204	2799.592186
922.216946	2783.014351
922.521647	2766.544902
922.826310	2750.892119
923.130932	2737.359141
923.435516	2722.591081
923.740059	2716.304762
924.044564	2704.014429
924.349028	2696.485466
924.653454	2682.392920
924.957840	2674.067455
925.262186	2664.138902
925.566493	2660.030362
925.870761	2650.374032
926.174989	2646.363794
926.479178	2642.161992
926.783328	2638.010602
927.087438	2634.048255
927.391509	2628.250928
927.695541	2625.763119
927.999533	2619.345730
928.303486	2618.387911
928.607400	2617.104937
928.911275	2611.622682
929.215110	2611.219390
929.518906	2612.141921
929.822663	2608.401385
930.126381	2611.937754
930.430060	2609.689400
930.733699	2611.869699
931.037299	2612.716613
931.340861	2613.288783
931.644383	2612.610748
931.947866	2611.925151
932.251309	2611.892384
932.554714	2609.719647
932.858080	2611.277363
933.161407	2605.427104
933.464694	2608.295521
933.767943	2605.449789
934.071153	2605.447269
934.374323	2604.786877
934.677455	2603.990375
934.980548	2601.983996
935.283602	2603.158585
935.586617	2600.574993
935.889593	2601.805035
936.192530	2601.701691
936.495428	2603.413163
936.798287	2608.073710
937.101108	2612.091509
937.403890	2619.368415
937.706632	2626.529374
938.009336	2640.838689
938.312002	2648.274391
938.614628	2657.933242
938.917216	2666.644356
939.219765	2665.946156
939.522275	2670.921775
939.824747	2670.931857
940.127179	2667.675272
940.429573	2664.345590
940.731929	2666.951866
941.034246	2658.911226
941.336524	2660.264776
941.638763	2658.598674
941.940964	2658.432316
942.243126	2649.547283
942.545250	2649.411171
942.847335	2638.560088
943.149381	2637.889614
943.451389	2635.074130
943.753359	2630.489200
944.055290	2625.589199
944.357182	2624.802779
944.659036	2622.945114
944.960851	2620.038888
945.262628	2619.557458
945.564367	2618.975205
945.866067	2616.875564
946.167729	2618.261882
946.469352	2616.265585
946.770937	2617.911522
947.072484	2615.101078
947.373992	2615.963116
947.675462	2611.254678
947.976893	2609.419698
948.278286	2608.207300
948.579641	2609.759976
948.880958	2607.330140
949.182236	2608.819801
949.483476	2605.832917
949.784678	2605.573297
950.085841	2604.491970
950.386967	2608.958432
950.688054	2606.059769
950.989103	2608.512290
951.290114	2613.331633
951.591087	2619.857407
951.892021	2621.034516
952.192917	2628.737399
952.493776	2629.019704
952.794596	2631.270579
953.095378	2632.195631
953.396122	2631.202524
953.696828	2629.939715
953.997496	2628.351751
954.298126	2625.949641
954.598718	2621.899074
954.899272	2619.260030
955.199788	2614.491099
955.500266	2609.722167
955.800706	2603.254367
956.101108	2597.303285
956.401472	2594.523088
956.701798	2588.514033
957.002087	2584.851635
957.302337	2582.560430
957.602550	2579.913824
957.902724	2577.463824
958.202861	2573.509038
958.502960	2569.471074
958.803022	2568.281362
959.103045	2564.361865
959.403031	2561.806000
959.702979	2557.810885
960.002889	2556.762325
960.302762	2556.353992
960.602596	2553.316697
960.902393	2552.119423
961.202153	2551.695966
961.501875	2549.283774
961.801559	2552.563044
962.101205	2548.204967
962.400814	2548.051212
962.700385	2547.519370
962.999918	2548.303269
963.299414	2545.817980
963.598873	2546.715306
963.898293	2546.790923
964.197677	2547.264792
964.497022	2542.720191
964.796331	2542.266487
965.095601	2544.277908
965.394835	2542.573998
965.694030	2542.866385
965.993189	2542.992414
966.292309	2540.373534
966.591393	2545.608772
966.890439	2540.633154
967.189447	2542.967208
967.488419	2537.948739
967.787353	2539.168698
968.086249	2543.685572
968.385108	2541.608617
968.683930	2543.189019
968.982714	2541.485109
969.281462	2543.214224
969.580172	2544.207332
969.878844	2543.292362
970.177480	2544.444266
970.476078	2546.407795
970.774639	2549.124977
971.073162	2547.327806
971.371649	2544.222455
971.670098	2544.726571
971.968510	2547.763866
972.266885	2543.715819
972.565223	2548.762014
972.863524	2549.929041
973.161788	2551.902653
973.460014	2549.407282
973.758204	2552.036244
974.056356	2551.128836
974.354471	2553.992211
974.652550	2550.312169
974.950591	2549.351829
975.248595	2550.256716
975.546563	2551.496840
975.844493	2546.848896
976.142386	2546.387631
976.440243	2548.053732
976.738062	2547.778989
977.035845	2547.695810
977.333590	2541.931251
977.631299	2547.048022
977.928971	2545.417209
978.226606	2542.266488
978.524204	2540.078627
978.821765	2543.804039
979.119290	2542.387475
979.416777	2540.476878
979.714228	2541.815304
980.011642	2541.240613
980.309020	2545.202960
980.606360	2544.671118
980.903664	2549.954247
981.200931	2556.832902
981.498162	2556.966492
981.795356	2569.178687
982.092513	2586.086717
982.389633	2602.296547
982.686717	2618.604680
982.983764	2630.917698
983.280775	2636.929274
983.577749	2637.680406
983.874686	2634.529685
984.171587	2628.508027
984.468451	2623.260186
984.765279	2612.686366
985.062070	2607.695623
985.358824	2600.564911
985.655543	2593.255238
985.952224	2585.285174
986.248869	2575.659091
986.545478	2560.540670
986.842050	2552.510112
987.138586	2545.770089
987.435086	2543.718340
987.731549	2536.456558
988.027975	2539.113246
988.324366	2534.563604
988.620719	2535.715508
988.917037	2531.637215
989.213318	2530.591175
989.509563	2530.336597
989.805772	2530.200486
990.101944	2528.794004
990.398080	2529.618232
990.694180	2528.972965
990.990244	2531.428007
991.286271	2529.993798
991.582262	2527.919364
991.878217	2530.876000
992.174136	2528.877183
992.470019	2531.130579
992.765865	2531.291896
993.061676	2530.621422
993.357450	2532.773995
993.653188	2534.122503
993.948890	2536.910262
994.244556	2540.970911
994.540186	2540.310520
994.835780	2544.366128
995.131337	2549.593805
995.426859	2553.909032
995.722345	2561.783315
996.017795	2567.202555
996.313208	2573.075499
996.608586	2578.330902
996.903928	2580.549010
997.199234	2576.183371
997.494504	2579.283680
997.789738	2574.056004
998.084936	2570.030642
998.380099	2565.919581
998.675225	2561.125444
998.970316	2558.516647
999.265371	2551.769062
999.560390	2547.869730
999.855373	2543.710778
1000.150320	2538.294058
1000.445232	2536.892618
1000.740108	2533.537730
1001.034948	2533.368851
1001.329752	2531.904396
1001.624521	2529.104035
1001.919254	2523.568848
1002.213951	2521.902747
1002.508613	2522.462315
1002.803239	2524.892151
1003.097829	2517.358146
1003.392384	2523.735206
1003.686903	2521.108765
1003.981386	2524.861904
1004.275834	2521.312932
1004.570246	2520.846625
1004.864623	2520.506347
1005.158964	2521.126409
1005.453270	2520.687828
1005.747540	2517.900070
1006.041775	2519.984588
1006.335974	2517.421161
1006.630138	2520.148425
1006.924266	2519.808147
1007.218359	2518.888137
1007.512416	2519.326717
1007.806438	2517.872344
1008.100425	2517.469052
1008.394376	2518.010976
1008.688292	2515.586181
1008.982172	2516.309586
1009.276017	2519.067097
1009.569827	2518.341171
1009.863602	2519.546007
1010.157341	2514.998886
1010.451045	2518.749505
1010.744714	2515.770183
1011.038347	2514.124246
1011.331945	2515.369411
1011.625508	2514.487209
1011.919036	2515.134997
1012.212528	2516.090296
1012.505986	2513.748680
1012.799408	2514.845131
1013.092795	2515.308917
1013.386147	2518.247910
1013.679464	2515.540810
1013.972745	2513.141221
1014.265992	2514.572909
1014.559204	2514.761952
1014.852380	2512.939575
1015.145521	2513.547034
1015.438628	2511.921262
1015.731699	2517.650533
1016.024736	2513.708351
1016.317737	2513.267250
1016.610703	2517.103568
1016.903635	2510.887825
1017.196531	2512.863958
1017.489393	2510.663494
1017.782219	2510.406395
1018.075011	2512.377486
1018.367768	2514.081396
1018.660490	2517.108609
1018.953177	2517.108609
1019.245829	2517.108609
