Dividing Wavelength (nm)	Counts (n)	Blue Motor Position (mm): 0.000000	Red Motor Position (mm): 10.000000	
326.493990	2085.600963
326.888308	2085.600963
327.282561	2085.600963
327.676750	2062.628425
328.070874	2061.791594
328.464933	2069.741493
328.858929	2077.741805
329.252859	2091.363002
329.646726	2106.302462
330.040528	2120.805861
330.434265	2139.329581
330.827938	2159.985709
331.221547	2180.853565
331.615091	2202.190249
332.008571	2221.734803
332.401986	2244.125087
332.795338	2264.335073
333.188625	2281.908535
333.581847	2301.778243
333.975006	2318.734164
334.368100	2335.231340
334.761129	2353.180368
335.154095	2367.935826
335.546996	2389.690925
335.939833	2402.956722
336.332606	2411.859399
336.725315	2424.512695
337.117960	2432.502924
337.510540	2442.005499
337.903056	2451.528239
338.295508	2456.274485
338.687896	2464.516772
339.080220	2471.077833
339.472480	2474.783082
339.864676	2477.472537
340.256807	2478.626961
340.648875	2483.257261
341.040879	2484.194916
341.432818	2484.782210
341.824694	2487.902684
342.216506	2484.590646
342.608253	2490.118272
342.999937	2485.785400
343.391557	2483.037971
343.783113	2481.855820
344.174605	2480.368680
344.566033	2479.365490
344.957397	2477.656539
345.348697	2477.044039
345.739934	2476.280304
346.131106	2474.263843
346.522215	2473.366517
346.913260	2468.922740
347.304241	2468.716053
347.695159	2466.747482
348.086012	2465.867801
348.476802	2466.661783
348.867528	2463.543829
349.258191	2461.650876
349.648789	2462.948973
350.039324	2460.325052
350.429796	2460.075515
350.820203	2461.688684
351.210548	2458.245576
351.600828	2458.056533
351.991045	2456.710545
352.381198	2458.540484
352.771288	2458.558128
353.161314	2457.640638
353.551276	2457.174331
353.941175	2455.362036
354.331010	2458.540484
354.720782	2456.287088
355.110490	2458.144753
355.500135	2457.968313
355.889717	2460.786318
356.279235	2460.592233
356.668689	2460.511575
357.058080	2458.905967
357.447408	2456.637448
357.836672	2456.405555
358.225873	2459.400001
358.615010	2456.420679
359.004084	2463.311936
359.393095	2464.957873
359.782043	2462.374281
360.170927	2467.012143
360.559748	2462.913685
360.948505	2465.782101
361.337199	2465.459467
361.725830	2468.015333
362.114398	2466.550877
362.502903	2466.455095
362.891344	2467.546505
363.279722	2470.997175
363.668037	2471.355097
364.056289	2469.366362
364.444478	2470.233440
364.832603	2471.932309
365.220665	2472.330560
365.608665	2471.652525
365.996601	2471.564305
366.384474	2473.847948
366.772284	2473.507670
367.160031	2473.941209
367.547715	2474.314254
367.935336	2475.198977
368.322893	2478.120325
368.710388	2474.949440
369.097820	2482.085193
369.485189	2477.631333
369.872495	2479.531848
370.259738	2478.639564
370.646918	2484.419247
371.034035	2483.920173
371.421090	2486.826398
371.808081	2486.942345
372.195010	2493.233705
372.581875	2494.962820
372.968678	2504.205776
373.355418	2506.469254
373.742096	2516.120543
374.128710	2524.919877
374.515262	2531.042358
374.901751	2545.787733
375.288177	2560.734755
375.674540	2577.927610
376.060841	2595.914447
376.447079	2619.002931
376.833254	2641.675521
377.219367	2662.097235
377.605417	2692.838191
377.991404	2716.597149
378.377329	2755.792120
378.763191	2788.179013
379.148991	2829.486228
379.534727	2875.421222
379.920402	2918.853283
380.306013	2968.853967
380.691563	3022.582585
381.077049	3076.893456
381.462474	3125.810292
381.847835	3193.936445
382.233134	3259.872217
382.618371	3318.813388
383.003545	3397.926736
383.388657	3471.751913
383.773706	3560.055284
384.158693	3627.717651
384.543618	3714.354921
384.928480	3787.764204
385.313280	3884.065366
385.698017	3981.818380
386.082692	4094.049588
386.467305	4146.202845
386.851856	4262.618211
387.236344	4405.522319
387.620770	4461.065753
388.005133	4564.071649
388.389435	4700.449984
388.773674	4767.222587
389.157851	4878.894227
389.541965	4992.698275
389.926018	5003.168752
390.310008	5151.126617
390.693936	5246.475001
391.077802	5332.247713
391.461606	5431.137508
391.845348	5506.926215
392.229027	5591.544502
392.612645	5753.342856
392.996200	5824.551674
393.379694	5934.274908
393.763125	6081.910140
394.146494	6114.697805
394.529801	6175.458832
394.913047	6329.332491
395.296230	6267.492657
395.679351	6255.945894
396.062410	6393.808849
396.445408	6256.881028
396.828343	6306.569161
397.211217	6332.543706
397.594028	6178.521333
397.976778	6248.875676
398.359466	6291.254136
398.742092	6198.975815
399.124656	6209.148863
399.507158	6251.734010
399.889598	6176.426733
400.271977	6222.371810
400.654294	6145.055633
401.036549	6173.341547
401.418742	6091.269042
401.800874	6158.724722
402.182944	6101.207677
402.564952	6187.570204
402.946898	5991.466799
403.328783	5913.099542
403.710606	5897.456841
404.092367	5905.631072
404.474067	5955.316685
404.855705	5750.333287
405.237282	5617.836640
405.618797	5677.201268
406.000250	5656.986241
406.381642	5670.756153
406.762972	5532.063928
407.144240	5349.911916
407.525447	5315.561494
407.906593	5183.982338
408.287677	5150.194004
408.668700	5072.444288
409.049661	4956.752328
409.430560	4882.745669
409.811399	4765.445581
410.192176	4699.759346
410.572891	4606.913895
410.953545	4600.652782
411.334138	4389.602356
411.714669	4400.087956
412.095139	4176.182587
412.475547	4166.175897
412.855894	4051.880336
413.236180	4007.619005
413.616405	3877.927761
413.996568	3827.218794
414.376670	3740.223602
414.756711	3650.957371
415.136691	3606.443982
415.516609	3551.394582
415.896466	3489.436281
416.276262	3445.285855
416.655997	3414.209663
417.035670	3354.008203
417.415283	3338.322653
417.794834	3278.887449
418.174324	3208.449927
418.553753	3148.881133
418.933121	3118.457769
419.312428	3060.910477
419.691674	3014.448683
420.070859	2990.183089
420.449983	2937.908844
420.829045	2919.405289
421.208047	2880.459855
421.586988	2856.743747
421.965867	2833.123420
422.344686	2808.691468
422.723444	2795.982719
423.102141	2744.719226
423.480777	2746.725605
423.859352	2718.883312
424.237866	2717.945658
424.616319	2697.135775
424.994712	2689.475742
425.373044	2676.134328
425.751314	2667.153512
426.129524	2649.562406
426.507673	2649.600215
426.885762	2638.802063
427.263789	2633.483646
427.641756	2628.008953
428.019662	2620.840432
428.397508	2616.336161
428.775292	2613.109822
429.153016	2606.939450
429.530679	2606.445417
429.908282	2600.814448
430.285824	2593.787080
430.663305	2595.657348
431.040726	2592.252048
431.418086	2587.334403
431.795385	2590.487645
432.172624	2587.089907
432.549802	2587.105030
432.926920	2584.846593
433.303977	2583.699731
433.680974	2580.354925
434.057910	2580.533886
434.434786	2577.746128
434.811601	2575.643967
435.188355	2579.165213
435.565050	2578.144379
435.941683	2575.071796
436.318257	2579.628999
436.694770	2571.999213
437.071222	2577.514235
437.447614	2572.468040
437.823946	2568.593913
438.200218	2572.702454
438.576429	2573.705643
438.952580	2572.389902
439.328670	2570.698595
439.704700	2573.715726
440.080670	2569.564336
440.456580	2574.018195
440.832429	2573.415777
441.208218	2568.362020
441.583947	2571.167423
441.959616	2571.593400
442.335224	2573.738411
442.710773	2572.863771
443.086261	2573.950139
443.461689	2573.153637
443.837057	2570.625498
444.212365	2573.158678
444.587612	2573.630026
444.962800	2573.377968
445.337927	2573.788823
445.712995	2567.240364
446.088002	2579.702096
446.462949	2576.284194
446.837837	2577.428536
447.212664	2575.424677
447.587431	2588.665267
447.962139	2596.350507
448.336786	2605.643874
448.711374	2598.823192
449.085901	2586.613518
449.460369	2585.539752
449.834776	2590.429671
450.209124	2596.539550
450.583412	2595.536360
450.957640	2596.161463
451.331808	2587.404979
451.705917	2585.194433
452.079965	2586.873137
452.453954	2587.276430
452.827883	2586.553024
453.201752	2588.254413
453.575562	2586.263158
453.949311	2591.730289
454.323001	2591.170721
454.696632	2588.461101
455.070202	2597.162132
455.443713	2593.988726
455.817164	2592.241966
456.190556	2595.611978
456.563888	2594.215578
456.937160	2593.088880
457.310373	2594.366812
457.683526	2594.283633
458.056619	2595.649786
458.429653	2593.300608
458.802628	2596.416042
459.175542	2595.251535
459.548398	2600.751434
459.921194	2605.553133
460.293930	2606.737804
460.666607	2610.558999
461.039224	2618.327417
461.411782	2620.648868
461.784280	2615.743825
462.156719	2612.361211
462.529099	2613.714761
462.901419	2609.311313
463.273680	2604.534820
463.645882	2609.129832
464.018024	2607.708226
464.390106	2609.797784
464.762130	2621.470576
465.134094	2635.646301
465.505999	2650.406799
465.877845	2665.396670
466.249631	2670.052176
466.621358	2664.806855
466.993026	2659.017090
467.364634	2655.679846
467.736184	2645.658032
468.107674	2642.202321
468.479105	2640.170736
468.850477	2638.522279
469.221790	2634.804428
469.593043	2630.935342
469.964238	2626.846967
470.335373	2626.206740
470.706449	2633.844088
471.077467	2642.829945
471.448425	2659.740496
471.819324	2666.087308
472.190164	2662.883655
472.560945	2649.388486
472.931667	2638.030767
473.302330	2633.947432
473.672934	2632.982051
474.043479	2633.491207
474.413965	2629.511217
474.784393	2622.950155
475.154761	2627.981226
475.525070	2627.368726
475.895321	2624.013838
476.265513	2624.835546
476.635645	2632.407359
477.005719	2628.878552
477.375734	2631.867956
477.745691	2631.512555
478.115588	2634.713687
478.485427	2639.626292
478.855207	2648.012251
479.224928	2654.054074
479.594591	2659.269148
479.964194	2651.097437
480.333739	2651.717499
480.703226	2651.170534
481.072653	2651.578867
481.442022	2651.203302
481.811333	2653.106337
482.180584	2646.220121
482.549777	2644.488485
482.918912	2641.746097
483.287988	2636.936836
483.657005	2636.689820
484.025964	2633.705457
484.394864	2630.791670
484.763706	2633.158491
485.132489	2624.429733
485.501213	2627.555249
485.869879	2622.224229
486.238487	2622.138529
486.607036	2619.605349
486.975527	2620.931173
487.343959	2619.068466
487.712333	2619.804475
488.080648	2616.802468
488.448905	2617.934207
488.817104	2620.263220
489.185244	2619.900257
489.553326	2623.295474
489.921350	2631.210085
490.289315	2637.687968
490.657222	2638.948257
491.025070	2638.391209
491.392861	2636.475571
491.760593	2631.250415
492.128267	2628.422327
492.495883	2621.137860
492.863440	2617.989659
493.230939	2613.500512
493.598380	2611.821808
493.965763	2606.871395
494.333088	2607.488936
494.700354	2601.739500
495.067563	2603.612289
495.434713	2602.687237
495.801805	2605.895931
496.168839	2601.205138
496.535815	2602.979624
496.902733	2602.021805
497.269593	2602.805704
497.636395	2600.179263
498.003139	2603.304778
498.369825	2598.797987
498.736453	2600.806887
499.103023	2598.107349
499.469535	2599.554160
499.835989	2597.585589
500.202385	2596.358068
500.568723	2598.989551
500.935003	2598.258583
501.301226	2592.836822
501.667390	2598.684561
502.033497	2598.651793
502.399546	2594.407142
502.765537	2593.240115
503.131470	2597.386464
503.497345	2596.388315
503.863163	2592.950248
504.228923	2592.723396
504.594625	2595.196082
504.960269	2591.463108
505.325856	2593.610639
505.691385	2591.069898
506.056856	2590.081832
506.422270	2593.880341
506.787625	2591.296750
507.152924	2588.642582
507.518164	2590.301122
507.883347	2587.089907
508.248472	2591.803386
508.613540	2589.892788
508.978550	2589.381111
509.343503	2588.791296
509.708398	2588.599732
510.073236	2589.111410
510.438016	2587.798189
510.802738	2588.088055
511.167403	2586.898343
511.532010	2587.543611
511.896561	2588.841708
512.261053	2591.117789
512.625488	2587.606625
512.989866	2584.786100
513.354186	2584.317272
513.718449	2583.866089
514.082655	2588.138467
514.446803	2586.119485
514.810894	2586.878178
515.174927	2584.808785
515.538904	2586.258117
515.902822	2586.547983
516.266684	2582.225193
516.630488	2584.851635
516.994235	2582.454566
517.357925	2586.805082
517.721558	2585.086048
518.085133	2584.113106
518.448651	2583.939186
518.812112	2582.580595
519.175516	2580.632189
519.538863	2582.036150
519.902152	2580.917014
520.265385	2583.304000
520.628560	2579.016499
520.991678	2581.854669
521.354739	2581.237127
521.717743	2580.153279
522.080690	2581.579926
522.443580	2581.416088
522.806413	2582.479772
523.169189	2580.977508
523.531908	2580.337281
523.894569	2580.100347
524.257174	2578.270408
524.619722	2581.922724
524.982213	2581.433732
525.344647	2579.495409
525.707025	2577.993145
526.069345	2580.859041
526.431608	2578.179667
526.793815	2577.047928
527.155964	2578.633371
527.518057	2578.809812
527.880093	2576.821077
528.242072	2578.519945
528.603995	2576.886612
528.965860	2577.814184
529.327669	2577.637743
529.689421	2575.462486
530.051117	2574.207238
530.412755	2576.536251
530.774337	2577.186560
531.135862	2575.326374
531.497331	2572.672207
531.858743	2570.348235
532.220098	2575.011302
532.581396	2572.422670
532.942638	2570.391085
533.303824	2571.926116
533.664953	2573.314954
534.026025	2570.711198
534.387040	2573.388051
534.747999	2574.953329
535.108902	2574.030798
535.469748	2573.781261
535.830537	2570.736404
536.191270	2570.794377
536.551947	2570.633060
536.912567	2570.857392
537.273131	2569.445868
537.633638	2567.018553
537.994089	2570.930488
538.354483	2569.932340
538.714821	2567.605847
539.075103	2567.273131
539.435328	2568.006619
539.795497	2568.364541
540.155609	2567.058882
540.515665	2568.949315
540.875665	2568.576269
541.235609	2568.407391
541.595496	2567.288255
541.955328	2569.564336
542.315102	2568.346897
542.674821	2567.313460
543.034483	2567.537792
543.394090	2566.199365
543.753640	2564.820610
544.113134	2567.459654
544.472571	2565.763306
544.831953	2566.895045
545.191278	2564.871021
545.550548	2565.392781
545.909761	2564.235836
546.268918	2567.275652
546.628019	2566.267421
546.987064	2566.126269
547.346053	2564.324056
547.704986	2565.334807
548.063863	2565.289437
548.422684	2561.672409
548.781449	2559.524878
549.140158	2564.553429
549.498811	2563.797256
549.857408	2562.453788
550.215949	2561.148129
550.574434	2561.742985
550.932864	2562.110990
551.291237	2559.363561
551.649555	2563.010836
552.007817	2561.342214
552.366022	2563.217523
552.724173	2561.064950
553.082267	2563.666186
553.440305	2563.998902
553.798288	2563.076371
554.156215	2561.309446
554.514086	2561.236349
554.871902	2559.464384
555.229661	2561.841288
555.587365	2559.348437
555.945014	2563.830023
556.302606	2563.824982
556.660143	2560.399518
557.017625	2560.709549
557.375050	2560.737275
557.732421	2562.342883
558.089735	2562.310115
558.446994	2561.069991
558.804197	2559.928170
559.161345	2560.996895
559.518437	2558.509085
559.875474	2558.967830
560.232455	2560.127296
560.589381	2561.228788
560.946251	2560.568397
561.303065	2561.294323
561.659825	2560.800290
562.016528	2560.102090
562.373177	2558.254507
562.729770	2556.517829
563.086307	2562.975547
563.442789	2559.492110
563.799216	2560.008828
564.155587	2559.476987
564.511904	2561.589230
564.868164	2560.412121
565.224370	2559.693756
565.580520	2558.796431
565.936615	2558.786349
566.292654	2556.510268
566.648638	2559.973540
567.004567	2559.214847
567.360441	2559.061092
567.716260	2558.539332
568.072023	2559.910526
568.427732	2555.973385
568.783385	2556.290977
569.138982	2555.353323
569.494525	2555.048333
569.850013	2552.898281
570.205445	2558.299877
570.560823	2556.185113
570.916145	2558.178890
571.271412	2554.672767
571.626625	2558.110834
571.981782	2558.052861
572.336884	2556.948848
572.691931	2556.913560
573.046923	2555.234856
573.401860	2555.764177
573.756743	2556.840463
574.111570	2555.444064
574.466342	2554.400545
574.821059	2551.927859
575.175722	2555.033210
575.530330	2554.299722
575.884882	2555.950700
576.239380	2553.906512
576.593823	2556.268292
576.948211	2552.225287
577.302544	2556.452294
577.656823	2557.115206
578.011047	2555.872562
578.365216	2552.696635
578.719330	2553.099927
579.073389	2551.436346
579.427394	2550.465924
579.781344	2553.898950
580.135239	2552.656306
580.489080	2551.784186
580.842866	2551.534649
581.196597	2556.676626
581.550273	2550.654968
581.903895	2549.213197
582.257463	2550.463404
582.610975	2551.990873
582.964434	2551.401058
583.317837	2550.964998
583.671186	2553.450287
584.024481	2550.670091
584.377721	2552.847869
584.730906	2551.766542
585.084037	2551.751418
585.437113	2551.514484
585.790135	2551.280071
586.143103	2548.751932
586.496016	2553.609084
586.848874	2547.607590
587.201679	2550.614638
587.554428	2545.074410
587.907124	2544.880326
588.259765	2545.956612
588.612352	2551.922818
588.964884	2547.736139
589.317362	2550.239072
589.669786	2546.390151
590.022155	2548.063814
590.374470	2550.717982
590.726731	2548.767055
591.078937	2549.056922
591.431090	2549.016593
591.783188	2547.642878
592.135232	2546.677497
592.487222	2548.111705
592.839157	2547.060625
593.191038	2547.927703
593.542866	2546.516180
593.894639	2546.276725
594.246358	2546.128011
594.598022	2548.583053
594.949633	2545.765048
595.301190	2544.356046
595.652692	2547.713454
596.004141	2544.955943
596.355535	2546.183464
596.706876	2542.024512
597.058162	2546.833773
597.409395	2543.733463
597.760573	2545.999462
598.111698	2545.868392
598.462768	2545.472661
598.813785	2544.603062
599.164748	2543.214224
599.515657	2544.335881
599.866511	2545.646581
600.217312	2542.916796
600.568060	2544.383772
600.918753	2545.898639
601.269392	2544.827394
601.619978	2546.082641
601.970510	2544.774462
602.320988	2543.186498
602.671412	2543.849410
603.021783	2544.998793
603.372100	2547.020296
603.722363	2542.407640
604.072572	2545.029040
604.422728	2545.840666
604.772830	2541.923689
605.122878	2542.410160
605.472872	2541.076775
605.822813	2538.606610
606.172701	2541.265818
606.522534	2542.505942
606.872314	2543.557023
607.222041	2544.373690
607.571714	2545.258412
607.921333	2543.741025
608.270899	2540.764224
608.620411	2543.927548
608.969870	2541.044008
609.319276	2542.470654
609.668627	2543.494008
610.017926	2544.414019
610.367171	2544.582898
610.716362	2541.641384
611.065500	2543.874616
611.414585	2541.371683
611.763616	2542.828576
612.112594	2542.682383
612.461518	2545.036602
612.810389	2542.321940
613.159207	2545.374359
613.507971	2542.919317
613.856682	2546.135573
614.205340	2542.100129
614.553945	2543.751107
614.902496	2543.879657
615.250994	2543.846889
615.599439	2542.916796
615.947830	2542.374872
616.296169	2540.887732
616.644454	2545.621375
616.992686	2542.619368
617.340864	2541.805222
617.688990	2542.059800
618.037063	2541.023843
618.385082	2542.281611
618.733048	2544.109029
619.080961	2543.131045
619.428821	2543.935109
619.776628	2544.792106
620.124382	2545.762528
620.472083	2543.456200
620.819731	2544.305634
621.167326	2542.047197
621.514868	2545.190357
621.862357	2542.911755
622.209793	2544.114070
622.557176	2541.570808
622.904506	2539.267001
623.251783	2539.261960
623.599007	2539.710623
623.946179	2536.935467
624.293297	2539.841692
624.640363	2540.577701
624.987376	2538.614172
625.334336	2540.063503
625.681243	2539.453524
626.028097	2539.433359
626.374899	2541.303627
626.721647	2538.558719
627.068343	2542.329502
627.414987	2540.129038
627.761577	2541.154913
628.108115	2539.461085
628.454600	2540.401261
628.801032	2539.451003
629.147412	2537.943698
629.493739	2537.734490
629.840014	2540.383617
630.186236	2537.953780
630.532405	2537.721887
630.878521	2538.601569
631.224585	2539.829090
631.570597	2539.166178
631.916556	2537.943698
632.262462	2539.587114
632.608316	2539.224151
632.954117	2536.385982
633.299866	2537.893287
633.645562	2536.761548
633.991206	2536.244829
634.336797	2539.569470
634.682336	2536.096115
635.027823	2534.556043
635.373257	2535.947401
635.718639	2534.162833
636.063968	2534.283820
636.409245	2536.491846
636.754470	2535.584438
637.099642	2533.013450
637.444762	2534.319108
637.789829	2537.570653
638.134845	2534.437576
638.479808	2532.380785
638.824719	2535.226516
639.169577	2535.218954
639.514383	2532.794159
639.859137	2533.068902
640.203839	2534.084695
640.548489	2532.348017
640.893086	2533.028573
641.237632	2530.233253
641.582125	2531.208717
641.926566	2530.545805
642.270955	2533.179808
642.615292	2531.501103
642.959576	2534.004036
643.303809	2531.054961
643.647990	2533.371372
643.992118	2533.189890
644.336195	2534.772812
644.680219	2533.835158
645.024192	2536.486805
645.368112	2533.421783
645.711981	2534.316588
646.055797	2533.333563
646.399562	2534.616537
646.743274	2535.781043
647.086935	2536.184335
647.430544	2533.749458
647.774101	2533.845240
648.117606	2535.203831
648.461059	2536.930426
648.804460	2536.506969
649.147810	2534.510672
649.491108	2530.964221
649.834354	2534.750127
650.177548	2532.756351
650.520690	2533.351207
650.863781	2531.957328
651.206820	2532.106042
651.549807	2532.274921
651.892742	2530.450023
652.235626	2530.513037
652.578458	2531.218799
652.921238	2532.317770
653.263967	2531.599406
653.606644	2530.797863
653.949269	2530.916330
654.291843	2529.754344
654.634365	2531.281813
654.976836	2529.565300
655.319255	2531.712832
655.661622	2531.750641
656.003938	2531.218799
656.346203	2531.974972
656.688416	2528.983047
657.030577	2529.154446
657.372687	2532.083357
657.714746	2529.535053
658.056753	2533.227699
658.398708	2525.945752
658.740612	2528.647810
659.082465	2527.768129
659.424266	2529.535053
659.766016	2524.982892
660.107715	2532.355579
660.449362	2529.648479
660.790958	2529.265352
661.132503	2529.290557
661.473996	2530.886083
661.815438	2530.301309
662.156829	2530.739889
662.498168	2529.766947
662.839456	2531.685106
663.180693	2529.766947
663.521879	2530.694519
663.863013	2528.345341
664.204097	2528.804086
664.545129	2532.360620
664.886110	2531.186031
665.227040	2528.332738
665.567918	2532.035466
665.908746	2531.599406
666.249522	2530.013963
666.590248	2528.209230
666.930922	2529.540095
667.271545	2533.018491
667.612118	2529.434230
667.952639	2527.601771
668.293109	2529.996319
668.633528	2528.718387
668.973896	2526.326359
669.314213	2534.119983
669.654480	2531.574200
669.994695	2529.469518
670.334859	2530.490352
670.674973	2529.524971
671.015035	2529.847605
671.355047	2527.183355
671.695008	2530.603778
672.034918	2526.699404
672.374777	2531.130579
672.714585	2527.344672
673.054342	2530.596216
673.394049	2527.795855
673.733705	2527.909281
674.073310	2530.744930
674.412864	2532.022863
674.752368	2530.492873
675.091820	2529.489683
675.431223	2528.796524
675.770574	2529.890455
676.109875	2528.567152
676.449125	2526.444826
676.788324	2527.226205
677.127473	2526.704446
677.466571	2523.241173
677.805619	2526.621267
678.144616	2530.601258
678.483562	2528.567152
678.822458	2526.107069
679.161303	2532.116124
679.500098	2526.573376
679.838842	2528.436082
680.177535	2528.675537
680.516179	2528.264683
680.854771	2531.049920
681.193314	2531.057482
681.531805	2529.668644
681.870247	2527.717717
682.208638	2528.050434
682.546978	2532.393388
682.885268	2529.237625
683.223508	2529.240146
683.561697	2528.849457
683.899836	2531.725435
684.237925	2530.127389
684.575963	2530.329035
684.913951	2529.245187
685.251889	2530.523120
685.589776	2530.230733
685.927614	2529.915661
686.265401	2526.923736
686.603137	2530.112266
686.940824	2529.950949
687.278460	2531.617050
687.616046	2532.204344
687.953582	2528.715866
688.291068	2529.305681
688.628504	2530.213089
688.965889	2529.230064
689.303224	2532.116124
689.640510	2530.076977
689.977745	2528.539426
690.314930	2530.349200
690.652065	2529.449354
690.989150	2527.624456
691.326185	2530.349200
691.663170	2527.861390
692.000105	2527.258973
692.336990	2527.130423
692.673825	2526.482635
693.010610	2528.478932
693.347345	2521.645648
693.684030	2522.905936
694.020665	2525.131606
694.357251	2520.753363
694.693786	2523.858714
695.030272	2526.238139
695.366707	2524.947603
695.703093	2522.364012
696.039429	2522.719413
696.375716	2525.315608
696.711952	2521.789321
697.048139	2523.581451
697.384276	2525.204702
697.720363	2522.873169
698.056400	2523.720082
698.392388	2520.503826
698.728326	2524.584640
699.064214	2524.337624
699.400053	2522.333765
699.735842	2522.979033
700.071581	2524.496420
700.407270	2522.663961
700.742910	2521.479290
701.078501	2521.703621
701.414042	2524.307377
701.749533	2521.610360
702.084974	2525.960875
702.420366	2521.234794
702.755709	2523.586492
703.091002	2521.517098
703.426246	2521.862417
703.761440	2521.796882
704.096584	2520.965092
704.431679	2522.860566
704.766725	2524.811492
705.101721	2522.013652
705.436668	2519.298991
705.771565	2520.977695
706.106413	2521.597757
706.441212	2523.493231
706.775961	2521.136491
707.110661	2523.730165
707.445311	2522.550535
707.779913	2521.043230
708.114465	2520.821419
708.448967	2523.551204
708.783421	2522.512726
709.117825	2524.877027
709.452180	2522.979033
709.786485	2521.769156
710.120742	2524.493900
710.454949	2524.012469
710.789107	2520.216481
711.123216	2519.372087
711.457275	2520.105575
711.791286	2520.612211
712.125247	2520.753363
712.459159	2525.476925
712.793023	2524.778725
713.126837	2524.138498
713.460602	2522.948786
713.794318	2523.712521
714.127985	2525.055988
714.461602	2521.459125
714.795171	2523.173117
715.128691	2522.943745
715.462162	2524.352747
715.795584	2521.512057
716.128957	2525.615556
716.462281	2525.000536
716.795556	2523.674712
717.128782	2520.171110
717.461960	2522.593385
717.795088	2521.529701
718.128167	2522.825278
718.461198	2522.245545
718.794180	2520.904598
719.127113	2520.231604
719.459997	2520.798734
719.792833	2519.903929
720.125619	2521.360823
720.458357	2517.902591
720.791046	2519.994670
721.123686	2518.719258
721.456278	2520.087931
721.788821	2519.172962
722.121315	2521.559948
722.453761	2515.641633
722.786158	2520.239166
723.118506	2516.309586
723.450805	2520.506347
723.783056	2519.672036
724.115259	2519.190606
724.447412	2520.350071
724.779518	2520.050122
725.111574	2520.685308
725.443582	2518.517612
725.775542	2520.309742
726.107453	2519.392252
726.439315	2517.655574
726.771129	2525.653365
727.102895	2520.140863
727.434612	2521.328055
727.766281	2520.846625
728.097901	2519.735050
728.429473	2518.328568
728.760996	2516.889319
729.092471	2515.979391
729.423897	2520.231604
729.755276	2521.822088
730.086606	2519.329237
730.417887	2520.201357
730.749120	2519.120030
731.080305	2522.243024
731.411442	2521.300329
731.742530	2522.936183
732.073570	2520.566841
732.404562	2520.886954
732.735506	2522.817716
733.066401	2520.675226
733.397249	2522.636234
733.728048	2521.711183
734.058798	2521.640607
734.389501	2521.043230
734.720156	2519.813188
735.050762	2521.335617
735.381320	2517.746315
735.711831	2517.834535
736.042293	2518.520132
736.372707	2518.373939
736.703073	2519.298991
737.033391	2518.436953
737.363661	2517.872344
737.693883	2519.125071
738.024056	2520.466018
738.354182	2516.619617
738.684260	2519.160359
739.014290	2519.553569
739.344272	2520.040040
739.674207	2518.157169
740.004093	2521.582633
740.333931	2519.258661
740.663722	2524.685463
740.993464	2519.470390
741.323159	2520.937366
741.652806	2519.936697
741.982405	2520.765966
742.311956	2521.290246
742.641460	2518.943589
742.970915	2520.236645
743.300323	2518.996521
743.629683	2518.668846
743.958996	2515.674401
744.288260	2516.879237
744.617477	2515.901253
744.946647	2515.558454
745.275768	2515.558454
745.604842	2513.426046
745.933869	2515.334123
746.262847	2512.228772
746.591778	2516.087776
746.920662	2516.861593
747.249498	2517.801768
747.578286	2517.648013
747.907027	2518.192457
748.235720	2517.557272
748.564365	2521.428878
748.892963	2514.885460
749.221514	2520.007273
749.550017	2517.693383
749.878473	2516.791017
750.206881	2517.648013
750.535242	2516.720440
750.863555	2517.761439
751.191821	2517.370749
751.520039	2516.110461
751.848210	2516.347395
752.176334	2516.700276
752.504411	2519.911491
752.832440	2515.555934
753.160421	2516.954854
753.488356	2515.608866
753.816243	2514.870337
754.144082	2519.674557
754.471875	2517.590039
754.799620	2518.169772
755.127318	2513.489061
755.454969	2514.741788
755.782572	2519.966943
756.110129	2516.881757
756.437638	2519.190606
756.765100	2517.194309
757.092515	2516.816222
757.419882	2517.380832
757.747203	2515.853362
758.074477	2517.101048
758.401703	2516.801099
758.728882	2517.663136
759.056014	2515.876047
759.383099	2517.889988
759.710138	2517.814371
760.037129	2518.857890
760.364073	2518.099196
760.690970	2515.896212
761.017820	2515.848321
761.344623	2520.423168
761.671379	2516.770852
761.998088	2514.731705
762.324751	2518.147087
762.651366	2518.938548
762.977935	2523.271420
763.304456	2522.240504
763.630931	2527.601771
763.957359	2527.407687
764.283740	2523.964578
764.610074	2520.269413
764.936362	2524.473735
765.262602	2520.337468
765.588796	2520.324865
765.914943	2518.217663
766.241044	2516.302025
766.567097	2517.824453
766.893104	2515.530728
767.219064	2515.376973
767.544978	2518.452077
767.870845	2513.622651
768.196665	2515.082065
768.522438	2515.858403
768.848165	2516.692714
769.173846	2517.947961
769.499479	2514.605676
769.825066	2512.264060
770.150607	2516.836387
770.476101	2513.438649
770.801548	2513.436129
771.126949	2513.617610
771.452303	2511.028978
771.777611	2512.276663
772.102872	2513.428567
772.428087	2511.767507
772.753256	2512.203567
773.078378	2514.643485
773.403453	2514.257837
773.728482	2512.727847
774.053465	2513.544513
774.378401	2510.839934
774.703291	2514.993845
775.028135	2508.536127
775.352932	2512.695079
775.677683	2511.601149
776.002388	2514.623320
776.327046	2513.325223
776.651658	2511.787671
776.976224	2512.478309
777.300743	2510.739111
777.625216	2513.693228
777.949643	2512.276663
778.274024	2514.646006
778.598359	2509.148627
778.922647	2508.089985
779.246889	2512.564009
779.571086	2508.722650
779.895236	2509.952691
780.219339	2511.926303
780.543397	2510.877743
780.867409	2509.652743
781.191374	2515.223218
781.515294	2510.998731
781.839167	2509.781292
782.162995	2513.269771
782.486776	2510.106447
782.810511	2512.500995
783.134201	2514.197343
783.457844	2512.964781
783.781441	2510.948319
784.104993	2512.735408
784.428498	2511.855727
784.751958	2511.109636
785.075372	2512.637106
785.398739	2511.341529
785.722061	2509.257012
786.045337	2512.367404
786.368568	2512.082579
786.691752	2511.112157
787.014891	2512.846314
787.337983	2513.859586
787.661030	2513.607528
787.984031	2511.893536
788.306987	2515.742457
788.629897	2512.253978
788.952760	2515.356808
789.275579	2514.620800
789.598351	2516.544000
789.921078	2514.716582
790.243759	2512.112826
790.566395	2512.465707
790.888984	2512.223731
791.211529	2509.738442
791.534027	2511.638957
791.856480	2512.087620
792.178888	2509.015037
792.501249	2511.729698
792.823566	2512.473268
793.145836	2513.088289
793.468062	2511.684328
793.790241	2511.341529
794.112375	2513.791530
794.434464	2513.274812
794.756507	2509.148627
795.078505	2511.119718
795.400457	2513.093330
795.722364	2510.018226
796.044226	2511.780110
796.366042	2509.398164
796.687812	2508.992352
797.009538	2512.032167
797.331218	2512.760614
797.652852	2513.902435
797.974442	2511.177692
798.295986	2509.940088
798.617484	2513.015192
798.938938	2513.176509
799.260346	2514.167096
799.581709	2509.083092
799.903026	2514.933351
800.224299	2509.753566
800.545526	2511.775068
800.866708	2511.323885
801.187845	2514.151973
801.508936	2511.505367
801.829983	2510.852537
802.150984	2513.468896
802.471940	2511.124760
802.792851	2511.303721
803.113717	2512.102743
803.434538	2509.980418
803.755314	2512.130470
804.076045	2513.095851
804.396731	2512.410254
804.717372	2507.822804
805.037967	2507.210304
805.358518	2512.362363
805.679024	2512.243896
805.999485	2510.729029
806.319901	2514.061232
806.640272	2510.257681
806.960598	2509.151148
807.280879	2511.742301
807.601115	2511.800274
807.921306	2513.947806
808.241453	2511.036539
808.561554	2509.922444
808.881611	2511.646519
809.201623	2509.851868
809.521590	2511.747342
809.841513	2512.679956
810.161390	2511.003772
810.481223	2510.141735
810.801011	2512.022085
811.120755	2510.161899
811.440453	2509.788854
811.760107	2511.470079
812.079716	2510.098885
812.399281	2510.189626
812.718801	2508.528565
813.038276	2507.621158
813.357707	2508.987310
813.677093	2511.225583
813.996434	2511.724657
814.315731	2511.099554
814.634983	2511.865809
814.954191	2511.046622
815.273354	2507.480005
815.592473	2511.863289
815.911547	2512.019564
816.230577	2512.309431
816.549562	2511.144924
816.868502	2511.074348
817.187399	2511.928824
817.506250	2509.398164
817.825058	2511.097033
818.143821	2508.977228
818.462539	2509.980418
818.781213	2511.918741
819.099843	2512.775738
819.418429	2515.200532
819.736970	2513.879750
820.055466	2514.651047
820.373919	2518.522653
820.692327	2521.801923
821.010691	2523.213447
821.329011	2532.484128
821.647286	2551.418702
821.965517	2561.402707
822.283704	2572.168092
822.601847	2577.725964
822.919945	2567.338666
823.237999	2560.079405
823.556010	2553.256203
823.873976	2544.227496
824.191897	2540.532331
824.509775	2531.523789
824.827609	2530.182842
825.145398	2528.509179
825.463144	2526.890968
825.780845	2527.659744
826.098502	2529.260311
826.416116	2531.271731
826.733685	2536.164171
827.051210	2537.978986
827.368692	2535.614685
827.686129	2530.450023
828.003522	2525.171935
828.320872	2519.772859
828.638177	2519.049453
828.955439	2516.591891
829.272656	2511.563340
829.589830	2509.630057
829.906960	2512.715244
830.224046	2513.075686
830.541088	2514.320851
830.858086	2512.952178
831.175041	2511.989318
831.491952	2512.385048
831.808819	2512.606859
832.125642	2512.188443
832.442421	2513.620131
832.759157	2515.306397
833.075849	2517.905112
833.392497	2520.662623
833.709101	2523.702438
834.025662	2521.144053
834.342179	2522.192613
834.658653	2519.742612
834.975083	2516.702796
835.291469	2520.831501
835.607811	2513.173989
835.924110	2510.842455
836.240366	2513.642816
836.556578	2507.911024
836.872746	2510.711385
837.188871	2509.526714
837.504952	2509.201559
837.820990	2508.457989
838.136984	2508.218534
838.452935	2507.404388
838.768842	2508.803308
839.084706	2509.191477
839.400526	2512.319513
839.716303	2512.866478
840.032037	2512.506036
840.347727	2514.300687
840.663373	2510.013185
840.978977	2512.569050
841.294537	2512.196005
841.610054	2511.550737
841.925527	2512.324554
842.240957	2509.657784
842.556344	2510.303052
842.871687	2509.554440
843.186987	2507.243071
843.502244	2507.096878
843.817458	2507.152330
844.132629	2506.610406
844.447756	2510.166940
844.762840	2504.031856
845.077881	2505.869357
845.392879	2505.839110
845.707833	2505.521517
846.022745	2504.692247
846.337613	2509.723319
846.652438	2506.870026
846.967221	2507.543020
847.281960	2505.271980
847.596656	2508.619306
847.911309	2505.627381
848.225919	2507.285921
848.540485	2508.745335
848.855009	2508.394975
849.169490	2508.168123
849.483928	2508.944461
849.798323	2508.173164
850.112675	2508.498318
850.426984	2507.288442
850.741251	2509.201559
851.055474	2505.980262
851.369654	2507.661487
851.683792	2506.799450
851.997887	2507.873215
852.311938	2504.684686
852.625947	2505.834069
852.939914	2507.064110
853.253837	2509.509070
853.567718	2508.243740
853.881555	2507.134686
854.195350	2505.534120
854.509103	2508.210973
854.822812	2505.720643
855.136479	2506.600324
855.450103	2509.652743
855.763685	2506.330622
856.077224	2504.823317
856.390720	2505.052690
856.704173	2507.001096
857.017584	2507.558143
857.330953	2507.245592
857.644278	2508.432783
857.957561	2509.705675
858.270802	2509.330109
858.584000	2508.006806
858.897155	2508.294152
859.210268	2507.043946
859.523339	2508.072341
859.836367	2507.069151
860.149352	2506.013030
860.462295	2509.224245
860.775195	2502.348111
861.088054	2503.399191
861.400869	2504.372134
861.713642	2505.319871
862.026373	2503.782319
862.339062	2506.401198
862.651708	2507.469923
862.964312	2505.960097
863.276873	2504.881291
863.589392	2506.925478
863.901869	2507.376662
864.214303	2508.195849
864.526696	2501.445744
864.839045	2509.844307
865.151353	2508.193329
865.463619	2507.069151
865.775842	2504.858605
866.088023	2503.837772
866.400162	2506.602845
866.712258	2507.560664
867.024313	2507.457320
867.336325	2508.450428
867.648296	2507.976559
867.960224	2508.042094
868.272110	2508.727691
868.583954	2508.173164
868.895755	2509.753566
869.207515	2507.588390
869.519233	2507.795078
869.830909	2506.013030
870.142542	2508.929337
870.454134	2504.046980
870.765684	2509.556961
871.077191	2507.734584
871.388657	2508.236178
871.700081	2506.973369
872.011463	2509.100736
872.322803	2504.518328
872.634101	2506.975890
872.945357	2507.928668
873.256571	2505.052690
873.567744	2507.021260
873.878874	2506.481857
874.189963	2510.310613
874.501010	2507.432114
874.812015	2506.784326
875.122979	2510.872702
875.433900	2507.202742
875.744780	2508.616786
876.055618	2507.858092
876.366415	2507.419512
876.677169	2507.787516
876.987882	2505.786178
877.298554	2505.168636
877.609183	2504.384737
877.919771	2503.638646
878.230317	2506.502022
878.540822	2510.754235
878.851285	2510.378669
879.161707	2509.922444
879.472087	2512.140552
879.782425	2511.490243
880.092722	2516.917045
880.402977	2519.709845
880.713191	2530.447502
881.023363	2532.786598
881.333494	2537.099305
881.643583	2535.745755
881.953631	2536.837165
882.263637	2534.210724
882.573602	2534.145189
882.883526	2530.845753
883.193408	2524.957686
883.503248	2525.565145
883.813048	2523.843591
884.122806	2521.335617
884.432522	2519.281347
884.742197	2514.477127
885.051831	2513.889833
885.361424	2514.822446
885.670975	2512.581653
885.980485	2512.760614
886.289954	2511.099554
886.599382	2511.071828
886.908768	2512.553927
887.218113	2510.255161
887.527417	2510.824811
887.836680	2507.822804
888.145901	2507.805160
888.455082	2508.785664
888.764221	2508.273987
889.073319	2506.214676
889.382376	2509.816580
889.691392	2506.993534
890.000366	2509.640140
890.309300	2506.623009
890.618193	2508.931858
890.927044	2507.850530
891.235855	2509.388082
891.544625	2509.622496
891.853353	2509.123422
892.162041	2505.748369
892.470687	2510.252640
892.779293	2511.795233
893.087858	2504.815756
893.396381	2506.625530
893.704864	2505.463544
894.013306	2506.897752
894.321707	2512.778258
894.630068	2514.222549
894.938387	2517.678260
895.246665	2513.173989
895.554903	2514.595594
895.863100	2511.117198
896.171256	2513.466376
896.479371	2510.907990
896.787446	2510.829852
897.095480	2509.025119
897.403473	2511.091992
897.711425	2506.985972
898.019336	2508.122753
898.327207	2508.639471
898.635038	2511.817918
898.942827	2507.878257
899.250576	2508.957063
899.558284	2507.570746
899.865952	2508.321878
900.173579	2508.062259
900.481165	2508.831035
900.788711	2507.570746
901.096216	2504.498163
901.403681	2509.040243
901.711105	2508.097547
902.018489	2504.699809
902.325832	2502.827020
902.633135	2508.515963
902.940397	2506.194511
903.247619	2509.720798
903.554800	2513.136180
903.861941	2515.434946
904.169041	2519.238497
904.476101	2519.051974
904.783121	2517.879906
905.090100	2514.706499
905.397039	2513.758763
905.703938	2514.857734
906.010796	2511.462517
906.317614	2511.137363
906.624391	2510.182064
906.931129	2508.747856
907.237826	2511.155007
907.544483	2510.832373
907.851099	2508.770541
908.157675	2507.931189
908.464211	2504.825838
908.770707	2503.825169
909.077163	2504.437669
909.383578	2503.139572
909.689954	2501.407936
909.996289	2504.916579
910.302584	2505.012361
910.608839	2505.962618
910.915054	2503.492453
911.221229	2505.551764
911.527363	2507.263236
911.833458	2506.063441
912.139513	2507.011178
912.445527	2506.363390
912.751502	2505.138389
913.057436	2507.106960
913.363331	2506.665859
913.669186	2504.966990
913.975000	2507.074193
914.280775	2505.876918
914.586510	2506.323061
914.892205	2509.942609
915.197859	2513.168947
915.503475	2512.511077
915.809050	2517.118692
916.114585	2514.782117
916.420081	2519.651871
916.725536	2518.328568
917.030952	2517.670698
917.336328	2516.233969
917.641665	2516.390245
917.946961	2512.380007
918.252218	2515.364370
918.557435	2510.993690
918.862612	2511.374297
919.167750	2510.900428
919.472848	2512.226252
919.777906	2508.382372
920.082925	2512.284225
920.387904	2506.013030
920.692843	2508.495798
920.997743	2508.924296
921.302603	2505.892042
921.607423	2505.952536
921.912204	2508.561333
922.216946	2502.864829
922.521647	2508.435304
922.826310	2507.868174
923.130932	2508.032012
923.435516	2506.421363
923.740059	2505.720643
924.044564	2505.221568
924.349028	2506.559995
924.653454	2499.325939
924.957840	2502.884994
925.262186	2501.523882
925.566493	2505.420694
925.870761	2500.364417
926.174989	2504.886332
926.479178	2504.730056
926.783328	2503.968842
927.087438	2507.028822
927.391509	2505.975221
927.695541	2503.580673
927.999533	2506.134017
928.303486	2502.506907
928.607400	2507.202742
928.911275	2501.649911
929.215110	2505.697958
929.518906	2501.841475
929.822663	2504.626712
930.126381	2505.808863
930.430060	2503.714263
930.733699	2502.179232
931.037299	2505.229130
931.340861	2505.087978
931.644383	2500.616474
931.947866	2503.774757
932.251309	2503.608399
932.554714	2502.262411
932.858080	2506.849861
933.161407	2502.670745
933.464694	2503.613440
933.767943	2504.798112
934.071153	2503.855416
934.374323	2504.687206
934.677455	2504.543533
934.980548	2503.512617
935.283602	2506.852382
935.586617	2504.064624
935.889593	2503.356342
936.192530	2502.385919
936.495428	2505.839110
936.798287	2503.245436
937.101108	2504.472957
937.403890	2508.374810
937.706632	2505.816425
938.009336	2504.815756
938.312002	2505.287103
938.614628	2504.407422
938.917216	2505.829027
939.219765	2506.287773
939.522275	2509.456138
939.824747	2506.103770
940.127179	2503.658811
940.429573	2501.672596
940.731929	2498.521875
941.034246	2500.437513
941.336524	2505.082937
941.638763	2504.253667
941.940964	2501.811228
942.243126	2504.944305
942.545250	2504.752741
942.847335	2505.685355
943.149381	2504.964470
943.451389	2504.304078
943.753359	2502.292658
944.055290	2505.508914
944.357182	2504.818276
944.659036	2507.127125
944.960851	2502.774088
945.262628	2504.820797
945.564367	2504.646877
945.866067	2505.687875
946.167729	2503.444562
946.469352	2501.624705
946.770937	2502.859788
947.072484	2501.717967
947.373992	2501.894407
947.675462	2502.549757
947.976893	2504.357011
948.278286	2503.447082
948.579641	2502.491784
948.880958	2502.718636
949.182236	2506.572598
949.483476	2506.282731
949.784678	2504.072185
950.085841	2501.516320
950.386967	2502.322905
950.688054	2505.453462
950.989103	2502.751403
951.290114	2503.028667
951.591087	2504.014212
951.892021	2504.916579
952.192917	2504.843482
952.493776	2506.693585
952.794596	2503.865498
953.095378	2501.690240
953.396122	2506.053359
953.696828	2501.286948
953.997496	2501.604541
954.298126	2501.044972
954.598718	2505.259377
954.899272	2504.752741
955.199788	2505.501352
955.500266	2504.283914
955.800706	2499.701505
956.101108	2499.318377
956.401472	2502.128821
956.701798	2496.626401
957.002087	2504.331805
957.302337	2501.697802
957.602550	2504.848523
957.902724	2504.505725
958.202861	2503.918430
958.502960	2501.665034
958.803022	2501.138234
959.103045	2503.716784
959.403031	2502.925323
959.702979	2504.483039
960.002889	2503.784840
960.302762	2505.768534
960.602596	2502.821979
960.902393	2502.572442
961.202153	2502.368275
961.501875	2501.337359
961.801559	2504.198214
962.101205	2502.900117
962.400814	2503.880622
962.700385	2501.503718
962.999918	2502.143944
963.299414	2502.075888
963.598873	2505.728204
963.898293	2502.295179
964.197677	2503.300889
964.497022	2497.400218
964.796331	2500.011536
965.095601	2503.731908
965.394835	2501.052534
965.694030	2502.690909
965.993189	2502.418687
966.292309	2505.486229
966.591393	2502.164109
966.890439	2502.948008
967.189447	2505.355159
967.488419	2503.076557
967.787353	2502.960611
968.086249	2499.830054
968.385108	2505.274501
968.683930	2502.632936
968.982714	2503.056393
969.281462	2502.617813
969.580172	2503.195025
969.878844	2499.414159
970.177480	2501.415497
970.476078	2502.186794
970.774639	2503.880622
971.073162	2502.942967
971.371649	2500.755106
971.670098	2499.104128
971.968510	2499.683861
972.266885	2497.208654
972.565223	2501.927174
972.863524	2501.100425
973.161788	2503.570591
973.460014	2503.678975
973.758204	2501.460868
974.056356	2500.558501
974.354471	2502.113697
974.652550	2501.259222
974.950591	2503.084119
975.248595	2503.104284
975.546563	2503.850375
975.844493	2500.734942
976.142386	2501.659993
976.440243	2498.932729
976.738062	2501.377689
977.035845	2502.317864
977.333590	2501.072699
977.631299	2503.583193
977.928971	2503.058913
978.226606	2503.066475
978.524204	2502.637977
978.821765	2498.564725
979.119290	2502.025477
979.416777	2500.689571
979.714228	2503.169819
980.011642	2499.603202
980.309020	2504.876249
980.606360	2499.048676
980.903664	2503.933554
981.200931	2500.457678
981.498162	2503.618482
981.795356	2501.977586
982.092513	2503.588235
982.389633	2503.925992
982.686717	2504.296517
982.983764	2504.699809
983.280775	2504.155364
983.577749	2503.913389
983.874686	2504.185611
984.171587	2503.187463
984.468451	2505.251815
984.765279	2505.461023
985.062070	2502.375837
985.358824	2503.283245
985.655543	2501.801146
985.952224	2501.851557
986.248869	2502.587566
986.545478	2499.940960
986.842050	2498.630260
987.138586	2501.554129
987.435086	2499.706546
987.731549	2497.294354
988.027975	2500.676968
988.324366	2500.946670
988.620719	2502.474140
988.917037	2500.654283
989.213318	2502.484222
989.509563	2501.685199
989.805772	2501.886845
990.101944	2502.348111
990.398080	2503.114366
990.694180	2500.140085
990.990244	2500.656804
991.286271	2502.378358
991.582262	2503.487412
991.878217	2503.232833
992.174136	2499.993892
992.470019	2500.114880
992.765865	2503.910868
993.061676	2501.874242
993.357450	2502.131341
993.653188	2500.649242
993.948890	2501.922133
994.244556	2500.210662
994.540186	2498.456340
994.835780	2502.978255
995.131337	2502.295179
995.426859	2501.503717
995.722345	2504.782988
996.017795	2499.562873
996.313208	2503.000940
996.608586	2503.220230
996.903928	2501.236536
997.199234	2502.456496
997.494504	2502.577483
997.789738	2505.070334
998.084936	2503.250477
998.380099	2502.922802
998.675225	2504.369613
998.970316	2502.484222
999.265371	2499.799808
999.560390	2503.048831
999.855373	2501.954901
1000.150320	2500.674448
1000.445232	2502.370796
1000.740108	2502.358193
1001.034948	2502.857267
1001.329752	2501.065137
1001.624521	2501.382730
1001.919254	2498.252173
1002.213951	2496.616319
1002.508613	2496.137409
1002.803239	2498.436175
1003.097829	2495.527430
1003.392384	2502.932885
1003.686903	2498.542040
1003.981386	2498.423573
1004.275834	2500.989520
1004.570246	2500.268635
1004.864623	2498.484066
1005.158964	2499.076402
1005.453270	2500.785353
1005.747540	2502.199397
1006.041775	2502.020436
1006.335974	2503.074037
1006.630138	2498.932729
1006.924266	2502.406084
1007.218359	2501.939777
1007.512416	2500.250991
1007.806438	2502.065806
1008.100425	2500.863491
1008.394376	2500.671927
1008.688292	2500.737462
1008.982172	2500.949191
1009.276017	2501.730569
1009.569827	2501.365086
1009.863602	2504.798112
1010.157341	2498.370640
1010.451045	2501.120590
1010.744714	2501.523882
1011.038347	2503.575632
1011.331945	2500.492966
1011.625508	2501.095384
1011.919036	2502.658142
1012.212528	2502.504387
1012.505986	2499.968686
1012.799408	2501.687720
1013.092795	2500.649242
1013.386147	2500.752586
1013.679464	2498.970538
1013.972745	2500.863491
1014.265992	2500.359376
1014.559204	2497.874087
1014.852380	2501.871722
1015.145521	2501.039931
1015.438628	2499.288130
1015.731699	2500.432472
1016.024736	2498.292503
1016.317737	2499.406598
1016.610703	2501.120590
1016.903635	2495.827378
1017.196531	2497.763181
1017.489393	2496.311329
1017.782219	2497.072543
1018.075011	2499.817452
1018.367768	2500.003974
1018.660490	2500.533295
1018.953177	2500.533295
1019.245829	2500.533295
