Dividing Wavelength (nm)	Counts (n)	Blue Motor Position (mm): 0.000000	Red Motor Position (mm): 38.600000	
326.493990	2127.994547
326.888308	2127.994547
327.282561	2127.994547
327.676750	2092.673702
328.070874	2094.057499
328.464933	2098.493714
328.858929	2104.979159
329.252859	2111.550303
329.646726	2123.021448
330.040528	2137.461834
330.434265	2154.591674
330.827938	2169.440393
331.221547	2188.919412
331.615091	2207.848944
332.008571	2227.196893
332.401986	2246.827146
332.795338	2264.992944
333.188625	2283.945162
333.581847	2304.732359
333.975006	2322.948569
334.368100	2339.604541
334.761129	2355.630369
335.154095	2377.166178
335.546996	2392.347613
335.939833	2414.316962
336.332606	2430.942687
336.725315	2443.379214
337.117960	2449.980605
337.510540	2462.240691
337.903056	2472.328040
338.295508	2480.955974
338.687896	2489.339413
339.080220	2495.124137
339.472480	2502.801815
339.864676	2508.374810
340.256807	2512.165758
340.648875	2511.255830
341.040879	2515.636592
341.432818	2517.998373
341.824694	2520.909639
342.216506	2520.251769
342.608253	2521.854856
342.999937	2522.462315
343.391557	2522.237983
343.783113	2519.951820
344.174605	2516.985101
344.566033	2517.322858
344.957397	2520.115657
345.348697	2515.107271
345.739934	2515.462672
346.131106	2510.895387
346.522215	2509.710716
346.913260	2508.016888
347.304241	2504.755262
347.695159	2503.351300
348.086012	2502.148985
348.476802	2499.237719
348.867528	2498.675630
349.258191	2495.769405
349.648789	2497.879128
350.039324	2494.710763
350.429796	2497.705208
350.820203	2493.296719
351.210548	2492.245638
351.600828	2487.789258
351.991045	2491.323107
352.381198	2490.393014
352.771288	2487.156594
353.161314	2491.302943
353.551276	2490.841677
353.941175	2491.572644
354.331010	2488.701707
354.720782	2490.062819
355.110490	2487.519557
355.500135	2490.687922
355.889717	2489.503251
356.279235	2491.799496
356.668689	2493.037100
357.058080	2492.545587
357.447408	2489.082314
357.836672	2488.608446
358.225873	2490.826554
358.615010	2488.129536
359.004084	2492.558190
359.393095	2491.721358
359.782043	2494.322594
360.170927	2497.196052
360.559748	2495.590444
360.948505	2495.797131
361.337199	2497.440548
361.725830	2499.141937
362.114398	2496.016422
362.502903	2498.743686
362.891344	2501.435662
363.279722	2500.762668
363.668037	2503.079078
364.056289	2499.031032
364.444478	2503.991527
364.832603	2500.472802
365.220665	2506.169305
365.608665	2500.903820
365.996601	2504.430107
366.384474	2505.319871
366.772284	2507.520335
367.160031	2509.062928
367.547715	2510.255161
367.935336	2515.336644
368.322893	2516.324710
368.710388	2517.693383
369.097820	2524.834178
369.485189	2526.265865
369.872495	2534.437576
370.259738	2539.458565
370.646918	2547.569781
371.034035	2555.615463
371.421090	2569.677762
371.808081	2576.874009
372.195010	2586.757191
372.581875	2598.361927
372.968678	2611.773917
373.355418	2619.438991
373.742096	2639.069244
374.128710	2654.356543
374.515262	2669.512772
374.901751	2686.080524
375.288177	2695.280630
375.674540	2719.158055
376.060841	2738.551374
376.447079	2757.372522
376.833254	2779.377159
377.219367	2790.588685
377.605417	2829.040086
377.991404	2838.416632
378.377329	2857.504961
378.763191	2875.217055
379.148991	2916.141142
379.534727	2940.182405
379.920402	2969.877321
380.306013	2979.221100
380.691563	3033.733617
381.077049	3052.887481
381.462474	3071.050758
381.847835	3106.661469
382.233134	3130.178452
382.618371	3127.436064
383.003545	3198.052547
383.388657	3205.642004
383.773706	3238.684247
384.158693	3252.149169
384.543618	3280.614044
384.928480	3313.268118
385.313280	3362.265613
385.698017	3359.220756
386.082692	3415.722009
386.467305	3418.857606
386.851856	3449.167544
387.236344	3474.544712
387.620770	3504.116121
388.005133	3528.497661
388.389435	3558.603432
388.773674	3565.466963
389.157851	3613.068058
389.541965	3625.872589
389.926018	3594.226746
390.310008	3663.277951
390.693936	3683.545910
391.077802	3726.315059
391.461606	3712.789643
391.845348	3775.887245
392.229027	3772.870115
392.612645	3786.284625
392.996200	3863.152139
393.379694	3902.694950
393.763125	3966.432778
394.146494	3933.829116
394.529801	3997.738344
394.913047	4048.142320
395.296230	4014.661497
395.679351	4068.879107
396.062410	4089.250409
396.445408	4073.224581
396.828343	4102.725414
397.211217	4131.160042
397.594028	4049.639543
397.976778	4115.350983
398.359466	4137.794200
398.742092	4167.184127
399.124656	4091.201336
399.507158	4172.220240
399.889598	4196.132953
400.271977	4257.866923
400.654294	4231.862131
401.036549	4238.360178
401.418742	4208.110735
401.800874	4312.742403
402.182944	4333.474149
402.564952	4397.141401
402.946898	4387.545565
403.328783	4380.951736
403.710606	4292.625679
404.092367	4486.153055
404.474067	4447.530254
404.855705	4457.857058
405.237282	4387.825349
405.618797	4497.856093
406.000250	4530.779869
406.381642	4609.361375
406.762972	4574.191765
407.144240	4584.526131
407.525447	4581.861881
407.906593	4642.932939
408.287677	4683.925082
408.668700	4613.104432
409.049661	4660.607225
409.430560	4705.375191
409.811399	4632.931290
410.192176	4795.155621
410.572891	4732.315117
410.953545	4836.470397
411.334138	4719.072006
411.714669	4781.514258
412.095139	4678.959545
412.475547	4819.839631
412.855894	4798.785252
413.236180	4809.787570
413.616405	4760.250672
413.996568	4853.012943
414.376670	4795.868944
414.756711	4748.940843
415.136691	4776.994864
415.516609	4859.936968
415.896466	4895.182195
416.276262	4929.567906
416.655997	4913.519393
417.035670	5095.252989
417.415283	5183.218603
417.794834	5131.108195
418.174324	5080.585752
418.553753	4985.358355
418.933121	5172.551521
419.312428	5239.046861
419.691674	5178.079146
420.070859	5304.410462
420.449983	5217.135486
420.829045	5335.078321
421.208047	5236.296912
421.586988	5308.345082
421.965867	5325.941230
422.344686	5453.101815
422.723444	5309.625535
423.102141	5127.768431
423.480777	5422.559984
423.859352	5190.639181
424.237866	5453.043842
424.616319	5446.399601
424.994712	5559.379420
425.373044	5435.525832
425.751314	5577.593109
426.129524	5381.156988
426.507673	5570.230504
426.885762	5652.277803
427.263789	5585.739614
427.641756	5470.007324
428.019662	5591.852013
428.397508	5594.549030
428.775292	5542.604981
429.153016	5644.073326
429.530679	5569.711265
429.908282	5654.944574
430.285824	5525.908679
430.663305	5798.864475
431.040726	5531.320358
431.418086	5534.733219
431.795385	5641.124251
432.172624	5654.768133
432.549802	5646.999715
432.926920	5663.403630
433.303977	5667.391183
433.680974	5702.482655
434.057910	5720.794646
434.434786	5730.095575
434.811601	5701.313107
435.188355	5934.784065
435.565050	5806.101051
435.941683	5791.065810
436.318257	6002.816957
436.694770	5982.324666
437.071222	6018.779770
437.447614	5950.295695
437.823946	5862.962746
438.200218	6016.634759
438.576429	5882.441765
438.952580	5981.306353
439.328670	6022.505183
439.704700	5938.587616
440.080670	5918.423000
440.456580	6193.652356
440.832429	6071.051495
441.208218	5920.247898
441.583947	6081.532053
441.959616	6083.286375
442.335224	6007.903481
442.710773	6147.523278
443.086261	6174.687535
443.461689	5966.525690
443.837057	6117.188135
444.212365	6274.875427
444.587612	6161.572974
444.962800	6321.092725
445.337927	6296.819570
445.712995	5902.356843
446.088002	6483.284289
446.462949	6312.626107
446.837837	6249.951962
447.212664	6420.658034
447.587431	6562.541309
447.962139	7104.934175
448.336786	8027.563632
448.711374	7772.400588
449.085901	6845.939855
449.460369	6762.924654
449.834776	6696.880498
450.209124	7087.237205
450.583412	7241.698158
450.957640	7386.129737
451.331808	7152.515106
451.705917	6705.420212
452.079965	6631.887422
452.453954	6839.293094
452.827883	6715.900771
453.201752	6808.577343
453.575562	6603.417505
453.949311	6808.925183
454.323001	6699.091044
454.696632	6772.399503
455.070202	6911.111892
455.443713	7066.482774
455.817164	7166.952970
456.190556	7248.334837
456.563888	7323.982392
456.937160	7368.939402
457.310373	7024.671444
457.683526	7050.638428
458.056619	6938.296314
458.429653	6926.376506
458.802628	6861.307813
459.175542	6972.069524
459.548398	7326.555901
459.921194	7489.964903
460.293930	7490.227043
460.666607	8025.169083
461.039224	8333.849016
461.411782	8455.091286
461.784280	8471.492680
462.156719	8367.019808
462.529099	8236.970642
462.901419	7828.400246
463.273680	7726.115234
463.645882	7740.432111
464.018024	7602.702747
464.390106	7770.505115
464.762130	8153.262282
465.134094	8624.716031
465.505999	9653.691148
465.877845	10869.083094
466.249631	11518.348421
466.621358	11134.640996
466.993026	10500.743626
467.364634	10243.768288
467.736184	9886.597497
468.107674	9548.797340
468.479105	9584.803781
468.850477	9348.779478
469.221790	9117.783727
469.593043	8789.531515
469.964238	8650.730905
470.335373	8666.902927
470.706449	8723.419303
471.077467	8702.042290
471.448425	10014.788998
471.819324	11091.264388
472.190164	11115.109045
472.560945	9868.096463
472.931667	9073.713960
473.302330	8943.339639
473.672934	8589.029703
474.043479	8946.515566
474.413965	8879.362356
474.784393	8764.252649
475.154761	8928.914378
475.525070	9015.095423
475.895321	8837.334256
476.265513	9010.220627
476.635645	9176.245988
477.005719	9177.281945
477.375734	9294.934914
477.745691	9524.856900
478.115588	9658.220625
478.485427	9911.251260
478.855207	10445.600965
479.224928	11249.317164
479.594591	11892.860781
479.964194	11696.918693
480.333739	11640.530867
480.703226	11558.438197
481.072653	11645.403142
481.442022	11891.159392
481.811333	12074.838873
482.180584	11870.228521
482.549777	11592.052611
482.918912	11411.738099
483.287988	11436.505288
483.657005	11435.807088
484.025964	11132.122940
484.394864	11256.949471
484.763706	11227.925027
485.132489	10995.374080
485.501213	10956.489140
485.869879	11023.002123
486.238487	10869.148629
486.607036	10976.532767
486.975527	10760.481516
487.343959	10949.676020
487.712333	10993.221507
488.080648	10921.354818
488.448905	10961.500047
488.817104	10903.620039
489.185244	11170.415544
489.553326	11323.810294
489.921350	11864.723581
490.289315	12919.781628
490.657222	13271.800360
491.025070	13177.593798
491.392861	13064.414853
491.760593	12670.375583
492.128267	12319.246615
492.495883	11987.062303
492.863440	11649.259625
493.230939	11323.538072
493.598380	11260.805953
493.965763	11122.292690
494.333088	11027.766014
494.700354	10948.115783
495.067563	11006.167190
495.434713	10835.219143
495.801805	10960.801847
496.168839	10887.581608
496.535815	10821.050980
496.902733	10817.514610
497.269593	10752.269477
497.636395	10853.077430
498.003139	10840.630821
498.369825	10709.528054
498.736453	10865.639986
499.103023	10796.848400
499.469535	10818.737090
499.835989	10813.426235
500.202385	10772.134143
500.568723	10624.193922
500.935003	10850.972748
501.301226	10652.855402
501.667390	10911.065823
502.033497	11005.438743
502.399546	10871.190296
502.765537	10775.942735
503.131470	10842.642242
503.497345	11020.501711
503.863163	10638.198247
504.228923	10947.775505
504.594625	11008.833961
504.960269	10761.928327
505.325856	10977.104938
505.691385	10772.834864
506.056856	10922.237020
506.422270	10951.208531
506.787625	10838.415234
507.152924	10957.043667
507.518164	10940.107910
507.883347	10859.091527
508.248472	10779.194279
508.613540	11010.883190
508.978550	10893.399099
509.343503	10868.168124
509.708398	10989.483492
510.073236	11100.761922
510.438016	11103.537077
510.802738	11053.697709
511.167403	11101.959196
511.532010	11005.123671
511.896561	11228.555172
512.261053	11299.615276
512.625488	11169.838332
512.989866	11150.634057
513.354186	11142.643828
513.718449	11042.705473
514.082655	11241.400032
514.446803	11138.590740
514.810894	11260.808474
515.174927	11122.239757
515.538904	11151.793522
515.902822	11298.665019
516.266684	11184.170332
516.630488	11124.044491
516.994235	11180.354179
517.357925	11246.700805
517.721558	11333.814464
518.085133	11348.101094
518.448651	11356.376148
518.812112	11237.291491
519.175516	11252.810683
519.538863	11372.217974
519.902152	11293.470110
520.265385	11454.623195
520.628560	11359.690707
520.991678	11342.787718
521.354739	11396.929710
521.717743	11331.530821
522.080690	11313.785960
522.443580	11449.634973
522.806413	11402.245607
523.169189	11426.347363
523.531908	11485.008750
523.894569	11311.439302
524.257174	11313.906947
524.619722	11428.162179
524.982213	11377.168387
525.344647	11427.141345
525.707025	11371.827284
526.069345	11473.099024
526.431608	11393.022816
526.793815	11497.677170
527.155964	11291.446086
527.518057	11342.331493
527.880093	11289.164964
528.242072	11357.754903
528.603995	11259.971642
528.965860	11185.019767
529.327669	11232.141953
529.689421	11183.789725
530.051117	11157.389203
530.412755	11263.692014
530.774337	11151.554067
531.135862	11131.086982
531.497331	11148.577266
531.858743	11003.790286
532.220098	11168.411686
532.581396	11040.280678
532.942638	11017.303099
533.303824	10988.530713
533.664953	10997.327527
534.026025	10913.480536
534.387040	11007.682057
534.747999	11011.379743
535.108902	11069.269833
535.469748	10828.849645
535.830537	10927.704151
536.191270	10902.677343
536.551947	10930.771693
536.912567	10925.788513
537.273131	10850.723211
537.633638	10828.932824
537.994089	10816.793725
538.354483	10762.256003
538.714821	10908.545246
539.075103	10914.589589
539.435328	10887.314427
539.795497	10711.451254
540.155609	10867.648885
540.515665	10954.772627
540.875665	10684.470999
541.235609	10754.235527
541.595496	10744.092725
541.955328	10903.733465
542.315102	10782.907089
542.674821	10732.240973
543.034483	10731.711651
543.394090	10736.667106
543.753640	10656.936216
544.113134	10877.073323
544.472571	10735.313556
544.831953	10875.719773
545.191278	10683.485453
545.550548	10706.899092
545.909761	10845.427479
546.268918	10819.934364
546.628019	10893.694007
546.987064	10749.154044
547.346053	10678.013281
547.704986	10772.456777
548.063863	10760.652916
548.422684	10741.365461
548.781449	10658.320013
549.140158	10754.709395
549.498811	10638.115068
549.857408	10484.861471
550.215949	10711.562159
550.574434	10560.007431
550.932864	10648.073868
551.291237	10708.305574
551.649555	10652.315999
552.007817	10661.929479
552.366022	10621.305341
552.724173	10612.508527
553.082267	10593.422719
553.440305	10711.783970
553.798288	10522.637357
554.156215	10665.120530
554.514086	10638.735130
554.871902	10480.243774
555.229661	10512.981027
555.587365	10486.741821
555.945014	10375.879287
556.302606	10499.775725
556.660143	10388.562830
557.017625	10531.277895
557.375050	10427.493140
557.732421	10545.047807
558.089735	10457.188057
558.446994	10447.614906
558.804197	10477.297220
559.161345	10475.437034
559.518437	10322.251492
559.875474	10401.082535
560.232455	10413.072920
560.589381	10358.157110
560.946251	10339.656076
561.303065	10444.000398
561.659825	10371.012052
562.016528	10290.887953
562.373177	10170.716928
562.729770	10266.755950
563.086307	10178.011478
563.442789	10259.748746
563.799216	10129.596236
564.155587	10158.769393
564.511904	10112.390778
564.868164	10087.691645
565.224370	10096.974929
565.580520	10001.762657
565.936615	10005.273820
566.292654	9857.787303
566.648638	9975.704932
567.004567	9916.105891
567.360441	9893.370287
567.716260	9787.886664
568.072023	9870.191062
568.427732	9809.533378
568.783385	9710.280621
569.138982	9757.722920
569.494525	9765.506461
569.850013	9632.546028
570.205445	9685.657105
570.560823	9582.557947
570.916145	9486.342485
571.271412	9527.367395
571.626625	9460.466242
571.981782	9426.403165
572.336884	9386.754490
572.691931	9379.870795
573.046923	9300.868352
573.401860	9244.538499
573.756743	9170.483949
574.111570	9196.415645
574.466342	9163.073453
574.821059	9163.557404
575.175722	9058.809789
575.530330	9038.073002
575.884882	9015.665073
576.239380	8926.287936
576.593823	8895.234429
576.948211	8876.105770
577.302544	8770.833875
577.656823	8744.637519
578.011047	8731.951456
578.365216	8678.280811
578.719330	8601.488915
579.073389	8582.239269
579.427394	8523.865228
579.781344	8481.811922
580.135239	8417.017972
580.489080	8397.223881
580.842866	8290.212788
581.196597	8274.464223
581.550273	8285.249772
581.903895	8227.702480
582.257463	8262.310002
582.610975	8132.505331
582.964434	8134.630177
583.317837	8037.041001
583.671186	8008.578646
584.024481	7980.534707
584.377721	7888.742857
584.730906	7847.685180
585.084037	7846.717278
585.437113	7775.221114
585.790135	7763.661748
586.143103	7650.916343
586.496016	7611.028213
586.848874	7628.062272
587.201679	7593.021211
587.554428	7470.475802
587.907124	7488.112279
588.259765	7440.433046
588.612352	7412.346257
588.964884	7292.744882
589.317362	7275.877182
589.669786	7253.519664
590.022155	7276.139322
590.374470	7255.276506
590.726731	7190.563214
591.078937	7045.622480
591.431090	7099.547702
591.783188	6990.384036
592.135232	6952.857687
592.487222	6939.244051
592.839157	6945.278312
593.191038	6872.610080
593.542866	6810.969371
593.894639	6713.720472
594.246358	6728.969963
594.598022	6710.413475
594.949633	6616.874866
595.301190	6575.383649
595.652692	6564.900569
596.004141	6606.570747
596.355535	6450.030317
596.706876	6403.210601
597.058162	6329.292162
597.409395	6361.890783
597.760573	6373.813112
598.111698	6295.234127
598.462768	6258.221975
598.813785	6215.833433
599.164748	6161.099105
599.515657	6139.238142
599.866511	6047.597526
600.217312	6111.955417
600.568060	5995.598024
600.918753	6038.069746
601.269392	5992.104505
601.619978	5910.432771
601.970510	5920.298309
602.320988	5904.854735
602.671412	5903.932203
603.021783	5842.709911
603.372100	5803.910670
603.722363	5774.762718
604.072572	5741.208798
604.422728	5722.758175
604.772830	5654.077495
605.122878	5630.016068
605.472872	5609.707780
605.822813	5598.070276
606.172701	5544.913829
606.522534	5560.997631
606.872314	5540.066760
607.222041	5495.092106
607.571714	5499.997149
607.921333	5452.277586
608.270899	5427.414616
608.620411	5453.605930
608.969870	5376.761102
609.319276	5353.670097
609.668627	5338.864228
610.017926	5335.640410
610.367171	5326.082382
610.716362	5299.084483
611.065500	5267.360502
611.414585	5254.283748
611.763616	5230.975974
612.112594	5190.755128
612.461518	5170.041027
612.810389	5179.483108
613.159207	5121.532524
613.507971	5077.666923
613.856682	5103.843115
614.205340	5063.534049
614.553945	5075.791614
614.902496	5006.758053
615.250994	5005.540615
615.599439	4978.983816
615.947830	4955.746618
616.296169	4922.790074
616.644454	4906.408845
616.992686	4881.346749
617.340864	4880.542685
617.688990	4821.026822
618.037063	4841.703115
618.385082	4794.263337
618.733048	4804.721210
619.080961	4766.720992
619.428821	4747.368003
619.776628	4725.562492
620.124382	4691.252399
620.472083	4657.262419
620.819731	4647.895955
621.167326	4586.093930
621.514868	4569.082556
621.862357	4509.412938
622.209793	4495.726206
622.557176	4444.364410
622.904506	4409.487187
623.251783	4372.835478
623.599007	4327.739836
623.946179	4312.606292
624.293297	4277.865181
624.640363	4234.329776
624.987376	4207.485632
625.334336	4176.429603
625.681243	4137.632883
626.028097	4112.916106
626.374899	4091.302159
626.721647	4064.258889
627.068343	4033.989281
627.414987	4001.998119
627.761577	3969.785146
628.108115	3970.846308
628.454600	3918.314965
628.801032	3911.073347
629.147412	3893.358733
629.493739	3865.861759
629.840014	3842.301927
630.186236	3842.185980
630.532405	3791.240079
630.878521	3796.767704
631.224585	3768.234774
631.570597	3735.852922
631.916556	3728.578537
632.262462	3714.642267
632.608316	3693.298022
632.954117	3669.987726
633.299866	3653.639264
633.645562	3635.375164
633.991206	3607.497583
634.336797	3579.345260
634.682336	3554.313410
635.027823	3525.783000
635.373257	3515.637678
635.718639	3483.107112
636.063968	3476.006647
636.409245	3438.019032
636.754470	3423.200560
637.099642	3404.775143
637.444762	3380.698592
637.789829	3367.026983
638.134845	3344.777851
638.479808	3332.311077
638.824719	3321.971671
639.169577	3297.489307
639.514383	3287.787606
639.859137	3269.112652
640.203839	3261.981940
640.548489	3247.090371
640.893086	3233.355748
641.237632	3213.659960
641.582125	3209.032180
641.926566	3190.095086
642.270955	3188.807071
642.615292	3181.227696
642.959576	3173.726459
643.303809	3162.830005
643.647990	3153.569406
643.992118	3147.378869
644.336195	3134.465953
644.680219	3121.900877
645.024192	3117.341154
645.368112	3123.977833
645.711981	3118.036833
646.055797	3127.005046
646.399562	3114.755042
646.743274	3126.359778
647.086935	3128.948410
647.430544	3120.910291
647.774101	3116.554734
648.117606	3112.121039
648.461059	3100.032352
648.804460	3088.823346
649.147810	3067.327866
649.491108	3049.512429
649.834354	3038.313505
650.177548	3020.520753
650.520690	2999.879748
650.863781	2990.997235
651.206820	2984.652943
651.549807	2969.963021
651.892742	2953.377625
652.235626	2949.700103
652.578458	2939.579987
652.921238	2925.031217
653.263967	2922.939138
653.606644	2913.781882
653.949269	2909.207035
654.291843	2898.335787
654.634365	2893.594581
654.976836	2884.311297
655.319255	2883.272819
655.661622	2871.955428
656.003938	2867.224306
656.346203	2860.446474
656.688416	2854.495392
657.030577	2849.555061
657.372687	2841.837055
657.714746	2835.512927
658.056753	2832.732731
658.398708	2818.796461
658.740612	2819.245124
659.082465	2813.198260
659.424266	2809.039308
659.766016	2805.712146
660.107715	2803.874646
660.449362	2803.496559
660.790958	2799.148564
661.132503	2793.815023
661.473996	2793.661268
661.815438	2787.468211
662.156829	2784.751029
662.498168	2779.185595
662.839456	2776.435645
663.180693	2772.319543
663.521879	2771.134872
663.863013	2767.613626
664.204097	2767.066661
664.545129	2763.953748
664.886110	2758.239601
665.227040	2757.080135
665.567918	2755.776997
665.908746	2754.494023
666.249522	2751.411358
666.590248	2747.333064
666.930922	2747.864906
667.271545	2745.117477
667.612118	2742.112949
667.952639	2740.167064
668.293109	2735.718246
668.633528	2729.948645
668.973896	2725.933366
669.314213	2722.873386
669.654480	2719.722665
669.994695	2714.956254
670.334859	2712.314689
670.674973	2708.773278
671.015035	2707.220603
671.355047	2704.911755
671.695008	2704.150540
672.034918	2699.560570
672.374777	2697.402956
672.714585	2695.126875
673.054342	2695.348686
673.394049	2693.266689
673.733705	2691.217460
674.073310	2688.850638
674.412864	2684.414423
674.752368	2680.298321
675.091820	2680.182374
675.431223	2677.714730
675.770574	2675.337826
676.109875	2664.834582
676.449125	2664.610250
676.788324	2660.695794
677.127473	2657.295536
677.466571	2654.951399
677.805619	2655.853766
678.144616	2652.377890
678.483562	2652.889567
678.822458	2647.056952
679.161303	2649.287663
679.500098	2645.005203
679.838842	2643.739873
680.177535	2642.426653
680.516179	2640.866416
680.854771	2640.755510
681.193314	2643.684421
681.531805	2645.955460
681.870247	2652.035092
682.208638	2653.486944
682.546978	2651.629279
682.885268	2651.203302
683.223508	2646.913280
683.561697	2644.173412
683.899836	2642.580408
684.237925	2637.614871
684.575963	2635.507669
684.913951	2636.165540
685.251889	2638.451703
685.589776	2636.485653
685.927614	2634.254942
686.265401	2637.249388
686.603137	2634.900210
686.940824	2634.391053
687.278460	2639.386837
687.616046	2638.292907
687.953582	2636.836013
688.291068	2636.024387
688.628504	2637.635036
688.965889	2634.630508
689.303224	2630.562297
689.640510	2629.967441
689.977745	2627.028448
690.314930	2623.522326
690.652065	2622.216667
690.989150	2618.340020
691.326185	2615.080914
691.663170	2611.824328
692.000105	2607.955243
692.336990	2607.070520
692.673825	2606.957094
693.010610	2604.794439
693.347345	2599.143306
693.684030	2594.013932
694.020665	2595.637183
694.357251	2589.953282
694.693786	2594.490321
695.030272	2595.120465
695.366707	2594.349168
695.703093	2591.939497
696.039429	2591.609301
696.375716	2589.809609
696.711952	2590.515371
697.048139	2592.393201
697.384276	2592.216760
697.720363	2590.706935
698.056400	2590.853128
698.392388	2585.796851
698.728326	2585.806933
699.064214	2585.877509
699.400053	2587.034454
699.735842	2584.902046
700.071581	2582.772159
700.407270	2585.123857
700.742910	2581.164031
701.078501	2582.636047
701.414042	2578.124215
701.749533	2581.040522
702.084974	2576.561457
702.420366	2578.799729
702.755709	2576.851323
703.091002	2573.856878
703.426246	2576.758062
703.761440	2574.862588
704.096584	2575.659091
704.431679	2573.965263
704.766725	2575.472568
705.101721	2573.751014
705.436668	2577.393247
705.771565	2571.585838
706.106413	2573.009964
706.441212	2573.246898
706.775961	2575.578432
707.110661	2575.225551
707.445311	2573.796384
707.779913	2574.219841
708.114465	2576.551375
708.448967	2574.779409
708.783421	2576.511046
709.117825	2575.543144
709.452180	2577.078175
709.786485	2575.409553
710.120742	2580.022209
710.454949	2579.752507
710.789107	2578.449369
711.123216	2577.196642
711.457275	2579.954154
711.791286	2581.010275
712.125247	2581.660584
712.459159	2582.424319
712.793023	2584.337437
713.126837	2577.698237
713.460602	2581.872313
713.794318	2576.006930
714.127985	2579.815522
714.461602	2576.586663
714.795171	2578.842579
715.128691	2574.439131
715.462162	2576.947105
715.795584	2573.055335
716.128957	2572.271435
716.462281	2572.823442
716.795556	2571.230437
717.128782	2572.155489
717.461960	2569.690364
717.795088	2570.108780
718.128167	2568.104922
718.461198	2569.271949
718.794180	2568.488049
719.127113	2568.896383
719.459997	2568.535940
719.792833	2568.286403
720.125619	2568.427555
720.458357	2566.854715
720.791046	2564.336659
721.123686	2565.354972
721.456278	2566.395970
721.788821	2562.632749
722.121315	2565.738100
722.453761	2562.814231
722.786158	2563.610733
723.118506	2564.429920
723.450805	2561.974878
723.783056	2564.883624
724.115259	2561.233829
724.447412	2560.790207
724.779518	2563.096535
725.111574	2564.079560
725.443582	2564.387071
725.775542	2563.653583
726.107453	2567.411763
726.439315	2564.989488
726.771129	2571.482495
727.102895	2565.140723
727.434612	2566.890003
727.766281	2565.032338
728.097901	2562.894889
728.429473	2562.834395
728.760996	2561.127965
729.092471	2563.678788
729.423897	2563.875393
729.755276	2567.063923
730.086606	2566.305230
730.417887	2567.910837
730.749120	2568.656928
731.080305	2571.066599
731.411442	2569.642473
731.742530	2569.153482
732.073570	2569.211455
732.404562	2571.298493
732.735506	2569.655076
733.066401	2567.169787
733.397249	2567.867987
733.728048	2570.219686
734.058798	2565.196176
734.389501	2564.573593
734.720156	2562.413459
735.050762	2563.842626
735.381320	2562.975548
735.711831	2560.172666
736.042293	2562.516802
736.372707	2561.246432
736.703073	2559.744168
737.033391	2558.826678
737.363661	2562.453788
737.693883	2561.871535
738.024056	2565.009653
738.354182	2560.873386
738.684260	2561.639642
739.014290	2563.595609
739.344272	2562.433623
739.674207	2563.756926
740.004093	2562.799107
740.333931	2563.966134
740.663722	2564.008984
740.993464	2561.621998
741.323159	2563.661144
741.652806	2563.625856
741.982405	2563.227605
742.311956	2561.271637
742.641460	2563.008315
742.970915	2561.231308
743.300323	2558.446071
743.629683	2557.029507
743.958996	2559.923129
744.288260	2561.158212
744.617477	2557.939435
744.946647	2553.500699
745.275768	2555.212171
745.604842	2553.785524
745.933869	2556.227963
746.262847	2552.691594
746.591778	2557.364743
746.920662	2555.799465
747.249498	2556.182593
747.578286	2555.386090
747.907027	2556.505227
748.235720	2558.776266
748.564365	2557.752912
748.892963	2558.612429
749.221514	2555.852397
749.550017	2560.018911
749.878473	2560.933880
750.206881	2557.730227
750.535242	2558.075546
750.863555	2558.259548
751.191821	2554.904660
751.520039	2555.320555
751.848210	2556.109496
752.176334	2555.945658
752.504411	2554.561862
752.832440	2553.430123
753.160421	2555.471790
753.488356	2556.323745
753.816243	2558.521688
754.144082	2556.016235
754.471875	2554.718137
754.799620	2554.425751
755.127318	2556.006152
755.454969	2556.618653
755.782572	2553.483055
756.110129	2555.033210
756.437638	2555.996070
756.765100	2554.592109
757.092515	2554.768549
757.419882	2554.682849
757.747203	2555.544887
758.074477	2554.511450
758.401703	2554.889537
758.728882	2554.627397
759.056014	2555.474311
759.383099	2556.311142
759.710138	2557.747871
760.037129	2557.697459
760.364073	2556.666543
760.690970	2555.378529
761.017820	2556.273333
761.344623	2556.590926
761.671379	2557.384908
761.998088	2554.329969
762.324751	2560.603685
762.651366	2564.510579
762.977935	2575.026426
763.304456	2580.869123
763.630931	2585.907756
763.957359	2580.143197
764.283740	2577.811663
764.610074	2567.961249
764.936362	2566.632905
765.262602	2564.727348
765.588796	2560.326421
765.914943	2557.160577
766.241044	2557.548745
766.567097	2554.624876
766.893104	2555.905329
767.219064	2554.140925
767.544978	2553.493137
767.870845	2555.633107
768.196665	2552.883158
768.522438	2548.817467
768.848165	2552.285781
769.173846	2550.271840
769.499479	2552.794937
769.825066	2551.078424
770.150607	2548.809905
770.476101	2549.906356
770.801548	2549.132539
771.126949	2550.097920
771.452303	2549.530790
771.777611	2547.743701
772.102872	2547.340409
772.428087	2549.288815
772.753256	2550.196222
773.078378	2546.115408
773.403453	2546.362425
773.728482	2547.703372
774.053465	2547.915100
774.378401	2546.347302
774.703291	2544.318237
775.028135	2548.212528
775.352932	2548.744370
775.677683	2548.033568
776.002388	2549.437529
776.327046	2546.609442
776.651658	2546.064997
776.976224	2545.407126
777.300743	2547.007693
777.625216	2547.279915
777.949643	2546.064997
778.274024	2546.017106
778.598359	2541.359080
778.922647	2541.691796
779.246889	2542.969728
779.571086	2541.704399
779.895236	2543.400747
780.219339	2544.431663
780.543397	2547.100954
780.867409	2546.889226
781.191374	2544.885367
781.515294	2546.891746
781.839167	2545.185316
782.162995	2545.530635
782.486776	2546.077600
782.810511	2541.790098
783.134201	2548.883002
783.457844	2545.013916
783.781441	2544.444266
784.104993	2545.064328
784.428498	2545.172713
784.751958	2545.949050
785.075372	2545.255892
785.398739	2545.150027
785.722061	2545.407126
786.045337	2547.060625
786.368568	2545.946530
786.691752	2547.458876
787.014891	2546.433001
787.337983	2545.777651
787.661030	2547.968033
787.984031	2550.970040
788.306987	2550.813764
788.629897	2548.668753
788.952760	2550.113043
789.275579	2550.239072
789.598351	2548.260419
789.921078	2549.203115
790.243759	2546.261602
790.566395	2547.259750
790.888984	2543.914945
791.211529	2544.363607
791.534027	2544.459389
791.856480	2543.683052
792.178888	2549.109854
792.501249	2544.983669
792.823566	2548.341078
793.145836	2542.853782
793.468062	2544.880326
793.790241	2544.219935
794.112375	2543.562064
794.434464	2543.294883
794.756507	2547.879812
795.078505	2546.473330
795.400457	2544.981149
795.722364	2543.912424
796.044226	2543.252033
796.366042	2544.829914
796.687812	2540.892773
797.009538	2546.369987
797.331218	2546.337219
797.652852	2548.951057
797.974442	2545.349153
798.295986	2546.884184
798.617484	2546.319575
798.938938	2546.256561
799.260346	2547.877292
799.581709	2545.883515
799.903026	2549.124977
800.224299	2543.725902
800.545526	2544.358566
800.866708	2546.254040
801.187845	2545.074410
801.508936	2544.358566
801.829983	2542.924358
802.150984	2543.935109
802.471940	2540.698689
802.792851	2544.124153
803.113717	2544.880326
803.434538	2542.672300
803.755314	2546.579195
804.076045	2545.084492
804.396731	2542.929399
804.717372	2543.667928
805.037967	2545.195398
805.358518	2542.599204
805.679024	2543.922507
805.999485	2543.862013
806.319901	2545.081972
806.640272	2542.483257
806.960598	2542.153062
807.280879	2544.701365
807.601115	2542.780685
807.921306	2544.741694
808.241453	2545.558361
808.561554	2541.941333
808.881611	2545.316386
809.201623	2545.243289
809.521590	2547.486602
809.841513	2545.293700
810.161390	2544.509801
810.481223	2544.605583
810.801011	2541.129707
811.120755	2543.869574
811.440453	2544.134235
811.760107	2546.566592
812.079716	2541.089378
812.399281	2540.113915
812.718801	2539.922351
813.038276	2540.214738
813.357707	2541.525438
813.677093	2541.253216
813.996434	2544.769420
814.315731	2542.442928
814.634983	2542.914276
814.954191	2544.061138
815.273354	2542.158103
815.592473	2543.315048
815.911547	2543.186498
816.230577	2544.908052
816.549562	2544.542568
816.868502	2543.678011
817.187399	2543.052908
817.506250	2544.524924
817.825058	2545.651622
818.143821	2548.005841
818.462539	2546.788403
818.781213	2549.218239
819.099843	2551.683363
819.418429	2552.494989
819.736970	2554.362736
820.055466	2558.675443
820.373919	2559.746688
820.692327	2564.747513
821.010691	2573.400654
821.329011	2590.966554
821.647286	2628.399642
821.965517	2671.259532
822.283704	2696.218285
822.601847	2700.740200
822.919945	2683.882581
823.237999	2658.575989
823.556010	2637.236785
823.873976	2618.266923
824.191897	2601.084150
824.509775	2589.043354
824.827609	2582.948599
825.145398	2577.433577
825.463144	2578.015830
825.780845	2576.183371
826.098502	2580.226376
826.416116	2592.337748
826.733685	2601.812597
827.051210	2611.216869
827.368692	2606.485746
827.686129	2591.853797
828.003522	2583.414906
828.320872	2568.533420
828.638177	2561.831206
828.955439	2555.673436
829.272656	2553.120092
829.589830	2551.307797
829.906960	2553.717468
830.224046	2548.731767
830.541088	2547.481561
830.858086	2545.828063
831.175041	2548.300749
831.491952	2546.150697
831.808819	2546.997610
832.125642	2544.973587
832.442421	2549.122457
832.759157	2551.453990
833.075849	2562.831875
833.392497	2571.714388
833.709101	2578.787127
834.025662	2577.857034
834.342179	2573.052814
834.658653	2566.085939
834.975083	2561.405228
835.291469	2559.008159
835.607811	2554.279557
835.924110	2549.830739
836.240366	2548.184802
836.556578	2546.163299
836.872746	2546.523742
837.188871	2543.864533
837.504952	2543.650284
837.820990	2541.164995
838.136984	2541.822866
838.452935	2542.289173
838.768842	2542.077444
839.084706	2545.414688
839.400526	2545.134904
839.716303	2551.721172
840.032037	2556.885834
840.347727	2555.393652
840.663373	2551.847200
840.978977	2548.250337
841.294537	2546.627086
841.610054	2544.056097
841.925527	2542.568957
842.240957	2541.442259
842.556344	2539.889583
842.871687	2539.405633
843.186987	2539.834131
843.502244	2537.626105
843.817458	2540.307999
844.132629	2538.467978
844.447756	2539.196425
844.762840	2532.504293
845.077881	2533.270548
845.392879	2534.803059
845.707833	2537.479912
846.022745	2534.528316
846.337613	2534.906403
846.652438	2538.609130
846.967221	2536.252391
847.281960	2538.205838
847.596656	2540.741538
847.911309	2535.765920
848.225919	2536.486805
848.540485	2536.998482
848.855009	2536.905220
849.169490	2536.499407
849.483928	2535.939839
849.798323	2536.413708
850.112675	2540.343287
850.426984	2534.278779
850.741251	2538.765406
851.055474	2535.670138
851.369654	2538.097453
851.683792	2534.182997
851.997887	2535.418080
852.311938	2535.607123
852.625947	2537.106867
852.939914	2539.372865
853.253837	2538.369676
853.567718	2537.051414
853.881555	2537.202648
854.195350	2535.899510
854.509103	2538.775488
854.822812	2537.200128
855.136479	2538.256250
855.450103	2536.711136
855.763685	2538.543595
856.077224	2536.191897
856.390720	2536.315405
856.704173	2534.457740
857.017584	2537.190046
857.330953	2536.630477
857.644278	2538.107536
857.957561	2539.965201
858.270802	2538.062165
858.584000	2539.264480
858.897155	2537.343801
859.210268	2534.868594
859.523339	2538.105015
859.836367	2536.469161
860.149352	2536.133924
860.462295	2538.921682
860.775195	2534.004036
861.088054	2529.666123
861.400869	2535.377751
861.713642	2531.599406
862.026373	2534.331711
862.339062	2535.289531
862.651708	2536.514531
862.964312	2537.941178
863.276873	2536.655683
863.589392	2537.749614
863.901869	2536.900179
864.214303	2537.986548
864.526696	2537.111908
864.839045	2535.864222
865.151353	2537.419418
865.463619	2538.147865
865.775842	2536.683410
866.088023	2537.038811
866.400162	2535.781043
866.712258	2538.873791
867.024313	2539.703061
867.336325	2538.135262
867.648296	2536.774150
867.960224	2536.622916
868.272110	2539.965201
868.583954	2538.820859
868.895755	2540.829759
869.207515	2537.850437
869.519233	2539.889583
869.830909	2539.602238
870.142542	2540.071065
870.454134	2538.231044
870.765684	2540.244985
871.077191	2539.299768
871.388657	2538.788091
871.700081	2537.558050
872.011463	2539.624923
872.322803	2540.250026
872.634101	2540.749100
872.945357	2536.181815
873.256571	2540.088709
873.567744	2540.875129
873.878874	2539.317412
874.189963	2541.568288
874.501010	2541.374203
874.812015	2539.602238
875.122979	2539.168698
875.433900	2540.262629
875.744780	2540.229861
876.055618	2541.560726
876.366415	2540.358411
876.677169	2542.205994
876.987882	2541.711961
877.298554	2536.819521
877.609183	2541.394368
877.919771	2539.758513
878.230317	2541.953936
878.540822	2540.917979
878.851285	2545.951571
879.161707	2542.783206
879.472087	2552.421892
879.782425	2554.826522
880.092722	2561.299364
880.402977	2571.679100
880.713191	2593.633325
881.023363	2614.581839
881.333494	2630.816875
881.643583	2633.173615
881.953631	2630.201855
882.263637	2625.490896
882.573602	2616.704165
882.883526	2608.088833
883.193408	2595.831268
883.503248	2585.658219
883.813048	2579.457600
884.122806	2574.345870
884.432522	2567.378995
884.742197	2563.938408
885.051831	2559.567728
885.361424	2556.936245
885.670975	2551.935421
885.980485	2550.317210
886.289954	2549.104813
886.599382	2549.137580
886.908768	2549.044319
887.218113	2546.448125
887.527417	2546.261602
887.836680	2545.265974
888.145901	2544.507280
888.455082	2541.288504
888.764221	2544.267826
889.073319	2541.540561
889.382376	2540.882691
889.691392	2541.439738
890.000366	2542.982331
890.309300	2542.054759
890.618193	2541.984183
890.927044	2541.664070
891.235855	2539.713143
891.544625	2543.672969
891.853353	2542.669780
892.162041	2543.874616
892.470687	2545.127342
892.779293	2544.391334
893.087858	2544.318237
893.396381	2547.239586
893.704864	2552.005997
894.013306	2554.519012
894.321707	2562.471432
894.630068	2570.416291
894.938387	2573.095664
895.246665	2570.693554
895.554903	2572.828483
895.863100	2563.096535
896.171256	2558.685526
896.479371	2556.137222
896.787446	2554.655123
897.095480	2552.414330
897.403473	2546.483413
897.711425	2546.692621
898.019336	2545.553320
898.327207	2545.606252
898.635038	2544.575336
898.942827	2543.597352
899.250576	2542.034594
899.558284	2542.775644
899.865952	2543.186498
900.173579	2541.185160
900.481165	2543.062990
900.788711	2541.444779
901.096216	2540.275232
901.403681	2538.069727
901.711105	2539.980324
902.018489	2540.323123
902.325832	2542.231199
902.633135	2541.323792
902.940397	2543.645243
903.247619	2545.696993
903.554800	2553.246121
903.861941	2562.826833
904.169041	2576.100192
904.476101	2584.072776
904.783121	2584.831470
905.090100	2577.915007
905.397039	2572.576425
905.703938	2562.796587
906.010796	2557.808365
906.317614	2552.673950
906.624391	2550.483568
906.931129	2545.886036
907.237826	2544.759338
907.544483	2541.152392
907.851099	2540.381096
908.157675	2543.557023
908.464211	2543.567105
908.770707	2534.089736
909.077163	2536.464119
909.383578	2534.422452
909.689954	2536.133924
909.996289	2533.015970
910.302584	2537.666435
910.608839	2537.248019
910.915054	2536.713657
911.221229	2537.439583
911.527363	2536.058307
911.833458	2537.686599
912.139513	2537.910931
912.445527	2537.852957
912.751502	2538.077289
913.057436	2539.753472
913.363331	2540.204656
913.669186	2540.973432
913.975000	2541.336395
914.280775	2543.166333
914.586510	2547.032898
914.892205	2551.784186
915.197859	2555.713765
915.503475	2563.351113
915.809050	2572.657083
916.114585	2577.673032
916.420081	2582.147056
916.725536	2580.601942
917.030952	2574.333267
917.336328	2570.872515
917.641665	2567.482339
917.946961	2561.783315
918.252218	2559.338355
918.557435	2551.983312
918.862612	2550.639844
919.167750	2549.437529
919.472848	2546.133053
919.777906	2543.935109
920.082925	2547.262271
920.387904	2543.310006
920.692843	2543.126004
920.997743	2538.052083
921.302603	2540.872608
921.607423	2538.379758
921.912204	2539.955118
922.216946	2538.846065
922.521647	2538.233564
922.826310	2538.200797
923.130932	2539.841693
923.435516	2537.918492
923.740059	2537.658873
924.044564	2535.082843
924.349028	2537.109387
924.653454	2534.135106
924.957840	2534.848430
925.262186	2533.414221
925.566493	2531.014632
925.870761	2528.521782
926.174989	2533.903213
926.479178	2534.712318
926.783328	2532.940353
927.087438	2534.288862
927.391509	2535.632329
927.695541	2534.122503
927.999533	2534.049407
928.303486	2531.705270
928.607400	2535.844057
928.911275	2532.252235
929.215110	2532.302647
929.518906	2535.226516
929.822663	2531.468336
930.126381	2531.906916
930.430060	2534.719880
930.733699	2532.282482
931.037299	2533.434386
931.340861	2533.956145
931.644383	2533.469674
931.947866	2532.882380
932.251309	2532.489170
932.554714	2531.985054
932.858080	2533.033614
933.161407	2530.450023
933.464694	2532.597554
933.767943	2534.382123
934.071153	2532.053110
934.374323	2533.933460
934.677455	2534.034283
934.980548	2532.201824
935.283602	2534.316588
935.586617	2531.987575
935.889593	2534.523275
936.192530	2532.431196
936.495428	2534.916485
936.798287	2531.967410
937.101108	2534.724921
937.403890	2534.356917
937.706632	2536.385982
938.009336	2534.487987
938.312002	2533.489839
938.614628	2532.960518
938.917216	2535.715508
939.219765	2535.602082
939.522275	2535.095446
939.824747	2536.640560
940.127179	2534.125024
940.429573	2532.113604
940.731929	2536.144006
941.034246	2530.518078
941.336524	2534.324150
941.638763	2532.405991
941.940964	2534.787936
942.243126	2536.028060
942.545250	2536.892617
942.847335	2533.769623
943.149381	2533.356248
943.451389	2534.016639
943.753359	2534.903882
944.055290	2532.947915
944.357182	2534.709798
944.659036	2531.480939
944.960851	2534.293903
945.262628	2532.385826
945.564367	2535.556712
945.866067	2532.489170
946.167729	2534.785415
946.469352	2532.758871
946.770937	2535.705426
947.072484	2534.084695
947.373992	2536.378420
947.675462	2535.450847
947.976893	2533.681402
948.278286	2533.217616
948.579641	2531.617050
948.880958	2531.980013
949.182236	2531.980013
949.483476	2532.196783
949.784678	2534.046886
950.085841	2532.012781
950.386967	2533.724252
950.688054	2531.924560
950.989103	2533.429345
951.290114	2531.415404
951.591087	2534.359438
951.892021	2533.895652
952.192917	2532.330373
952.493776	2533.890610
952.794596	2531.823737
953.095378	2532.353058
953.396122	2533.734335
953.696828	2532.191742
953.997496	2531.551515
954.298126	2532.945394
954.598718	2532.479087
954.899272	2531.914478
955.199788	2532.108562
955.500266	2529.214940
955.800706	2527.294261
956.101108	2527.705115
956.401472	2528.516740
956.701798	2526.906092
957.002087	2528.985568
957.302337	2532.181659
957.602550	2531.440610
957.902724	2529.000691
958.202861	2530.215609
958.502960	2529.865249
958.803022	2531.790970
959.103045	2528.773839
959.403031	2528.642769
959.702979	2528.983047
960.002889	2532.957997
960.302762	2527.170752
960.602596	2529.903058
960.902393	2532.562266
961.202153	2531.244005
961.501875	2527.886596
961.801559	2531.208717
962.101205	2528.166380
962.400814	2528.993129
962.700385	2528.000022
962.999918	2529.804755
963.299414	2530.114786
963.598873	2531.188552
963.898293	2527.347193
964.197677	2528.675537
964.497022	2531.506145
964.796331	2531.430527
965.095601	2529.567821
965.394835	2530.470188
965.694030	2526.938859
965.993189	2530.676875
966.292309	2528.491535
966.591393	2527.584127
966.890439	2528.940197
967.189447	2530.147554
967.488419	2528.569673
967.787353	2528.607481
968.086249	2527.185876
968.385108	2527.879034
968.683930	2526.800227
968.982714	2529.119158
969.281462	2529.955990
969.580172	2530.094622
969.878844	2527.016997
970.177480	2527.354754
970.476078	2527.107738
970.774639	2531.987575
971.073162	2530.064375
971.371649	2527.468180
971.670098	2525.698735
971.968510	2526.089425
972.266885	2524.342665
972.565223	2529.293078
972.863524	2531.160826
973.161788	2528.874662
973.460014	2527.823582
973.758204	2529.300640
974.056356	2531.090249
974.354471	2528.602440
974.652550	2528.277286
974.950591	2529.913140
975.248595	2528.398273
975.546563	2527.747964
975.844493	2529.358613
976.142386	2527.884076
976.440243	2525.708818
976.738062	2526.752337
977.035845	2529.774508
977.333590	2531.864067
977.631299	2527.788294
977.928971	2529.421627
978.226606	2527.556401
978.524204	2531.266690
978.821765	2527.967255
979.119290	2528.738551
979.416777	2526.827954
979.714228	2526.157480
980.011642	2526.689322
980.309020	2532.484128
980.606360	2525.449198
980.903664	2526.704446
981.200931	2528.370547
981.498162	2526.648993
981.795356	2529.119158
982.092513	2529.716535
982.389633	2530.623943
982.686717	2530.649148
982.983764	2531.523789
983.280775	2533.073943
983.577749	2532.584952
983.874686	2531.924560
984.171587	2530.974303
984.468451	2529.338448
984.765279	2530.903727
985.062070	2530.296268
985.358824	2526.664116
985.655543	2530.182842
985.952224	2527.521112
986.248869	2528.824251
986.545478	2526.628828
986.842050	2527.816020
987.138586	2524.057840
987.435086	2526.117151
987.731549	2522.759743
988.027975	2527.644621
988.324366	2527.160670
988.620719	2531.117976
988.917037	2528.141174
989.213318	2529.008253
989.509563	2528.025228
989.805772	2528.799045
990.101944	2527.427851
990.398080	2528.897348
990.694180	2524.496420
990.990244	2530.528161
991.286271	2525.600433
991.582262	2527.495907
991.878217	2526.991791
992.174136	2526.838036
992.470019	2527.269055
992.765865	2527.763088
993.061676	2527.432892
993.357450	2529.708973
993.653188	2525.615556
993.948890	2528.473891
994.244556	2526.212933
994.540186	2527.364837
994.835780	2528.168901
995.131337	2525.910464
995.426859	2531.392719
995.722345	2527.082532
996.017795	2525.660927
996.313208	2528.115969
996.608586	2528.620084
996.903928	2529.872811
997.199234	2528.690660
997.494504	2527.513551
997.789738	2528.778880
998.084936	2525.572707
998.380099	2527.702594
998.675225	2526.956503
998.970316	2526.606143
999.265371	2527.246370
999.560390	2527.836185
999.855373	2527.024559
1000.150320	2525.098838
1000.445232	2528.670496
1000.740108	2525.176976
1001.034948	2526.651513
1001.329752	2528.403314
1001.624521	2528.320135
1001.919254	2524.040196
1002.213951	2524.955165
1002.508613	2522.545494
1002.803239	2525.860052
1003.097829	2519.977026
1003.392384	2526.749816
1003.686903	2527.412728
1003.981386	2526.769981
1004.275834	2525.789476
1004.570246	2527.652183
1004.864623	2526.069260
1005.158964	2527.657224
1005.453270	2524.630011
1005.747540	2527.979857
1006.041775	2528.252080
1006.335974	2525.849970
1006.630138	2525.335772
1006.924266	2527.390043
1007.218359	2525.197141
1007.512416	2529.000691
1007.806438	2525.784435
1008.100425	2527.722759
1008.394376	2526.041534
1008.688292	2524.534229
1008.982172	2526.195289
1009.276017	2528.753675
1009.569827	2525.040865
1009.863602	2527.266534
1010.157341	2526.969106
1010.451045	2526.275947
1010.744714	2525.504651
1011.038347	2526.311236
1011.331945	2521.101203
1011.625508	2526.850639
1011.919036	2524.808972
1012.212528	2525.683612
1012.505986	2523.924249
1012.799408	2524.715710
1013.092795	2524.940042
1013.386147	2527.906761
1013.679464	2526.230577
1013.972745	2525.955834
1014.265992	2526.880886
1014.559204	2523.773015
1014.852380	2524.176307
1015.145521	2527.720238
1015.438628	2523.359640
1015.731699	2526.228057
1016.024736	2523.573889
1016.317737	2527.798376
1016.610703	2528.748633
1016.903635	2524.992974
1017.196531	2520.150946
1017.489393	2522.540453
1017.782219	2519.238497
1018.075011	2522.986595
1018.367768	2524.040196
1018.660490	2525.492048
1018.953177	2525.492048
1019.245829	2525.492048
