Dividing Wavelength (nm)	Counts (n)	Blue Motor Position (mm): 0.000000	Red Motor Position (mm): 31.000000	
326.493990	2078.992011
326.888308	2078.992011
327.282561	2078.992011
327.676750	2051.784903
328.070874	2056.682384
328.464933	2062.784701
328.858929	2071.432801
329.252859	2084.300346
329.646726	2100.401791
330.040528	2116.495675
330.434265	2136.715743
330.827938	2156.804741
331.221547	2173.886691
331.615091	2193.607685
332.008571	2213.300952
332.401986	2236.873388
332.795338	2256.422982
333.188625	2272.935282
333.581847	2295.522171
333.975006	2315.722075
334.368100	2330.164981
334.761129	2346.722650
335.154095	2362.998016
335.546996	2387.921480
335.939833	2421.803075
336.332606	2433.541402
336.725315	2445.647733
337.117960	2450.993877
337.510540	2461.366051
337.903056	2470.545992
338.295508	2478.029585
338.687896	2482.304483
339.080220	2489.304125
339.472480	2493.296719
339.864676	2499.109169
340.256807	2501.332318
340.648875	2502.574963
341.040879	2504.553616
341.432818	2507.976559
341.824694	2507.729542
342.216506	2507.258195
342.608253	2507.696775
342.999937	2504.810714
343.391557	2506.257526
343.783113	2503.089160
344.174605	2500.114880
344.566033	2500.193017
344.957397	2498.831906
345.348697	2500.472802
345.739934	2496.291164
346.131106	2493.896616
346.522215	2495.149343
346.913260	2488.384115
347.304241	2489.500730
347.695159	2488.006028
348.086012	2484.792292
348.476802	2487.534680
348.867528	2487.839670
349.258191	2482.357415
349.648789	2484.578043
350.039324	2482.203660
350.429796	2483.506798
350.820203	2480.754328
351.210548	2481.787765
351.600828	2476.658391
351.991045	2480.587970
352.381198	2478.291725
352.771288	2478.516056
353.161314	2481.830615
353.551276	2478.637044
353.941175	2480.661067
354.331010	2479.234420
354.720782	2481.709627
355.110490	2480.187198
355.500135	2478.929431
355.889717	2481.119812
356.279235	2483.489154
356.668689	2483.315234
357.058080	2481.881026
357.447408	2479.829277
357.836672	2478.952116
358.225873	2482.226345
358.615010	2484.552838
359.004084	2485.984525
359.393095	2488.184989
359.782043	2490.584578
360.170927	2485.493013
360.559748	2491.867552
360.948505	2491.204640
361.337199	2492.500217
361.725830	2489.168014
362.114398	2493.513489
362.502903	2490.766060
362.891344	2494.826709
363.279722	2496.094559
363.668037	2496.550784
364.056289	2498.509272
364.444478	2497.090187
364.832603	2497.175887
365.220665	2499.807369
365.608665	2501.440703
365.996601	2500.538337
366.384474	2501.574294
366.772284	2501.468429
367.160031	2505.019922
367.547715	2504.515807
367.935336	2503.719305
368.322893	2506.539830
368.710388	2505.894563
369.097820	2511.081910
369.485189	2508.054697
369.872495	2511.664163
370.259738	2510.325737
370.646918	2514.819925
371.034035	2514.577950
371.421090	2518.653723
371.808081	2523.067253
372.195010	2523.437778
372.581875	2531.488501
372.968678	2535.753317
373.355418	2541.250695
373.742096	2549.888712
374.128710	2557.992367
374.515262	2570.277659
374.901751	2581.118660
375.288177	2599.281937
375.674540	2612.870368
376.060841	2633.768471
376.447079	2652.834115
376.833254	2677.974349
377.219367	2697.281968
377.605417	2730.709859
377.991404	2756.666761
378.377329	2793.598254
378.763191	2821.503561
379.148991	2865.901003
379.534727	2916.030237
379.920402	2957.468521
380.306013	3000.872856
380.691563	3063.552042
381.077049	3117.444497
381.462474	3169.895182
381.847835	3239.407653
382.233134	3307.591779
382.618371	3364.619832
383.003545	3444.292748
383.388657	3522.486085
383.773706	3606.746451
384.158693	3674.098787
384.543618	3765.515071
384.928480	3840.996268
385.313280	3940.717852
385.698017	4036.053633
386.082692	4155.781037
386.467305	4213.658525
386.851856	4333.123788
387.236344	4481.285821
387.620770	4545.913413
388.005133	4659.682173
388.389435	4792.509015
388.773674	4876.207292
389.157851	5003.998022
389.541965	5132.111385
389.926018	5154.940250
390.310008	5323.902083
390.693936	5442.011277
391.077802	5556.158123
391.461606	5687.971693
391.845348	5792.709226
392.229027	5911.488893
392.612645	6129.932172
392.996200	6241.255972
393.379694	6407.939203
393.763125	6620.454085
394.146494	6710.879782
394.529801	6844.394742
394.913047	7077.197747
395.296230	7073.464772
395.679351	7134.838300
396.062410	7377.126236
396.445408	7280.567975
396.828343	7433.173784
397.211217	7565.998106
397.594028	7455.680016
397.976778	7650.172772
398.359466	7811.840056
398.742092	7797.210627
399.124656	7938.486443
399.507158	8130.783777
399.889598	8152.390162
400.271977	8356.065381
400.654294	8393.082573
401.036549	8583.716327
401.418742	8617.560113
401.800874	8909.521059
402.182944	8996.949790
402.564952	9351.335343
402.946898	9191.750057
403.328783	9242.643025
403.710606	9437.478580
404.092367	9691.716572
404.474067	10042.850581
404.855705	9841.554787
405.237282	9797.623652
405.618797	10220.904135
406.000250	10466.451177
406.381642	10819.654580
406.762972	10772.396283
407.144240	10587.312841
407.525447	10836.565131
407.906593	10786.945053
408.287677	11046.080526
408.668700	11198.056191
409.049661	11183.555312
409.430560	11342.258397
409.811399	11311.724128
410.192176	11475.407872
410.572891	11556.391488
410.953545	12026.892459
411.334138	11515.825323
411.714669	12103.560848
412.095139	11451.500200
412.475547	11922.379258
412.855894	11787.029318
413.236180	12107.976898
413.616405	11810.503451
413.996568	12083.454205
414.376670	12060.421173
414.756711	11948.227774
415.136691	12217.574103
415.516609	12392.834858
415.896466	12478.516829
416.276262	12766.117177
416.655997	13216.319942
417.035670	13271.008899
417.415283	13883.748546
417.794834	13965.448006
418.174324	13720.765522
418.553753	13625.734731
418.933121	14113.995687
419.312428	13947.057877
419.691674	13854.242673
420.070859	14321.315659
420.449983	13979.502743
420.829045	14534.614440
421.208047	14290.378098
421.586988	14740.805194
421.965867	14977.144569
422.344686	14988.076311
422.723444	15555.889195
423.102141	14257.381225
423.480777	15449.538493
423.859352	14945.972594
424.237866	16043.583021
424.616319	15763.788900
424.994712	16411.650266
425.373044	16204.297526
425.751314	16899.603711
426.129524	16026.354878
426.507673	17100.138291
426.885762	16835.898650
427.263789	17007.648241
427.641756	17196.041202
428.019662	17254.294255
428.397508	17302.941389
428.775292	17591.479392
429.153016	17575.083039
429.530679	17649.583731
429.908282	17682.827620
430.285824	17414.613029
430.663305	18124.931771
431.040726	17737.350219
431.418086	17581.999502
431.795385	18211.737920
432.172624	18658.235436
432.549802	18211.248928
432.926920	18426.349921
433.303977	18305.223597
433.680974	18563.562567
434.057910	18872.791985
434.434786	18915.004087
434.811601	18837.393003
435.188355	19879.946468
435.565050	19546.668226
435.941683	19512.279995
436.318257	20403.036756
436.694770	20211.243537
437.071222	20810.130093
437.447614	19878.867661
437.823946	19900.849613
438.200218	20084.382901
438.576429	19863.633294
438.952580	20173.132414
439.328670	20135.827876
439.704700	20555.224149
440.080670	20125.896803
440.456580	20743.100391
440.832429	20913.435939
441.208218	19908.232382
441.583947	20359.566886
441.959616	20487.841566
442.335224	20729.620346
442.710773	20879.387986
443.086261	21424.601377
443.461689	20751.146073
443.837057	20929.537384
444.212365	21580.446127
444.587612	21577.388668
444.962800	21187.410047
445.337927	21619.734360
445.712995	20314.660288
446.088002	22234.750088
446.462949	22419.561309
446.837837	22603.888578
447.212664	22637.790338
447.587431	25593.464208
447.962139	28566.252796
448.336786	30882.289943
448.711374	29201.523880
449.085901	25483.272147
449.460369	25495.436451
449.834776	25488.913198
450.209124	28046.136789
450.583412	27529.980609
450.957640	28007.937446
451.331808	26650.999983
451.705917	25276.032833
452.079965	25326.887993
452.453954	25705.496291
452.827883	25622.770956
453.201752	25423.892396
453.575562	25588.516316
453.949311	26716.900467
454.323001	26794.035162
454.696632	26575.034836
455.070202	28173.884669
455.443713	28352.361680
455.817164	28937.561503
456.190556	29500.368522
456.563888	28900.345185
456.937160	29356.705719
457.310373	27635.002967
457.683526	28069.323576
458.056619	28079.486543
458.429653	28051.014106
458.802628	28663.794082
459.175542	28810.128696
459.548398	30169.584215
459.921194	31814.800061
460.293930	32556.202557
460.666607	34632.081655
461.039224	36431.322395
461.411782	36776.167565
461.784280	35493.745918
462.156719	34936.872337
462.529099	34355.344994
462.901419	33030.451626
463.273680	31979.739053
463.645882	32112.936420
464.018024	32108.928703
464.390106	33050.762435
464.762130	35965.386189
465.134094	40298.572992
465.505999	45796.067208
465.877845	50325.271716
466.249631	51311.412149
466.621358	49451.057502
466.993026	47227.553254
467.364634	45079.976345
467.736184	43129.374961
468.107674	41829.944461
468.479105	41034.818388
468.850477	40322.316827
469.221790	38868.793377
469.593043	37090.249094
469.964238	36183.441299
470.335373	36140.097458
470.706449	37989.217895
471.077467	40762.371749
471.448425	45431.375015
471.819324	48179.595323
472.190164	46182.373348
472.560945	42531.584856
472.931667	39376.427487
473.302330	38279.631206
473.672934	37421.546163
474.043479	37961.357958
474.413965	37153.641603
474.784393	36787.570655
475.154761	37705.819349
475.525070	37741.591377
475.895321	37265.862729
476.265513	37871.597693
476.635645	38857.662509
477.005719	38695.107983
477.375734	39186.212149
477.745691	39905.907437
478.115588	41262.839859
478.485427	43361.963717
478.855207	46800.615414
479.224928	49448.274785
479.594591	50974.184163
479.964194	49861.283916
480.333739	49974.929168
480.703226	50019.823164
481.072653	50648.313896
481.442022	51109.357662
481.811333	51275.872015
482.180584	49984.535087
482.549777	49408.527807
482.918912	48830.405763
483.287988	48495.630298
483.657005	47637.567940
484.025964	46933.442256
484.394864	46880.507620
484.763706	46391.193063
485.132489	45481.499208
485.501213	45286.094003
485.869879	45372.529626
486.238487	44912.219348
486.607036	45050.001644
486.975527	44437.461123
487.343959	44610.685251
487.712333	44593.439464
488.080648	44434.713694
488.448905	44809.374768
488.817104	44551.181992
489.185244	45461.493389
489.553326	47101.317721
489.921350	49750.033213
490.289315	52510.443030
490.657222	52968.643585
491.025070	53107.166931
491.392861	52049.484963
491.760593	50652.659371
492.128267	48839.467238
492.495883	47195.345322
492.863440	45687.644592
493.230939	44242.567595
493.598380	43068.490426
493.965763	42621.763536
494.333088	41703.880326
494.700354	41095.486154
495.067563	40690.525224
495.434713	40406.267162
495.801805	40335.748981
496.168839	39817.024333
496.535815	39355.983087
496.902733	39225.961647
497.269593	38690.933907
497.636395	38467.474681
498.003139	38668.321812
498.369825	38003.806994
498.736453	38095.619008
499.103023	37490.957810
499.469535	37218.939669
499.835989	37121.305122
500.202385	36634.896790
500.568723	36469.589794
500.935003	36448.598429
501.301226	36075.260658
501.667390	36427.533968
502.033497	36442.271781
502.399546	35750.701091
502.765537	34943.950117
503.131470	35067.982667
503.497345	35170.981002
503.863163	33808.170594
504.228923	34127.487361
504.594625	34252.921351
504.960269	33423.301183
505.325856	33796.754901
505.691385	33026.363250
506.056856	32924.947837
506.422270	33051.722774
506.787625	32466.684268
507.152924	32390.842629
507.518164	32228.439337
507.883347	31368.761289
508.248472	31326.806286
508.613540	31465.130507
508.978550	31436.065734
509.343503	31003.320485
509.708398	30913.547618
510.073236	31036.241740
510.438016	30788.821910
510.802738	30136.907456
511.167403	30332.526910
511.532010	30214.198427
511.896561	30173.102941
512.261053	30499.089154
512.625488	29902.274512
512.989866	29541.774039
513.354186	29152.425563
513.718449	28869.372336
514.082655	29073.176103
514.446803	28551.769561
514.810894	28640.508992
515.174927	28275.761347
515.538904	27934.381970
515.902822	28077.376820
516.266684	27443.723946
516.630488	27426.263909
516.994235	27041.943984
517.357925	27116.553061
517.721558	26932.591275
518.085133	26852.653698
518.448651	26618.177030
518.812112	26193.820261
519.175516	25956.578520
519.538863	25859.080084
519.902152	25549.414606
520.265385	25533.729056
520.628560	25244.845735
520.991678	24844.464693
521.354739	24676.306925
521.717743	24563.334667
522.080690	24207.653537
522.443580	24203.444173
522.806413	23957.498880
523.169189	23629.551658
523.531908	23427.494650
523.894569	23073.371236
524.257174	22874.785063
524.619722	22732.069997
524.982213	22440.560235
525.344647	22118.243982
525.707025	21867.202082
526.069345	21778.939040
526.431608	21452.864606
526.793815	21327.513795
527.155964	20856.609532
527.518057	20649.075310
527.880093	20280.546800
528.242072	20246.153527
528.603995	19851.206850
528.965860	19582.941848
529.327669	19376.312514
529.689421	19069.225586
530.051117	18797.703999
530.412755	18605.056304
530.774337	18373.634575
531.135862	18054.133806
531.497331	17870.804685
531.858743	17589.462930
532.220098	17463.076162
532.581396	17122.599152
532.942638	16772.140657
533.303824	16651.374775
533.664953	16404.421251
534.026025	16080.161633
534.387040	16010.192938
534.747999	15782.494101
535.108902	15607.114880
535.469748	15232.514299
535.830537	15064.525409
536.191270	14911.503704
536.551947	14594.856228
536.912567	14482.574609
537.273131	14315.384742
537.633638	13978.683556
537.994089	13866.442265
538.354483	13566.067634
538.714821	13521.652548
539.075103	13416.683122
539.435328	13172.966019
539.795497	12941.020010
540.155609	12745.133374
540.515665	12678.297756
540.875665	12352.374557
541.235609	12253.265473
541.595496	12062.588870
541.955328	12040.977443
542.315102	11718.789739
542.674821	11507.043633
543.034483	11342.207985
543.394090	11177.947028
543.753640	11007.861018
544.113134	11033.207939
544.472571	10689.118942
544.831953	10761.275498
545.191278	10459.872471
545.550548	10258.982491
545.909761	10186.198311
546.268918	10065.258510
546.628019	9972.985230
546.987064	9748.565664
547.346053	9490.645109
547.704986	9482.836362
548.063863	9283.166341
548.422684	9168.054113
548.781449	9010.447479
549.140158	8939.324360
549.498811	8786.733674
549.857408	8575.889935
550.215949	8559.332266
550.574434	8423.974764
550.932864	8266.126155
551.291237	8241.079182
551.649555	8073.682627
552.007817	7981.716858
552.366022	7823.686767
552.724173	7726.377374
553.082267	7660.244998
553.440305	7575.331802
553.798288	7391.342290
554.156215	7317.958213
554.514086	7239.013744
554.871902	7100.732373
555.229661	7000.385686
555.587365	6886.042234
555.945014	6796.846578
556.302606	6696.162133
556.660143	6620.640608
557.017625	6541.315531
557.375050	6428.280259
557.732421	6365.283480
558.089735	6276.528925
558.446994	6181.500655
558.804197	6127.885463
559.161345	6038.974633
559.518437	5898.066821
559.875474	5843.481207
560.232455	5777.313542
560.589381	5714.324325
560.946251	5612.984530
561.303065	5583.458492
561.659825	5504.400597
562.016528	5412.759981
562.373177	5321.000899
562.729770	5286.000168
563.086307	5188.244633
563.442789	5153.591742
563.799216	5090.526907
564.155587	5021.024519
564.511904	4962.426147
564.868164	4910.961007
565.224370	4868.070870
565.580520	4800.174089
565.936615	4757.785547
566.292654	4688.560423
566.648638	4652.425432
567.004567	4600.995580
567.360441	4552.928178
567.716260	4501.762988
568.072023	4473.509841
568.427732	4421.679218
568.783385	4364.847770
569.138982	4340.662834
569.494525	4298.934683
569.850013	4249.924585
570.205445	4217.323443
570.560823	4175.948173
570.916145	4140.886948
571.271412	4109.697329
571.626625	4065.970361
571.981782	4036.467008
572.336884	3993.274402
572.691931	3973.140033
573.046923	3932.699897
573.401860	3903.584713
573.756743	3871.737224
574.111570	3847.378368
574.466342	3821.827280
574.821059	3797.420534
575.175722	3763.498610
575.530330	3735.351327
575.884882	3709.059189
576.239380	3685.464069
576.593823	3664.981861
576.948211	3645.281031
577.302544	3613.778861
577.656823	3591.776745
578.011047	3579.856937
578.365216	3558.351374
578.719330	3537.415462
579.073389	3518.107843
579.427394	3501.247704
579.781344	3490.840242
580.135239	3467.837457
580.489080	3456.333544
580.842866	3431.926798
581.196597	3429.922939
581.550273	3416.833583
581.903895	3400.671644
582.257463	3395.358268
582.610975	3375.571739
582.964434	3367.687374
583.317837	3348.203315
583.671186	3338.080678
584.024481	3328.434430
584.377721	3311.150834
584.730906	3308.597489
585.084037	3300.534164
585.437113	3283.719395
585.790135	3278.166564
586.143103	3261.243411
586.496016	3259.249634
586.848874	3244.925196
587.201679	3241.948394
587.554428	3223.762432
587.907124	3220.193295
588.259765	3209.932026
588.612352	3209.009495
588.964884	3194.463246
589.317362	3192.116589
589.669786	3187.380425
590.022155	3176.604958
590.374470	3178.392047
590.726731	3164.428051
591.078937	3150.388438
591.431090	3149.672594
591.783188	3135.816982
592.135232	3128.509830
592.487222	3126.233749
592.839157	3124.076135
593.191038	3114.669342
593.542866	3109.199690
593.894639	3093.524222
594.246358	3094.996239
594.598022	3089.037595
594.949633	3080.722212
595.301190	3074.758527
595.652692	3070.531520
596.004141	3072.573187
596.355535	3056.600291
596.706876	3050.760114
597.058162	3043.405071
597.409395	3045.474464
597.760573	3046.396996
598.111698	3036.980120
598.462768	3029.778832
598.813785	3027.926208
599.164748	3021.082842
599.515657	3019.663757
599.866511	3011.580267
600.217312	3016.109743
600.568060	3003.015346
600.918753	3008.956346
601.269392	3005.596417
601.619978	2995.400683
601.970510	2998.143071
602.320988	2995.123420
602.671412	2998.405211
603.021783	2993.343893
603.372100	2984.574805
603.722363	2981.411481
604.072572	2980.204125
604.422728	2980.562047
604.772830	2972.486118
605.122878	2970.817497
605.472872	2966.010756
605.822813	2966.116621
606.172701	2963.293574
606.522534	2967.671817
606.872314	2969.216930
607.222041	2960.631845
607.571714	2963.540591
607.921333	2955.918366
608.270899	2956.518264
608.620411	2957.798717
608.969870	2952.334106
609.319276	2950.761266
609.668627	2949.931996
610.017926	2952.525670
610.367171	2952.790330
610.716362	2948.651543
611.065500	2945.861264
611.414585	2946.816563
611.763616	2947.413940
612.112594	2944.764813
612.461518	2944.908486
612.810389	2942.733228
613.159207	2942.599638
613.507971	2936.353648
613.856682	2946.022581
614.205340	2937.624019
614.553945	2945.147941
614.902496	2937.571087
615.250994	2940.205090
615.599439	2937.752568
615.947830	2936.739297
616.296169	2936.774585
616.644454	2935.448761
616.992686	2932.449275
617.340864	2939.640481
617.688990	2932.771908
618.037063	2937.447579
618.385082	2932.086312
618.733048	2935.811724
619.080961	2933.215530
619.428821	2934.322063
619.776628	2930.304264
620.124382	2927.829057
620.472083	2927.824016
620.819731	2926.901485
621.167326	2922.558531
621.514868	2921.285639
621.862357	2912.733322
622.209793	2913.784403
622.557176	2909.469175
622.904506	2903.780233
623.251783	2899.404511
623.599007	2895.744633
623.946179	2889.778428
624.293297	2888.445043
624.640363	2885.062428
624.987376	2883.653426
625.334336	2879.870040
625.681243	2876.666387
626.028097	2875.698485
626.374899	2872.358721
626.721647	2872.885521
627.068343	2867.783874
627.414987	2868.897969
627.761577	2863.665251
628.108115	2864.227340
628.454600	2860.890096
628.801032	2860.282637
629.147412	2859.559231
629.493739	2856.809282
629.840014	2854.001359
630.186236	2856.862214
630.532405	2850.696883
630.878521	2853.033457
631.224585	2849.287880
631.570597	2845.189422
631.916556	2848.075483
632.262462	2842.283197
632.608316	2845.302848
632.954117	2843.311592
633.299866	2842.094154
633.645562	2838.814883
633.991206	2837.524348
634.336797	2829.897082
634.682336	2831.016218
635.027823	2824.319045
635.373257	2823.837615
635.718639	2822.317707
636.063968	2821.798468
636.409245	2814.602221
636.754470	2817.828560
637.099642	2812.704227
637.444762	2809.122487
637.789829	2808.552837
638.134845	2805.989410
638.479808	2804.751807
638.824719	2801.069244
639.169577	2797.923564
639.514383	2798.836012
639.859137	2795.650003
640.203839	2794.888789
640.548489	2792.365692
640.893086	2788.461318
641.237632	2785.005607
641.582125	2788.146246
641.926566	2785.325720
642.270955	2786.568365
642.615292	2788.456277
642.959576	2786.795217
643.303809	2787.221194
643.647990	2786.749846
643.992118	2785.464352
644.336195	2786.913684
644.680219	2786.860752
645.024192	2785.106430
645.368112	2789.028448
645.711981	2788.312604
646.055797	2793.772173
646.399562	2794.082204
646.743274	2799.352731
647.086935	2802.183339
647.430544	2801.591003
647.774101	2798.137813
648.117606	2801.507824
648.461059	2803.461271
648.804460	2801.502783
649.147810	2796.943059
649.491108	2795.571865
649.834354	2788.020217
650.177548	2784.569547
650.520690	2779.195677
650.863781	2778.585697
651.206820	2779.341871
651.549807	2774.656118
651.892742	2773.647887
652.235626	2768.117742
652.578458	2769.337701
652.921238	2764.510796
653.263967	2768.455499
653.606644	2763.989037
653.949269	2763.265631
654.291843	2759.109200
654.634365	2762.277565
654.976836	2758.360588
655.319255	2759.507451
655.661622	2758.332862
656.003938	2754.879672
656.346203	2757.422934
656.688416	2756.621390
657.030577	2752.893457
657.372687	2751.635689
657.714746	2754.141142
658.056753	2754.191554
658.398708	2747.728795
658.740612	2747.776686
659.082465	2748.792478
659.424266	2748.600914
659.766016	2746.201325
660.107715	2749.238620
660.449362	2749.563775
660.790958	2750.801378
661.132503	2746.042529
661.473996	2748.144690
661.815438	2749.173085
662.156829	2751.479413
662.498168	2748.361460
662.839456	2748.179978
663.180693	2747.416243
663.521879	2748.303486
663.863013	2748.545462
664.204097	2749.664598
664.545129	2750.831625
664.886110	2749.031933
665.227040	2752.757346
665.567918	2754.735999
665.908746	2752.515370
666.249522	2755.472007
666.590248	2754.627614
666.930922	2754.683067
667.271545	2748.626120
667.612118	2755.890423
667.952639	2749.102509
668.293109	2751.610483
668.633528	2750.841707
668.973896	2748.868096
669.314213	2748.487488
669.654480	2749.241141
669.994695	2747.086048
670.334859	2747.287694
670.674973	2745.190574
671.015035	2746.997827
671.355047	2745.808115
671.695008	2745.593866
672.034918	2745.152765
672.374777	2743.469020
672.714585	2742.697723
673.054342	2745.495564
673.394049	2740.986252
673.733705	2746.690317
674.073310	2745.273753
674.412864	2745.442632
674.752368	2738.783267
675.091820	2745.208218
675.431223	2737.659090
675.770574	2737.361662
676.109875	2731.385374
676.449125	2731.753378
676.788324	2731.773543
677.127473	2727.332286
677.466571	2727.302039
677.805619	2725.015876
678.144616	2728.451422
678.483562	2726.838253
678.822458	2724.322718
679.161303	2725.020917
679.500098	2721.431616
679.838842	2724.990670
680.177535	2726.187944
680.516179	2726.366905
680.854771	2726.712224
681.193314	2731.811352
681.531805	2738.647156
681.870247	2742.952302
682.208638	2747.118815
682.546978	2750.045205
682.885268	2749.178127
683.223508	2744.525142
683.561697	2746.213928
683.899836	2743.600090
684.237925	2739.017681
684.575963	2739.378123
684.913951	2736.550036
685.251889	2737.671693
685.589776	2734.997361
685.927614	2736.897876
686.265401	2735.267062
686.603137	2736.360993
686.940824	2738.906776
687.278460	2740.509862
687.616046	2743.055645
687.953582	2746.082858
688.291068	2748.908425
688.628504	2748.147211
688.965889	2749.042015
689.303224	2744.099164
689.640510	2743.423649
689.977745	2737.205386
690.314930	2733.308574
690.652065	2729.706670
690.989150	2724.219374
691.326185	2718.308621
691.663170	2717.663353
692.000105	2710.895604
692.336990	2707.172712
692.673825	2704.125335
693.010610	2700.798173
693.347345	2695.923377
693.684030	2690.085721
694.020665	2688.248221
694.357251	2682.440811
694.693786	2683.885102
695.030272	2681.914011
695.366707	2682.057684
695.703093	2680.018537
696.039429	2678.521314
696.375716	2677.084585
696.711952	2677.568536
697.048139	2676.504853
697.384276	2676.146931
697.720363	2677.238341
698.056400	2675.869667
698.392388	2675.723474
698.728326	2675.927641
699.064214	2672.935716
699.400053	2671.292300
699.735842	2666.447751
700.071581	2667.478667
700.407270	2664.688388
700.742910	2662.805517
701.078501	2661.159580
701.414042	2661.071360
701.749533	2660.748726
702.084974	2655.831081
702.420366	2657.829898
702.755709	2654.958961
703.091002	2653.698673
703.426246	2653.073570
703.761440	2653.549959
704.096584	2652.206491
704.431679	2651.137767
704.766725	2650.699186
705.101721	2650.137097
705.436668	2648.818836
705.771565	2648.743218
706.106413	2649.690955
706.441212	2651.374701
706.775961	2653.209681
707.110661	2650.747077
707.445311	2655.349651
707.779913	2652.599701
708.114465	2655.999959
708.448967	2655.062305
708.783421	2662.145126
709.117825	2664.174190
709.452180	2664.839623
709.786485	2668.272648
710.120742	2673.830521
710.454949	2673.737259
710.789107	2673.744821
711.123216	2676.729184
711.457275	2679.035512
711.791286	2682.186233
712.125247	2683.489371
712.459159	2685.888961
712.793023	2688.885927
713.126837	2681.414937
713.460602	2680.666325
713.794318	2681.142714
714.127985	2679.796726
714.461602	2673.674245
714.795171	2672.555109
715.128691	2664.683347
715.462162	2661.532626
715.795584	2657.247645
716.128957	2660.547080
716.462281	2654.764877
716.795556	2653.434012
717.128782	2650.943682
717.461960	2646.618372
717.795088	2649.383445
718.128167	2643.457569
718.461198	2639.699388
718.794180	2640.904224
719.127113	2639.338946
719.459997	2634.103708
719.792833	2635.164871
720.125619	2636.765437
720.458357	2631.600775
720.791046	2633.332411
721.123686	2628.659262
721.456278	2628.523150
721.788821	2626.410907
722.121315	2628.480301
722.453761	2624.192799
722.786158	2625.279168
723.118506	2624.522995
723.450805	2625.279168
723.783056	2629.054992
724.115259	2624.759929
724.447412	2625.624487
724.779518	2629.486011
725.111574	2628.505506
725.443582	2628.921402
725.775542	2629.125568
726.107453	2631.936012
726.439315	2630.489200
726.771129	2640.954636
727.102895	2639.480098
727.434612	2641.642753
727.766281	2640.805922
728.097901	2640.574029
728.429473	2638.560088
728.760996	2641.340284
729.092471	2640.581590
729.423897	2644.359935
729.755276	2640.657208
730.086606	2641.511683
730.417887	2647.926552
730.749120	2650.328661
731.080305	2651.883857
731.411442	2652.942500
731.742530	2654.875782
732.073570	2658.117244
732.404562	2659.490958
732.735506	2656.829229
733.066401	2655.803354
733.397249	2651.992242
733.728048	2647.825728
734.058798	2638.960859
734.389501	2635.023718
734.720156	2630.864766
735.050762	2630.607667
735.381320	2626.279837
735.711831	2628.077008
736.042293	2624.833026
736.372707	2621.276492
736.703073	2620.001080
737.033391	2624.306225
737.363661	2623.035854
737.693883	2625.601802
738.024056	2628.117337
738.354182	2624.795217
738.684260	2629.072636
739.014290	2631.114303
739.344272	2627.981226
739.674207	2632.999695
740.004093	2636.042031
740.333931	2636.558750
740.663722	2635.316105
740.993464	2635.051445
741.323159	2634.421300
741.652806	2630.090949
741.982405	2630.300157
742.311956	2630.771505
742.641460	2627.860239
742.970915	2626.471401
743.300323	2621.563837
743.629683	2621.715072
743.958996	2619.363374
744.288260	2617.167951
744.617477	2615.380862
744.946647	2610.657301
745.275768	2609.664194
745.604842	2604.522217
745.933869	2609.328957
746.262847	2603.390478
746.591778	2607.274687
746.920662	2610.334667
747.249498	2610.690069
747.578286	2608.683689
747.907027	2610.790892
748.235720	2614.057559
748.564365	2613.324072
748.892963	2615.075872
749.221514	2611.819287
749.550017	2612.204935
749.878473	2610.770727
750.206881	2611.506736
750.535242	2610.584204
750.863555	2606.180757
751.191821	2605.999275
751.520039	2608.277877
751.848210	2605.366610
752.176334	2605.076744
752.504411	2607.332660
752.832440	2605.757300
753.160421	2607.267125
753.488356	2607.055397
753.816243	2602.722525
754.144082	2605.603544
754.471875	2605.495160
754.799620	2599.997781
755.127318	2601.772267
755.454969	2601.164808
755.782572	2605.371651
756.110129	2601.497525
756.437638	2599.234047
756.765100	2600.726228
757.092515	2604.239912
757.419882	2599.481063
757.747203	2602.377206
758.074477	2602.886362
758.401703	2603.017432
758.728882	2601.560539
759.056014	2605.043976
759.383099	2608.172012
759.710138	2608.900459
760.037129	2609.107146
760.364073	2608.235027
760.690970	2607.425922
761.017820	2611.458845
761.344623	2609.255860
761.671379	2615.464041
761.998088	2616.668877
762.324751	2634.562453
762.651366	2656.320073
762.977935	2688.074301
763.304456	2707.167671
763.630931	2713.864844
763.957359	2704.944522
764.283740	2693.070084
764.610074	2676.595593
764.936362	2658.172697
765.262602	2643.850779
765.588796	2628.939046
765.914943	2621.606687
766.241044	2613.379524
766.567097	2607.569594
766.893104	2600.080960
767.219064	2596.269848
767.544978	2592.340269
767.870845	2588.090576
768.196665	2587.475555
768.522438	2586.769794
768.848165	2582.535224
769.173846	2582.852817
769.499479	2583.082190
769.825066	2579.979359
770.150607	2577.816704
770.476101	2576.546334
770.801548	2577.980542
771.126949	2574.988617
771.452303	2575.593556
771.777611	2573.453586
772.102872	2571.805128
772.428087	2571.641291
772.753256	2573.788822
773.078378	2568.556105
773.403453	2568.964438
773.728482	2568.225909
774.053465	2565.100394
774.378401	2566.002760
774.703291	2564.056875
775.028135	2562.073181
775.352932	2562.340362
775.677683	2564.702143
776.002388	2563.497307
776.327046	2563.618295
776.651658	2560.843139
776.976224	2561.616957
777.300743	2562.988150
777.625216	2558.010011
777.949643	2559.043448
778.274024	2563.709035
778.598359	2555.058415
778.922647	2556.207798
779.246889	2555.106306
779.571086	2553.702345
779.895236	2556.180072
780.219339	2557.011862
780.543397	2556.918601
780.867409	2556.986657
781.191374	2558.342727
781.515294	2559.204764
781.839167	2557.987326
782.162995	2559.058571
782.486776	2558.887172
782.810511	2558.798952
783.134201	2558.877089
783.457844	2556.341389
783.781441	2558.982954
784.104993	2557.689898
784.428498	2556.404403
784.751958	2557.513457
785.075372	2555.605381
785.398739	2554.105637
785.722061	2556.709393
786.045337	2553.780483
786.368568	2559.824826
786.691752	2559.096380
787.014891	2560.898592
787.337983	2564.056875
787.661030	2567.626012
787.984031	2574.250088
788.306987	2576.503484
788.629897	2578.618248
788.952760	2578.441808
789.275579	2576.327043
789.598351	2575.913669
789.921078	2572.097515
790.243759	2563.396484
790.566395	2562.524364
790.888984	2560.853222
791.211529	2558.236863
791.534027	2557.364743
791.856480	2556.628735
792.178888	2558.100752
792.501249	2556.903478
792.823566	2554.203940
793.145836	2555.870041
793.468062	2554.047664
793.790241	2554.032541
794.112375	2555.970864
794.434464	2556.200237
794.756507	2558.617470
795.078505	2555.726368
795.400457	2560.437327
795.722364	2558.715773
796.044226	2561.659806
796.366042	2565.085270
796.687812	2564.427400
797.009538	2567.966290
797.331218	2567.988975
797.652852	2566.174160
797.974442	2563.948490
798.295986	2562.239539
798.617484	2562.844477
798.938938	2557.649568
799.260346	2560.190310
799.581709	2558.730896
799.903026	2558.602347
800.224299	2559.340876
800.545526	2555.373488
800.866708	2552.976419
801.187845	2552.396686
801.508936	2552.794937
801.829983	2556.537994
802.150984	2550.443239
802.471940	2550.044988
802.792851	2550.735626
803.113717	2552.154711
803.434538	2552.719320
803.755314	2553.173024
804.076045	2551.161603
804.396731	2549.452652
804.717372	2550.649926
805.037967	2549.009031
805.358518	2551.506922
805.679024	2550.786037
805.999485	2549.646737
806.319901	2550.947354
806.640272	2548.908208
806.960598	2554.438353
807.280879	2553.069680
807.601115	2554.972716
807.921306	2553.294012
808.241453	2552.429454
808.561554	2553.856100
808.881611	2552.343754
809.201623	2552.868034
809.521590	2550.362581
809.841513	2554.125802
810.161390	2550.065153
810.481223	2550.453321
810.801011	2551.774104
811.120755	2549.719833
811.440453	2550.390307
811.760107	2546.793444
812.079716	2547.345450
812.399281	2542.815973
812.718801	2546.841335
813.038276	2542.921838
813.357707	2548.807385
813.677093	2546.294369
813.996434	2548.184802
814.315731	2547.572302
814.634983	2547.073228
814.954191	2546.337219
815.273354	2549.538352
815.592473	2549.450132
815.911547	2552.615976
816.230577	2552.502550
816.549562	2555.441543
816.868502	2551.506923
817.187399	2555.088662
817.506250	2559.272820
817.825058	2556.810216
818.143821	2560.928839
818.462539	2565.390260
818.781213	2566.567370
819.099843	2573.156158
819.418429	2585.317941
819.736970	2594.704570
820.055466	2605.059100
820.373919	2621.936883
820.692327	2644.672487
821.010691	2687.741585
821.329011	2777.857251
821.647286	2917.580391
821.965517	3067.640418
822.283704	3153.690393
822.601847	3178.228210
822.919945	3114.608848
823.237999	3043.768034
823.556010	2968.859008
823.873976	2898.638256
824.191897	2838.371262
824.509775	2789.855197
824.827609	2749.848600
825.145398	2723.914384
825.463144	2715.586398
825.780845	2716.292159
826.098502	2733.790004
826.416116	2765.743358
826.733685	2797.847946
827.051210	2808.777168
827.368692	2789.502316
827.686129	2753.599218
828.003522	2717.320555
828.320872	2679.017868
828.638177	2655.538694
828.955439	2638.068575
829.272656	2618.743312
829.589830	2603.307299
829.906960	2594.858325
830.224046	2583.031778
830.541088	2578.474575
830.858086	2574.434090
831.175041	2569.556774
831.491952	2568.470405
831.808819	2569.531568
832.125642	2571.348904
832.442421	2583.800554
832.759157	2602.846033
833.075849	2631.280662
833.392497	2661.076401
833.709101	2677.906293
834.025662	2674.957218
834.342179	2658.880979
834.658653	2640.594193
834.975083	2622.751029
835.291469	2608.290479
835.607811	2593.431678
835.924110	2580.576736
836.240366	2574.252609
836.556578	2566.199365
836.872746	2560.838098
837.188871	2555.093703
837.504952	2546.574153
837.820990	2547.852086
838.136984	2547.859648
838.452935	2544.706406
838.768842	2546.057435
839.084706	2550.231511
839.400526	2565.186093
839.716303	2580.549010
840.032037	2591.775659
840.347727	2585.990935
840.663373	2578.996334
840.978977	2565.115517
841.294537	2555.963302
841.610054	2551.441388
841.925527	2548.338557
842.240957	2543.829245
842.556344	2541.207845
842.871687	2535.957483
843.186987	2535.468492
843.502244	2532.685775
843.817458	2531.463295
844.132629	2529.875331
844.447756	2527.644621
844.762840	2523.314270
845.077881	2523.823426
845.392879	2520.408044
845.707833	2520.798734
846.022745	2520.332427
846.337613	2524.375432
846.652438	2523.107582
846.967221	2522.628673
847.281960	2522.910977
847.596656	2523.621780
847.911309	2521.476769
848.225919	2519.561131
848.540485	2522.704290
848.855009	2521.242355
849.169490	2520.960051
849.483928	2520.410565
849.798323	2520.536594
850.112675	2522.908457
850.426984	2521.259999
850.741251	2521.199506
851.055474	2520.166069
851.369654	2518.837725
851.683792	2520.150946
851.997887	2517.847138
852.311938	2521.542304
852.625947	2521.232273
852.939914	2521.617921
853.253837	2522.033817
853.567718	2521.277643
853.881555	2520.987777
854.195350	2520.493744
854.509103	2520.929804
854.822812	2518.905781
855.136479	2520.408044
855.450103	2519.316635
855.763685	2522.706811
856.077224	2519.561131
856.390720	2517.804288
856.704173	2521.323014
857.017584	2519.213291
857.330953	2521.537263
857.644278	2520.009793
857.957561	2524.418282
858.270802	2523.936852
858.584000	2521.973323
858.897155	2521.353261
859.210268	2521.829650
859.523339	2521.330576
859.836367	2522.593385
860.149352	2523.619259
860.462295	2519.674557
860.775195	2518.273116
861.088054	2516.324710
861.400869	2517.406037
861.713642	2518.066428
862.026373	2516.488547
862.339062	2519.790503
862.651708	2520.763446
862.964312	2519.543487
863.276873	2520.224042
863.589392	2522.666481
863.901869	2521.338137
864.214303	2521.547345
864.526696	2523.704959
864.839045	2523.432737
865.151353	2522.991636
865.463619	2524.446009
865.775842	2526.132275
866.088023	2524.604805
866.400162	2524.667819
866.712258	2525.209743
867.024313	2524.070443
867.336325	2524.188910
867.648296	2525.456760
867.960224	2524.216636
868.272110	2528.310053
868.583954	2526.535567
868.895755	2524.244362
869.207515	2526.374250
869.519233	2525.981040
869.830909	2526.470032
870.142542	2528.718387
870.454134	2525.953314
870.765684	2527.100176
871.077191	2528.000022
871.388657	2530.079498
871.700081	2530.021525
872.011463	2527.480783
872.322803	2529.373737
872.634101	2530.147554
872.945357	2530.351720
873.256571	2531.662420
873.567744	2534.072092
873.878874	2533.825075
874.189963	2531.193593
874.501010	2534.687113
874.812015	2531.158305
875.122979	2535.057637
875.433900	2533.930940
875.744780	2532.184180
876.055618	2534.646783
876.366415	2536.753986
876.677169	2535.677699
876.987882	2533.976310
877.298554	2532.577390
877.609183	2534.465302
877.919771	2537.316074
878.230317	2539.897145
878.540822	2549.929041
878.851285	2551.514484
879.161707	2558.471277
879.472087	2569.168605
879.782425	2589.537387
880.092722	2617.573764
880.402977	2666.031856
880.713191	2724.582337
881.023363	2774.726694
881.333494	2810.105512
881.643583	2820.359219
881.953631	2813.369659
882.263637	2795.748306
882.573602	2774.240223
882.883526	2754.862027
883.193408	2731.231619
883.503248	2710.557847
883.813048	2688.502799
884.122806	2671.032680
884.432522	2649.214566
884.742197	2630.562297
885.051831	2617.906480
885.361424	2603.985334
885.670975	2590.621235
885.980485	2580.579257
886.289954	2572.241188
886.599382	2565.244067
886.908768	2560.644014
887.218113	2556.190154
887.527417	2553.079763
887.836680	2547.537014
888.145901	2544.131714
888.455082	2543.095757
888.764221	2541.827907
889.073319	2537.258101
889.382376	2538.969573
889.691392	2537.434542
890.000366	2537.832793
890.309300	2538.389840
890.618193	2536.282638
890.927044	2541.308668
891.235855	2534.644263
891.544625	2539.478729
891.853353	2535.314736
892.162041	2542.314378
892.470687	2542.793288
892.779293	2546.208670
893.087858	2551.973229
893.396381	2557.125288
893.704864	2570.955694
894.013306	2587.215936
894.321707	2608.519852
894.630068	2615.461521
894.938387	2619.418827
895.246665	2613.346757
895.554903	2608.154368
895.863100	2596.630291
896.171256	2590.782552
896.479371	2581.209401
896.787446	2579.049267
897.095480	2572.268915
897.403473	2567.885631
897.711425	2561.196020
898.019336	2555.224773
898.327207	2553.490617
898.635038	2550.622200
898.942827	2544.756818
899.250576	2542.780685
899.558284	2544.446787
899.865952	2537.883204
900.173579	2536.285158
900.481165	2533.048738
900.788711	2532.242153
901.096216	2529.782070
901.403681	2531.579241
901.711105	2531.450692
902.018489	2530.636546
902.325832	2535.329860
902.633135	2531.896834
902.940397	2539.970242
903.247619	2556.283416
903.554800	2578.532548
903.861941	2609.737291
904.169041	2631.900723
904.476101	2634.938019
904.783121	2630.968110
905.090100	2619.028137
905.397039	2607.982969
905.703938	2594.452512
906.010796	2584.818867
906.317614	2575.313772
906.624391	2568.833368
906.931129	2561.770712
907.237826	2552.865513
907.544483	2549.578681
907.851099	2545.429812
908.157675	2536.983358
908.464211	2530.921371
908.770707	2524.561955
909.077163	2525.996163
909.383578	2519.656912
909.689954	2520.125740
909.996289	2517.675739
910.302584	2519.709845
910.608839	2520.564320
910.915054	2517.537107
911.221229	2521.408713
911.527363	2517.408558
911.833458	2518.240348
912.139513	2522.699249
912.445527	2518.910822
912.751502	2520.632376
913.057436	2525.333252
913.363331	2523.707480
913.669186	2529.545136
913.975000	2535.372710
914.280775	2540.733977
914.586510	2551.552293
914.892205	2565.929664
915.197859	2583.722416
915.503475	2601.308481
915.809050	2619.214660
916.114585	2630.915178
916.420081	2633.377782
916.725536	2631.726804
917.030952	2622.556945
917.336328	2617.709875
917.641665	2614.395317
917.946961	2601.971393
918.252218	2595.206165
918.557435	2590.485124
918.862612	2581.065728
919.167750	2572.309244
919.472848	2567.416804
919.777906	2558.010011
920.082925	2554.521533
920.387904	2546.760676
920.692843	2546.647250
920.997743	2541.348997
921.302603	2536.065868
921.607423	2534.508152
921.912204	2532.481608
922.216946	2528.173942
922.521647	2527.432892
922.826310	2526.331400
923.130932	2525.620597
923.435516	2522.311080
923.740059	2521.433919
924.044564	2518.252951
924.349028	2519.881244
924.653454	2513.925121
924.957840	2513.620131
925.262186	2513.075686
925.566493	2514.411592
925.870761	2508.568895
926.174989	2513.151303
926.479178	2513.355470
926.783328	2510.668535
927.087438	2512.901766
927.391509	2512.430418
927.695541	2511.825480
927.999533	2510.461848
928.303486	2509.204080
928.607400	2510.610562
928.911275	2510.673576
929.215110	2509.236847
929.518906	2510.262722
929.822663	2509.786333
930.126381	2510.953360
930.430060	2506.842299
930.733699	2508.127794
931.037299	2509.123422
931.340861	2509.519152
931.644383	2509.546878
931.947866	2510.005623
932.251309	2513.047960
932.554714	2507.343894
932.858080	2511.613752
933.161407	2509.015037
933.464694	2507.447238
933.767943	2509.282218
934.071153	2507.245592
934.374323	2508.203411
934.677455	2508.402537
934.980548	2510.071158
935.283602	2508.997393
935.586617	2508.251302
935.889593	2506.312978
936.192530	2507.616117
936.495428	2508.362207
936.798287	2508.899090
937.101108	2510.885305
937.403890	2512.894205
937.706632	2514.567868
938.009336	2511.099554
938.312002	2516.838908
938.614628	2514.830008
938.917216	2516.498630
939.219765	2518.474762
939.522275	2516.760770
939.824747	2518.696573
940.127179	2514.187261
940.429573	2514.444359
940.731929	2515.742457
941.034246	2513.211797
941.336524	2514.151973
941.638763	2515.956706
941.940964	2515.341685
942.243126	2515.187930
942.545250	2518.073990
942.847335	2516.075173
943.149381	2517.063239
943.451389	2512.637106
943.753359	2514.318331
944.055290	2511.875892
944.357182	2512.276663
944.659036	2512.311951
944.960851	2510.794564
945.262628	2511.795233
945.564367	2511.260871
945.866067	2511.122239
946.167729	2512.289266
946.469352	2510.913031
946.770937	2512.644668
947.072484	2510.834893
947.373992	2511.694410
947.675462	2508.379851
947.976893	2510.983607
948.278286	2510.628206
948.579641	2508.934378
948.880958	2509.458658
949.182236	2508.316837
949.483476	2509.388082
949.784678	2511.265912
950.085841	2511.802795
950.386967	2511.641478
950.688054	2509.622496
950.989103	2509.312465
951.290114	2509.335150
951.591087	2512.271622
951.892021	2510.224914
952.192917	2513.678104
952.493776	2513.141221
952.794596	2512.863958
953.095378	2512.848834
953.396122	2511.785151
953.696828	2514.484689
953.997496	2513.509225
954.298126	2511.427229
954.598718	2510.794564
954.899272	2511.318844
955.199788	2510.308093
955.500266	2508.178205
955.800706	2506.620489
956.101108	2504.898935
956.401472	2505.884480
956.701798	2502.869870
957.002087	2503.547905
957.302337	2506.224758
957.602550	2508.357166
957.902724	2503.494973
958.202861	2504.558657
958.502960	2503.658811
958.803022	2506.479336
959.103045	2506.323061
959.403031	2501.095384
959.702979	2504.271311
960.002889	2502.070847
960.302762	2503.207628
960.602596	2503.563029
960.902393	2501.062617
961.202153	2503.689058
961.501875	2498.836947
961.801559	2502.665703
962.101205	2503.023625
962.400814	2500.986999
962.700385	2498.229488
962.999918	2501.697802
963.299414	2498.421052
963.598873	2500.810559
963.898293	2501.085302
964.197677	2502.098574
964.497022	2499.073881
964.796331	2499.179746
965.095601	2500.165291
965.394835	2501.803666
965.694030	2498.748727
965.993189	2503.681496
966.292309	2502.942967
966.591393	2500.087153
966.890439	2500.891217
967.189447	2498.680671
967.488419	2498.254694
967.787353	2501.629746
968.086249	2500.697133
968.385108	2497.866525
968.683930	2502.085971
968.982714	2499.638491
969.281462	2499.378871
969.580172	2499.222595
969.878844	2501.042452
970.177480	2500.442555
970.476078	2500.944149
970.774639	2501.402894
971.073162	2499.542709
971.371649	2500.684530
971.670098	2496.160094
971.968510	2497.465753
972.266885	2493.246308
972.565223	2502.249808
972.863524	2499.777122
973.161788	2501.604541
973.460014	2500.848368
973.758204	2501.211331
974.056356	2501.866681
974.354471	2503.484891
974.652550	2502.453975
974.950591	2503.552947
975.248595	2501.584376
975.546563	2500.472802
975.844493	2503.552947
976.142386	2502.388440
976.440243	2501.201248
976.738062	2503.084119
977.035845	2504.477998
977.333590	2500.344252
977.631299	2500.752586
977.928971	2500.697133
978.226606	2497.165805
978.524204	2499.141937
978.821765	2502.345590
979.119290	2501.491115
979.416777	2499.572956
979.714228	2501.299551
980.011642	2498.935250
980.309020	2504.866167
980.606360	2500.402225
980.903664	2504.762823
981.200931	2502.022956
981.498162	2505.829028
981.795356	2507.338853
982.092513	2509.682990
982.389633	2509.476302
982.686717	2512.059894
982.983764	2513.789009
983.280775	2517.527025
983.577749	2515.069463
983.874686	2516.755728
984.171587	2513.698269
984.468451	2512.929493
984.765279	2511.994359
985.062070	2511.696931
985.358824	2510.298010
985.655543	2509.677948
985.952224	2505.279542
986.248869	2505.052690
986.545478	2499.706546
986.842050	2500.820641
987.138586	2496.525578
987.435086	2496.162615
987.731549	2494.524240
988.027975	2498.937770
988.324366	2496.379385
988.620719	2497.042296
988.917037	2499.023470
989.213318	2499.663696
989.509563	2497.732934
989.805772	2498.526916
990.101944	2498.259735
990.398080	2499.603203
990.694180	2497.864004
990.990244	2498.579848
991.286271	2499.295692
991.582262	2496.177738
991.878217	2499.711587
992.174136	2499.134375
992.470019	2497.478356
992.765865	2496.810403
993.061676	2501.244098
993.357450	2500.182935
993.653188	2499.290651
993.948890	2500.639160
994.244556	2498.935250
994.540186	2502.567401
994.835780	2500.044303
995.131337	2502.345590
995.426859	2500.200579
995.722345	2503.101763
996.017795	2503.462206
996.313208	2503.903307
996.608586	2504.891373
996.903928	2505.932371
997.199234	2505.914727
997.494504	2507.109481
997.789738	2508.120232
998.084936	2502.869870
998.380099	2503.973883
998.675225	2506.239882
998.970316	2505.851713
999.265371	2500.818121
999.560390	2501.100425
999.855373	2502.148985
1000.150320	2501.133193
1000.445232	2502.610251
1000.740108	2497.949704
1001.034948	2499.288130
1001.329752	2494.887203
1001.624521	2499.734273
1001.919254	2495.388798
1002.213951	2495.726555
1002.508613	2493.019456
1002.803239	2496.447440
1003.097829	2493.344610
1003.392384	2496.560866
1003.686903	2495.693788
1003.981386	2497.352327
1004.275834	2496.404590
1004.570246	2497.599344
1004.864623	2498.703357
1005.158964	2498.153871
1005.453270	2496.381905
1005.747540	2495.718993
1006.041775	2498.544560
1006.335974	2496.271000
1006.630138	2497.329642
1006.924266	2495.897954
1007.218359	2496.646566
1007.512416	2497.165805
1007.806438	2497.241422
1008.100425	2497.861484
1008.394376	2495.716473
1008.688292	2494.521719
1008.982172	2497.024652
1009.276017	2496.964158
1009.569827	2496.719663
1009.863602	2498.655466
1010.157341	2496.397029
1010.451045	2497.392657
1010.744714	2497.775784
1011.038347	2497.301916
1011.331945	2495.255207
1011.625508	2496.913747
1011.919036	2495.182111
1012.212528	2496.520537
1012.505986	2496.583551
1012.799408	2495.391318
1013.092795	2494.269662
1013.386147	2494.297388
1013.679464	2495.414004
1013.972745	2497.959786
1014.265992	2494.390649
1014.559204	2498.622698
1014.852380	2496.250835
1015.145521	2494.309991
1015.438628	2492.633807
1015.731699	2495.726555
1016.024736	2494.282265
1016.317737	2498.347955
1016.610703	2496.901144
1016.903635	2494.022645
1017.196531	2492.575834
1017.489393	2492.464929
1017.782219	2492.578355
1018.075011	2497.891731
1018.367768	2494.667913
1018.660490	2496.601195
1018.953177	2496.601195
1019.245829	2496.601195
