Dividing Wavelength (nm)	Counts (n)	Blue Motor Position (mm): 0.000000	Red Motor Position (mm): 10.000000	
326.493990	2180.299038
326.888308	2180.299038
327.282561	2180.299038
327.676750	2036.626154
328.070874	2132.408077
328.464933	2006.379231
328.858929	2071.914231
329.252859	2051.749615
329.646726	2036.626154
330.040528	2124.846346
330.434265	2076.955385
330.827938	2155.093269
331.221547	2104.681731
331.615091	2177.778462
332.008571	2220.628269
332.401986	2167.696154
332.795338	2195.422500
333.188625	2271.039808
333.581847	2288.683846
333.975006	2278.601538
334.368100	2329.013077
334.761129	2321.451346
335.154095	2374.383462
335.546996	2283.642692
335.939833	2414.712692
336.332606	2293.725000
336.725315	2359.260000
337.117960	2427.315577
337.510540	2442.439038
337.903056	2417.233269
338.295508	2397.068654
338.687896	2414.712692
339.080220	2492.850577
339.472480	2389.506923
339.864676	2497.891731
340.256807	2376.904038
340.648875	2502.932885
341.040879	2419.753846
341.432818	2510.494615
341.824694	2376.904038
342.216506	2518.056346
342.608253	2419.753846
342.999937	2515.535769
343.391557	2586.111923
343.783113	2442.439038
344.174605	2502.932885
344.566033	2450.000769
344.957397	2588.632500
345.348697	2422.274423
345.739934	2444.959615
346.131106	2429.836154
346.522215	2490.330000
346.913260	2407.150962
347.304241	2490.330000
347.695159	2422.274423
348.086012	2439.918462
348.476802	2505.453462
348.867528	2502.932885
349.258191	2475.206538
349.648789	2429.836154
350.039324	2510.494615
350.429796	2502.932885
350.820203	2480.247692
351.210548	2467.644808
351.600828	2364.301154
351.991045	2455.041923
352.381198	2455.041923
352.771288	2429.836154
353.161314	2422.274423
353.551276	2502.932885
353.941175	2417.233269
354.331010	2472.685962
354.720782	2480.247692
355.110490	2424.795000
355.500135	2414.712692
355.889717	2386.986346
356.279235	2434.877308
356.668689	2520.576923
357.058080	2442.439038
357.447408	2507.974038
357.836672	2482.768269
358.225873	2543.262115
358.615010	2565.947308
359.004084	2429.836154
359.393095	2497.891731
359.782043	2409.671538
360.170927	2419.753846
360.559748	2432.356731
360.948505	2394.548077
361.337199	2452.521346
361.725830	2490.330000
362.114398	2460.083077
362.502903	2439.918462
362.891344	2487.809423
363.279722	2364.301154
363.668037	2414.712692
364.056289	2470.165385
364.444478	2439.918462
364.832603	2467.644808
365.220665	2492.850577
365.608665	2482.768269
365.996601	2404.630385
366.384474	2374.383462
366.772284	2477.727115
367.160031	2434.877308
367.547715	2424.795000
367.935336	2442.439038
368.322893	2381.945192
368.710388	2487.809423
369.097820	2513.015192
369.485189	2462.603654
369.872495	2444.959615
370.259738	2384.465769
370.646918	2452.521346
371.034035	2444.959615
371.421090	2369.342308
371.808081	2492.850577
372.195010	2472.685962
372.581875	2520.576923
372.968678	2462.603654
373.355418	2555.865000
373.742096	2384.465769
374.128710	2444.959615
374.515262	2475.206538
374.901751	2450.000769
375.288177	2492.850577
375.674540	2548.303269
376.060841	2407.150962
376.447079	2492.850577
376.833254	2490.330000
377.219367	2485.288846
377.605417	2497.891731
377.991404	2437.397885
378.377329	2485.288846
378.763191	2480.247692
379.148991	2507.974038
379.534727	2417.233269
379.920402	2432.356731
380.306013	2507.974038
380.691563	2530.659231
381.077049	2447.480192
381.462474	2538.220962
381.847835	2439.918462
382.233134	2442.439038
382.618371	2510.494615
383.003545	2497.891731
383.388657	2452.521346
383.773706	2450.000769
384.158693	2424.795000
384.543618	2450.000769
384.928480	2457.562500
385.313280	2439.918462
385.698017	2414.712692
386.082692	2432.356731
386.467305	2540.741538
386.851856	2427.315577
387.236344	2480.247692
387.620770	2427.315577
388.005133	2475.206538
388.389435	2455.041923
388.773674	2538.220962
389.157851	2470.165385
389.541965	2482.768269
389.926018	2548.303269
390.310008	2467.644808
390.693936	2402.109808
391.077802	2450.000769
391.461606	2450.000769
391.845348	2477.727115
392.229027	2487.809423
392.612645	2414.712692
392.996200	2434.877308
393.379694	2460.083077
393.763125	2543.262115
394.146494	2462.603654
394.529801	2392.027500
394.913047	2427.315577
395.296230	2455.041923
395.679351	2586.111923
396.062410	2450.000769
396.445408	2505.453462
396.828343	2513.015192
397.211217	2497.891731
397.594028	2482.768269
397.976778	2480.247692
398.359466	2497.891731
398.742092	2490.330000
399.124656	2457.562500
399.507158	2439.918462
399.889598	2510.494615
400.271977	2462.603654
400.654294	2409.671538
401.036549	2442.439038
401.418742	2485.288846
401.800874	2490.330000
402.182944	2439.918462
402.564952	2510.494615
402.946898	2444.959615
403.328783	2492.850577
403.710606	2450.000769
404.092367	2570.988462
404.474067	2429.836154
404.855705	2397.068654
405.237282	2550.823846
405.618797	2490.330000
406.000250	2419.753846
406.381642	2555.865000
406.762972	2467.644808
407.144240	2485.288846
407.525447	2500.412308
407.906593	2510.494615
408.287677	2457.562500
408.668700	2482.768269
409.049661	2437.397885
409.430560	2495.371154
409.811399	2439.918462
410.192176	2507.974038
410.572891	2485.288846
410.953545	2513.015192
411.334138	2553.344423
411.714669	2434.877308
412.095139	2437.397885
412.475547	2513.015192
412.855894	2444.959615
413.236180	2460.083077
413.616405	2477.727115
413.996568	2487.809423
414.376670	2460.083077
414.756711	2472.685962
415.136691	2429.836154
415.516609	2452.521346
415.896466	2452.521346
416.276262	2470.165385
416.655997	2515.535769
417.035670	2414.712692
417.415283	2419.753846
417.794834	2465.124231
418.174324	2485.288846
418.553753	2447.480192
418.933121	2437.397885
419.312428	2505.453462
419.691674	2442.439038
420.070859	2528.138654
420.449983	2472.685962
420.829045	2447.480192
421.208047	2487.809423
421.586988	2520.576923
421.965867	2462.603654
422.344686	2485.288846
422.723444	2507.974038
423.102141	2482.768269
423.480777	2439.918462
423.859352	2505.453462
424.237866	2497.891731
424.616319	2518.056346
424.994712	2439.918462
425.373044	2520.576923
425.751314	2447.480192
426.129524	2407.150962
426.507673	2558.385577
426.885762	2439.918462
427.263789	2495.371154
427.641756	2467.644808
428.019662	2482.768269
428.397508	2447.480192
428.775292	2530.659231
429.153016	2593.673654
429.530679	2548.303269
429.908282	2505.453462
430.285824	2502.932885
430.663305	2414.712692
431.040726	2470.165385
431.418086	2507.974038
431.795385	2432.356731
432.172624	2465.124231
432.549802	2472.685962
432.926920	2460.083077
433.303977	2462.603654
433.680974	2500.412308
434.057910	2518.056346
434.434786	2530.659231
434.811601	2490.330000
435.188355	2550.823846
435.565050	2465.124231
435.941683	2386.986346
436.318257	2465.124231
436.694770	2455.041923
437.071222	2419.753846
437.447614	2457.562500
437.823946	2507.974038
438.200218	2523.097500
438.576429	2477.727115
438.952580	2465.124231
439.328670	2462.603654
439.704700	2513.015192
440.080670	2480.247692
440.456580	2482.768269
440.832429	2523.097500
441.208218	2495.371154
441.583947	2439.918462
441.959616	2495.371154
442.335224	2510.494615
442.710773	2515.535769
443.086261	2457.562500
443.461689	2500.412308
443.837057	2432.356731
444.212365	2550.823846
444.587612	2533.179808
444.962800	2487.809423
445.337927	2419.753846
445.712995	2434.877308
446.088002	2455.041923
446.462949	2576.029615
446.837837	2427.315577
447.212664	2505.453462
447.587431	2518.056346
447.962139	2563.426731
448.336786	2583.591346
448.711374	2447.480192
449.085901	2507.974038
449.460369	2492.850577
449.834776	2444.959615
450.209124	2460.083077
450.583412	2492.850577
450.957640	2502.932885
451.331808	2515.535769
451.705917	2497.891731
452.079965	2530.659231
452.453954	2470.165385
452.827883	2424.795000
453.201752	2492.850577
453.575562	2548.303269
453.949311	2460.083077
454.323001	2525.618077
454.696632	2482.768269
455.070202	2465.124231
455.443713	2457.562500
455.817164	2515.535769
456.190556	2492.850577
456.563888	2490.330000
456.937160	2477.727115
457.310373	2513.015192
457.683526	2467.644808
458.056619	2495.371154
458.429653	2510.494615
458.802628	2487.809423
459.175542	2419.753846
459.548398	2412.192115
459.921194	2482.768269
460.293930	2455.041923
460.666607	2472.685962
461.039224	2455.041923
461.411782	2535.700385
461.784280	2450.000769
462.156719	2492.850577
462.529099	2560.906154
462.901419	2482.768269
463.273680	2422.274423
463.645882	2465.124231
464.018024	2560.906154
464.390106	2460.083077
464.762130	2450.000769
465.134094	2535.700385
465.505999	2477.727115
465.877845	2530.659231
466.249631	2444.959615
466.621358	2515.535769
466.993026	2467.644808
467.364634	2502.932885
467.736184	2424.795000
468.107674	2573.509038
468.479105	2472.685962
468.850477	2467.644808
469.221790	2450.000769
469.593043	2477.727115
469.964238	2505.453462
470.335373	2460.083077
470.706449	2533.179808
471.077467	2424.795000
471.448425	2528.138654
471.819324	2462.603654
472.190164	2525.618077
472.560945	2555.865000
472.931667	2523.097500
473.302330	2462.603654
473.672934	2439.918462
474.043479	2507.974038
474.413965	2538.220962
474.784393	2495.371154
475.154761	2470.165385
475.525070	2530.659231
475.895321	2528.138654
476.265513	2482.768269
476.635645	2457.562500
477.005719	2434.877308
477.375734	2465.124231
477.745691	2502.932885
478.115588	2384.465769
478.485427	2477.727115
478.855207	2533.179808
479.224928	2507.974038
479.594591	2510.494615
479.964194	2467.644808
480.333739	2437.397885
480.703226	2455.041923
481.072653	2407.150962
481.442022	2530.659231
481.811333	2513.015192
482.180584	2513.015192
482.549777	2462.603654
482.918912	2513.015192
483.287988	2550.823846
483.657005	2540.741538
484.025964	2475.206538
484.394864	2424.795000
484.763706	2480.247692
485.132489	2576.029615
485.501213	2510.494615
485.869879	2553.344423
486.238487	2457.562500
486.607036	2485.288846
486.975527	2477.727115
487.343959	2475.206538
487.712333	2429.836154
488.080648	2543.262115
488.448905	2518.056346
488.817104	2462.603654
489.185244	2568.467885
489.553326	2490.330000
489.921350	2560.906154
490.289315	2492.850577
490.657222	2414.712692
491.025070	2497.891731
491.392861	2455.041923
491.760593	2525.618077
492.128267	2460.083077
492.495883	2513.015192
492.863440	2548.303269
493.230939	2507.974038
493.598380	2442.439038
493.965763	2485.288846
494.333088	2525.618077
494.700354	2523.097500
495.067563	2543.262115
495.434713	2616.358846
495.801805	2513.015192
496.168839	2543.262115
496.535815	2444.959615
496.902733	2525.618077
497.269593	2452.521346
497.636395	2591.153077
498.003139	2475.206538
498.369825	2533.179808
498.736453	2523.097500
499.103023	2510.494615
499.469535	2500.412308
499.835989	2558.385577
500.202385	2480.247692
500.568723	2520.576923
500.935003	2586.111923
501.301226	2490.330000
501.667390	2528.138654
502.033497	2515.535769
502.399546	2455.041923
502.765537	2518.056346
503.131470	2480.247692
503.497345	2578.550192
503.863163	2548.303269
504.228923	2467.644808
504.594625	2457.562500
504.960269	2510.494615
505.325856	2518.056346
505.691385	2472.685962
506.056856	2538.220962
506.422270	2528.138654
506.787625	2505.453462
507.152924	2513.015192
507.518164	2495.371154
507.883347	2482.768269
508.248472	2497.891731
508.613540	2538.220962
508.978550	2434.877308
509.343503	2608.797115
509.708398	2550.823846
510.073236	2548.303269
510.438016	2462.603654
510.802738	2437.397885
511.167403	2472.685962
511.532010	2444.959615
511.896561	2497.891731
512.261053	2510.494615
512.625488	2528.138654
512.989866	2470.165385
513.354186	2598.714808
513.718449	2492.850577
514.082655	2470.165385
514.446803	2507.974038
514.810894	2450.000769
515.174927	2482.768269
515.538904	2525.618077
515.902822	2530.659231
516.266684	2392.027500
516.630488	2475.206538
516.994235	2460.083077
517.357925	2447.480192
517.721558	2510.494615
518.085133	2535.700385
518.448651	2482.768269
518.812112	2490.330000
519.175516	2381.945192
519.538863	2560.906154
519.902152	2467.644808
520.265385	2485.288846
520.628560	2495.371154
520.991678	2540.741538
521.354739	2490.330000
521.717743	2422.274423
522.080690	2487.809423
522.443580	2538.220962
522.806413	2495.371154
523.169189	2525.618077
523.531908	2545.782692
523.894569	2507.974038
524.257174	2487.809423
524.619722	2467.644808
524.982213	2507.974038
525.344647	2523.097500
525.707025	2573.509038
526.069345	2502.932885
526.431608	2482.768269
526.793815	2518.056346
527.155964	2490.330000
527.518057	2485.288846
527.880093	2450.000769
528.242072	2450.000769
528.603995	2482.768269
528.965860	2520.576923
529.327669	2412.192115
529.689421	2540.741538
530.051117	2470.165385
530.412755	2510.494615
530.774337	2490.330000
531.135862	2475.206538
531.497331	2444.959615
531.858743	2495.371154
532.220098	2495.371154
532.581396	2455.041923
532.942638	2558.385577
533.303824	2523.097500
533.664953	2492.850577
534.026025	2502.932885
534.387040	2467.644808
534.747999	2523.097500
535.108902	2565.947308
535.469748	2460.083077
535.830537	2510.494615
536.191270	2497.891731
536.551947	2470.165385
536.912567	2457.562500
537.273131	2515.535769
537.633638	2485.288846
537.994089	2507.974038
538.354483	2465.124231
538.714821	2507.974038
539.075103	2573.509038
539.435328	2502.932885
539.795497	2523.097500
540.155609	2558.385577
540.515665	2558.385577
540.875665	2505.453462
541.235609	2510.494615
541.595496	2540.741538
541.955328	2462.603654
542.315102	2543.262115
542.674821	2447.480192
543.034483	2530.659231
543.394090	2510.494615
543.753640	2545.782692
544.113134	2545.782692
544.472571	2497.891731
544.831953	2520.576923
545.191278	2525.618077
545.550548	2492.850577
545.909761	2538.220962
546.268918	2518.056346
546.628019	2515.535769
546.987064	2523.097500
547.346053	2520.576923
547.704986	2583.591346
548.063863	2513.015192
548.422684	2533.179808
548.781449	2560.906154
549.140158	2510.494615
549.498811	2540.741538
549.857408	2460.083077
550.215949	2586.111923
550.574434	2439.918462
550.932864	2565.947308
551.291237	2515.535769
551.649555	2515.535769
552.007817	2452.521346
552.366022	2510.494615
552.724173	2442.439038
553.082267	2507.974038
553.440305	2502.932885
553.798288	2439.918462
554.156215	2495.371154
554.514086	2530.659231
554.871902	2412.192115
555.229661	2500.412308
555.587365	2550.823846
555.945014	2497.891731
556.302606	2485.288846
556.660143	2525.618077
557.017625	2455.041923
557.375050	2455.041923
557.732421	2518.056346
558.089735	2502.932885
558.446994	2558.385577
558.804197	2502.932885
559.161345	2477.727115
559.518437	2502.932885
559.875474	2520.576923
560.232455	2523.097500
560.589381	2490.330000
560.946251	2523.097500
561.303065	2475.206538
561.659825	2535.700385
562.016528	2495.371154
562.373177	2444.959615
562.729770	2505.453462
563.086307	2533.179808
563.442789	2507.974038
563.799216	2472.685962
564.155587	2533.179808
564.511904	2432.356731
564.868164	2545.782692
565.224370	2618.879423
565.580520	2495.371154
565.936615	2530.659231
566.292654	2525.618077
566.648638	2472.685962
567.004567	2543.262115
567.360441	2533.179808
567.716260	2535.700385
568.072023	2533.179808
568.427732	2515.535769
568.783385	2545.782692
569.138982	2470.165385
569.494525	2452.521346
569.850013	2530.659231
570.205445	2477.727115
570.560823	2487.809423
570.916145	2510.494615
571.271412	2565.947308
571.626625	2560.906154
571.981782	2548.303269
572.336884	2492.850577
572.691931	2560.906154
573.046923	2492.850577
573.401860	2520.576923
573.756743	2472.685962
574.111570	2515.535769
574.466342	2470.165385
574.821059	2465.124231
575.175722	2439.918462
575.530330	2490.330000
575.884882	2437.397885
576.239380	2530.659231
576.593823	2477.727115
576.948211	2485.288846
577.302544	2439.918462
577.656823	2502.932885
578.011047	2450.000769
578.365216	2502.932885
578.719330	2437.397885
579.073389	2515.535769
579.427394	2419.753846
579.781344	2581.070769
580.135239	2409.671538
580.489080	2447.480192
580.842866	2472.685962
581.196597	2465.124231
581.550273	2545.782692
581.903895	2530.659231
582.257463	2487.809423
582.610975	2581.070769
582.964434	2432.356731
583.317837	2548.303269
583.671186	2465.124231
584.024481	2538.220962
584.377721	2470.165385
584.730906	2535.700385
585.084037	2528.138654
585.437113	2492.850577
585.790135	2533.179808
586.143103	2485.288846
586.496016	2543.262115
586.848874	2482.768269
587.201679	2535.700385
587.554428	2450.000769
587.907124	2523.097500
588.259765	2520.576923
588.612352	2525.618077
588.964884	2533.179808
589.317362	2434.877308
589.669786	2455.041923
590.022155	2555.865000
590.374470	2402.109808
590.726731	2465.124231
591.078937	2487.809423
591.431090	2573.509038
591.783188	2492.850577
592.135232	2510.494615
592.487222	2457.562500
592.839157	2538.220962
593.191038	2434.877308
593.542866	2530.659231
593.894639	2455.041923
594.246358	2528.138654
594.598022	2457.562500
594.949633	2437.397885
595.301190	2505.453462
595.652692	2558.385577
596.004141	2472.685962
596.355535	2513.015192
596.706876	2548.303269
597.058162	2462.603654
597.409395	2548.303269
597.760573	2611.317692
598.111698	2500.412308
598.462768	2487.809423
598.813785	2455.041923
599.164748	2467.644808
599.515657	2460.083077
599.866511	2510.494615
600.217312	2492.850577
600.568060	2472.685962
600.918753	2502.932885
601.269392	2540.741538
601.619978	2565.947308
601.970510	2505.453462
602.320988	2450.000769
602.671412	2555.865000
603.021783	2455.041923
603.372100	2578.550192
603.722363	2573.509038
604.072572	2470.165385
604.422728	2538.220962
604.772830	2477.727115
605.122878	2553.344423
605.472872	2470.165385
605.822813	2515.535769
606.172701	2477.727115
606.522534	2543.262115
606.872314	2500.412308
607.222041	2480.247692
607.571714	2523.097500
607.921333	2553.344423
608.270899	2515.535769
608.620411	2465.124231
608.969870	2384.465769
609.319276	2530.659231
609.668627	2450.000769
610.017926	2548.303269
610.367171	2497.891731
610.716362	2548.303269
611.065500	2439.918462
611.414585	2520.576923
611.763616	2472.685962
612.112594	2467.644808
612.461518	2452.521346
612.810389	2545.782692
613.159207	2480.247692
613.507971	2505.453462
613.856682	2513.015192
614.205340	2545.782692
614.553945	2462.603654
614.902496	2470.165385
615.250994	2477.727115
615.599439	2444.959615
615.947830	2553.344423
616.296169	2500.412308
616.644454	2510.494615
616.992686	2472.685962
617.340864	2462.603654
617.688990	2576.029615
618.037063	2560.906154
618.385082	2570.988462
618.733048	2429.836154
619.080961	2480.247692
619.428821	2482.768269
619.776628	2510.494615
620.124382	2545.782692
620.472083	2520.576923
620.819731	2530.659231
621.167326	2560.906154
621.514868	2540.741538
621.862357	2502.932885
622.209793	2480.247692
622.557176	2505.453462
622.904506	2424.795000
623.251783	2460.083077
623.599007	2505.453462
623.946179	2540.741538
624.293297	2502.932885
624.640363	2427.315577
624.987376	2505.453462
625.334336	2502.932885
625.681243	2515.535769
626.028097	2505.453462
626.374899	2543.262115
626.721647	2487.809423
627.068343	2475.206538
627.414987	2427.315577
627.761577	2502.932885
628.108115	2485.288846
628.454600	2507.974038
628.801032	2523.097500
629.147412	2407.150962
629.493739	2565.947308
629.840014	2477.727115
630.186236	2432.356731
630.532405	2550.823846
630.878521	2538.220962
631.224585	2457.562500
631.570597	2452.521346
631.916556	2576.029615
632.262462	2434.877308
632.608316	2392.027500
632.954117	2507.974038
633.299866	2475.206538
633.645562	2558.385577
633.991206	2588.632500
634.336797	2555.865000
634.682336	2437.397885
635.027823	2492.850577
635.373257	2533.179808
635.718639	2467.644808
636.063968	2538.220962
636.409245	2528.138654
636.754470	2565.947308
637.099642	2485.288846
637.444762	2513.015192
637.789829	2533.179808
638.134845	2482.768269
638.479808	2528.138654
638.824719	2492.850577
639.169577	2555.865000
639.514383	2444.959615
639.859137	2475.206538
640.203839	2558.385577
640.548489	2525.618077
640.893086	2507.974038
641.237632	2462.603654
641.582125	2548.303269
641.926566	2558.385577
642.270955	2497.891731
642.615292	2472.685962
642.959576	2520.576923
643.303809	2447.480192
643.647990	2543.262115
643.992118	2472.685962
644.336195	2545.782692
644.680219	2505.453462
645.024192	2533.179808
645.368112	2470.165385
645.711981	2520.576923
646.055797	2543.262115
646.399562	2447.480192
646.743274	2510.494615
647.086935	2515.535769
647.430544	2429.836154
647.774101	2434.877308
648.117606	2457.562500
648.461059	2576.029615
648.804460	2482.768269
649.147810	2465.124231
649.491108	2507.974038
649.834354	2492.850577
650.177548	2472.685962
650.520690	2520.576923
650.863781	2457.562500
651.206820	2487.809423
651.549807	2455.041923
651.892742	2495.371154
652.235626	2450.000769
652.578458	2467.644808
652.921238	2583.591346
653.263967	2492.850577
653.606644	2507.974038
653.949269	2450.000769
654.291843	2548.303269
654.634365	2550.823846
654.976836	2450.000769
655.319255	2462.603654
655.661622	2434.877308
656.003938	2422.274423
656.346203	2520.576923
656.688416	2495.371154
657.030577	2535.700385
657.372687	2548.303269
657.714746	2560.906154
658.056753	2480.247692
658.398708	2513.015192
658.740612	2482.768269
659.082465	2462.603654
659.424266	2475.206538
659.766016	2540.741538
660.107715	2555.865000
660.449362	2631.482308
660.790958	2465.124231
661.132503	2507.974038
661.473996	2485.288846
661.815438	2472.685962
662.156829	2510.494615
662.498168	2447.480192
662.839456	2482.768269
663.180693	2513.015192
663.521879	2535.700385
663.863013	2455.041923
664.204097	2467.644808
664.545129	2470.165385
664.886110	2439.918462
665.227040	2523.097500
665.567918	2553.344423
665.908746	2573.509038
666.249522	2465.124231
666.590248	2545.782692
666.930922	2460.083077
667.271545	2495.371154
667.612118	2439.918462
667.952639	2523.097500
668.293109	2452.521346
668.633528	2485.288846
668.973896	2412.192115
669.314213	2550.823846
669.654480	2460.083077
669.994695	2485.288846
670.334859	2518.056346
670.674973	2545.782692
671.015035	2495.371154
671.355047	2480.247692
671.695008	2472.685962
672.034918	2513.015192
672.374777	2502.932885
672.714585	2543.262115
673.054342	2515.535769
673.394049	2465.124231
673.733705	2530.659231
674.073310	2530.659231
674.412864	2515.535769
674.752368	2578.550192
675.091820	2442.439038
675.431223	2525.618077
675.770574	2560.906154
676.109875	2442.439038
676.449125	2497.891731
676.788324	2576.029615
677.127473	2523.097500
677.466571	2530.659231
677.805619	2581.070769
678.144616	2472.685962
678.483562	2477.727115
678.822458	2470.165385
679.161303	2490.330000
679.500098	2510.494615
679.838842	2495.371154
680.177535	2457.562500
680.516179	2490.330000
680.854771	2470.165385
681.193314	2495.371154
681.531805	2412.192115
681.870247	2487.809423
682.208638	2540.741538
682.546978	2475.206538
682.885268	2477.727115
683.223508	2439.918462
683.561697	2538.220962
683.899836	2545.782692
684.237925	2553.344423
684.575963	2538.220962
684.913951	2510.494615
685.251889	2462.603654
685.589776	2518.056346
685.927614	2560.906154
686.265401	2588.632500
686.603137	2525.618077
686.940824	2480.247692
687.278460	2533.179808
687.616046	2520.576923
687.953582	2568.467885
688.291068	2452.521346
688.628504	2485.288846
688.965889	2485.288846
689.303224	2450.000769
689.640510	2543.262115
689.977745	2520.576923
690.314930	2477.727115
690.652065	2518.056346
690.989150	2525.618077
691.326185	2444.959615
691.663170	2495.371154
692.000105	2507.974038
692.336990	2513.015192
692.673825	2507.974038
693.010610	2467.644808
693.347345	2467.644808
693.684030	2543.262115
694.020665	2576.029615
694.357251	2467.644808
694.693786	2381.945192
695.030272	2492.850577
695.366707	2500.412308
695.703093	2407.150962
696.039429	2432.356731
696.375716	2535.700385
696.711952	2455.041923
697.048139	2550.823846
697.384276	2513.015192
697.720363	2510.494615
698.056400	2502.932885
698.392388	2482.768269
698.728326	2485.288846
699.064214	2465.124231
699.400053	2485.288846
699.735842	2510.494615
700.071581	2455.041923
700.407270	2477.727115
700.742910	2543.262115
701.078501	2502.932885
701.414042	2475.206538
701.749533	2548.303269
702.084974	2487.809423
702.420366	2550.823846
702.755709	2450.000769
703.091002	2513.015192
703.426246	2467.644808
703.761440	2543.262115
704.096584	2384.465769
704.431679	2535.700385
704.766725	2460.083077
705.101721	2482.768269
705.436668	2485.288846
705.771565	2528.138654
706.106413	2533.179808
706.441212	2450.000769
706.775961	2450.000769
707.110661	2543.262115
707.445311	2528.138654
707.779913	2444.959615
708.114465	2434.877308
708.448967	2480.247692
708.783421	2545.782692
709.117825	2502.932885
709.452180	2492.850577
709.786485	2513.015192
710.120742	2480.247692
710.454949	2523.097500
710.789107	2439.918462
711.123216	2545.782692
711.457275	2389.506923
711.791286	2465.124231
712.125247	2495.371154
712.459159	2550.823846
712.793023	2447.480192
713.126837	2470.165385
713.460602	2518.056346
713.794318	2482.768269
714.127985	2460.083077
714.461602	2477.727115
714.795171	2419.753846
715.128691	2513.015192
715.462162	2490.330000
715.795584	2530.659231
716.128957	2507.974038
716.462281	2510.494615
716.795556	2475.206538
717.128782	2500.412308
717.461960	2444.959615
717.795088	2477.727115
718.128167	2515.535769
718.461198	2502.932885
718.794180	2525.618077
719.127113	2523.097500
719.459997	2548.303269
719.792833	2457.562500
720.125619	2495.371154
720.458357	2412.192115
720.791046	2480.247692
721.123686	2533.179808
721.456278	2467.644808
721.788821	2376.904038
722.121315	2535.700385
722.453761	2545.782692
722.786158	2460.083077
723.118506	2497.891731
723.450805	2472.685962
723.783056	2528.138654
724.115259	2482.768269
724.447412	2490.330000
724.779518	2442.439038
725.111574	2465.124231
725.443582	2442.439038
725.775542	2429.836154
726.107453	2465.124231
726.439315	2450.000769
726.771129	2492.850577
727.102895	2455.041923
727.434612	2560.906154
727.766281	2523.097500
728.097901	2460.083077
728.429473	2480.247692
728.760996	2482.768269
729.092471	2530.659231
729.423897	2500.412308
729.755276	2515.535769
730.086606	2439.918462
730.417887	2515.535769
730.749120	2470.165385
731.080305	2581.070769
731.411442	2502.932885
731.742530	2465.124231
732.073570	2482.768269
732.404562	2490.330000
732.735506	2545.782692
733.066401	2596.194231
733.397249	2528.138654
733.728048	2495.371154
734.058798	2576.029615
734.389501	2518.056346
734.720156	2477.727115
735.050762	2568.467885
735.381320	2513.015192
735.711831	2477.727115
736.042293	2518.056346
736.372707	2538.220962
736.703073	2578.550192
737.033391	2460.083077
737.363661	2558.385577
737.693883	2482.768269
738.024056	2452.521346
738.354182	2538.220962
738.684260	2460.083077
739.014290	2553.344423
739.344272	2475.206538
739.674207	2525.618077
740.004093	2437.397885
740.333931	2530.659231
740.663722	2591.153077
740.993464	2457.562500
741.323159	2578.550192
741.652806	2477.727115
741.982405	2515.535769
742.311956	2444.959615
742.641460	2492.850577
742.970915	2507.974038
743.300323	2538.220962
743.629683	2482.768269
743.958996	2487.809423
744.288260	2490.330000
744.617477	2447.480192
744.946647	2472.685962
745.275768	2455.041923
745.604842	2497.891731
745.933869	2545.782692
746.262847	2507.974038
746.591778	2525.618077
746.920662	2523.097500
747.249498	2563.426731
747.578286	2513.015192
747.907027	2513.015192
748.235720	2518.056346
748.564365	2530.659231
748.892963	2419.753846
749.221514	2525.618077
749.550017	2495.371154
749.878473	2513.015192
750.206881	2465.124231
750.535242	2495.371154
750.863555	2437.397885
751.191821	2518.056346
751.520039	2470.165385
751.848210	2513.015192
752.176334	2502.932885
752.504411	2502.932885
752.832440	2467.644808
753.160421	2480.247692
753.488356	2535.700385
753.816243	2565.947308
754.144082	2530.659231
754.471875	2492.850577
754.799620	2570.988462
755.127318	2497.891731
755.454969	2492.850577
755.782572	2455.041923
756.110129	2515.535769
756.437638	2565.947308
756.765100	2462.603654
757.092515	2465.124231
757.419882	2507.974038
757.747203	2417.233269
758.074477	2533.179808
758.401703	2606.276538
758.728882	2543.262115
759.056014	2502.932885
759.383099	2523.097500
759.710138	2475.206538
760.037129	2563.426731
760.364073	2455.041923
760.690970	2500.412308
761.017820	2576.029615
761.344623	2467.644808
761.671379	2470.165385
761.998088	2482.768269
762.324751	2460.083077
762.651366	2518.056346
762.977935	2502.932885
763.304456	2555.865000
763.630931	2500.412308
763.957359	2429.836154
764.283740	2477.727115
764.610074	2465.124231
764.936362	2543.262115
765.262602	2500.412308
765.588796	2444.959615
765.914943	2482.768269
766.241044	2528.138654
766.567097	2530.659231
766.893104	2570.988462
767.219064	2427.315577
767.544978	2500.412308
767.870845	2543.262115
768.196665	2570.988462
768.522438	2495.371154
768.848165	2487.809423
769.173846	2470.165385
769.499479	2540.741538
769.825066	2520.576923
770.150607	2518.056346
770.476101	2502.932885
770.801548	2550.823846
771.126949	2485.288846
771.452303	2444.959615
771.777611	2543.262115
772.102872	2475.206538
772.428087	2500.412308
772.753256	2558.385577
773.078378	2528.138654
773.403453	2530.659231
773.728482	2472.685962
774.053465	2414.712692
774.378401	2528.138654
774.703291	2447.480192
775.028135	2444.959615
775.352932	2500.412308
775.677683	2513.015192
776.002388	2472.685962
776.327046	2558.385577
776.651658	2442.439038
776.976224	2591.153077
777.300743	2460.083077
777.625216	2475.206538
777.949643	2447.480192
778.274024	2525.618077
778.598359	2510.494615
778.922647	2515.535769
779.246889	2467.644808
779.571086	2482.768269
779.895236	2533.179808
780.219339	2475.206538
780.543397	2568.467885
780.867409	2462.603654
781.191374	2515.535769
781.515294	2439.918462
781.839167	2462.603654
782.162995	2417.233269
782.486776	2510.494615
782.810511	2412.192115
783.134201	2480.247692
783.457844	2439.918462
783.781441	2487.809423
784.104993	2485.288846
784.428498	2480.247692
784.751958	2470.165385
785.075372	2500.412308
785.398739	2482.768269
785.722061	2533.179808
786.045337	2485.288846
786.368568	2555.865000
786.691752	2434.877308
787.014891	2530.659231
787.337983	2444.959615
787.661030	2392.027500
787.984031	2558.385577
788.306987	2528.138654
788.629897	2500.412308
788.952760	2507.974038
789.275579	2485.288846
789.598351	2548.303269
789.921078	2518.056346
790.243759	2540.741538
790.566395	2457.562500
790.888984	2472.685962
791.211529	2442.439038
791.534027	2538.220962
791.856480	2560.906154
792.178888	2502.932885
792.501249	2434.877308
792.823566	2505.453462
793.145836	2513.015192
793.468062	2500.412308
793.790241	2510.494615
794.112375	2502.932885
794.434464	2538.220962
794.756507	2560.906154
795.078505	2399.589231
795.400457	2455.041923
795.722364	2535.700385
796.044226	2518.056346
796.366042	2515.535769
796.687812	2470.165385
797.009538	2528.138654
797.331218	2502.932885
797.652852	2558.385577
797.974442	2432.356731
798.295986	2535.700385
798.617484	2477.727115
798.938938	2475.206538
799.260346	2487.809423
799.581709	2465.124231
799.903026	2533.179808
800.224299	2518.056346
800.545526	2533.179808
800.866708	2523.097500
801.187845	2568.467885
801.508936	2439.918462
801.829983	2427.315577
802.150984	2414.712692
802.471940	2505.453462
802.792851	2462.603654
803.113717	2460.083077
803.434538	2558.385577
803.755314	2492.850577
804.076045	2558.385577
804.396731	2450.000769
804.717372	2530.659231
805.037967	2482.768269
805.358518	2510.494615
805.679024	2487.809423
805.999485	2520.576923
806.319901	2495.371154
806.640272	2525.618077
806.960598	2460.083077
807.280879	2528.138654
807.601115	2450.000769
807.921306	2507.974038
808.241453	2487.809423
808.561554	2475.206538
808.881611	2553.344423
809.201623	2525.618077
809.521590	2502.932885
809.841513	2583.591346
810.161390	2563.426731
810.481223	2495.371154
810.801011	2477.727115
811.120755	2490.330000
811.440453	2450.000769
811.760107	2424.795000
812.079716	2523.097500
812.399281	2538.220962
812.718801	2500.412308
813.038276	2545.782692
813.357707	2462.603654
813.677093	2455.041923
813.996434	2487.809423
814.315731	2465.124231
814.634983	2533.179808
814.954191	2470.165385
815.273354	2528.138654
815.592473	2523.097500
815.911547	2432.356731
816.230577	2455.041923
816.549562	2399.589231
816.868502	2507.974038
817.187399	2540.741538
817.506250	2510.494615
817.825058	2583.591346
818.143821	2424.795000
818.462539	2553.344423
818.781213	2485.288846
819.099843	2505.453462
819.418429	2490.330000
819.736970	2432.356731
820.055466	2460.083077
820.373919	2502.932885
820.692327	2523.097500
821.010691	2444.959615
821.329011	2389.506923
821.647286	2520.576923
821.965517	2470.165385
822.283704	2465.124231
822.601847	2558.385577
822.919945	2424.795000
823.237999	2434.877308
823.556010	2475.206538
823.873976	2422.274423
824.191897	2442.439038
824.509775	2487.809423
824.827609	2583.591346
825.145398	2482.768269
825.463144	2495.371154
825.780845	2439.918462
826.098502	2457.562500
826.416116	2475.206538
826.733685	2490.330000
827.051210	2402.109808
827.368692	2535.700385
827.686129	2568.467885
828.003522	2543.262115
828.320872	2555.865000
828.638177	2505.453462
828.955439	2533.179808
829.272656	2573.509038
829.589830	2520.576923
829.906960	2513.015192
830.224046	2528.138654
830.541088	2475.206538
830.858086	2399.589231
831.175041	2550.823846
831.491952	2576.029615
831.808819	2487.809423
832.125642	2507.974038
832.442421	2475.206538
832.759157	2505.453462
833.075849	2462.603654
833.392497	2578.550192
833.709101	2528.138654
834.025662	2492.850577
834.342179	2457.562500
834.658653	2480.247692
834.975083	2528.138654
835.291469	2497.891731
835.607811	2414.712692
835.924110	2437.397885
836.240366	2510.494615
836.556578	2482.768269
836.872746	2477.727115
837.188871	2462.603654
837.504952	2432.356731
837.820990	2434.877308
838.136984	2429.836154
838.452935	2548.303269
838.768842	2470.165385
839.084706	2429.836154
839.400526	2548.303269
839.716303	2455.041923
840.032037	2583.591346
840.347727	2414.712692
840.663373	2525.618077
840.978977	2467.644808
841.294537	2578.550192
841.610054	2520.576923
841.925527	2553.344423
842.240957	2477.727115
842.556344	2523.097500
842.871687	2568.467885
843.186987	2480.247692
843.502244	2450.000769
843.817458	2548.303269
844.132629	2495.371154
844.447756	2487.809423
844.762840	2465.124231
845.077881	2465.124231
845.392879	2502.932885
845.707833	2492.850577
846.022745	2528.138654
846.337613	2528.138654
846.652438	2492.850577
846.967221	2515.535769
847.281960	2404.630385
847.596656	2578.550192
847.911309	2533.179808
848.225919	2455.041923
848.540485	2613.838269
848.855009	2563.426731
849.169490	2447.480192
849.483928	2485.288846
849.798323	2502.932885
850.112675	2500.412308
850.426984	2495.371154
850.741251	2447.480192
851.055474	2543.262115
851.369654	2510.494615
851.683792	2545.782692
851.997887	2397.068654
852.311938	2513.015192
852.625947	2510.494615
852.939914	2505.453462
853.253837	2432.356731
853.567718	2528.138654
853.881555	2434.877308
854.195350	2434.877308
854.509103	2523.097500
854.822812	2510.494615
855.136479	2417.233269
855.450103	2412.192115
855.763685	2477.727115
856.077224	2535.700385
856.390720	2439.918462
856.704173	2528.138654
857.017584	2470.165385
857.330953	2427.315577
857.644278	2543.262115
857.957561	2465.124231
858.270802	2462.603654
858.584000	2434.877308
858.897155	2502.932885
859.210268	2495.371154
859.523339	2452.521346
859.836367	2545.782692
860.149352	2467.644808
860.462295	2581.070769
860.775195	2548.303269
861.088054	2520.576923
861.400869	2472.685962
861.713642	2533.179808
862.026373	2495.371154
862.339062	2507.974038
862.651708	2510.494615
862.964312	2535.700385
863.276873	2545.782692
863.589392	2518.056346
863.901869	2462.603654
864.214303	2570.988462
864.526696	2472.685962
864.839045	2472.685962
865.151353	2442.439038
865.463619	2450.000769
865.775842	2480.247692
866.088023	2470.165385
866.400162	2490.330000
866.712258	2450.000769
867.024313	2485.288846
867.336325	2485.288846
867.648296	2505.453462
867.960224	2510.494615
868.272110	2495.371154
868.583954	2502.932885
868.895755	2573.509038
869.207515	2533.179808
869.519233	2424.795000
869.830909	2507.974038
870.142542	2525.618077
870.454134	2510.494615
870.765684	2490.330000
871.077191	2543.262115
871.388657	2442.439038
871.700081	2518.056346
872.011463	2485.288846
872.322803	2576.029615
872.634101	2475.206538
872.945357	2505.453462
873.256571	2447.480192
873.567744	2477.727115
873.878874	2442.439038
874.189963	2472.685962
874.501010	2533.179808
874.812015	2482.768269
875.122979	2477.727115
875.433900	2510.494615
875.744780	2545.782692
876.055618	2550.823846
876.366415	2520.576923
876.677169	2553.344423
876.987882	2520.576923
877.298554	2452.521346
877.609183	2470.165385
877.919771	2389.506923
878.230317	2455.041923
878.540822	2540.741538
878.851285	2460.083077
879.161707	2510.494615
879.472087	2455.041923
879.782425	2427.315577
880.092722	2485.288846
880.402977	2535.700385
880.713191	2570.988462
881.023363	2482.768269
881.333494	2482.768269
881.643583	2437.397885
881.953631	2513.015192
882.263637	2495.371154
882.573602	2540.741538
882.883526	2520.576923
883.193408	2518.056346
883.503248	2450.000769
883.813048	2477.727115
884.122806	2465.124231
884.432522	2465.124231
884.742197	2457.562500
885.051831	2500.412308
885.361424	2437.397885
885.670975	2558.385577
885.980485	2482.768269
886.289954	2502.932885
886.599382	2460.083077
886.908768	2533.179808
887.218113	2467.644808
887.527417	2581.070769
887.836680	2510.494615
888.145901	2439.918462
888.455082	2429.836154
888.764221	2487.809423
889.073319	2500.412308
889.382376	2470.165385
889.691392	2465.124231
890.000366	2505.453462
890.309300	2437.397885
890.618193	2460.083077
890.927044	2505.453462
891.235855	2492.850577
891.544625	2487.809423
891.853353	2462.603654
892.162041	2485.288846
892.470687	2528.138654
892.779293	2485.288846
893.087858	2513.015192
893.396381	2460.083077
893.704864	2548.303269
894.013306	2482.768269
894.321707	2487.809423
894.630068	2586.111923
894.938387	2460.083077
895.246665	2528.138654
895.554903	2490.330000
895.863100	2518.056346
896.171256	2507.974038
896.479371	2444.959615
896.787446	2472.685962
897.095480	2530.659231
897.403473	2432.356731
897.711425	2457.562500
898.019336	2482.768269
898.327207	2520.576923
898.635038	2470.165385
898.942827	2621.400000
899.250576	2497.891731
899.558284	2550.823846
899.865952	2470.165385
900.173579	2470.165385
900.481165	2555.865000
900.788711	2447.480192
901.096216	2439.918462
901.403681	2576.029615
901.711105	2455.041923
902.018489	2548.303269
902.325832	2472.685962
902.633135	2520.576923
902.940397	2497.891731
903.247619	2533.179808
903.554800	2482.768269
903.861941	2500.412308
904.169041	2500.412308
904.476101	2523.097500
904.783121	2394.548077
905.090100	2545.782692
905.397039	2530.659231
905.703938	2525.618077
906.010796	2419.753846
906.317614	2487.809423
906.624391	2457.562500
906.931129	2480.247692
907.237826	2472.685962
907.544483	2460.083077
907.851099	2447.480192
908.157675	2507.974038
908.464211	2525.618077
908.770707	2460.083077
909.077163	2460.083077
909.383578	2523.097500
909.689954	2437.397885
909.996289	2477.727115
910.302584	2434.877308
910.608839	2520.576923
910.915054	2424.795000
911.221229	2598.714808
911.527363	2502.932885
911.833458	2442.439038
912.139513	2475.206538
912.445527	2548.303269
912.751502	2543.262115
913.057436	2480.247692
913.363331	2505.453462
913.669186	2487.809423
913.975000	2523.097500
914.280775	2500.412308
914.586510	2550.823846
914.892205	2462.603654
915.197859	2432.356731
915.503475	2500.412308
915.809050	2399.589231
916.114585	2480.247692
916.420081	2550.823846
916.725536	2530.659231
917.030952	2450.000769
917.336328	2490.330000
917.641665	2475.206538
917.946961	2424.795000
918.252218	2505.453462
918.557435	2490.330000
918.862612	2455.041923
919.167750	2412.192115
919.472848	2457.562500
919.777906	2492.850577
920.082925	2505.453462
920.387904	2513.015192
920.692843	2465.124231
920.997743	2523.097500
921.302603	2550.823846
921.607423	2507.974038
921.912204	2485.288846
922.216946	2386.986346
922.521647	2424.795000
922.826310	2495.371154
923.130932	2528.138654
923.435516	2578.550192
923.740059	2457.562500
924.044564	2457.562500
924.349028	2442.439038
924.653454	2422.274423
924.957840	2513.015192
925.262186	2502.932885
925.566493	2507.974038
925.870761	2439.918462
926.174989	2520.576923
926.479178	2419.753846
926.783328	2510.494615
927.087438	2442.439038
927.391509	2530.659231
927.695541	2500.412308
927.999533	2455.041923
928.303486	2485.288846
928.607400	2540.741538
928.911275	2500.412308
929.215110	2455.041923
929.518906	2447.480192
929.822663	2447.480192
930.126381	2485.288846
930.430060	2434.877308
930.733699	2457.562500
931.037299	2492.850577
931.340861	2442.439038
931.644383	2593.673654
931.947866	2437.397885
932.251309	2492.850577
932.554714	2495.371154
932.858080	2444.959615
933.161407	2429.836154
933.464694	2497.891731
933.767943	2555.865000
934.071153	2467.644808
934.374323	2507.974038
934.677455	2450.000769
934.980548	2543.262115
935.283602	2507.974038
935.586617	2472.685962
935.889593	2538.220962
936.192530	2570.988462
936.495428	2500.412308
936.798287	2518.056346
937.101108	2505.453462
937.403890	2487.809423
937.706632	2490.330000
938.009336	2470.165385
938.312002	2543.262115
938.614628	2462.603654
938.917216	2518.056346
939.219765	2460.083077
939.522275	2485.288846
939.824747	2576.029615
940.127179	2515.535769
940.429573	2487.809423
940.731929	2490.330000
941.034246	2487.809423
941.336524	2502.932885
941.638763	2523.097500
941.940964	2487.809423
942.243126	2475.206538
942.545250	2442.439038
942.847335	2520.576923
943.149381	2455.041923
943.451389	2457.562500
943.753359	2482.768269
944.055290	2520.576923
944.357182	2540.741538
944.659036	2482.768269
944.960851	2513.015192
945.262628	2455.041923
945.564367	2429.836154
945.866067	2475.206538
946.167729	2530.659231
946.469352	2434.877308
946.770937	2644.085192
947.072484	2485.288846
947.373992	2482.768269
947.675462	2444.959615
947.976893	2502.932885
948.278286	2485.288846
948.579641	2528.138654
948.880958	2470.165385
949.182236	2558.385577
949.483476	2439.918462
949.784678	2487.809423
950.085841	2472.685962
950.386967	2535.700385
950.688054	2543.262115
950.989103	2450.000769
951.290114	2578.550192
951.591087	2485.288846
951.892021	2422.274423
952.192917	2475.206538
952.493776	2560.906154
952.794596	2472.685962
953.095378	2513.015192
953.396122	2470.165385
953.696828	2523.097500
953.997496	2570.988462
954.298126	2490.330000
954.598718	2439.918462
954.899272	2540.741538
955.199788	2545.782692
955.500266	2485.288846
955.800706	2455.041923
956.101108	2450.000769
956.401472	2581.070769
956.701798	2462.603654
957.002087	2492.850577
957.302337	2492.850577
957.602550	2555.865000
957.902724	2394.548077
958.202861	2450.000769
958.502960	2424.795000
958.803022	2495.371154
959.103045	2452.521346
959.403031	2477.727115
959.702979	2460.083077
960.002889	2538.220962
960.302762	2437.397885
960.602596	2485.288846
960.902393	2518.056346
961.202153	2586.111923
961.501875	2497.891731
961.801559	2462.603654
962.101205	2462.603654
962.400814	2492.850577
962.700385	2432.356731
962.999918	2543.262115
963.299414	2550.823846
963.598873	2424.795000
963.898293	2485.288846
964.197677	2500.412308
964.497022	2480.247692
964.796331	2505.453462
965.095601	2518.056346
965.394835	2467.644808
965.694030	2555.865000
965.993189	2505.453462
966.292309	2513.015192
966.591393	2452.521346
966.890439	2528.138654
967.189447	2472.685962
967.488419	2487.809423
967.787353	2444.959615
968.086249	2424.795000
968.385108	2402.109808
968.683930	2520.576923
968.982714	2492.850577
969.281462	2588.632500
969.580172	2477.727115
969.878844	2515.535769
970.177480	2570.988462
970.476078	2520.576923
970.774639	2487.809423
971.073162	2452.521346
971.371649	2437.397885
971.670098	2439.918462
971.968510	2460.083077
972.266885	2528.138654
972.565223	2495.371154
972.863524	2523.097500
973.161788	2550.823846
973.460014	2495.371154
973.758204	2507.974038
974.056356	2442.439038
974.354471	2495.371154
974.652550	2480.247692
974.950591	2502.932885
975.248595	2523.097500
975.546563	2480.247692
975.844493	2513.015192
976.142386	2530.659231
976.440243	2490.330000
976.738062	2500.412308
977.035845	2450.000769
977.333590	2465.124231
977.631299	2455.041923
977.928971	2510.494615
978.226606	2500.412308
978.524204	2505.453462
978.821765	2366.821731
979.119290	2513.015192
979.416777	2525.618077
979.714228	2480.247692
980.011642	2427.315577
980.309020	2472.685962
980.606360	2515.535769
980.903664	2467.644808
981.200931	2500.412308
981.498162	2528.138654
981.795356	2419.753846
982.092513	2608.797115
982.389633	2497.891731
982.686717	2505.453462
982.983764	2528.138654
983.280775	2505.453462
983.577749	2538.220962
983.874686	2452.521346
984.171587	2513.015192
984.468451	2568.467885
984.765279	2523.097500
985.062070	2477.727115
985.358824	2490.330000
985.655543	2505.453462
985.952224	2507.974038
986.248869	2570.988462
986.545478	2533.179808
986.842050	2460.083077
987.138586	2472.685962
987.435086	2467.644808
987.731549	2515.535769
988.027975	2465.124231
988.324366	2419.753846
988.620719	2530.659231
988.917037	2538.220962
989.213318	2472.685962
989.509563	2487.809423
989.805772	2455.041923
990.101944	2505.453462
990.398080	2452.521346
990.694180	2480.247692
990.990244	2528.138654
991.286271	2518.056346
991.582262	2502.932885
991.878217	2530.659231
992.174136	2480.247692
992.470019	2427.315577
992.765865	2538.220962
993.061676	2450.000769
993.357450	2490.330000
993.653188	2465.124231
993.948890	2492.850577
994.244556	2492.850577
994.540186	2450.000769
994.835780	2540.741538
995.131337	2432.356731
995.426859	2505.453462
995.722345	2485.288846
996.017795	2510.494615
996.313208	2424.795000
996.608586	2520.576923
996.903928	2452.521346
997.199234	2442.439038
997.494504	2515.535769
997.789738	2412.192115
998.084936	2475.206538
998.380099	2389.506923
998.675225	2530.659231
998.970316	2553.344423
999.265371	2570.988462
999.560390	2467.644808
999.855373	2550.823846
1000.150320	2455.041923
1000.445232	2535.700385
1000.740108	2444.959615
1001.034948	2492.850577
1001.329752	2525.618077
1001.624521	2497.891731
1001.919254	2452.521346
1002.213951	2452.521346
1002.508613	2545.782692
1002.803239	2447.480192
1003.097829	2563.426731
1003.392384	2465.124231
1003.686903	2460.083077
1003.981386	2472.685962
1004.275834	2427.315577
1004.570246	2429.836154
1004.864623	2452.521346
1005.158964	2495.371154
1005.453270	2460.083077
1005.747540	2447.480192
1006.041775	2439.918462
1006.335974	2424.795000
1006.630138	2472.685962
1006.924266	2515.535769
1007.218359	2523.097500
1007.512416	2510.494615
1007.806438	2487.809423
1008.100425	2465.124231
1008.394376	2447.480192
1008.688292	2460.083077
1008.982172	2606.276538
1009.276017	2492.850577
1009.569827	2437.397885
1009.863602	2477.727115
1010.157341	2470.165385
1010.451045	2487.809423
1010.744714	2424.795000
1011.038347	2497.891731
1011.331945	2427.315577
1011.625508	2555.865000
1011.919036	2437.397885
1012.212528	2482.768269
1012.505986	2543.262115
1012.799408	2472.685962
1013.092795	2492.850577
1013.386147	2513.015192
1013.679464	2450.000769
1013.972745	2444.959615
1014.265992	2455.041923
1014.559204	2530.659231
1014.852380	2490.330000
1015.145521	2520.576923
1015.438628	2497.891731
1015.731699	2533.179808
1016.024736	2530.659231
1016.317737	2455.041923
1016.610703	2404.630385
1016.903635	2477.727115
1017.196531	2424.795000
1017.489393	2540.741538
1017.782219	2548.303269
1018.075011	2467.644808
1018.367768	2487.809423
1018.660490	2482.768269
1018.953177	2482.768269
1019.245829	2482.768269
