Dividing Wavelength (nm)	Counts (n)	Blue Motor Position (mm): 0.000000	Red Motor Position (mm): 1.800000	
326.493990	2162.655000
326.888308	2162.655000
327.282561	2162.655000
327.676750	2150.052115
328.070874	2087.037692
328.464933	2119.805192
328.858929	2074.434808
329.252859	2074.434808
329.646726	2092.078846
330.040528	2117.284615
330.434265	2167.696154
330.827938	2109.722885
331.221547	2124.846346
331.615091	2175.257885
332.008571	2152.572692
332.401986	2213.066538
332.795338	2228.190000
333.188625	2180.299038
333.581847	2286.163269
333.975006	2215.587115
334.368100	2331.533654
334.761129	2344.136538
335.154095	2323.971923
335.546996	2326.492500
335.939833	2351.698269
336.332606	2419.753846
336.725315	2381.945192
337.117960	2381.945192
337.510540	2321.451346
337.903056	2429.836154
338.295508	2450.000769
338.687896	2419.753846
339.080220	2490.330000
339.472480	2480.247692
339.864676	2389.506923
340.256807	2419.753846
340.648875	2520.576923
341.040879	2485.288846
341.432818	2520.576923
341.824694	2429.836154
342.216506	2424.795000
342.608253	2419.753846
342.999937	2447.480192
343.391557	2545.782692
343.783113	2424.795000
344.174605	2412.192115
344.566033	2520.576923
344.957397	2513.015192
345.348697	2432.356731
345.739934	2548.303269
346.131106	2444.959615
346.522215	2404.630385
346.913260	2414.712692
347.304241	2465.124231
347.695159	2407.150962
348.086012	2528.138654
348.476802	2447.480192
348.867528	2528.138654
349.258191	2417.233269
349.648789	2462.603654
350.039324	2447.480192
350.429796	2497.891731
350.820203	2467.644808
351.210548	2497.891731
351.600828	2460.083077
351.991045	2427.315577
352.381198	2502.932885
352.771288	2502.932885
353.161314	2432.356731
353.551276	2379.424615
353.941175	2467.644808
354.331010	2450.000769
354.720782	2450.000769
355.110490	2429.836154
355.500135	2384.465769
355.889717	2447.480192
356.279235	2515.535769
356.668689	2475.206538
357.058080	2444.959615
357.447408	2437.397885
357.836672	2518.056346
358.225873	2432.356731
358.615010	2427.315577
359.004084	2417.233269
359.393095	2381.945192
359.782043	2447.480192
360.170927	2490.330000
360.559748	2467.644808
360.948505	2452.521346
361.337199	2424.795000
361.725830	2361.780577
362.114398	2465.124231
362.502903	2412.192115
362.891344	2485.288846
363.279722	2618.879423
363.668037	2419.753846
364.056289	2523.097500
364.444478	2470.165385
364.832603	2533.179808
365.220665	2447.480192
365.608665	2455.041923
365.996601	2475.206538
366.384474	2424.795000
366.772284	2500.412308
367.160031	2407.150962
367.547715	2437.397885
367.935336	2518.056346
368.322893	2447.480192
368.710388	2500.412308
369.097820	2492.850577
369.485189	2422.274423
369.872495	2432.356731
370.259738	2452.521346
370.646918	2500.412308
371.034035	2510.494615
371.421090	2510.494615
371.808081	2434.877308
372.195010	2515.535769
372.581875	2460.083077
372.968678	2429.836154
373.355418	2424.795000
373.742096	2513.015192
374.128710	2523.097500
374.515262	2470.165385
374.901751	2414.712692
375.288177	2543.262115
375.674540	2455.041923
376.060841	2485.288846
376.447079	2510.494615
376.833254	2447.480192
377.219367	2460.083077
377.605417	2492.850577
377.991404	2432.356731
378.377329	2525.618077
378.763191	2417.233269
379.148991	2455.041923
379.534727	2455.041923
379.920402	2475.206538
380.306013	2452.521346
380.691563	2452.521346
381.077049	2477.727115
381.462474	2472.685962
381.847835	2528.138654
382.233134	2444.959615
382.618371	2475.206538
383.003545	2513.015192
383.388657	2429.836154
383.773706	2427.315577
384.158693	2442.439038
384.543618	2487.809423
384.928480	2444.959615
385.313280	2485.288846
385.698017	2432.356731
386.082692	2495.371154
386.467305	2462.603654
386.851856	2412.192115
387.236344	2482.768269
387.620770	2500.412308
388.005133	2467.644808
388.389435	2475.206538
388.773674	2460.083077
389.157851	2419.753846
389.541965	2475.206538
389.926018	2497.891731
390.310008	2462.603654
390.693936	2505.453462
391.077802	2429.836154
391.461606	2563.426731
391.845348	2462.603654
392.229027	2334.054231
392.612645	2477.727115
392.996200	2419.753846
393.379694	2434.877308
393.763125	2500.412308
394.146494	2422.274423
394.529801	2477.727115
394.913047	2399.589231
395.296230	2447.480192
395.679351	2500.412308
396.062410	2485.288846
396.445408	2392.027500
396.828343	2510.494615
397.211217	2497.891731
397.594028	2470.165385
397.976778	2477.727115
398.359466	2490.330000
398.742092	2475.206538
399.124656	2518.056346
399.507158	2419.753846
399.889598	2497.891731
400.271977	2419.753846
400.654294	2472.685962
401.036549	2472.685962
401.418742	2495.371154
401.800874	2417.233269
402.182944	2540.741538
402.564952	2525.618077
402.946898	2495.371154
403.328783	2497.891731
403.710606	2412.192115
404.092367	2500.412308
404.474067	2442.439038
404.855705	2452.521346
405.237282	2518.056346
405.618797	2465.124231
406.000250	2485.288846
406.381642	2490.330000
406.762972	2470.165385
407.144240	2492.850577
407.525447	2467.644808
407.906593	2477.727115
408.287677	2465.124231
408.668700	2450.000769
409.049661	2475.206538
409.430560	2523.097500
409.811399	2543.262115
410.192176	2543.262115
410.572891	2515.535769
410.953545	2518.056346
411.334138	2354.218846
411.714669	2540.741538
412.095139	2480.247692
412.475547	2523.097500
412.855894	2533.179808
413.236180	2437.397885
413.616405	2480.247692
413.996568	2490.330000
414.376670	2470.165385
414.756711	2470.165385
415.136691	2533.179808
415.516609	2460.083077
415.896466	2500.412308
416.276262	2480.247692
416.655997	2419.753846
417.035670	2480.247692
417.415283	2455.041923
417.794834	2480.247692
418.174324	2495.371154
418.553753	2429.836154
418.933121	2490.330000
419.312428	2432.356731
419.691674	2500.412308
420.070859	2482.768269
420.449983	2419.753846
420.829045	2490.330000
421.208047	2485.288846
421.586988	2581.070769
421.965867	2495.371154
422.344686	2465.124231
422.723444	2500.412308
423.102141	2437.397885
423.480777	2404.630385
423.859352	2497.891731
424.237866	2598.714808
424.616319	2394.548077
424.994712	2558.385577
425.373044	2477.727115
425.751314	2523.097500
426.129524	2497.891731
426.507673	2513.015192
426.885762	2613.838269
427.263789	2538.220962
427.641756	2429.836154
428.019662	2538.220962
428.397508	2465.124231
428.775292	2434.877308
429.153016	2497.891731
429.530679	2460.083077
429.908282	2507.974038
430.285824	2502.932885
430.663305	2457.562500
431.040726	2578.550192
431.418086	2434.877308
431.795385	2528.138654
432.172624	2530.659231
432.549802	2457.562500
432.926920	2477.727115
433.303977	2457.562500
433.680974	2507.974038
434.057910	2520.576923
434.434786	2497.891731
434.811601	2482.768269
435.188355	2477.727115
435.565050	2437.397885
435.941683	2475.206538
436.318257	2472.685962
436.694770	2505.453462
437.071222	2523.097500
437.447614	2528.138654
437.823946	2502.932885
438.200218	2414.712692
438.576429	2482.768269
438.952580	2500.412308
439.328670	2497.891731
439.704700	2480.247692
440.080670	2518.056346
440.456580	2460.083077
440.832429	2535.700385
441.208218	2528.138654
441.583947	2550.823846
441.959616	2477.727115
442.335224	2520.576923
442.710773	2417.233269
443.086261	2523.097500
443.461689	2520.576923
443.837057	2407.150962
444.212365	2470.165385
444.587612	2502.932885
444.962800	2535.700385
445.337927	2581.070769
445.712995	2442.439038
446.088002	2581.070769
446.462949	2540.741538
446.837837	2422.274423
447.212664	2485.288846
447.587431	2455.041923
447.962139	2475.206538
448.336786	2460.083077
448.711374	2379.424615
449.085901	2381.945192
449.460369	2538.220962
449.834776	2447.480192
450.209124	2565.947308
450.583412	2520.576923
450.957640	2560.906154
451.331808	2422.274423
451.705917	2477.727115
452.079965	2518.056346
452.453954	2424.795000
452.827883	2545.782692
453.201752	2455.041923
453.575562	2467.644808
453.949311	2497.891731
454.323001	2523.097500
454.696632	2497.891731
455.070202	2407.150962
455.443713	2502.932885
455.817164	2452.521346
456.190556	2530.659231
456.563888	2513.015192
456.937160	2563.426731
457.310373	2369.342308
457.683526	2470.165385
458.056619	2540.741538
458.429653	2460.083077
458.802628	2460.083077
459.175542	2429.836154
459.548398	2470.165385
459.921194	2500.412308
460.293930	2540.741538
460.666607	2460.083077
461.039224	2515.535769
461.411782	2505.453462
461.784280	2505.453462
462.156719	2455.041923
462.529099	2510.494615
462.901419	2497.891731
463.273680	2457.562500
463.645882	2487.809423
464.018024	2533.179808
464.390106	2470.165385
464.762130	2487.809423
465.134094	2437.397885
465.505999	2487.809423
465.877845	2525.618077
466.249631	2545.782692
466.621358	2497.891731
466.993026	2507.974038
467.364634	2518.056346
467.736184	2427.315577
468.107674	2447.480192
468.479105	2518.056346
468.850477	2457.562500
469.221790	2563.426731
469.593043	2402.109808
469.964238	2543.262115
470.335373	2437.397885
470.706449	2533.179808
471.077467	2555.865000
471.448425	2424.795000
471.819324	2490.330000
472.190164	2432.356731
472.560945	2470.165385
472.931667	2548.303269
473.302330	2502.932885
473.672934	2500.412308
474.043479	2455.041923
474.413965	2485.288846
474.784393	2558.385577
475.154761	2485.288846
475.525070	2515.535769
475.895321	2507.974038
476.265513	2467.644808
476.635645	2467.644808
477.005719	2548.303269
477.375734	2513.015192
477.745691	2462.603654
478.115588	2472.685962
478.485427	2492.850577
478.855207	2457.562500
479.224928	2550.823846
479.594591	2565.947308
479.964194	2455.041923
480.333739	2530.659231
480.703226	2432.356731
481.072653	2510.494615
481.442022	2447.480192
481.811333	2467.644808
482.180584	2384.465769
482.549777	2480.247692
482.918912	2581.070769
483.287988	2628.961731
483.657005	2487.809423
484.025964	2538.220962
484.394864	2495.371154
484.763706	2525.618077
485.132489	2467.644808
485.501213	2462.603654
485.869879	2513.015192
486.238487	2502.932885
486.607036	2558.385577
486.975527	2533.179808
487.343959	2515.535769
487.712333	2369.342308
488.080648	2414.712692
488.448905	2477.727115
488.817104	2470.165385
489.185244	2492.850577
489.553326	2581.070769
489.921350	2583.591346
490.289315	2442.439038
490.657222	2500.412308
491.025070	2480.247692
491.392861	2475.206538
491.760593	2560.906154
492.128267	2560.906154
492.495883	2606.276538
492.863440	2555.865000
493.230939	2447.480192
493.598380	2500.412308
493.965763	2419.753846
494.333088	2462.603654
494.700354	2502.932885
495.067563	2477.727115
495.434713	2429.836154
495.801805	2550.823846
496.168839	2429.836154
496.535815	2565.947308
496.902733	2528.138654
497.269593	2520.576923
497.636395	2540.741538
498.003139	2515.535769
498.369825	2477.727115
498.736453	2618.879423
499.103023	2555.865000
499.469535	2560.906154
499.835989	2507.974038
500.202385	2487.809423
500.568723	2568.467885
500.935003	2432.356731
501.301226	2540.741538
501.667390	2533.179808
502.033497	2472.685962
502.399546	2482.768269
502.765537	2515.535769
503.131470	2470.165385
503.497345	2485.288846
503.863163	2485.288846
504.228923	2419.753846
504.594625	2523.097500
504.960269	2450.000769
505.325856	2518.056346
505.691385	2533.179808
506.056856	2475.206538
506.422270	2470.165385
506.787625	2439.918462
507.152924	2528.138654
507.518164	2500.412308
507.883347	2598.714808
508.248472	2475.206538
508.613540	2490.330000
508.978550	2563.426731
509.343503	2480.247692
509.708398	2593.673654
510.073236	2477.727115
510.438016	2495.371154
510.802738	2450.000769
511.167403	2525.618077
511.532010	2510.494615
511.896561	2437.397885
512.261053	2487.809423
512.625488	2480.247692
512.989866	2523.097500
513.354186	2510.494615
513.718449	2487.809423
514.082655	2472.685962
514.446803	2429.836154
514.810894	2444.959615
515.174927	2505.453462
515.538904	2427.315577
515.902822	2591.153077
516.266684	2384.465769
516.630488	2457.562500
516.994235	2472.685962
517.357925	2502.932885
517.721558	2565.947308
518.085133	2573.509038
518.448651	2462.603654
518.812112	2505.453462
519.175516	2505.453462
519.538863	2563.426731
519.902152	2530.659231
520.265385	2555.865000
520.628560	2507.974038
520.991678	2563.426731
521.354739	2460.083077
521.717743	2470.165385
522.080690	2467.644808
522.443580	2558.385577
522.806413	2444.959615
523.169189	2520.576923
523.531908	2480.247692
523.894569	2492.850577
524.257174	2497.891731
524.619722	2528.138654
524.982213	2555.865000
525.344647	2439.918462
525.707025	2515.535769
526.069345	2467.644808
526.431608	2477.727115
526.793815	2457.562500
527.155964	2450.000769
527.518057	2457.562500
527.880093	2523.097500
528.242072	2507.974038
528.603995	2513.015192
528.965860	2465.124231
529.327669	2553.344423
529.689421	2530.659231
530.051117	2482.768269
530.412755	2520.576923
530.774337	2442.439038
531.135862	2550.823846
531.497331	2550.823846
531.858743	2560.906154
532.220098	2510.494615
532.581396	2591.153077
532.942638	2510.494615
533.303824	2520.576923
533.664953	2555.865000
534.026025	2475.206538
534.387040	2611.317692
534.747999	2475.206538
535.108902	2490.330000
535.469748	2467.644808
535.830537	2492.850577
536.191270	2500.412308
536.551947	2412.192115
536.912567	2500.412308
537.273131	2472.685962
537.633638	2565.947308
537.994089	2450.000769
538.354483	2525.618077
538.714821	2485.288846
539.075103	2545.782692
539.435328	2528.138654
539.795497	2545.782692
540.155609	2417.233269
540.515665	2507.974038
540.875665	2477.727115
541.235609	2487.809423
541.595496	2442.439038
541.955328	2502.932885
542.315102	2467.644808
542.674821	2518.056346
543.034483	2482.768269
543.394090	2490.330000
543.753640	2470.165385
544.113134	2507.974038
544.472571	2563.426731
544.831953	2495.371154
545.191278	2535.700385
545.550548	2450.000769
545.909761	2588.632500
546.268918	2570.988462
546.628019	2598.714808
546.987064	2502.932885
547.346053	2465.124231
547.704986	2457.562500
548.063863	2444.959615
548.422684	2467.644808
548.781449	2505.453462
549.140158	2417.233269
549.498811	2472.685962
549.857408	2502.932885
550.215949	2507.974038
550.574434	2533.179808
550.932864	2507.974038
551.291237	2591.153077
551.649555	2520.576923
552.007817	2492.850577
552.366022	2525.618077
552.724173	2482.768269
553.082267	2515.535769
553.440305	2555.865000
553.798288	2555.865000
554.156215	2482.768269
554.514086	2490.330000
554.871902	2492.850577
555.229661	2422.274423
555.587365	2507.974038
555.945014	2450.000769
556.302606	2616.358846
556.660143	2535.700385
557.017625	2465.124231
557.375050	2523.097500
557.732421	2520.576923
558.089735	2497.891731
558.446994	2497.891731
558.804197	2533.179808
559.161345	2460.083077
559.518437	2485.288846
559.875474	2553.344423
560.232455	2513.015192
560.589381	2485.288846
560.946251	2480.247692
561.303065	2548.303269
561.659825	2460.083077
562.016528	2470.165385
562.373177	2523.097500
562.729770	2470.165385
563.086307	2477.727115
563.442789	2480.247692
563.799216	2505.453462
564.155587	2560.906154
564.511904	2555.865000
564.868164	2553.344423
565.224370	2550.823846
565.580520	2472.685962
565.936615	2525.618077
566.292654	2492.850577
566.648638	2485.288846
567.004567	2500.412308
567.360441	2475.206538
567.716260	2518.056346
568.072023	2475.206538
568.427732	2507.974038
568.783385	2555.865000
569.138982	2533.179808
569.494525	2553.344423
569.850013	2487.809423
570.205445	2492.850577
570.560823	2477.727115
570.916145	2480.247692
571.271412	2455.041923
571.626625	2543.262115
571.981782	2570.988462
572.336884	2472.685962
572.691931	2510.494615
573.046923	2457.562500
573.401860	2429.836154
573.756743	2611.317692
574.111570	2515.535769
574.466342	2490.330000
574.821059	2513.015192
575.175722	2490.330000
575.530330	2525.618077
575.884882	2513.015192
576.239380	2485.288846
576.593823	2465.124231
576.948211	2490.330000
577.302544	2482.768269
577.656823	2535.700385
578.011047	2487.809423
578.365216	2422.274423
578.719330	2490.330000
579.073389	2419.753846
579.427394	2553.344423
579.781344	2457.562500
580.135239	2540.741538
580.489080	2495.371154
580.842866	2540.741538
581.196597	2444.959615
581.550273	2437.397885
581.903895	2586.111923
582.257463	2467.644808
582.610975	2465.124231
582.964434	2513.015192
583.317837	2523.097500
583.671186	2467.644808
584.024481	2563.426731
584.377721	2447.480192
584.730906	2485.288846
585.084037	2439.918462
585.437113	2548.303269
585.790135	2460.083077
586.143103	2497.891731
586.496016	2492.850577
586.848874	2500.412308
587.201679	2487.809423
587.554428	2500.412308
587.907124	2618.879423
588.259765	2490.330000
588.612352	2480.247692
588.964884	2462.603654
589.317362	2616.358846
589.669786	2462.603654
590.022155	2444.959615
590.374470	2515.535769
590.726731	2439.918462
591.078937	2472.685962
591.431090	2475.206538
591.783188	2447.480192
592.135232	2513.015192
592.487222	2545.782692
592.839157	2465.124231
593.191038	2497.891731
593.542866	2472.685962
593.894639	2490.330000
594.246358	2502.932885
594.598022	2437.397885
594.949633	2518.056346
595.301190	2485.288846
595.652692	2550.823846
596.004141	2500.412308
596.355535	2538.220962
596.706876	2462.603654
597.058162	2482.768269
597.409395	2565.947308
597.760573	2570.988462
598.111698	2477.727115
598.462768	2555.865000
598.813785	2460.083077
599.164748	2528.138654
599.515657	2429.836154
599.866511	2558.385577
600.217312	2497.891731
600.568060	2424.795000
600.918753	2563.426731
601.269392	2540.741538
601.619978	2392.027500
601.970510	2472.685962
602.320988	2543.262115
602.671412	2510.494615
603.021783	2490.330000
603.372100	2530.659231
603.722363	2460.083077
604.072572	2555.865000
604.422728	2475.206538
604.772830	2465.124231
605.122878	2545.782692
605.472872	2475.206538
605.822813	2513.015192
606.172701	2598.714808
606.522534	2497.891731
606.872314	2507.974038
607.222041	2492.850577
607.571714	2510.494615
607.921333	2497.891731
608.270899	2452.521346
608.620411	2543.262115
608.969870	2460.083077
609.319276	2530.659231
609.668627	2568.467885
610.017926	2424.795000
610.367171	2555.865000
610.716362	2535.700385
611.065500	2525.618077
611.414585	2447.480192
611.763616	2613.838269
612.112594	2452.521346
612.461518	2482.768269
612.810389	2477.727115
613.159207	2477.727115
613.507971	2460.083077
613.856682	2475.206538
614.205340	2565.947308
614.553945	2513.015192
614.902496	2402.109808
615.250994	2470.165385
615.599439	2497.891731
615.947830	2548.303269
616.296169	2475.206538
616.644454	2520.576923
616.992686	2505.453462
617.340864	2553.344423
617.688990	2553.344423
618.037063	2422.274423
618.385082	2495.371154
618.733048	2548.303269
619.080961	2424.795000
619.428821	2480.247692
619.776628	2520.576923
620.124382	2482.768269
620.472083	2502.932885
620.819731	2543.262115
621.167326	2535.700385
621.514868	2525.618077
621.862357	2535.700385
622.209793	2505.453462
622.557176	2439.918462
622.904506	2502.932885
623.251783	2462.603654
623.599007	2563.426731
623.946179	2482.768269
624.293297	2460.083077
624.640363	2535.700385
624.987376	2560.906154
625.334336	2505.453462
625.681243	2480.247692
626.028097	2510.494615
626.374899	2472.685962
626.721647	2530.659231
627.068343	2583.591346
627.414987	2550.823846
627.761577	2500.412308
628.108115	2495.371154
628.454600	2485.288846
628.801032	2480.247692
629.147412	2530.659231
629.493739	2520.576923
629.840014	2538.220962
630.186236	2523.097500
630.532405	2520.576923
630.878521	2490.330000
631.224585	2465.124231
631.570597	2538.220962
631.916556	2424.795000
632.262462	2530.659231
632.608316	2475.206538
632.954117	2543.262115
633.299866	2523.097500
633.645562	2467.644808
633.991206	2510.494615
634.336797	2457.562500
634.682336	2505.453462
635.027823	2444.959615
635.373257	2518.056346
635.718639	2570.988462
636.063968	2442.439038
636.409245	2386.986346
636.754470	2482.768269
637.099642	2462.603654
637.444762	2581.070769
637.789829	2515.535769
638.134845	2588.632500
638.479808	2520.576923
638.824719	2510.494615
639.169577	2429.836154
639.514383	2482.768269
639.859137	2513.015192
640.203839	2555.865000
640.548489	2560.906154
640.893086	2455.041923
641.237632	2525.618077
641.582125	2475.206538
641.926566	2553.344423
642.270955	2434.877308
642.615292	2543.262115
642.959576	2507.974038
643.303809	2482.768269
643.647990	2530.659231
643.992118	2477.727115
644.336195	2545.782692
644.680219	2568.467885
645.024192	2470.165385
645.368112	2540.741538
645.711981	2543.262115
646.055797	2477.727115
646.399562	2492.850577
646.743274	2490.330000
647.086935	2545.782692
647.430544	2545.782692
647.774101	2523.097500
648.117606	2465.124231
648.461059	2530.659231
648.804460	2568.467885
649.147810	2442.439038
649.491108	2470.165385
649.834354	2487.809423
650.177548	2470.165385
650.520690	2533.179808
650.863781	2460.083077
651.206820	2505.453462
651.549807	2618.879423
651.892742	2520.576923
652.235626	2470.165385
652.578458	2480.247692
652.921238	2452.521346
653.263967	2452.521346
653.606644	2490.330000
653.949269	2444.959615
654.291843	2475.206538
654.634365	2505.453462
654.976836	2520.576923
655.319255	2555.865000
655.661622	2447.480192
656.003938	2442.439038
656.346203	2533.179808
656.688416	2581.070769
657.030577	2467.644808
657.372687	2407.150962
657.714746	2535.700385
658.056753	2384.465769
658.398708	2520.576923
658.740612	2472.685962
659.082465	2543.262115
659.424266	2477.727115
659.766016	2492.850577
660.107715	2510.494615
660.449362	2586.111923
660.790958	2576.029615
661.132503	2477.727115
661.473996	2490.330000
661.815438	2470.165385
662.156829	2533.179808
662.498168	2513.015192
662.839456	2497.891731
663.180693	2465.124231
663.521879	2515.535769
663.863013	2530.659231
664.204097	2480.247692
664.545129	2563.426731
664.886110	2502.932885
665.227040	2482.768269
665.567918	2505.453462
665.908746	2570.988462
666.249522	2560.906154
666.590248	2530.659231
666.930922	2490.330000
667.271545	2528.138654
667.612118	2424.795000
667.952639	2495.371154
668.293109	2480.247692
668.633528	2470.165385
668.973896	2523.097500
669.314213	2573.509038
669.654480	2513.015192
669.994695	2565.947308
670.334859	2429.836154
670.674973	2510.494615
671.015035	2470.165385
671.355047	2560.906154
671.695008	2502.932885
672.034918	2490.330000
672.374777	2545.782692
672.714585	2485.288846
673.054342	2530.659231
673.394049	2535.700385
673.733705	2444.959615
674.073310	2523.097500
674.412864	2548.303269
674.752368	2480.247692
675.091820	2513.015192
675.431223	2432.356731
675.770574	2470.165385
676.109875	2442.439038
676.449125	2570.988462
676.788324	2576.029615
677.127473	2455.041923
677.466571	2520.576923
677.805619	2414.712692
678.144616	2444.959615
678.483562	2462.603654
678.822458	2427.315577
679.161303	2465.124231
679.500098	2427.315577
679.838842	2432.356731
680.177535	2540.741538
680.516179	2528.138654
680.854771	2497.891731
681.193314	2497.891731
681.531805	2565.947308
681.870247	2455.041923
682.208638	2533.179808
682.546978	2477.727115
682.885268	2422.274423
683.223508	2507.974038
683.561697	2538.220962
683.899836	2525.618077
684.237925	2502.932885
684.575963	2550.823846
684.913951	2467.644808
685.251889	2528.138654
685.589776	2538.220962
685.927614	2444.959615
686.265401	2505.453462
686.603137	2618.879423
686.940824	2492.850577
687.278460	2583.591346
687.616046	2553.344423
687.953582	2447.480192
688.291068	2573.509038
688.628504	2480.247692
688.965889	2505.453462
689.303224	2495.371154
689.640510	2543.262115
689.977745	2465.124231
690.314930	2500.412308
690.652065	2462.603654
690.989150	2518.056346
691.326185	2450.000769
691.663170	2513.015192
692.000105	2439.918462
692.336990	2465.124231
692.673825	2432.356731
693.010610	2490.330000
693.347345	2485.288846
693.684030	2555.865000
694.020665	2497.891731
694.357251	2550.823846
694.693786	2460.083077
695.030272	2462.603654
695.366707	2482.768269
695.703093	2548.303269
696.039429	2434.877308
696.375716	2535.700385
696.711952	2490.330000
697.048139	2495.371154
697.384276	2457.562500
697.720363	2543.262115
698.056400	2528.138654
698.392388	2565.947308
698.728326	2528.138654
699.064214	2507.974038
699.400053	2611.317692
699.735842	2402.109808
700.071581	2507.974038
700.407270	2528.138654
700.742910	2487.809423
701.078501	2389.506923
701.414042	2409.671538
701.749533	2462.603654
702.084974	2432.356731
702.420366	2523.097500
702.755709	2515.535769
703.091002	2500.412308
703.426246	2450.000769
703.761440	2480.247692
704.096584	2409.671538
704.431679	2538.220962
704.766725	2515.535769
705.101721	2475.206538
705.436668	2525.618077
705.771565	2495.371154
706.106413	2442.439038
706.441212	2477.727115
706.775961	2472.685962
707.110661	2472.685962
707.445311	2538.220962
707.779913	2480.247692
708.114465	2442.439038
708.448967	2429.836154
708.783421	2500.412308
709.117825	2432.356731
709.452180	2485.288846
709.786485	2444.959615
710.120742	2560.906154
710.454949	2545.782692
710.789107	2444.959615
711.123216	2583.591346
711.457275	2477.727115
711.791286	2450.000769
712.125247	2492.850577
712.459159	2432.356731
712.793023	2515.535769
713.126837	2528.138654
713.460602	2510.494615
713.794318	2515.535769
714.127985	2480.247692
714.461602	2588.632500
714.795171	2467.644808
715.128691	2394.548077
715.462162	2548.303269
715.795584	2581.070769
716.128957	2467.644808
716.462281	2467.644808
716.795556	2513.015192
717.128782	2482.768269
717.461960	2495.371154
717.795088	2467.644808
718.128167	2568.467885
718.461198	2475.206538
718.794180	2555.865000
719.127113	2502.932885
719.459997	2427.315577
719.792833	2513.015192
720.125619	2543.262115
720.458357	2492.850577
720.791046	2434.877308
721.123686	2417.233269
721.456278	2480.247692
721.788821	2530.659231
722.121315	2515.535769
722.453761	2563.426731
722.786158	2487.809423
723.118506	2530.659231
723.450805	2455.041923
723.783056	2588.632500
724.115259	2495.371154
724.447412	2593.673654
724.779518	2384.465769
725.111574	2523.097500
725.443582	2543.262115
725.775542	2538.220962
726.107453	2505.453462
726.439315	2543.262115
726.771129	2525.618077
727.102895	2510.494615
727.434612	2467.644808
727.766281	2482.768269
728.097901	2450.000769
728.429473	2482.768269
728.760996	2444.959615
729.092471	2442.439038
729.423897	2555.865000
729.755276	2404.630385
730.086606	2480.247692
730.417887	2523.097500
730.749120	2500.412308
731.080305	2507.974038
731.411442	2492.850577
731.742530	2470.165385
732.073570	2576.029615
732.404562	2500.412308
732.735506	2467.644808
733.066401	2576.029615
733.397249	2490.330000
733.728048	2487.809423
734.058798	2465.124231
734.389501	2452.521346
734.720156	2442.439038
735.050762	2500.412308
735.381320	2487.809423
735.711831	2422.274423
736.042293	2591.153077
736.372707	2505.453462
736.703073	2480.247692
737.033391	2507.974038
737.363661	2475.206538
737.693883	2480.247692
738.024056	2553.344423
738.354182	2510.494615
738.684260	2457.562500
739.014290	2447.480192
739.344272	2465.124231
739.674207	2525.618077
740.004093	2389.506923
740.333931	2487.809423
740.663722	2467.644808
740.993464	2538.220962
741.323159	2487.809423
741.652806	2485.288846
741.982405	2513.015192
742.311956	2502.932885
742.641460	2502.932885
742.970915	2507.974038
743.300323	2538.220962
743.629683	2485.288846
743.958996	2505.453462
744.288260	2530.659231
744.617477	2518.056346
744.946647	2497.891731
745.275768	2462.603654
745.604842	2502.932885
745.933869	2490.330000
746.262847	2563.426731
746.591778	2543.262115
746.920662	2495.371154
747.249498	2480.247692
747.578286	2485.288846
747.907027	2545.782692
748.235720	2480.247692
748.564365	2497.891731
748.892963	2576.029615
749.221514	2513.015192
749.550017	2513.015192
749.878473	2530.659231
750.206881	2492.850577
750.535242	2432.356731
750.863555	2510.494615
751.191821	2505.453462
751.520039	2560.906154
751.848210	2515.535769
752.176334	2434.877308
752.504411	2414.712692
752.832440	2502.932885
753.160421	2450.000769
753.488356	2507.974038
753.816243	2407.150962
754.144082	2472.685962
754.471875	2505.453462
754.799620	2550.823846
755.127318	2477.727115
755.454969	2487.809423
755.782572	2394.548077
756.110129	2528.138654
756.437638	2535.700385
756.765100	2492.850577
757.092515	2452.521346
757.419882	2558.385577
757.747203	2578.550192
758.074477	2467.644808
758.401703	2490.330000
758.728882	2525.618077
759.056014	2553.344423
759.383099	2487.809423
759.710138	2402.109808
760.037129	2591.153077
760.364073	2472.685962
760.690970	2434.877308
761.017820	2523.097500
761.344623	2515.535769
761.671379	2495.371154
761.998088	2460.083077
762.324751	2502.932885
762.651366	2525.618077
762.977935	2523.097500
763.304456	2457.562500
763.630931	2374.383462
763.957359	2560.906154
764.283740	2462.603654
764.610074	2545.782692
764.936362	2543.262115
765.262602	2472.685962
765.588796	2500.412308
765.914943	2465.124231
766.241044	2523.097500
766.567097	2419.753846
766.893104	2520.576923
767.219064	2465.124231
767.544978	2553.344423
767.870845	2530.659231
768.196665	2525.618077
768.522438	2490.330000
768.848165	2487.809423
769.173846	2505.453462
769.499479	2460.083077
769.825066	2548.303269
770.150607	2565.947308
770.476101	2502.932885
770.801548	2487.809423
771.126949	2545.782692
771.452303	2543.262115
771.777611	2477.727115
772.102872	2495.371154
772.428087	2457.562500
772.753256	2422.274423
773.078378	2591.153077
773.403453	2548.303269
773.728482	2538.220962
774.053465	2502.932885
774.378401	2550.823846
774.703291	2444.959615
775.028135	2497.891731
775.352932	2457.562500
775.677683	2475.206538
776.002388	2530.659231
776.327046	2477.727115
776.651658	2528.138654
776.976224	2528.138654
777.300743	2538.220962
777.625216	2495.371154
777.949643	2507.974038
778.274024	2427.315577
778.598359	2548.303269
778.922647	2437.397885
779.246889	2437.397885
779.571086	2543.262115
779.895236	2402.109808
780.219339	2502.932885
780.543397	2588.632500
780.867409	2513.015192
781.191374	2565.947308
781.515294	2530.659231
781.839167	2505.453462
782.162995	2543.262115
782.486776	2540.741538
782.810511	2457.562500
783.134201	2470.165385
783.457844	2518.056346
783.781441	2505.453462
784.104993	2470.165385
784.428498	2457.562500
784.751958	2424.795000
785.075372	2518.056346
785.398739	2437.397885
785.722061	2576.029615
786.045337	2507.974038
786.368568	2457.562500
786.691752	2533.179808
787.014891	2492.850577
787.337983	2573.509038
787.661030	2412.192115
787.984031	2528.138654
788.306987	2450.000769
788.629897	2500.412308
788.952760	2480.247692
789.275579	2490.330000
789.598351	2457.562500
789.921078	2495.371154
790.243759	2434.877308
790.566395	2480.247692
790.888984	2394.548077
791.211529	2437.397885
791.534027	2417.233269
791.856480	2538.220962
792.178888	2419.753846
792.501249	2538.220962
792.823566	2417.233269
793.145836	2497.891731
793.468062	2538.220962
793.790241	2520.576923
794.112375	2482.768269
794.434464	2442.439038
794.756507	2447.480192
795.078505	2442.439038
795.400457	2485.288846
795.722364	2555.865000
796.044226	2490.330000
796.366042	2487.809423
796.687812	2480.247692
797.009538	2502.932885
797.331218	2543.262115
797.652852	2510.494615
797.974442	2538.220962
798.295986	2545.782692
798.617484	2581.070769
798.938938	2565.947308
799.260346	2550.823846
799.581709	2477.727115
799.903026	2528.138654
800.224299	2439.918462
800.545526	2477.727115
800.866708	2450.000769
801.187845	2513.015192
801.508936	2472.685962
801.829983	2550.823846
802.150984	2447.480192
802.471940	2450.000769
802.792851	2465.124231
803.113717	2535.700385
803.434538	2495.371154
803.755314	2422.274423
804.076045	2545.782692
804.396731	2502.932885
804.717372	2558.385577
805.037967	2502.932885
805.358518	2490.330000
805.679024	2467.644808
805.999485	2525.618077
806.319901	2583.591346
806.640272	2520.576923
806.960598	2455.041923
807.280879	2497.891731
807.601115	2487.809423
807.921306	2500.412308
808.241453	2505.453462
808.561554	2472.685962
808.881611	2518.056346
809.201623	2482.768269
809.521590	2545.782692
809.841513	2513.015192
810.161390	2525.618077
810.481223	2452.521346
810.801011	2570.988462
811.120755	2548.303269
811.440453	2530.659231
811.760107	2462.603654
812.079716	2419.753846
812.399281	2505.453462
812.718801	2497.891731
813.038276	2439.918462
813.357707	2475.206538
813.677093	2510.494615
813.996434	2507.974038
814.315731	2462.603654
814.634983	2520.576923
814.954191	2533.179808
815.273354	2434.877308
815.592473	2502.932885
815.911547	2470.165385
816.230577	2530.659231
816.549562	2460.083077
816.868502	2563.426731
817.187399	2530.659231
817.506250	2470.165385
817.825058	2495.371154
818.143821	2475.206538
818.462539	2455.041923
818.781213	2515.535769
819.099843	2540.741538
819.418429	2623.920577
819.736970	2422.274423
820.055466	2487.809423
820.373919	2467.644808
820.692327	2550.823846
821.010691	2500.412308
821.329011	2510.494615
821.647286	2518.056346
821.965517	2341.615962
822.283704	2439.918462
822.601847	2576.029615
822.919945	2545.782692
823.237999	2482.768269
823.556010	2515.535769
823.873976	2444.959615
824.191897	2477.727115
824.509775	2467.644808
824.827609	2490.330000
825.145398	2492.850577
825.463144	2452.521346
825.780845	2518.056346
826.098502	2543.262115
826.416116	2500.412308
826.733685	2530.659231
827.051210	2470.165385
827.368692	2513.015192
827.686129	2414.712692
828.003522	2470.165385
828.320872	2439.918462
828.638177	2379.424615
828.955439	2525.618077
829.272656	2497.891731
829.589830	2495.371154
829.906960	2500.412308
830.224046	2525.618077
830.541088	2558.385577
830.858086	2568.467885
831.175041	2513.015192
831.491952	2485.288846
831.808819	2472.685962
832.125642	2371.862885
832.442421	2432.356731
832.759157	2520.576923
833.075849	2467.644808
833.392497	2555.865000
833.709101	2520.576923
834.025662	2515.535769
834.342179	2576.029615
834.658653	2513.015192
834.975083	2457.562500
835.291469	2455.041923
835.607811	2492.850577
835.924110	2502.932885
836.240366	2520.576923
836.556578	2513.015192
836.872746	2472.685962
837.188871	2525.618077
837.504952	2586.111923
837.820990	2490.330000
838.136984	2510.494615
838.452935	2424.795000
838.768842	2533.179808
839.084706	2497.891731
839.400526	2520.576923
839.716303	2525.618077
840.032037	2422.274423
840.347727	2399.589231
840.663373	2507.974038
840.978977	2414.712692
841.294537	2507.974038
841.610054	2495.371154
841.925527	2525.618077
842.240957	2487.809423
842.556344	2457.562500
842.871687	2472.685962
843.186987	2432.356731
843.502244	2437.397885
843.817458	2507.974038
844.132629	2422.274423
844.447756	2490.330000
844.762840	2495.371154
845.077881	2492.850577
845.392879	2538.220962
845.707833	2515.535769
846.022745	2460.083077
846.337613	2472.685962
846.652438	2460.083077
846.967221	2513.015192
847.281960	2528.138654
847.596656	2515.535769
847.911309	2480.247692
848.225919	2439.918462
848.540485	2525.618077
848.855009	2356.739423
849.169490	2497.891731
849.483928	2434.877308
849.798323	2470.165385
850.112675	2513.015192
850.426984	2417.233269
850.741251	2341.615962
851.055474	2487.809423
851.369654	2510.494615
851.683792	2505.453462
851.997887	2386.986346
852.311938	2510.494615
852.625947	2386.986346
852.939914	2505.453462
853.253837	2513.015192
853.567718	2462.603654
853.881555	2515.535769
854.195350	2523.097500
854.509103	2593.673654
854.822812	2434.877308
855.136479	2520.576923
855.450103	2538.220962
855.763685	2450.000769
856.077224	2470.165385
856.390720	2588.632500
856.704173	2510.494615
857.017584	2482.768269
857.330953	2535.700385
857.644278	2525.618077
857.957561	2523.097500
858.270802	2379.424615
858.584000	2500.412308
858.897155	2497.891731
859.210268	2427.315577
859.523339	2596.194231
859.836367	2495.371154
860.149352	2475.206538
860.462295	2462.603654
860.775195	2558.385577
861.088054	2487.809423
861.400869	2417.233269
861.713642	2507.974038
862.026373	2434.877308
862.339062	2513.015192
862.651708	2523.097500
862.964312	2457.562500
863.276873	2528.138654
863.589392	2528.138654
863.901869	2545.782692
864.214303	2515.535769
864.526696	2442.439038
864.839045	2467.644808
865.151353	2623.920577
865.463619	2573.509038
865.775842	2422.274423
866.088023	2500.412308
866.400162	2573.509038
866.712258	2434.877308
867.024313	2444.959615
867.336325	2470.165385
867.648296	2505.453462
867.960224	2495.371154
868.272110	2402.109808
868.583954	2497.891731
868.895755	2505.453462
869.207515	2533.179808
869.519233	2502.932885
869.830909	2515.535769
870.142542	2513.015192
870.454134	2432.356731
870.765684	2495.371154
871.077191	2465.124231
871.388657	2502.932885
871.700081	2495.371154
872.011463	2550.823846
872.322803	2457.562500
872.634101	2492.850577
872.945357	2455.041923
873.256571	2477.727115
873.567744	2500.412308
873.878874	2513.015192
874.189963	2404.630385
874.501010	2518.056346
874.812015	2568.467885
875.122979	2515.535769
875.433900	2576.029615
875.744780	2507.974038
876.055618	2467.644808
876.366415	2462.603654
876.677169	2518.056346
876.987882	2558.385577
877.298554	2457.562500
877.609183	2447.480192
877.919771	2490.330000
878.230317	2477.727115
878.540822	2497.891731
878.851285	2482.768269
879.161707	2492.850577
879.472087	2560.906154
879.782425	2513.015192
880.092722	2467.644808
880.402977	2495.371154
880.713191	2540.741538
881.023363	2455.041923
881.333494	2490.330000
881.643583	2472.685962
881.953631	2548.303269
882.263637	2414.712692
882.573602	2507.974038
882.883526	2505.453462
883.193408	2470.165385
883.503248	2477.727115
883.813048	2477.727115
884.122806	2422.274423
884.432522	2538.220962
884.742197	2530.659231
885.051831	2497.891731
885.361424	2578.550192
885.670975	2505.453462
885.980485	2492.850577
886.289954	2500.412308
886.599382	2518.056346
886.908768	2502.932885
887.218113	2492.850577
887.527417	2545.782692
887.836680	2434.877308
888.145901	2502.932885
888.455082	2444.959615
888.764221	2465.124231
889.073319	2492.850577
889.382376	2492.850577
889.691392	2475.206538
890.000366	2492.850577
890.309300	2518.056346
890.618193	2485.288846
890.927044	2465.124231
891.235855	2528.138654
891.544625	2419.753846
891.853353	2492.850577
892.162041	2437.397885
892.470687	2513.015192
892.779293	2513.015192
893.087858	2490.330000
893.396381	2515.535769
893.704864	2427.315577
894.013306	2434.877308
894.321707	2414.712692
894.630068	2581.070769
894.938387	2447.480192
895.246665	2477.727115
895.554903	2487.809423
895.863100	2477.727115
896.171256	2490.330000
896.479371	2598.714808
896.787446	2538.220962
897.095480	2513.015192
897.403473	2467.644808
897.711425	2530.659231
898.019336	2518.056346
898.327207	2462.603654
898.635038	2560.906154
898.942827	2548.303269
899.250576	2545.782692
899.558284	2487.809423
899.865952	2500.412308
900.173579	2520.576923
900.481165	2502.932885
900.788711	2553.344423
901.096216	2477.727115
901.403681	2480.247692
901.711105	2495.371154
902.018489	2485.288846
902.325832	2460.083077
902.633135	2467.644808
902.940397	2490.330000
903.247619	2518.056346
903.554800	2538.220962
903.861941	2525.618077
904.169041	2518.056346
904.476101	2389.506923
904.783121	2553.344423
905.090100	2452.521346
905.397039	2407.150962
905.703938	2477.727115
906.010796	2510.494615
906.317614	2429.836154
906.624391	2530.659231
906.931129	2492.850577
907.237826	2452.521346
907.544483	2455.041923
907.851099	2500.412308
908.157675	2404.630385
908.464211	2500.412308
908.770707	2495.371154
909.077163	2487.809423
909.383578	2434.877308
909.689954	2553.344423
909.996289	2470.165385
910.302584	2437.397885
910.608839	2452.521346
910.915054	2558.385577
911.221229	2490.330000
911.527363	2460.083077
911.833458	2533.179808
912.139513	2460.083077
912.445527	2442.439038
912.751502	2455.041923
913.057436	2450.000769
913.363331	2510.494615
913.669186	2495.371154
913.975000	2485.288846
914.280775	2482.768269
914.586510	2475.206538
914.892205	2480.247692
915.197859	2392.027500
915.503475	2402.109808
915.809050	2485.288846
916.114585	2533.179808
916.420081	2530.659231
916.725536	2460.083077
917.030952	2465.124231
917.336328	2588.632500
917.641665	2460.083077
917.946961	2510.494615
918.252218	2475.206538
918.557435	2492.850577
918.862612	2487.809423
919.167750	2515.535769
919.472848	2450.000769
919.777906	2487.809423
920.082925	2444.959615
920.387904	2427.315577
920.692843	2412.192115
920.997743	2525.618077
921.302603	2467.644808
921.607423	2543.262115
921.912204	2427.315577
922.216946	2490.330000
922.521647	2472.685962
922.826310	2528.138654
923.130932	2455.041923
923.435516	2543.262115
923.740059	2490.330000
924.044564	2470.165385
924.349028	2487.809423
924.653454	2472.685962
924.957840	2565.947308
925.262186	2515.535769
925.566493	2470.165385
925.870761	2386.986346
926.174989	2505.453462
926.479178	2467.644808
926.783328	2497.891731
927.087438	2490.330000
927.391509	2422.274423
927.695541	2558.385577
927.999533	2477.727115
928.303486	2407.150962
928.607400	2515.535769
928.911275	2419.753846
929.215110	2487.809423
929.518906	2507.974038
929.822663	2553.344423
930.126381	2558.385577
930.430060	2500.412308
930.733699	2563.426731
931.037299	2402.109808
931.340861	2485.288846
931.644383	2543.262115
931.947866	2455.041923
932.251309	2475.206538
932.554714	2424.795000
932.858080	2538.220962
933.161407	2540.741538
933.464694	2518.056346
933.767943	2412.192115
934.071153	2583.591346
934.374323	2518.056346
934.677455	2550.823846
934.980548	2523.097500
935.283602	2555.865000
935.586617	2520.576923
935.889593	2507.974038
936.192530	2606.276538
936.495428	2495.371154
936.798287	2427.315577
937.101108	2490.330000
937.403890	2457.562500
937.706632	2472.685962
938.009336	2452.521346
938.312002	2427.315577
938.614628	2480.247692
938.917216	2447.480192
939.219765	2450.000769
939.522275	2485.288846
939.824747	2613.838269
940.127179	2424.795000
940.429573	2442.439038
940.731929	2485.288846
941.034246	2437.397885
941.336524	2565.947308
941.638763	2558.385577
941.940964	2465.124231
942.243126	2507.974038
942.545250	2472.685962
942.847335	2528.138654
943.149381	2533.179808
943.451389	2538.220962
943.753359	2482.768269
944.055290	2495.371154
944.357182	2573.509038
944.659036	2495.371154
944.960851	2518.056346
945.262628	2475.206538
945.564367	2502.932885
945.866067	2480.247692
946.167729	2442.439038
946.469352	2502.932885
946.770937	2492.850577
947.072484	2500.412308
947.373992	2510.494615
947.675462	2475.206538
947.976893	2560.906154
948.278286	2525.618077
948.579641	2485.288846
948.880958	2394.548077
949.182236	2533.179808
949.483476	2475.206538
949.784678	2523.097500
950.085841	2492.850577
950.386967	2492.850577
950.688054	2399.589231
950.989103	2533.179808
951.290114	2480.247692
951.591087	2465.124231
951.892021	2470.165385
952.192917	2439.918462
952.493776	2399.589231
952.794596	2591.153077
953.095378	2477.727115
953.396122	2525.618077
953.696828	2565.947308
953.997496	2505.453462
954.298126	2530.659231
954.598718	2356.739423
954.899272	2462.603654
955.199788	2558.385577
955.500266	2533.179808
955.800706	2520.576923
956.101108	2497.891731
956.401472	2429.836154
956.701798	2457.562500
957.002087	2500.412308
957.302337	2505.453462
957.602550	2497.891731
957.902724	2465.124231
958.202861	2533.179808
958.502960	2434.877308
958.803022	2477.727115
959.103045	2563.426731
959.403031	2487.809423
959.702979	2530.659231
960.002889	2442.439038
960.302762	2513.015192
960.602596	2515.535769
960.902393	2513.015192
961.202153	2525.618077
961.501875	2450.000769
961.801559	2450.000769
962.101205	2482.768269
962.400814	2485.288846
962.700385	2538.220962
962.999918	2475.206538
963.299414	2500.412308
963.598873	2480.247692
963.898293	2402.109808
964.197677	2558.385577
964.497022	2492.850577
964.796331	2460.083077
965.095601	2535.700385
965.394835	2465.124231
965.694030	2417.233269
965.993189	2475.206538
966.292309	2480.247692
966.591393	2477.727115
966.890439	2361.780577
967.189447	2492.850577
967.488419	2437.397885
967.787353	2450.000769
968.086249	2513.015192
968.385108	2465.124231
968.683930	2530.659231
968.982714	2462.603654
969.281462	2560.906154
969.580172	2490.330000
969.878844	2502.932885
970.177480	2429.836154
970.476078	2530.659231
970.774639	2470.165385
971.073162	2465.124231
971.371649	2525.618077
971.670098	2455.041923
971.968510	2490.330000
972.266885	2550.823846
972.565223	2578.550192
972.863524	2502.932885
973.161788	2518.056346
973.460014	2399.589231
973.758204	2465.124231
974.056356	2417.233269
974.354471	2535.700385
974.652550	2507.974038
974.950591	2495.371154
975.248595	2447.480192
975.546563	2497.891731
975.844493	2513.015192
976.142386	2548.303269
976.440243	2538.220962
976.738062	2528.138654
977.035845	2507.974038
977.333590	2455.041923
977.631299	2533.179808
977.928971	2472.685962
978.226606	2442.439038
978.524204	2472.685962
978.821765	2543.262115
979.119290	2374.383462
979.416777	2505.453462
979.714228	2460.083077
980.011642	2500.412308
980.309020	2409.671538
980.606360	2528.138654
980.903664	2533.179808
981.200931	2515.535769
981.498162	2495.371154
981.795356	2444.959615
982.092513	2467.644808
982.389633	2419.753846
982.686717	2427.315577
982.983764	2407.150962
983.280775	2381.945192
983.577749	2497.891731
983.874686	2586.111923
984.171587	2402.109808
984.468451	2502.932885
984.765279	2520.576923
985.062070	2417.233269
985.358824	2518.056346
985.655543	2530.659231
985.952224	2480.247692
986.248869	2555.865000
986.545478	2513.015192
986.842050	2523.097500
987.138586	2439.918462
987.435086	2576.029615
987.731549	2482.768269
988.027975	2414.712692
988.324366	2550.823846
988.620719	2495.371154
988.917037	2502.932885
989.213318	2525.618077
989.509563	2457.562500
989.805772	2525.618077
990.101944	2548.303269
990.398080	2455.041923
990.694180	2447.480192
990.990244	2553.344423
991.286271	2523.097500
991.582262	2442.439038
991.878217	2533.179808
992.174136	2497.891731
992.470019	2490.330000
992.765865	2545.782692
993.061676	2455.041923
993.357450	2535.700385
993.653188	2392.027500
993.948890	2429.836154
994.244556	2538.220962
994.540186	2402.109808
994.835780	2543.262115
995.131337	2500.412308
995.426859	2490.330000
995.722345	2442.439038
996.017795	2535.700385
996.313208	2490.330000
996.608586	2475.206538
996.903928	2525.618077
997.199234	2444.959615
997.494504	2502.932885
997.789738	2460.083077
998.084936	2472.685962
998.380099	2447.480192
998.675225	2412.192115
998.970316	2455.041923
999.265371	2490.330000
999.560390	2465.124231
999.855373	2533.179808
1000.150320	2500.412308
1000.445232	2563.426731
1000.740108	2374.383462
1001.034948	2528.138654
1001.329752	2485.288846
1001.624521	2570.988462
1001.919254	2535.700385
1002.213951	2477.727115
1002.508613	2502.932885
1002.803239	2447.480192
1003.097829	2550.823846
1003.392384	2467.644808
1003.686903	2462.603654
1003.981386	2500.412308
1004.275834	2583.591346
1004.570246	2520.576923
1004.864623	2492.850577
1005.158964	2455.041923
1005.453270	2540.741538
1005.747540	2450.000769
1006.041775	2540.741538
1006.335974	2550.823846
1006.630138	2528.138654
1006.924266	2490.330000
1007.218359	2520.576923
1007.512416	2419.753846
1007.806438	2429.836154
1008.100425	2603.755962
1008.394376	2545.782692
1008.688292	2515.535769
1008.982172	2404.630385
1009.276017	2495.371154
1009.569827	2520.576923
1009.863602	2543.262115
1010.157341	2452.521346
1010.451045	2507.974038
1010.744714	2432.356731
1011.038347	2545.782692
1011.331945	2465.124231
1011.625508	2520.576923
1011.919036	2477.727115
1012.212528	2374.383462
1012.505986	2492.850577
1012.799408	2447.480192
1013.092795	2470.165385
1013.386147	2427.315577
1013.679464	2467.644808
1013.972745	2460.083077
1014.265992	2548.303269
1014.559204	2455.041923
1014.852380	2492.850577
1015.145521	2422.274423
1015.438628	2540.741538
1015.731699	2507.974038
1016.024736	2472.685962
1016.317737	2550.823846
1016.610703	2510.494615
1016.903635	2470.165385
1017.196531	2487.809423
1017.489393	2419.753846
1017.782219	2485.288846
1018.075011	2414.712692
1018.367768	2455.041923
1018.660490	2497.891731
1018.953177	2497.891731
1019.245829	2497.891731
