Dividing Wavelength (nm)	Counts (n)	Blue Motor Position (mm): 0.000000	Red Motor Position (mm): 32.500000	
326.493990	2080.156517
326.888308	2080.156517
327.282561	2080.156517
327.676750	2055.104503
328.070874	2056.309339
328.464933	2061.320246
328.858929	2070.021278
329.252859	2085.227918
329.646726	2101.014291
330.040528	2115.444594
330.434265	2136.037708
330.827938	2154.110244
331.221547	2171.966011
331.615091	2193.925277
332.008571	2215.123329
332.401986	2236.568398
332.795338	2256.738054
333.188625	2276.017947
333.581847	2292.202572
333.975006	2311.585808
334.368100	2330.810248
334.761129	2346.276508
335.154095	2363.857532
335.546996	2387.364433
335.939833	2422.360123
336.332606	2436.896290
336.725315	2448.944648
337.117960	2457.633076
337.510540	2463.102728
337.903056	2472.532206
338.295508	2479.945223
338.687896	2486.052581
339.080220	2495.814775
339.472480	2500.535816
339.864676	2501.985148
340.256807	2503.991527
340.648875	2505.080416
341.040879	2509.199039
341.432818	2505.821466
341.824694	2509.362876
342.216506	2507.651405
342.608253	2506.678462
342.999937	2508.190808
343.391557	2509.675428
343.783113	2506.113853
344.174605	2504.311640
344.566033	2503.656290
344.957397	2507.129645
345.348697	2502.123779
345.739934	2497.911895
346.131106	2497.672441
346.522215	2498.083295
346.913260	2493.238746
347.304241	2493.145484
347.695159	2491.854949
348.086012	2491.885196
348.476802	2490.140957
348.867528	2486.055102
349.258191	2488.285812
349.648789	2487.930411
350.039324	2487.668271
350.429796	2483.854638
350.820203	2482.697693
351.210548	2485.349340
351.600828	2482.216263
351.991045	2481.470172
352.381198	2482.319607
352.771288	2484.010914
353.161314	2483.600060
353.551276	2481.853300
353.941175	2485.540904
354.331010	2485.548466
354.720782	2481.921355
355.110490	2484.751963
355.500135	2482.727940
355.889717	2484.477220
356.279235	2485.019144
356.668689	2488.240442
357.058080	2485.172900
357.447408	2484.247848
357.836672	2484.421768
358.225873	2485.256079
358.615010	2482.364977
359.004084	2489.805720
359.393095	2490.486276
359.782043	2490.279588
360.170927	2492.417038
360.559748	2490.710607
360.948505	2493.379898
361.337199	2497.891731
361.725830	2496.175218
362.114398	2496.533140
362.502903	2497.657317
362.891344	2496.729745
363.279722	2496.639004
363.668037	2499.325939
364.056289	2500.329129
364.444478	2502.398522
364.832603	2502.232164
365.220665	2502.148985
365.608665	2502.302740
365.996601	2504.591424
366.384474	2506.307937
366.772284	2508.394975
367.160031	2508.294152
367.547715	2511.351612
367.935336	2506.640653
368.322893	2507.631240
368.710388	2509.738442
369.097820	2515.145080
369.485189	2513.574760
369.872495	2514.961078
370.259738	2516.150790
370.646918	2518.341171
371.034035	2517.771521
371.421090	2522.285874
371.808081	2524.105731
372.195010	2530.603778
372.581875	2534.213244
372.968678	2542.518545
373.355418	2546.985008
373.742096	2558.264589
374.128710	2566.532082
374.515262	2580.516242
374.901751	2588.244331
375.288177	2606.228647
375.674540	2619.875051
376.060841	2638.734007
376.447079	2662.102276
376.833254	2681.336799
377.219367	2708.198587
377.605417	2734.387381
377.991404	2760.530805
378.377329	2796.842236
378.763191	2829.849191
379.148991	2873.424925
379.534727	2922.026689
379.920402	2964.077474
380.306013	3009.127745
380.691563	3070.503793
381.077049	3120.887605
381.462474	3173.923064
381.847835	3243.420411
382.233134	3310.182932
382.618371	3366.046479
383.003545	3447.995476
383.388657	3520.101620
383.773706	3608.384826
384.158693	3674.202131
384.543618	3765.320987
384.928480	3843.312678
385.313280	3939.737348
385.698017	4038.213768
386.082692	4148.577228
386.467305	4209.728945
386.851856	4327.039116
387.236344	4471.702587
387.620770	4537.035941
388.005133	4645.330008
388.389435	4785.312768
388.773674	4867.632290
389.157851	4992.552082
389.541965	5121.298110
389.926018	5144.578158
390.310008	5316.617616
390.693936	5438.401810
391.077802	5546.282503
391.461606	5674.952913
391.845348	5779.279592
392.229027	5898.870885
392.612645	6116.028669
392.996200	6226.573611
393.379694	6389.344907
393.763125	6612.635255
394.146494	6695.055600
394.529801	6827.897566
394.913047	7059.392391
395.296230	7061.832310
395.679351	7116.191072
396.062410	7360.145109
396.445408	7266.160357
396.828343	7422.524347
397.211217	7548.737195
397.594028	7442.041174
397.976778	7643.838563
398.359466	7806.695558
398.742092	7787.282075
399.124656	7929.699712
399.507158	8120.335986
399.889598	8138.363152
400.271977	8350.701593
400.654294	8382.405410
401.036549	8575.572343
401.418742	8605.282383
401.800874	8898.664934
402.182944	8977.939599
402.564952	9336.315226
402.946898	9177.544085
403.328783	9225.094769
403.710606	9423.285212
404.092367	9671.166308
404.474067	10021.145893
404.855705	9831.238066
405.237282	9789.202405
405.618797	10207.164470
406.000250	10445.986613
406.381642	10808.352313
406.762972	10749.693447
407.144240	10568.534543
407.525447	10825.184726
407.906593	10774.155646
408.287677	11030.301714
408.668700	11176.439723
409.049661	11163.897332
409.430560	11324.695017
409.811399	11298.014710
410.192176	11460.135697
410.572891	11539.198633
410.953545	12011.511899
411.334138	11504.086997
411.714669	12083.169380
412.095139	11434.768611
412.475547	11908.276630
412.855894	11781.476487
413.236180	12089.249012
413.616405	11788.231633
413.996568	12064.333109
414.376670	12046.300902
414.756711	11928.388313
415.136691	12205.440046
415.516609	12383.546532
415.896466	12467.630458
416.276262	12753.688212
416.655997	13205.365514
417.035670	13252.288574
417.415283	13863.803221
417.794834	13955.466522
418.174324	13706.698182
418.553753	13611.584212
418.933121	14091.554990
419.312428	13930.001133
419.691674	13837.359849
420.070859	14300.276403
420.449983	13956.600781
420.829045	14510.623589
421.208047	14275.136169
421.586988	14720.917842
421.965867	14963.646879
422.344686	14971.906810
422.723444	15539.081988
423.102141	14237.148554
423.480777	15420.632517
423.859352	14927.040541
424.237866	16025.364291
424.616319	15741.519603
424.994712	16385.700927
425.373044	16191.523242
425.751314	16868.822426
426.129524	16005.907957
426.507673	17084.309068
426.885762	16812.590875
427.263789	16979.037173
427.641756	17169.817119
428.019662	17231.140235
428.397508	17277.856608
428.775292	17562.223055
429.153016	17548.526240
429.530679	17620.284545
429.908282	17649.132547
430.285824	17390.256695
430.663305	18095.541844
431.040726	17715.033031
431.418086	17559.394968
431.795385	18195.739818
432.172624	18631.519842
432.549802	18188.314198
432.926920	18399.427639
433.303977	18282.422458
433.680974	18532.937558
434.057910	18850.905816
434.434786	18879.713489
434.811601	18819.401125
435.188355	19853.664413
435.565050	19531.557367
435.941683	19485.808896
436.318257	20387.593181
436.694770	20171.521765
437.071222	20778.695979
437.447614	19854.407983
437.823946	19882.671212
438.200218	20052.903415
438.576429	19831.069961
438.952580	20135.802670
439.328670	20106.674883
439.704700	20526.396311
440.080670	20092.547049
440.456580	20711.983869
440.832429	20884.935775
441.208218	19894.056658
441.583947	20328.248718
441.959616	20447.489650
442.335224	20711.567974
442.710773	20841.405412
443.086261	21392.080893
443.461689	20743.463354
443.837057	20901.281717
444.212365	21548.591076
444.587612	21564.654713
444.962800	21153.624234
445.337927	21583.732960
445.712995	20299.110849
446.088002	22204.026776
446.462949	22404.125296
446.837837	22587.935847
447.212664	22602.174586
447.587431	25561.924229
447.962139	28527.193936
448.336786	30841.862410
448.711374	29175.514047
449.085901	25443.557937
449.460369	25451.938855
449.834776	25456.135616
450.209124	28001.532660
450.583412	27488.764135
450.957640	27989.769127
451.331808	26627.051982
451.705917	25249.435705
452.079965	25291.199144
452.453954	25694.269641
452.827883	25596.995537
453.201752	25389.179011
453.575562	25559.018004
453.949311	26685.824274
454.323001	26766.039114
454.696632	26545.491153
455.070202	28149.424990
455.443713	28332.325614
455.817164	28909.973789
456.190556	29485.519803
456.563888	28872.596154
456.937160	29334.484313
457.310373	27611.168391
457.683526	28052.833962
458.056619	28048.531337
458.429653	28043.069247
458.802628	28639.720052
459.175542	28784.166753
459.548398	30158.460909
459.921194	31792.634107
460.293930	32520.180992
460.666607	34620.015654
461.039224	36413.143994
461.411782	36776.139839
461.784280	35484.049258
462.156719	34919.820635
462.529099	34361.795151
462.901419	33026.580020
463.273680	31954.475311
463.645882	32097.681888
464.018024	32103.736314
464.390106	33027.379043
464.762130	35949.607378
465.134094	40280.008943
465.505999	45779.721267
465.877845	50307.806639
466.249631	51314.424239
466.621358	49455.055137
466.993026	47201.855972
467.364634	45059.511781
467.736184	43110.069862
468.107674	41821.830723
468.479105	41026.442511
468.850477	40298.628445
469.221790	38848.356539
469.593043	37061.897645
469.964238	36170.803126
470.335373	36125.142875
470.706449	37977.779517
471.077467	40740.883831
471.448425	45414.789619
471.819324	48165.205349
472.190164	46171.302974
472.560945	42514.142463
472.931667	39366.919870
473.302330	38273.226420
473.672934	37429.531351
474.043479	37958.789490
474.413965	37165.306833
474.784393	36784.800541
475.154761	37716.340237
475.525070	37763.661548
475.895321	37284.865359
476.265513	37909.310565
476.635645	38899.005012
477.005719	38741.962987
477.375734	39243.204914
477.745691	39974.439403
478.115588	41349.335976
478.485427	43459.966269
478.855207	46939.912577
479.224928	49597.394636
479.594591	51133.562762
479.964194	50027.901613
480.333739	50164.751296
480.703226	50227.170863
481.072653	50868.715663
481.442022	51345.749969
481.811333	51560.077145
482.180584	50262.970617
482.549777	49733.276417
482.918912	49196.053255
483.287988	48882.662364
483.657005	48036.953354
484.025964	47353.410701
484.394864	47346.955503
484.763706	46902.759273
485.132489	46002.683939
485.501213	45838.536408
485.869879	45980.903634
486.238487	45568.590182
486.607036	45744.274393
486.975527	45178.649370
487.343959	45393.276495
487.712333	45445.580987
488.080648	45335.630901
488.448905	45776.494928
488.817104	45571.549339
489.185244	46585.978207
489.553326	48314.799069
489.921350	51074.757703
490.289315	53895.278238
490.657222	54405.730353
491.025070	54629.018181
491.392861	53679.577348
491.760593	52378.122824
492.128267	50648.870943
492.495883	49073.500284
492.863440	47628.619892
493.230939	46235.139105
493.598380	45121.074352
493.965763	44777.575170
494.333088	43924.727886
494.700354	43400.289089
495.067563	43077.546858
495.434713	42890.295719
495.801805	42931.534878
496.168839	42503.349353
496.535815	42132.451500
496.902733	42107.613735
497.269593	41641.508650
497.636395	41545.255379
498.003139	41874.982129
498.369825	41279.694957
498.736453	41547.614639
499.103023	41013.390963
499.469535	40863.078879
499.835989	40866.663140
500.202385	40481.513945
500.568723	40442.676895
500.935003	40561.234752
501.301226	40286.874995
501.667390	40816.962404
502.033497	40996.004024
502.399546	40365.637982
502.765537	39602.243452
503.131470	39891.547710
503.497345	40160.137866
503.863163	38755.621993
504.228923	39287.365422
504.594625	39586.575546
504.960269	38774.891804
505.325856	39343.841468
505.691385	38642.226279
506.056856	38675.457565
506.422270	38976.820262
506.787625	38456.467321
507.152924	38535.076554
507.518164	38520.777321
507.883347	37638.537589
508.248472	37740.900738
508.613540	38094.830068
508.978550	38241.124352
509.343503	37877.395020
509.708398	37925.512833
510.073236	38286.656054
510.438016	38144.072058
510.802738	37490.564600
511.167403	37918.752646
511.532010	37974.999320
511.896561	38093.615150
512.261053	38710.486022
512.625488	38145.629775
512.989866	37868.731797
513.354186	37561.234015
513.718449	37380.891778
514.082655	37821.581885
514.446803	37345.709565
514.810894	37652.763725
515.174927	37380.463280
515.538904	37135.785837
515.902822	37512.468414
516.266684	36854.391149
516.630488	37038.491567
516.994235	36701.442542
517.357925	37007.967381
517.721558	36965.273849
518.085133	37018.150512
518.448651	36906.589777
518.812112	36513.830960
519.175516	36390.577269
519.538863	36458.902548
519.902152	36220.566876
520.265385	36384.764819
520.628560	36176.794537
520.991678	35787.062934
521.354739	35766.699193
521.717743	35787.821627
522.080690	35467.743646
522.443580	35675.343403
522.806413	35468.613245
523.169189	35220.134772
523.531908	35100.793017
523.894569	34738.863376
524.257174	34635.129033
524.619722	34600.952530
524.982213	34343.420145
525.344647	34045.949218
525.707025	33824.231710
526.069345	33883.734970
526.431608	33557.221956
526.793815	33540.598751
527.155964	32932.179373
527.518057	32801.525268
527.880093	32385.909860
528.242072	32500.762468
528.603995	32023.642462
528.965860	31758.336617
529.327669	31570.972052
529.689421	31238.424777
530.051117	30938.662646
530.412755	30768.717788
530.774337	30576.017162
531.135862	30165.304276
531.497331	30027.516938
531.858743	29697.248264
532.220098	29643.678443
532.581396	29194.360401
532.942638	28696.269195
533.303824	28643.574014
533.664953	28352.432256
534.026025	27898.806548
534.387040	27915.785154
534.747999	27630.188665
535.108902	27452.377086
535.469748	26892.637610
535.830537	26702.011419
536.191270	26533.674689
536.551947	26078.214001
536.912567	25990.560938
537.273131	25793.018283
537.633638	25241.246351
537.994089	25170.997872
538.354483	24683.107441
538.714821	24723.229985
539.075103	24637.162365
539.435328	24247.047633
539.795497	23912.637652
540.155609	23665.900897
540.515665	23638.792093
540.875665	23094.254216
541.235609	22992.354853
541.595496	22721.528945
541.955328	22782.196711
542.315102	22218.827604
542.674821	21860.068849
543.034483	21630.315742
543.394090	21360.130060
543.753640	21086.778534
544.113134	21280.386568
544.472571	20586.106258
544.831953	20876.050742
545.191278	20283.198447
545.550548	19923.083622
545.909761	19875.769872
546.268918	19701.943326
546.628019	19589.991902
546.987064	19164.150513
547.346053	18642.670874
547.704986	18735.735615
548.063863	18334.890787
548.422684	18158.684817
548.781449	17859.252881
549.140158	17774.969830
549.498811	17483.820510
549.857408	17071.494455
550.215949	17119.171167
550.574434	16870.536418
550.932864	16574.192189
551.291237	16585.489415
551.649555	16252.737973
552.007817	16107.966117
552.366022	15789.992818
552.724173	15633.432223
553.082267	15541.572318
553.440305	15415.848462
553.798288	15005.564073
554.156215	14892.879162
554.514086	14752.576288
554.871902	14476.273167
555.229661	14299.283296
555.587365	14058.590885
555.945014	13901.385023
556.302606	13692.277962
556.660143	13564.714084
557.017625	13401.751224
557.375050	13159.065037
557.732421	13052.245508
558.089735	12864.671735
558.446994	12669.727795
558.804197	12590.400198
559.161345	12400.820046
559.518437	12054.028990
559.875474	11952.575769
560.232455	11826.609937
560.589381	11708.830940
560.946251	11488.668628
561.303065	11456.354832
561.659825	11254.156671
562.016528	11042.382839
562.373177	10838.584113
562.729770	10772.970975
563.086307	10541.057733
563.442789	10477.095573
563.799216	10341.473412
564.155587	10164.816257
564.511904	10032.107882
564.868164	9906.668851
565.224370	9816.578391
565.580520	9643.666814
565.936615	9544.144355
566.292654	9370.978199
566.648638	9289.021641
567.004567	9158.662443
567.360441	9044.997027
567.716260	8905.155419
568.072023	8826.397473
568.427732	8711.254998
568.783385	8535.112042
569.138982	8477.277404
569.494525	8365.086526
569.850013	8227.059733
570.205445	8126.191286
570.560823	8014.565016
570.916145	7895.492962
571.271412	7802.171123
571.626625	7677.082452
571.981782	7580.872030
572.336884	7455.680016
572.691931	7398.714977
573.046923	7271.934999
573.401860	7162.940212
573.756743	7074.210863
574.111570	6995.793194
574.466342	6897.236116
574.821059	6822.571587
575.175722	6703.887702
575.530330	6623.761082
575.884882	6520.634197
576.239380	6441.251148
576.593823	6361.747111
576.948211	6285.678620
577.302544	6172.003121
577.656823	6102.586432
578.011047	6055.912910
578.365216	5970.127595
578.719330	5888.118104
579.073389	5811.295960
579.427394	5755.724801
579.781344	5689.277352
580.135239	5605.599239
580.489080	5549.735693
580.842866	5461.051715
581.196597	5434.212612
581.550273	5377.524837
581.903895	5312.698119
582.257463	5283.920692
582.610975	5198.679822
582.964434	5163.217825
583.317837	5094.779120
583.671186	5031.880644
584.024481	4995.523842
584.377721	4918.482408
584.730906	4887.512080
585.084037	4844.916850
585.437113	4781.796563
585.790135	4733.038523
586.143103	4669.522505
586.496016	4638.090911
586.848874	4592.526442
587.201679	4552.819794
587.554428	4488.625741
587.907124	4460.672543
588.259765	4411.879214
588.612352	4389.839290
588.964884	4329.088345
589.317362	4303.270075
589.669786	4266.915794
590.022155	4223.473651
590.374470	4202.315928
590.726731	4154.989576
591.078937	4101.354220
591.431090	4073.395981
591.783188	4028.073487
592.135232	3987.580419
592.487222	3964.181903
592.839157	3940.974951
593.191038	3904.560177
593.542866	3869.451061
593.894639	3824.393228
594.246358	3806.517296
594.598022	3785.271353
594.949633	3744.508583
595.301190	3723.330696
595.652692	3694.386911
596.004141	3683.803008
596.355535	3635.332314
596.706876	3609.743417
597.058162	3585.956733
597.409395	3579.284766
597.760573	3564.360430
598.111698	3534.836912
598.462768	3516.509798
598.813785	3502.717201
599.164748	3473.715443
599.515657	3466.962817
599.866511	3442.059517
600.217312	3438.225719
600.568060	3403.325811
600.918753	3406.864701
601.269392	3393.520767
601.619978	3371.886655
601.970510	3366.671582
602.320988	3355.893595
602.671412	3351.588449
603.021783	3332.537929
603.372100	3312.186791
603.722363	3305.938281
604.072572	3297.000315
604.422728	3290.625776
604.772830	3271.766819
605.122878	3264.510078
605.472872	3254.954571
605.822813	3246.435021
606.172701	3238.197776
606.522534	3235.720049
606.872314	3232.012280
607.222041	3221.078017
607.571714	3218.174313
607.921333	3201.465408
608.270899	3198.382743
608.620411	3196.451981
608.969870	3186.528470
609.319276	3179.871626
609.668627	3175.629495
610.017926	3177.257788
610.367171	3170.666479
610.716362	3166.681447
611.065500	3159.099552
611.414585	3154.081083
611.763616	3153.960095
612.112594	3149.168478
612.461518	3145.501039
612.810389	3143.507263
613.159207	3137.684730
613.507971	3131.348000
613.856682	3130.775829
614.205340	3125.200312
614.553945	3130.082670
614.902496	3115.049949
615.250994	3116.655557
615.599439	3109.965946
615.947830	3111.415277
616.296169	3104.655090
616.644454	3106.061572
616.992686	3102.331118
617.340864	3104.708022
617.688990	3094.441712
618.037063	3096.881631
618.385082	3093.080601
618.733048	3090.126485
619.080961	3088.578850
619.428821	3086.338058
619.776628	3082.721030
620.124382	3074.715677
620.472083	3073.024370
620.819731	3068.883062
621.167326	3059.992988
621.514868	3059.473749
621.862357	3045.817263
622.209793	3046.560833
622.557176	3035.850902
622.904506	3028.861342
623.251783	3017.485978
623.599007	3013.959691
623.946179	3007.408712
624.293297	3007.005419
624.640363	2999.163905
624.987376	2992.219715
625.334336	2986.717296
625.681243	2981.555154
626.028097	2981.608086
626.374899	2974.300934
626.721647	2972.617188
627.068343	2966.091415
627.414987	2962.383646
627.761577	2960.427678
628.108115	2957.518933
628.454600	2950.713375
628.801032	2950.756225
629.147412	2945.405040
629.493739	2942.791202
629.840014	2938.158381
630.186236	2936.789708
630.532405	2932.960952
630.878521	2932.764347
631.224585	2928.318049
631.570597	2923.327307
631.916556	2922.286308
632.262462	2919.301945
632.608316	2919.312028
632.954117	2914.051584
633.299866	2913.665935
633.645562	2912.667787
633.991206	2906.573032
634.336797	2898.451733
634.682336	2895.885786
635.027823	2893.244221
635.373257	2889.357492
635.718639	2884.878426
636.063968	2882.768703
636.409245	2873.167826
636.754470	2873.029194
637.099642	2868.469471
637.444762	2866.395036
637.789829	2860.577544
638.134845	2858.505630
638.479808	2856.474045
638.824719	2855.614528
639.169577	2849.890298
639.514383	2848.955164
639.859137	2844.559278
640.203839	2848.360308
640.548489	2844.090451
640.893086	2838.255315
641.237632	2831.853050
641.582125	2839.210614
641.926566	2830.759119
642.270955	2833.874552
642.615292	2831.444716
642.959576	2829.524037
643.303809	2830.494459
643.647990	2831.172494
643.992118	2831.618636
644.336195	2827.217709
644.680219	2826.597647
645.024192	2830.302895
645.368112	2835.170129
645.711981	2831.391784
646.055797	2838.053669
646.399562	2833.660303
646.743274	2842.036180
647.086935	2845.728826
647.430544	2844.052642
647.774101	2841.660614
648.117606	2844.219000
648.461059	2847.483147
648.804460	2843.919051
649.147810	2837.368072
649.491108	2831.641321
649.834354	2825.949858
650.177548	2821.531287
650.520690	2815.640699
650.863781	2818.743529
651.206820	2816.961481
651.549807	2811.171716
651.892742	2807.141313
652.235626	2803.468833
652.578458	2801.505303
652.921238	2796.784263
653.263967	2800.865077
653.606644	2796.461629
653.949269	2795.564304
654.291843	2790.019034
654.634365	2795.236629
654.976836	2789.893006
655.319255	2788.058026
655.661622	2788.778911
656.003938	2787.684980
656.346203	2783.765483
656.688416	2782.485030
657.030577	2783.173147
657.372687	2782.502674
657.714746	2782.290946
658.056753	2785.499640
658.398708	2776.715429
658.740612	2777.648043
659.082465	2777.849689
659.424266	2775.535799
659.766016	2774.996396
660.107715	2774.704009
660.449362	2776.286931
660.790958	2778.842796
661.132503	2777.103598
661.473996	2778.618465
661.815438	2776.019750
662.156829	2776.138217
662.498168	2778.119391
662.839456	2777.363218
663.180693	2775.387085
663.521879	2777.741304
663.863013	2776.705347
664.204097	2776.554112
664.545129	2777.882457
664.886110	2777.763989
665.227040	2777.673249
665.567918	2777.224586
665.908746	2778.094185
666.249522	2778.184926
666.590248	2775.525717
666.930922	2778.855399
667.271545	2779.903959
667.612118	2781.098713
667.952639	2778.532765
668.293109	2778.689041
668.633528	2773.673093
668.973896	2774.567898
669.314213	2774.530089
669.654480	2772.208638
669.994695	2770.739142
670.334859	2772.773247
670.674973	2769.438524
671.015035	2770.275355
671.355047	2771.800304
671.695008	2769.577156
672.034918	2768.662186
672.374777	2771.565891
672.714585	2768.682351
673.054342	2769.662855
673.394049	2767.454830
673.733705	2767.293513
674.073310	2767.170005
674.412864	2767.321239
674.752368	2762.441402
675.091820	2764.430137
675.431223	2760.036772
675.770574	2761.458377
676.109875	2755.313211
676.449125	2753.647109
676.788324	2753.876482
677.127473	2750.093096
677.466571	2745.843403
677.805619	2750.259454
678.144616	2747.144021
678.483562	2747.353229
678.822458	2742.654873
679.161303	2745.798033
679.500098	2743.421129
679.838842	2743.499267
680.177535	2743.947929
680.516179	2745.001531
680.854771	2747.214597
681.193314	2753.193406
681.531805	2758.249683
681.870247	2765.151022
682.208638	2770.676127
682.546978	2770.993720
682.885268	2772.377517
683.223508	2768.979779
683.561697	2763.482401
683.899836	2765.140940
684.237925	2761.105497
684.575963	2760.987029
684.913951	2757.017121
685.251889	2759.373860
685.589776	2758.095928
685.927614	2757.831267
686.265401	2756.449991
686.603137	2758.509302
686.940824	2761.503748
687.278460	2766.718821
687.616046	2766.222268
687.953582	2771.054214
688.291068	2768.314347
688.628504	2771.621343
688.965889	2770.870212
689.303224	2768.334511
689.640510	2763.489962
689.977745	2759.724220
690.314930	2754.337747
690.652065	2749.437746
690.989150	2745.644278
691.326185	2739.047928
691.663170	2733.767319
692.000105	2730.470405
692.336990	2725.310784
692.673825	2720.521687
693.010610	2715.667056
693.347345	2712.904504
693.684030	2707.780171
694.020665	2706.061138
694.357251	2698.764067
694.693786	2700.480580
695.030272	2703.671631
695.366707	2698.264993
695.703093	2695.789787
696.039429	2694.708459
696.375716	2695.295754
696.711952	2691.270392
697.048139	2690.015145
697.384276	2689.354754
697.720363	2691.580423
698.056400	2690.269723
698.392388	2686.299815
698.728326	2687.615556
699.064214	2688.313756
699.400053	2687.509692
699.735842	2687.000535
700.071581	2682.521470
700.407270	2680.852848
700.742910	2678.092816
701.078501	2675.332784
701.414042	2674.445541
701.749533	2672.043432
702.084974	2670.833555
702.420366	2671.972855
702.755709	2667.783657
703.091002	2665.497493
703.426246	2665.192503
703.761440	2665.782318
704.096584	2663.818789
704.431679	2663.523882
704.766725	2664.101094
705.101721	2663.153357
705.436668	2662.755106
705.771565	2659.959786
706.106413	2663.410456
706.441212	2662.525733
706.775961	2665.318532
707.110661	2662.636638
707.445311	2666.659479
707.779913	2663.964982
708.114465	2668.877587
708.448967	2667.471105
708.783421	2675.330264
709.117825	2673.883453
709.452180	2676.240192
709.786485	2681.765297
710.120742	2686.088086
710.454949	2686.781245
710.789107	2688.386852
711.123216	2691.744261
711.457275	2697.138295
711.791286	2698.514530
712.125247	2697.881866
712.459159	2699.366485
712.793023	2703.805221
713.126837	2695.890610
713.460602	2698.968234
713.794318	2694.831967
714.127985	2692.349199
714.461602	2683.927952
714.795171	2684.001048
715.128691	2679.093485
715.462162	2675.279852
715.795584	2672.053514
716.128957	2670.629388
716.462281	2667.002278
716.795556	2667.559325
717.128782	2661.504899
717.461960	2656.743530
717.795088	2660.095897
718.128167	2654.906029
718.461198	2653.739002
718.794180	2651.941831
719.127113	2651.294042
719.459997	2647.460245
719.792833	2644.251550
720.125619	2647.056953
720.458357	2642.834986
720.791046	2641.085706
721.123686	2637.884573
721.456278	2640.221148
721.788821	2638.245016
722.121315	2634.706126
722.453761	2636.399953
722.786158	2635.921044
723.118506	2636.160498
723.450805	2635.737042
723.783056	2636.437762
724.115259	2636.410036
724.447412	2632.576238
724.779518	2640.642084
725.111574	2638.315592
725.443582	2638.469347
725.775542	2640.117804
726.107453	2644.052425
726.439315	2641.491519
726.771129	2651.725061
727.102895	2650.953764
727.434612	2650.918476
727.766281	2653.434012
728.097901	2652.105668
728.429473	2650.852941
728.760996	2654.578354
729.092471	2652.808909
729.423897	2654.275885
729.755276	2653.507109
730.086606	2656.647748
730.417887	2657.860145
730.749120	2663.551608
731.080305	2666.606547
731.411442	2666.581341
731.742530	2669.129645
732.073570	2669.104439
732.404562	2671.357835
732.735506	2670.047135
733.066401	2668.554953
733.397249	2667.249294
733.728048	2659.559014
734.058798	2651.473003
734.389501	2647.286325
734.720156	2645.098464
735.050762	2639.664100
735.381320	2635.008595
735.711831	2635.716877
736.042293	2631.628501
736.372707	2633.723101
736.703073	2630.368213
737.033391	2628.505506
737.363661	2631.227729
737.693883	2631.900723
738.024056	2637.050262
738.354182	2636.228554
738.684260	2639.447331
739.014290	2639.575880
739.344272	2640.221148
739.674207	2645.161479
740.004093	2650.321100
740.333931	2646.807415
740.663722	2649.201963
740.993464	2647.500574
741.323159	2643.870943
741.652806	2644.362456
741.982405	2641.778864
742.311956	2640.206024
742.641460	2638.436579
742.970915	2636.594038
743.300323	2632.419962
743.629683	2629.969962
743.958996	2631.149592
744.288260	2627.729169
744.617477	2622.650206
744.946647	2617.780452
745.275768	2619.438991
745.604842	2618.718106
745.933869	2614.906994
746.262847	2614.019751
746.591778	2617.800616
746.920662	2617.299021
747.249498	2616.880606
747.578286	2615.983280
747.907027	2620.021244
748.235720	2622.587192
748.564365	2624.366719
748.892963	2622.030144
749.221514	2621.672222
749.550017	2620.437140
749.878473	2621.810854
750.206881	2618.685339
750.535242	2618.821450
750.863555	2616.673918
751.191821	2616.938579
751.520039	2617.485544
751.848210	2617.760287
752.176334	2615.365739
752.504411	2618.508898
752.832440	2612.613269
753.160421	2618.345061
753.488356	2613.379524
753.816243	2614.090327
754.144082	2611.829369
754.471875	2614.143259
754.799620	2612.595625
755.127318	2609.906169
755.454969	2608.378700
755.782572	2611.584873
756.110129	2611.410954
756.437638	2613.170316
756.765100	2608.613113
757.092515	2612.278032
757.419882	2609.933896
757.747203	2612.701489
758.074477	2613.268619
758.401703	2613.916407
758.728882	2612.951026
759.056014	2613.135028
759.383099	2614.019751
759.710138	2618.309773
760.037129	2619.333127
760.364073	2618.002262
760.690970	2616.351284
761.017820	2616.913373
761.344623	2622.128447
761.671379	2624.936369
761.998088	2628.833181
762.324751	2644.894297
762.651366	2670.397495
762.977935	2704.974769
763.304456	2724.060577
763.630931	2733.386712
763.957359	2724.922615
764.283740	2706.232537
764.610074	2690.010104
764.936362	2668.993533
765.262602	2655.218581
765.588796	2640.314409
765.914943	2631.212606
766.241044	2623.020731
766.567097	2615.786675
766.893104	2608.141765
767.219064	2604.065992
767.544978	2599.309664
767.870845	2599.110538
768.196665	2593.875300
768.522438	2595.193562
768.848165	2590.482603
769.173846	2589.396235
769.499479	2588.854311
769.825066	2586.863055
770.150607	2584.473548
770.476101	2582.053794
770.801548	2582.825091
771.126949	2585.164186
771.452303	2581.839545
771.777611	2578.507342
772.102872	2580.453228
772.428087	2576.339646
772.753256	2574.905438
773.078378	2574.963411
773.403453	2574.416446
773.728482	2574.323185
774.053465	2571.419480
774.378401	2570.050807
774.703291	2570.728842
775.028135	2566.811866
775.352932	2568.460323
775.677683	2567.573080
776.002388	2566.156516
776.327046	2567.573080
776.651658	2563.898079
776.976224	2566.340518
777.300743	2564.558470
777.625216	2567.101732
777.949643	2563.618295
778.274024	2564.535785
778.598359	2559.910526
778.922647	2558.967830
779.246889	2563.610733
779.571086	2560.331462
779.895236	2566.272462
780.219339	2562.786504
780.543397	2561.377502
780.867409	2563.772050
781.191374	2564.445044
781.515294	2561.712738
781.839167	2567.106773
782.162995	2564.913871
782.486776	2566.307750
782.810511	2561.133006
783.134201	2561.148129
783.457844	2560.139898
783.781441	2561.581668
784.104993	2560.303736
784.428498	2563.850188
784.751958	2560.732234
785.075372	2563.951011
785.398739	2559.562686
785.722061	2561.115362
786.045337	2559.673592
786.368568	2564.266083
786.691752	2565.470919
787.014891	2569.677762
787.337983	2570.265056
787.661030	2578.547672
787.984031	2578.368711
788.306987	2584.796182
788.629897	2586.724423
788.952760	2584.662591
789.275579	2582.184864
789.598351	2582.373907
789.921078	2577.269739
790.243759	2572.909141
790.566395	2570.527196
790.888984	2570.388564
791.211529	2566.963100
791.534027	2563.492266
791.856480	2560.717111
792.178888	2561.014539
792.501249	2558.574620
792.823566	2559.197203
793.145836	2561.427913
793.468062	2560.442368
793.790241	2559.434137
794.112375	2559.361040
794.434464	2561.203582
794.756507	2560.245763
795.078505	2563.769529
795.400457	2564.301371
795.722364	2564.858418
796.044226	2567.931002
796.366042	2569.501321
796.687812	2571.764799
797.009538	2572.997361
797.331218	2573.740932
797.652852	2572.031980
797.974442	2571.285890
798.295986	2569.181208
798.617484	2567.840261
798.938938	2566.695919
799.260346	2567.152143
799.581709	2563.540157
799.903026	2564.034190
800.224299	2562.489076
800.545526	2562.688202
800.866708	2558.889692
801.187845	2560.840619
801.508936	2557.231153
801.829983	2562.478994
802.150984	2558.211657
802.471940	2556.099414
802.792851	2555.733930
803.113717	2559.724003
803.434538	2553.321738
803.755314	2556.142263
804.076045	2555.607901
804.396731	2555.567572
804.717372	2552.820143
805.037967	2553.029351
805.358518	2554.607232
805.679024	2556.316183
805.999485	2557.369784
806.319901	2559.562686
806.640272	2557.397511
806.960598	2556.273333
807.280879	2557.402552
807.601115	2558.819116
807.921306	2558.045299
808.241453	2557.619322
808.561554	2558.418344
808.881611	2558.773746
809.201623	2557.631924
809.521590	2557.369784
809.841513	2558.234342
810.161390	2558.758622
810.481223	2556.550597
810.801011	2554.261913
811.120755	2555.786862
811.440453	2557.364743
811.760107	2556.868190
812.079716	2550.171017
812.399281	2552.212684
812.718801	2551.905174
813.038276	2549.739998
813.357707	2554.534135
813.677093	2553.241079
813.996434	2553.755277
814.315731	2548.457024
814.634983	2557.140412
814.954191	2551.890050
815.273354	2556.207798
815.592473	2557.581513
815.911547	2558.151163
816.230577	2556.996739
816.549562	2563.119220
816.868502	2562.272307
817.187399	2563.212482
817.506250	2564.891186
817.825058	2565.740620
818.143821	2569.100549
818.462539	2572.115159
818.781213	2575.132290
819.099843	2581.968095
819.418429	2593.159456
819.736970	2606.354676
820.055466	2618.211470
820.373919	2631.525157
820.692327	2659.375012
821.010691	2705.373020
821.329011	2806.357414
821.647286	2958.428861
821.965517	3124.461783
822.283704	3218.396124
822.601847	3245.935947
822.919945	3176.037828
823.237999	3098.068823
823.556010	3016.034126
823.873976	2939.842127
824.191897	2874.057590
824.509775	2822.433654
824.827609	2777.262395
825.145398	2750.403127
825.463144	2734.946949
825.780845	2739.242012
826.098502	2757.438057
826.416116	2796.602781
826.733685	2831.169973
827.051210	2841.151458
827.368692	2822.665547
827.686129	2782.744649
828.003522	2741.233268
828.320872	2700.067206
828.638177	2673.679286
828.955439	2649.517036
829.272656	2632.127575
829.589830	2612.119236
829.906960	2605.167485
830.224046	2591.505958
830.541088	2587.382294
830.858086	2581.027919
831.175041	2577.463824
831.491952	2576.644636
831.808819	2574.565160
832.125642	2585.023034
832.442421	2595.007039
832.759157	2614.695265
833.075849	2645.640388
833.392497	2678.175995
833.709101	2697.024869
834.025662	2692.182841
834.342179	2677.593742
834.658653	2654.238076
834.975083	2637.009933
835.291469	2625.057357
835.607811	2605.727053
835.924110	2593.978644
836.240366	2582.522622
836.556578	2574.308061
836.872746	2566.428738
837.188871	2561.309446
837.504952	2555.587737
837.820990	2552.878116
838.136984	2547.484082
838.452935	2548.439380
838.768842	2548.565409
839.084706	2557.153015
839.400526	2570.980900
839.716303	2587.072263
840.032037	2599.130703
840.347727	2599.758327
840.663373	2585.827098
840.978977	2573.108267
841.294537	2565.596947
841.610054	2559.023283
841.925527	2553.689742
842.240957	2548.376366
842.556344	2546.604400
842.871687	2542.258926
843.186987	2538.934285
843.502244	2535.909593
843.817458	2536.753986
844.132629	2533.371372
844.447756	2529.008253
844.762840	2526.979188
845.077881	2527.198479
845.392879	2525.174455
845.707833	2526.381812
846.022745	2524.377953
846.337613	2528.317615
846.652438	2526.346524
846.967221	2526.404497
847.281960	2526.336441
847.596656	2528.673016
847.911309	2524.887110
848.225919	2522.666481
848.540485	2527.347193
848.855009	2525.229908
849.169490	2525.487007
849.483928	2525.237470
849.798323	2522.379136
850.112675	2523.233611
850.426984	2522.822757
850.741251	2525.436595
851.055474	2522.807634
851.369654	2526.802748
851.683792	2521.983405
851.997887	2525.252593
852.311938	2521.133971
852.625947	2524.067922
852.939914	2523.780576
853.253837	2523.931811
853.567718	2524.972809
853.881555	2526.016328
854.195350	2523.611698
854.509103	2524.849301
854.822812	2525.744106
855.136479	2522.467356
855.450103	2524.529188
855.763685	2523.833508
856.077224	2523.750329
856.390720	2525.746626
856.704173	2525.726462
857.017584	2525.300484
857.330953	2522.850483
857.644278	2526.291071
857.957561	2526.306194
858.270802	2526.598581
858.584000	2525.466842
858.897155	2525.144208
859.210268	2525.111441
859.523339	2526.346524
859.836367	2525.597912
860.149352	2522.512726
860.462295	2526.911133
860.775195	2522.570699
861.088054	2521.431399
861.400869	2520.856707
861.713642	2517.627848
862.026373	2520.773528
862.339062	2522.414424
862.651708	2527.498427
862.964312	2523.074815
863.276873	2524.778725
863.589392	2526.316277
863.901869	2526.291071
864.214303	2528.060516
864.526696	2526.802748
864.839045	2528.398273
865.151353	2528.398273
865.463619	2527.284178
865.775842	2530.676875
866.088023	2528.436082
866.400162	2528.312574
866.712258	2527.876514
867.024313	2528.564631
867.336325	2529.615712
867.648296	2529.628315
867.960224	2527.556401
868.272110	2528.088242
868.583954	2531.922040
868.895755	2528.932636
869.207515	2528.723428
869.519233	2529.555218
869.830909	2529.653521
870.142542	2529.847605
870.454134	2530.394570
870.765684	2532.262318
871.077191	2532.705939
871.388657	2531.422966
871.700081	2530.170239
872.011463	2534.677030
872.322803	2533.530168
872.634101	2532.433717
872.945357	2534.946732
873.256571	2536.411187
873.567744	2535.118131
873.878874	2536.459078
874.189963	2537.295910
874.501010	2540.295396
874.812015	2538.730118
875.122979	2538.558719
875.433900	2538.437731
875.744780	2539.849254
876.055618	2538.372196
876.366415	2540.945705
876.677169	2539.491332
876.987882	2538.457896
877.298554	2540.013092
877.609183	2541.293545
877.919771	2541.482588
878.230317	2547.169010
878.540822	2558.229301
878.851285	2558.995557
879.161707	2563.497307
879.472087	2579.124884
879.782425	2600.874942
880.092722	2632.246042
880.402977	2687.078673
880.713191	2748.668970
881.023363	2807.567291
881.333494	2842.953670
881.643583	2858.518233
881.953631	2851.022037
882.263637	2832.732731
882.573602	2808.673824
882.883526	2782.923610
883.193408	2759.857811
883.503248	2734.619274
883.813048	2713.285111
884.122806	2691.225022
884.432522	2665.951197
884.742197	2647.745070
885.051831	2630.189252
885.361424	2615.574947
885.670975	2603.342587
885.980485	2595.165835
886.289954	2585.012952
886.599382	2574.852506
886.908768	2571.873184
887.218113	2560.626370
887.527417	2561.634601
887.836680	2555.890206
888.145901	2552.530277
888.455082	2551.038095
888.764221	2547.244627
889.073319	2545.951571
889.382376	2544.741694
889.691392	2540.693647
890.000366	2544.159441
890.309300	2544.653474
890.618193	2543.241951
890.927044	2543.758669
891.235855	2543.672969
891.544625	2543.665408
891.853353	2543.299924
892.162041	2543.473844
892.470687	2549.906356
892.779293	2552.590771
893.087858	2554.607232
893.396381	2566.776578
893.704864	2582.999011
894.013306	2595.627101
894.321707	2620.537963
894.630068	2629.750671
894.938387	2634.789305
895.246665	2629.334776
895.554903	2621.697428
895.863100	2611.841972
896.171256	2603.277052
896.479371	2593.217429
896.787446	2587.117633
897.095480	2580.836356
897.403473	2574.988617
897.711425	2570.088616
898.019336	2566.111145
898.327207	2562.877245
898.635038	2557.241235
898.942827	2551.945503
899.250576	2549.739998
899.558284	2548.666232
899.865952	2542.175747
900.173579	2542.463092
900.481165	2541.033925
900.788711	2539.743390
901.096216	2539.614841
901.403681	2536.320447
901.711105	2537.008564
902.018489	2535.322298
902.325832	2541.913607
902.633135	2541.341436
902.940397	2547.446273
903.247619	2561.125444
903.554800	2591.039651
903.861941	2622.501492
904.169041	2647.019144
904.476101	2655.034578
904.783121	2650.462252
905.090100	2637.781229
905.397039	2623.146760
905.703938	2608.217383
906.010796	2598.533326
906.317614	2586.061512
906.624391	2578.908114
906.931129	2571.343863
907.237826	2563.426731
907.544483	2556.351471
907.851099	2550.859134
908.157675	2542.526107
908.464211	2538.722556
908.770707	2530.490352
909.077163	2530.404653
909.383578	2522.389218
909.689954	2525.562624
909.996289	2521.000380
910.302584	2525.408869
910.608839	2522.611029
910.915054	2525.096318
911.221229	2524.652696
911.527363	2524.430885
911.833458	2524.340144
912.139513	2522.721934
912.445527	2523.601615
912.751502	2529.255269
913.057436	2530.717204
913.363331	2531.879190
913.669186	2536.348173
913.975000	2539.758513
914.280775	2546.657332
914.586510	2560.202913
914.892205	2574.421487
915.197859	2594.006370
915.503475	2615.388424
915.809050	2634.499438
916.114585	2645.925213
916.420081	2651.099958
916.725536	2648.866727
917.030952	2641.277270
917.336328	2632.472894
917.641665	2627.703963
917.946961	2614.624689
918.252218	2608.726539
918.557435	2600.897627
918.862612	2595.443099
919.167750	2583.729978
919.472848	2576.432908
919.777906	2569.768502
920.082925	2561.218705
920.387904	2556.595967
920.692843	2549.162786
920.997743	2547.040460
921.302603	2543.897301
921.607423	2539.193904
921.912204	2537.144675
922.216946	2537.258101
922.521647	2535.501259
922.826310	2531.969931
923.130932	2528.829292
923.435516	2526.449867
923.740059	2526.233098
924.044564	2522.180010
924.349028	2524.125895
924.653454	2518.273116
924.957840	2520.433250
925.262186	2516.607014
925.566493	2518.505009
925.870761	2516.168434
926.174989	2516.670029
926.479178	2514.971160
926.783328	2516.359998
927.087438	2517.290091
927.391509	2514.434277
927.695541	2513.284894
927.999533	2513.907477
928.303486	2513.713392
928.607400	2511.149965
928.911275	2508.674759
929.215110	2512.322034
929.518906	2511.318844
929.822663	2510.852537
930.126381	2508.515962
930.430060	2512.697600
930.733699	2510.822290
931.037299	2512.778258
931.340861	2512.707682
931.644383	2510.129132
931.947866	2514.298166
932.251309	2512.611900
932.554714	2511.230624
932.858080	2513.143742
933.161407	2512.526200
933.464694	2511.129801
933.767943	2511.412105
934.071153	2513.224400
934.374323	2510.474451
934.677455	2514.371263
934.980548	2511.699451
935.283602	2510.497136
935.586617	2509.536796
935.889593	2509.380520
936.192530	2510.512259
936.495428	2510.550068
936.798287	2512.989987
937.101108	2512.750532
937.403890	2516.125584
937.706632	2515.165244
938.009336	2515.334123
938.312002	2515.961747
938.614628	2518.164731
938.917216	2523.097500
939.219765	2519.631707
939.522275	2521.242355
939.824747	2520.279495
940.127179	2519.795544
940.429573	2517.963085
940.731929	2519.898888
941.034246	2515.868485
941.336524	2518.263033
941.638763	2519.051974
941.940964	2520.095493
942.243126	2518.958713
942.545250	2520.264372
942.847335	2516.624658
943.149381	2520.178672
943.451389	2514.154493
943.753359	2516.791017
944.055290	2514.673732
944.357182	2515.230779
944.659036	2515.855883
944.960851	2515.795389
945.262628	2513.332785
945.564367	2514.406551
945.866067	2512.112826
946.167729	2510.960922
946.469352	2513.312620
946.770937	2512.160717
947.072484	2513.935203
947.373992	2513.975532
947.675462	2515.203053
947.976893	2513.229441
948.278286	2513.967970
948.579641	2512.140552
948.880958	2512.894205
949.182236	2514.424195
949.483476	2509.292300
949.784678	2514.678773
950.085841	2510.660973
950.386967	2512.380007
950.688054	2513.257168
950.989103	2513.536952
951.290114	2512.069976
951.591087	2515.180368
951.892021	2513.753721
952.192917	2515.210615
952.493776	2515.392096
952.794596	2514.560306
953.095378	2517.022910
953.396122	2515.014010
953.696828	2515.082065
953.997496	2516.133146
954.298126	2514.988804
954.598718	2515.137518
954.899272	2514.898063
955.199788	2514.928310
955.500266	2512.463186
955.800706	2510.809688
956.101108	2508.337002
956.401472	2509.672907
956.701798	2505.753410
957.002087	2504.810714
957.302337	2508.256343
957.602550	2508.531086
957.902724	2507.719460
958.202861	2506.912876
958.502960	2505.030005
958.803022	2504.455313
959.103045	2503.678975
959.403031	2506.789367
959.702979	2505.612258
960.002889	2506.013030
960.302762	2504.286434
960.602596	2504.225941
960.902393	2502.580004
961.202153	2501.712925
961.501875	2505.811383
961.801559	2502.348111
962.101205	2502.668224
962.400814	2501.934736
962.700385	2503.116887
962.999918	2505.884480
963.299414	2502.590086
963.598873	2503.167298
963.898293	2502.101094
964.197677	2501.365086
964.497022	2500.704695
964.796331	2504.765344
965.095601	2502.118738
965.394835	2504.165447
965.694030	2501.821310
965.993189	2502.176712
966.292309	2504.427587
966.591393	2501.768378
966.890439	2501.997751
967.189447	2500.992040
967.488419	2502.040600
967.787353	2500.142606
968.086249	2498.499190
968.385108	2501.012205
968.683930	2501.710405
968.982714	2503.699140
969.281462	2500.656804
969.580172	2505.478667
969.878844	2501.072699
970.177480	2503.673934
970.476078	2501.312154
970.774639	2503.290807
971.073162	2505.294665
971.371649	2500.006495
971.670098	2498.620178
971.968510	2501.544047
972.266885	2498.673110
972.565223	2501.952380
972.863524	2502.877432
973.161788	2507.185098
973.460014	2500.263594
973.758204	2504.624192
974.056356	2503.139572
974.354471	2502.993378
974.652550	2501.962462
974.950591	2504.384737
975.248595	2503.205107
975.546563	2504.871208
975.844493	2502.365755
976.142386	2502.930364
976.440243	2500.523213
976.738062	2506.655777
977.035845	2502.809376
977.333590	2502.101094
977.631299	2501.423059
977.928971	2501.823831
978.226606	2501.503717
978.524204	2499.520023
978.821765	2501.912051
979.119290	2500.669407
979.416777	2500.510610
979.714228	2500.303923
980.011642	2502.796773
980.309020	2506.141579
980.606360	2504.800632
980.903664	2504.982114
981.200931	2503.910868
981.498162	2508.326919
981.795356	2505.539161
982.092513	2511.805315
982.389633	2513.032836
982.686717	2512.357322
982.983764	2516.425533
983.280775	2517.002745
983.577749	2516.664988
983.874686	2515.147600
984.171587	2515.727333
984.468451	2513.118536
984.765279	2513.562158
985.062070	2511.701972
985.358824	2512.231293
985.655543	2507.941271
985.952224	2508.193329
986.248869	2505.821466
986.545478	2500.916423
986.842050	2503.673934
987.138586	2498.153871
987.435086	2499.900631
987.731549	2494.894765
988.027975	2501.846516
988.324366	2498.146309
988.620719	2497.332163
988.917037	2499.623367
989.213318	2500.162771
989.509563	2497.596823
989.805772	2500.157729
990.101944	2497.889210
990.398080	2502.547236
990.694180	2499.817452
990.990244	2497.173366
991.286271	2499.255363
991.582262	2500.742503
991.878217	2498.768892
992.174136	2499.797287
992.470019	2498.985661
992.765865	2499.547750
993.061676	2500.051865
993.357450	2499.698984
993.653188	2498.889879
993.948890	2499.714108
994.244556	2500.747544
994.540186	2502.567401
994.835780	2499.585558
995.131337	2500.540857
995.426859	2503.724346
995.722345	2502.327946
996.017795	2507.472444
996.313208	2508.004285
996.608586	2507.091837
996.903928	2508.074862
997.199234	2509.730881
997.494504	2506.839779
997.789738	2507.984121
998.084936	2508.576456
998.380099	2506.343225
998.675225	2506.449089
998.970316	2505.637464
999.265371	2502.653101
999.560390	2502.733759
999.855373	2502.632936
1000.150320	2502.375837
1000.445232	2502.005312
1000.740108	2499.792246
1001.034948	2500.203100
1001.329752	2497.102790
1001.624521	2499.696464
1001.919254	2495.439209
1002.213951	2495.366113
1002.508613	2495.799652
1002.803239	2496.656648
1003.097829	2494.609940
1003.392384	2494.577172
1003.686903	2494.960300
1003.981386	2499.545229
1004.275834	2496.752430
1004.570246	2499.681340
1004.864623	2495.318222
1005.158964	2499.855260
1005.453270	2498.007677
1005.747540	2498.607575
1006.041775	2497.231340
1006.335974	2495.235043
1006.630138	2494.902327
1006.924266	2497.546412
1007.218359	2496.880979
1007.512416	2492.487614
1007.806438	2497.425424
1008.100425	2497.019611
1008.394376	2496.137409
1008.688292	2495.560197
1008.982172	2495.829899
1009.276017	2498.196721
1009.569827	2495.850063
1009.863602	2499.986330
1010.157341	2497.117914
1010.451045	2498.088336
1010.744714	2496.850733
1011.038347	2498.297544
1011.331945	2494.158756
1011.625508	2498.105980
1011.919036	2497.831237
1012.212528	2497.506083
1012.505986	2496.926350
1012.799408	2501.178563
1013.092795	2494.861997
1013.386147	2496.139930
1013.679464	2494.325114
1013.972745	2493.712614
1014.265992	2494.488952
1014.559204	2497.465753
1014.852380	2496.439878
1015.145521	2495.164467
1015.438628	2498.572287
1015.731699	2496.805362
1016.024736	2497.622029
1016.317737	2496.623881
1016.610703	2496.021463
1016.903635	2496.727224
1017.196531	2490.647593
1017.489393	2491.812099
1017.782219	2492.313694
1018.075011	2494.277223
1018.367768	2496.291164
1018.660490	2493.611791
1018.953177	2493.611791
1019.245829	2493.611791
