Dividing Wavelength (nm)	Counts (n)	Blue Motor Position (mm): 0.000000	Red Motor Position (mm): 11.600000	
326.493990	2128.700308
326.888308	2128.700308
327.282561	2128.700308
327.676750	2093.245873
328.070874	2091.998188
328.464933	2097.074630
328.858929	2104.908583
329.252859	2111.000817
329.646726	2123.868362
330.040528	2138.984262
330.434265	2154.833650
330.827938	2169.652122
331.221547	2191.742458
331.615091	2205.182174
332.008571	2225.971892
332.401986	2248.208422
332.795338	2266.734662
333.188625	2286.821140
333.581847	2303.885446
333.975006	2322.744402
334.368100	2342.959429
334.761129	2359.295288
335.154095	2374.895139
335.546996	2393.020607
335.939833	2404.247257
336.332606	2422.476069
336.725315	2432.016453
337.117960	2445.554472
337.510540	2451.802982
337.903056	2467.022225
338.295508	2471.218986
338.687896	2478.032105
339.080220	2487.249855
339.472480	2493.939466
339.864676	2500.031701
340.256807	2502.582524
340.648875	2506.345746
341.040879	2510.711385
341.432818	2507.792557
341.824694	2512.942096
342.216506	2510.275325
342.608253	2511.767507
342.999937	2512.889163
343.391557	2510.169461
343.783113	2510.837414
344.174605	2509.393123
344.566033	2508.337002
344.957397	2507.270798
345.348697	2504.039418
345.739934	2503.618482
346.131106	2502.007833
346.522215	2496.606237
346.913260	2499.802328
347.304241	2498.688233
347.695159	2494.748571
348.086012	2495.073726
348.476802	2491.202120
348.867528	2490.413179
349.258191	2488.822695
349.648789	2488.668940
350.039324	2485.099803
350.429796	2483.466469
350.820203	2483.128712
351.210548	2483.562251
351.600828	2480.361118
351.991045	2480.000676
352.381198	2482.402786
352.771288	2480.482106
353.161314	2478.339616
353.551276	2479.831797
353.941175	2478.206025
354.331010	2480.968577
354.720782	2482.168372
355.110490	2481.313896
355.500135	2481.538228
355.889717	2481.752477
356.279235	2483.073259
356.668689	2479.940182
357.058080	2479.935141
357.447408	2479.199132
357.836672	2479.335243
358.225873	2481.979329
358.615010	2478.085037
359.004084	2484.812457
359.393095	2484.633496
359.782043	2486.130719
360.170927	2484.976295
360.559748	2484.721716
360.948505	2486.332365
361.337199	2484.527632
361.725830	2489.430154
362.114398	2489.170535
362.502903	2488.260606
362.891344	2489.379743
363.279722	2489.430154
363.668037	2489.117603
364.056289	2490.158601
364.444478	2491.854949
364.832603	2493.732779
365.220665	2492.432161
365.608665	2491.456698
365.996601	2490.529126
366.384474	2494.892244
366.772284	2492.464929
367.160031	2496.081957
367.547715	2499.522544
367.935336	2502.637977
368.322893	2503.986486
368.710388	2506.630571
369.097820	2511.580984
369.485189	2516.533918
369.872495	2523.223529
370.259738	2528.990609
370.646918	2534.611495
371.034035	2541.500232
371.421090	2553.354505
371.808081	2559.965979
372.195010	2573.151117
372.581875	2582.520101
372.968678	2598.195569
373.355418	2606.057248
373.742096	2624.853190
374.128710	2643.490336
374.515262	2652.995432
374.901751	2671.781292
375.288177	2686.309897
375.674540	2706.376210
376.060841	2724.191647
376.447079	2743.945409
376.833254	2765.203955
377.219367	2778.386572
377.605417	2810.871767
377.991404	2822.048005
378.377329	2844.952488
378.763191	2860.564941
379.148991	2897.821589
379.534727	2923.468459
379.920402	2953.612038
380.306013	2963.717031
380.691563	3012.898528
381.077049	3032.180942
381.462474	3052.406051
381.847835	3089.201433
382.233134	3110.394444
382.618371	3111.299331
383.003545	3177.615710
383.388657	3182.041843
383.773706	3211.285576
384.158693	3220.440312
384.543618	3248.890063
384.928480	3273.100205
385.313280	3314.445228
385.698017	3304.514155
386.082692	3349.231710
386.467305	3342.889938
386.851856	3364.065305
387.236344	3372.403374
387.620770	3391.239645
388.005133	3398.297260
388.389435	3405.342273
388.773674	3402.836819
389.157851	3420.317020
389.541965	3414.577667
389.926018	3371.332128
390.310008	3409.382758
390.693936	3401.750451
391.077802	3409.838982
391.461606	3378.115001
391.845348	3400.578383
392.229027	3374.790360
392.612645	3359.510623
392.996200	3386.221176
393.379694	3383.219169
393.763125	3392.991446
394.146494	3338.494052
394.529801	3346.287676
394.913047	3338.446161
395.296230	3288.768111
395.679351	3284.455404
396.062410	3258.395159
396.445408	3217.503839
396.828343	3198.677650
397.211217	3171.916685
397.594028	3105.194493
397.976778	3097.950355
398.359466	3078.408322
398.742092	3051.939744
399.124656	2997.351610
399.507158	2989.684015
399.889598	2969.085860
400.271977	2952.999538
400.654294	2920.781524
401.036549	2890.650548
401.418742	2858.374560
401.800874	2853.010772
402.182944	2829.697956
402.564952	2815.310503
402.946898	2790.404683
403.328783	2763.333687
403.710606	2732.542319
404.092367	2736.345869
404.474067	2712.980121
404.855705	2698.209541
405.237282	2674.637105
405.618797	2663.687719
406.000250	2657.305618
406.381642	2647.422436
406.762972	2630.711011
407.144240	2619.595267
407.525447	2606.999944
407.906593	2599.481063
408.287677	2591.281626
408.668700	2578.630851
409.049661	2573.992989
409.430560	2566.290106
409.811399	2558.004970
410.192176	2557.410114
410.572891	2550.128167
410.953545	2549.193033
411.334138	2542.914276
411.714669	2541.732125
412.095139	2537.003523
412.475547	2537.386651
412.855894	2532.632842
413.236180	2530.439941
413.616405	2529.787111
413.996568	2528.849457
414.376670	2527.599250
414.756711	2526.401976
415.136691	2527.062368
415.516609	2526.437264
415.896466	2527.374919
416.276262	2526.323838
416.655997	2521.018024
417.035670	2520.614732
417.415283	2525.199661
417.794834	2519.041892
418.174324	2524.904754
418.553753	2523.190761
418.933121	2524.761081
419.312428	2522.860566
419.691674	2523.750329
420.070859	2523.614218
420.449983	2524.917357
420.829045	2525.812161
421.208047	2522.895854
421.586988	2522.376615
421.965867	2525.645803
422.344686	2525.101359
422.723444	2527.742923
423.102141	2523.271420
423.480777	2525.660927
423.859352	2525.277799
424.237866	2524.675381
424.616319	2526.810310
424.994712	2523.773015
425.373044	2527.241328
425.751314	2526.611184
426.129524	2526.177645
426.507673	2526.827954
426.885762	2526.442306
427.263789	2525.308046
427.641756	2524.319980
428.019662	2527.155629
428.397508	2526.517923
428.775292	2525.698735
429.153016	2528.738551
429.530679	2528.373067
429.908282	2525.592871
430.285824	2525.073632
430.663305	2528.045393
431.040726	2526.719569
431.418086	2524.801410
431.795385	2526.409538
432.172624	2527.926925
432.549802	2526.517923
432.926920	2527.558921
433.303977	2526.447347
433.680974	2528.143695
434.057910	2529.441792
434.434786	2525.688653
434.811601	2528.158818
435.188355	2526.477594
435.565050	2528.418438
435.941683	2528.272244
436.318257	2528.473891
436.694770	2523.006759
437.071222	2526.160001
437.447614	2524.831657
437.823946	2526.399456
438.200218	2528.415917
438.576429	2527.856349
438.952580	2529.257790
439.328670	2527.299302
439.704700	2531.450692
440.080670	2529.512368
440.456580	2526.966586
440.832429	2530.686957
441.208218	2528.879703
441.583947	2530.500434
441.959616	2528.816689
442.335224	2529.628315
442.710773	2528.599919
443.086261	2531.208717
443.461689	2530.079498
443.837057	2530.591175
444.212365	2530.903727
444.587612	2531.571680
444.962800	2530.167718
445.337927	2529.842564
445.712995	2529.698891
446.088002	2532.418593
446.462949	2530.520599
446.837837	2530.104704
447.212664	2530.276103
447.587431	2532.607637
447.962139	2528.476411
448.336786	2536.343132
448.711374	2533.280631
449.085901	2534.598893
449.460369	2531.574200
449.834776	2532.584952
450.209124	2534.243491
450.583412	2532.471526
450.957640	2536.012936
451.331808	2533.066382
451.705917	2534.175436
452.079965	2535.095446
452.453954	2534.447658
452.827883	2534.379602
453.201752	2534.535878
453.575562	2534.326670
453.949311	2533.731814
454.323001	2531.916999
454.696632	2534.392205
455.070202	2535.183666
455.443713	2535.463450
455.817164	2534.611495
456.190556	2532.741227
456.563888	2533.131917
456.937160	2532.179139
457.310373	2536.166691
457.683526	2532.761392
458.056619	2534.339273
458.429653	2534.346835
458.802628	2538.367155
459.175542	2534.677030
459.548398	2536.025539
459.921194	2534.762730
460.293930	2536.905220
460.666607	2537.777340
461.039224	2538.415046
461.411782	2537.948739
461.784280	2540.045859
462.156719	2541.858154
462.529099	2537.240457
462.901419	2540.282793
463.273680	2540.393699
463.645882	2539.085519
464.018024	2536.711136
464.390106	2537.603420
464.762130	2540.169367
465.134094	2538.420087
465.505999	2543.360418
465.877845	2546.400234
466.249631	2548.804864
466.621358	2544.799667
466.993026	2549.366953
467.364634	2547.007693
467.736184	2542.485778
468.107674	2545.525593
468.479105	2543.554502
468.850477	2538.914120
469.221790	2542.251364
469.593043	2541.704399
469.964238	2540.363452
470.335373	2539.662732
470.706449	2543.244471
471.077467	2541.316230
471.448425	2547.398382
471.819324	2549.311500
472.190164	2547.806716
472.560945	2546.042312
472.931667	2543.645243
473.302330	2543.302445
473.672934	2541.406971
474.043479	2542.909235
474.413965	2542.621889
474.784393	2537.915972
475.154761	2539.226672
475.525070	2540.532331
475.895321	2539.249357
476.265513	2537.026208
476.635645	2543.337733
477.005719	2541.606096
477.375734	2544.812270
477.745691	2543.226827
478.115588	2542.407640
478.485427	2544.197249
478.855207	2546.334699
479.224928	2547.511808
479.594591	2545.044163
479.964194	2546.067517
480.333739	2547.554658
480.703226	2545.691952
481.072653	2547.854607
481.442022	2547.842004
481.811333	2548.169679
482.180584	2547.068187
482.549777	2547.733619
482.918912	2544.721529
483.287988	2544.771941
483.657005	2544.439225
484.025964	2546.193546
484.394864	2545.392003
484.763706	2547.010213
485.132489	2547.105995
485.501213	2546.954761
485.869879	2547.042981
486.238487	2543.841848
486.607036	2548.595656
486.975527	2545.951571
487.343959	2547.842004
487.712333	2544.829914
488.080648	2544.119112
488.448905	2548.401572
488.817104	2544.953423
489.185244	2546.874102
489.553326	2547.169010
489.921350	2549.298897
490.289315	2552.507592
490.657222	2549.485420
491.025070	2550.556665
491.392861	2550.917108
491.760593	2550.397869
492.128267	2551.963147
492.495883	2547.138763
492.863440	2548.187323
493.230939	2546.755635
493.598380	2544.446787
493.965763	2542.881508
494.333088	2545.124822
494.700354	2542.367311
495.067563	2546.571633
495.434713	2541.243133
495.801805	2545.651622
496.168839	2545.926365
496.535815	2545.399565
496.902733	2546.753114
497.269593	2549.561037
497.636395	2548.189843
498.003139	2547.007693
498.369825	2546.304452
498.736453	2544.247661
499.103023	2547.171530
499.469535	2545.684390
499.835989	2546.216232
500.202385	2548.610780
500.568723	2545.785213
500.935003	2546.490974
501.301226	2548.615821
501.667390	2550.712941
502.033497	2548.774617
502.399546	2545.175233
502.765537	2549.157745
503.131470	2544.517363
503.497345	2547.123639
503.863163	2548.068856
504.228923	2549.069525
504.594625	2548.325954
504.960269	2543.839327
505.325856	2548.106664
505.691385	2546.899308
506.056856	2545.951571
506.422270	2546.513660
506.787625	2550.223949
507.152924	2546.208670
507.518164	2546.644730
507.883347	2547.539534
508.248472	2547.257230
508.613540	2548.888043
508.978550	2547.428629
509.343503	2549.215718
509.708398	2549.818136
510.073236	2548.913249
510.438016	2549.903836
510.802738	2545.361756
511.167403	2549.021634
511.532010	2549.727395
511.896561	2547.884853
512.261053	2550.591953
512.625488	2545.583567
512.989866	2545.334030
513.354186	2548.837632
513.718449	2542.354708
514.082655	2548.651109
514.446803	2548.772097
514.810894	2551.360729
515.174927	2549.593805
515.538904	2550.118085
515.902822	2546.385110
516.266684	2549.099772
516.630488	2549.024154
516.994235	2547.693290
517.357925	2550.297046
517.721558	2550.508774
518.085133	2549.712272
518.448651	2551.123795
518.812112	2548.399051
519.175516	2549.253527
519.538863	2550.032385
519.902152	2548.552806
520.265385	2548.956099
520.628560	2551.126315
520.991678	2548.676315
521.354739	2550.697817
521.717743	2548.648588
522.080690	2549.992056
522.443580	2551.917777
522.806413	2550.014741
523.169189	2549.946685
523.531908	2551.650595
523.894569	2551.312838
524.257174	2549.084648
524.619722	2548.646068
524.982213	2549.490461
525.344647	2547.892415
525.707025	2551.375852
526.069345	2547.282436
526.431608	2550.092879
526.793815	2550.488609
527.155964	2549.205636
527.518057	2550.029864
527.880093	2551.396017
528.242072	2550.173537
528.603995	2551.136398
528.965860	2552.111861
529.327669	2552.177396
529.689421	2548.734288
530.051117	2548.847714
530.412755	2549.371994
530.774337	2551.121274
531.135862	2550.274360
531.497331	2548.610780
531.858743	2544.167002
532.220098	2546.382590
532.581396	2547.174051
532.942638	2547.221942
533.303824	2550.962478
533.664953	2549.929041
534.026025	2549.321582
534.387040	2550.165976
534.747999	2549.563558
535.108902	2550.261758
535.469748	2548.991387
535.830537	2548.580533
536.191270	2549.498023
536.551947	2549.747560
536.912567	2550.833928
537.273131	2548.774617
537.633638	2550.891902
537.994089	2548.366284
538.354483	2551.653116
538.714821	2552.419371
539.075103	2551.413661
539.435328	2550.838970
539.795497	2547.206818
540.155609	2548.983825
540.515665	2550.788558
540.875665	2549.992056
541.235609	2550.327293
541.595496	2551.839639
541.955328	2551.123795
542.315102	2549.205636
542.674821	2548.416695
543.034483	2552.343754
543.394090	2545.878474
543.753640	2549.225800
544.113134	2550.367622
544.472571	2551.685883
544.831953	2549.432488
545.191278	2552.384083
545.550548	2550.067673
545.909761	2551.612787
546.268918	2549.341747
546.628019	2551.267468
546.987064	2550.155893
547.346053	2551.002807
547.704986	2551.660678
548.063863	2549.422405
548.422684	2548.812426
548.781449	2549.319062
549.140158	2550.387786
549.498811	2550.453321
549.857408	2551.068342
550.215949	2551.214536
550.574434	2548.550286
550.932864	2550.944834
551.291237	2545.460058
551.649555	2548.023485
552.007817	2550.783517
552.366022	2551.060780
552.724173	2551.217056
553.082267	2550.571788
553.440305	2551.176727
553.798288	2550.171017
554.156215	2552.656306
554.514086	2550.455842
554.871902	2550.924669
555.229661	2553.220915
555.587365	2551.433826
555.945014	2551.607746
556.302606	2548.920811
556.660143	2553.881306
557.017625	2552.676470
557.375050	2550.029864
557.732421	2551.590102
558.089735	2551.257385
558.446994	2551.552293
558.804197	2550.226469
559.161345	2551.678322
559.518437	2553.331820
559.875474	2551.514484
560.232455	2552.089176
560.589381	2550.528939
560.946251	2554.448436
561.303065	2547.103475
561.659825	2549.596325
562.016528	2548.351160
562.373177	2550.975081
562.729770	2550.549103
563.086307	2549.467776
563.442789	2549.487940
563.799216	2549.354350
564.155587	2551.549772
564.511904	2551.980791
564.868164	2551.796789
565.224370	2551.564896
565.580520	2550.856614
565.936615	2552.454659
566.292654	2550.541542
566.648638	2552.086655
567.004567	2550.997766
567.360441	2549.195553
567.716260	2550.463404
568.072023	2549.117416
568.427732	2548.182282
568.783385	2548.449463
569.138982	2547.637837
569.494525	2550.602035
569.850013	2544.444266
570.205445	2552.568085
570.560823	2546.972405
570.916145	2549.525749
571.271412	2548.348640
571.626625	2547.496685
571.981782	2547.259750
572.336884	2550.387786
572.691931	2552.898281
573.046923	2550.763352
573.401860	2551.096068
573.756743	2549.349309
574.111570	2550.612118
574.466342	2551.514484
574.821059	2549.175389
575.175722	2549.130018
575.530330	2553.399876
575.884882	2550.723023
576.239380	2549.709751
576.593823	2550.599515
576.948211	2547.161448
577.302544	2551.625390
577.656823	2549.263609
578.011047	2551.942982
578.365216	2552.416851
578.719330	2549.931562
579.073389	2552.013558
579.427394	2549.402241
579.781344	2548.527601
580.135239	2548.250337
580.489080	2548.341078
580.842866	2550.728064
581.196597	2553.110009
581.550273	2546.735470
581.903895	2548.323434
582.257463	2549.780327
582.610975	2550.372663
582.964434	2549.482899
583.317837	2550.223949
583.671186	2550.561706
584.024481	2548.252858
584.377721	2549.934082
584.730906	2547.232024
585.084037	2550.239072
585.437113	2548.323434
585.790135	2549.571119
586.143103	2549.286294
586.496016	2549.515667
586.848874	2544.749256
587.201679	2547.088351
587.554428	2544.721529
587.907124	2548.966181
588.259765	2544.257743
588.612352	2548.653629
588.964884	2547.577343
589.317362	2548.366284
589.669786	2551.373332
590.022155	2551.098589
590.374470	2550.085317
590.726731	2548.772097
591.078937	2548.656150
591.431090	2548.144473
591.783188	2548.998948
592.135232	2546.188505
592.487222	2549.898794
592.839157	2549.109854
593.191038	2548.472148
593.542866	2548.701520
593.894639	2550.294525
594.246358	2549.429967
594.598022	2548.618341
594.949633	2549.961809
595.301190	2549.190512
595.652692	2548.099103
596.004141	2548.653629
596.355535	2549.266130
596.706876	2548.462066
597.058162	2549.855945
597.409395	2548.951058
597.760573	2549.283774
598.111698	2548.646068
598.462768	2548.323434
598.813785	2548.502395
599.164748	2547.511808
599.515657	2546.392672
599.866511	2546.102806
600.217312	2547.658002
600.568060	2548.686397
600.918753	2549.064483
601.269392	2547.721016
601.619978	2546.639688
601.970510	2545.465100
602.320988	2548.895605
602.671412	2547.552137
603.021783	2546.974925
603.372100	2546.629606
603.722363	2547.736139
604.072572	2548.620862
604.422728	2548.474668
604.772830	2546.758156
605.122878	2542.725232
605.472872	2544.955943
605.822813	2542.042156
606.172701	2545.659184
606.522534	2547.572302
606.872314	2550.617159
607.222041	2548.141952
607.571714	2546.826211
607.921333	2548.146993
608.270899	2546.296890
608.620411	2546.354863
608.969870	2549.248486
609.319276	2551.322920
609.668627	2549.745039
610.017926	2552.936090
610.367171	2553.646892
610.716362	2556.190154
611.065500	2553.840977
611.414585	2552.883157
611.763616	2550.488609
612.112594	2548.641027
612.461518	2550.425595
612.810389	2548.330996
613.159207	2550.944834
613.507971	2548.230173
613.856682	2546.543907
614.205340	2548.908208
614.553945	2550.465924
614.902496	2547.917621
615.250994	2548.933413
615.599439	2549.024154
615.947830	2550.818805
616.296169	2548.003321
616.644454	2548.759494
616.992686	2550.687735
617.340864	2546.979966
617.688990	2546.516180
618.037063	2550.173537
618.385082	2546.047353
618.733048	2549.757642
619.080961	2547.615152
619.428821	2549.336706
619.776628	2548.441901
620.124382	2548.482230
620.472083	2548.837632
620.819731	2547.491643
621.167326	2547.947868
621.514868	2547.645399
621.862357	2546.317055
622.209793	2547.373176
622.557176	2545.704554
622.904506	2546.478372
623.251783	2545.046684
623.599007	2542.604245
623.946179	2541.994265
624.293297	2544.963505
624.640363	2546.165820
624.987376	2547.476520
625.334336	2545.974256
625.681243	2546.982487
626.028097	2544.582898
626.374899	2546.175902
626.721647	2546.727909
627.068343	2545.765048
627.414987	2546.019627
627.761577	2546.165820
628.108115	2547.174051
628.454600	2545.865871
628.801032	2545.107178
629.147412	2545.805377
629.493739	2546.916952
629.840014	2547.511808
630.186236	2547.899977
630.532405	2544.265305
630.878521	2543.617517
631.224585	2545.606252
631.570597	2544.247661
631.916556	2544.998793
632.262462	2544.439225
632.608316	2545.633978
632.954117	2543.138607
633.299866	2544.577857
633.645562	2544.734132
633.991206	2543.862013
634.336797	2546.622044
634.682336	2547.786551
635.027823	2546.080120
635.373257	2542.125335
635.718639	2544.025850
636.063968	2544.086344
636.409245	2540.242464
636.754470	2545.553320
637.099642	2544.252702
637.444762	2546.634647
637.789829	2541.379244
638.134845	2546.090203
638.479808	2545.094575
638.824719	2542.994934
639.169577	2544.978628
639.514383	2545.465100
639.859137	2544.005686
640.203839	2545.908721
640.548489	2542.642053
640.893086	2540.900335
641.237632	2539.433359
641.582125	2541.132228
641.926566	2538.929244
642.270955	2543.995603
642.615292	2542.132897
642.959576	2544.789585
643.303809	2542.440407
643.647990	2544.066179
643.992118	2543.506611
644.336195	2543.675490
644.680219	2542.168185
645.024192	2542.460572
645.368112	2541.346477
645.711981	2542.765562
646.055797	2542.216076
646.399562	2544.983669
646.743274	2545.230686
647.086935	2545.069369
647.430544	2542.700027
647.774101	2546.793444
648.117606	2543.690613
648.461059	2542.904193
648.804460	2543.950233
649.147810	2544.827394
649.491108	2544.643392
649.834354	2542.631971
650.177548	2544.424101
650.520690	2540.154244
650.863781	2543.229348
651.206820	2544.363608
651.549807	2543.899821
651.892742	2543.010058
652.235626	2540.497043
652.578458	2541.112063
652.921238	2540.091230
653.263967	2544.363607
653.606644	2542.417722
653.949269	2543.940151
654.291843	2543.257074
654.634365	2543.262115
654.976836	2541.255736
655.319255	2543.136087
655.661622	2540.134079
656.003938	2542.508463
656.346203	2542.420243
656.688416	2540.910417
657.030577	2541.432177
657.372687	2539.781199
657.714746	2540.761703
658.056753	2543.360418
658.398708	2536.827083
658.740612	2541.104502
659.082465	2537.318595
659.424266	2539.267001
659.766016	2535.730632
660.107715	2541.361600
660.449362	2541.593493
660.790958	2541.316230
661.132503	2540.670962
661.473996	2545.392003
661.815438	2541.268339
662.156829	2539.342618
662.498168	2542.715150
662.839456	2541.820345
663.180693	2542.296734
663.521879	2541.253216
663.863013	2542.833617
664.204097	2541.764893
664.545129	2542.553833
664.886110	2544.081303
665.227040	2540.683565
665.567918	2543.496529
665.908746	2540.978473
666.249522	2545.666746
666.590248	2541.767413
666.930922	2541.164995
667.271545	2543.352856
667.612118	2542.274049
667.952639	2540.970911
668.293109	2543.105840
668.633528	2540.166847
668.973896	2539.750952
669.314213	2540.547454
669.654480	2543.622558
669.994695	2542.586601
670.334859	2543.234389
670.674973	2540.751621
671.015035	2542.647095
671.355047	2539.007382
671.695008	2543.138607
672.034918	2541.180119
672.374777	2539.377906
672.714585	2540.139121
673.054342	2542.798329
673.394049	2543.098278
673.733705	2542.775644
674.073310	2542.263967
674.412864	2542.889070
674.752368	2540.423946
675.091820	2545.633978
675.431223	2541.117104
675.770574	2539.370345
676.109875	2536.017977
676.449125	2538.357073
676.788324	2537.679037
677.127473	2536.776671
677.466571	2537.502597
677.805619	2542.616848
678.144616	2541.596014
678.483562	2541.754810
678.822458	2538.788091
679.161303	2541.722043
679.500098	2542.571477
679.838842	2540.088709
680.177535	2539.158616
680.516179	2539.355221
680.854771	2539.592155
681.193314	2542.132897
681.531805	2539.783719
681.870247	2542.533669
682.208638	2542.125335
682.546978	2541.288504
682.885268	2540.688606
683.223508	2540.555016
683.561697	2540.199614
683.899836	2540.658359
684.237925	2540.461754
684.575963	2542.397558
684.913951	2541.933771
685.251889	2543.007537
685.589776	2540.771785
685.927614	2541.666590
686.265401	2540.179450
686.603137	2542.778165
686.940824	2541.215407
687.278460	2541.170037
687.616046	2540.693647
687.953582	2540.852444
688.291068	2540.854964
688.628504	2542.329502
688.965889	2540.121477
689.303224	2541.923689
689.640510	2538.591486
689.977745	2541.752290
690.314930	2540.973432
690.652065	2541.464944
690.989150	2542.037115
691.326185	2540.141641
691.663170	2538.566281
692.000105	2540.313040
692.336990	2541.104502
692.673825	2540.529810
693.010610	2541.601055
693.347345	2537.505118
693.684030	2537.595858
694.020665	2536.234747
694.357251	2537.134593
694.693786	2538.702392
695.030272	2536.272556
695.366707	2541.664070
695.703093	2537.956301
696.039429	2538.672145
696.375716	2539.753472
696.711952	2537.212731
697.048139	2541.515356
697.384276	2540.723894
697.720363	2537.568132
698.056400	2540.418905
698.392388	2537.830272
698.728326	2539.587114
699.064214	2538.851106
699.400053	2537.404295
699.735842	2539.289686
700.071581	2539.589635
700.407270	2541.248174
700.742910	2536.985879
701.078501	2537.011085
701.414042	2537.996630
701.749533	2537.381609
702.084974	2539.680376
702.420366	2539.549306
702.755709	2538.525951
703.091002	2537.288348
703.426246	2538.493184
703.761440	2539.103163
704.096584	2537.411856
704.431679	2536.567463
704.766725	2538.989738
705.101721	2538.762886
705.436668	2538.954449
705.771565	2539.934954
706.106413	2538.152906
706.441212	2537.358924
706.775961	2540.194573
707.110661	2537.404295
707.445311	2536.781712
707.779913	2534.069571
708.114465	2541.608617
708.448967	2537.023687
708.783421	2541.659028
709.117825	2536.867412
709.452180	2539.635005
709.786485	2537.454706
710.120742	2540.544933
710.454949	2538.712474
710.789107	2536.317926
711.123216	2532.985723
711.457275	2535.844058
711.791286	2537.278266
712.125247	2536.353214
712.459159	2538.256250
712.793023	2541.681714
713.126837	2539.090561
713.460602	2541.623740
713.794318	2538.505787
714.127985	2540.557536
714.461602	2537.996630
714.795171	2539.635005
715.128691	2538.951929
715.462162	2536.839685
715.795584	2538.765406
716.128957	2536.675848
716.462281	2539.624923
716.795556	2537.787422
717.128782	2537.671476
717.461960	2537.563091
717.795088	2536.769109
718.128167	2538.152906
718.461198	2535.707946
718.794180	2540.302958
719.127113	2538.530993
719.459997	2537.671476
719.792833	2538.112577
720.125619	2539.277083
720.458357	2537.202648
720.791046	2538.125180
721.123686	2535.549150
721.456278	2540.358411
721.788821	2536.070909
722.121315	2537.822710
722.453761	2536.201979
722.786158	2537.280786
723.118506	2538.384799
723.450805	2536.882535
723.783056	2538.137782
724.115259	2537.938657
724.447412	2537.568132
724.779518	2538.135262
725.111574	2534.818183
725.443582	2537.164840
725.775542	2536.083512
726.107453	2535.791125
726.439315	2538.346990
726.771129	2541.953936
727.102895	2536.181815
727.434612	2537.787422
727.766281	2537.500077
728.097901	2536.348173
728.429473	2533.257946
728.760996	2533.366330
729.092471	2530.757533
729.423897	2536.093595
729.755276	2537.270704
730.086606	2537.348842
730.417887	2538.354552
730.749120	2535.145858
731.080305	2533.482277
731.411442	2539.151054
731.742530	2536.431352
732.073570	2534.997144
732.404562	2537.525282
732.735506	2537.757175
733.066401	2535.251722
733.397249	2536.753986
733.728048	2536.549819
734.058798	2536.887576
734.389501	2536.640560
734.720156	2537.515200
735.050762	2536.418749
735.381320	2538.563760
735.711831	2535.370189
736.042293	2536.108718
736.372707	2535.544109
736.703073	2535.965045
737.033391	2535.289531
737.363661	2537.553009
737.693883	2533.172246
738.024056	2541.807743
738.354182	2536.481763
738.684260	2537.369007
739.014290	2536.270035
739.344272	2537.437062
739.674207	2536.297761
740.004093	2538.155427
740.333931	2535.551671
740.663722	2538.377237
740.993464	2535.859181
741.323159	2537.492515
741.652806	2538.006713
741.982405	2536.408667
742.311956	2536.144006
742.641460	2534.568646
742.970915	2535.365148
743.300323	2534.246012
743.629683	2536.910262
743.958996	2534.465302
744.288260	2534.588810
744.617477	2536.766589
744.946647	2531.763243
745.275768	2534.767771
745.604842	2532.350538
745.933869	2532.254756
746.262847	2532.032945
746.591778	2538.283976
746.920662	2533.646114
747.249498	2537.878163
747.578286	2537.837834
747.907027	2535.344983
748.235720	2533.515044
748.564365	2537.530323
748.892963	2534.901362
749.221514	2534.283820
749.550017	2535.970086
749.878473	2535.912113
750.206881	2537.207690
750.535242	2535.612164
750.863555	2533.116793
751.191821	2536.328008
751.520039	2534.959335
751.848210	2534.729962
752.176334	2535.130734
752.504411	2537.033770
752.832440	2534.697195
753.160421	2534.866074
753.488356	2537.250539
753.816243	2538.064686
754.144082	2533.169725
754.471875	2535.168543
754.799620	2534.276259
755.127318	2532.751310
755.454969	2536.413708
755.782572	2537.363965
756.110129	2533.114273
756.437638	2536.413708
756.765100	2533.000847
757.092515	2532.179139
757.419882	2535.050076
757.747203	2537.590817
758.074477	2532.209386
758.401703	2535.728111
758.728882	2536.328008
759.056014	2535.231557
759.383099	2536.373379
759.710138	2536.534696
760.037129	2536.539737
760.364073	2538.011754
760.690970	2535.160981
761.017820	2535.826413
761.344623	2534.740045
761.671379	2535.806249
761.998088	2533.832637
762.324751	2531.410363
762.651366	2534.208203
762.977935	2538.420087
763.304456	2533.694005
763.630931	2536.411187
763.957359	2539.256919
764.283740	2538.737680
764.610074	2539.503935
764.936362	2538.389840
765.262602	2534.661907
765.588796	2534.679551
765.914943	2535.944881
766.241044	2535.218954
766.567097	2533.194931
766.893104	2535.261804
767.219064	2535.072761
767.544978	2533.144520
767.870845	2534.538399
768.196665	2534.019160
768.522438	2534.324150
768.848165	2534.919006
769.173846	2534.099818
769.499479	2535.728111
769.825066	2533.840199
770.150607	2535.821372
770.476101	2533.835158
770.801548	2536.391023
771.126949	2532.993285
771.452303	2535.304654
771.777611	2532.521937
772.102872	2533.835158
772.428087	2534.523275
772.753256	2533.084026
773.078378	2532.726104
773.403453	2532.799201
773.728482	2535.062679
774.053465	2534.160312
774.378401	2533.053779
774.703291	2531.980013
775.028135	2537.512679
775.352932	2531.329704
775.677683	2530.674354
776.002388	2537.371527
776.327046	2532.045548
776.651658	2532.557225
776.976224	2535.503780
777.300743	2533.046217
777.625216	2535.687782
777.949643	2531.203675
778.274024	2533.134437
778.598359	2530.298788
778.922647	2527.848788
779.246889	2532.433717
779.571086	2530.371885
779.895236	2533.182328
780.219339	2535.382792
780.543397	2532.942873
780.867409	2532.259797
781.191374	2534.906403
781.515294	2534.170394
781.839167	2531.574200
782.162995	2533.663758
782.486776	2534.979500
782.810511	2533.280631
783.134201	2532.811803
783.457844	2533.643594
783.781441	2532.789118
784.104993	2529.890455
784.428498	2535.712987
784.751958	2534.142668
785.075372	2533.512524
785.398739	2532.431196
785.722061	2535.226516
786.045337	2531.604447
786.368568	2532.857174
786.691752	2534.437576
787.014891	2534.132586
787.337983	2536.088553
787.661030	2534.379602
787.984031	2535.171063
788.306987	2534.472864
788.629897	2534.906403
788.952760	2535.907072
789.275579	2534.523275
789.598351	2534.760209
789.921078	2536.403626
790.243759	2533.068902
790.566395	2534.777853
790.888984	2535.344983
791.211529	2532.647966
791.534027	2535.264325
791.856480	2535.012267
792.178888	2533.262987
792.501249	2533.996475
792.823566	2532.665610
793.145836	2527.505989
793.468062	2533.227699
793.790241	2531.806093
794.112375	2534.689633
794.434464	2533.920857
794.756507	2533.560415
795.078505	2533.144520
795.400457	2532.295085
795.722364	2529.532533
796.044226	2531.022194
796.366042	2529.504807
796.687812	2528.466329
797.009538	2533.515044
797.331218	2535.284489
797.652852	2533.252904
797.974442	2532.509334
798.295986	2532.602596
798.617484	2533.988913
798.938938	2531.299457
799.260346	2534.082174
799.581709	2531.997657
799.903026	2532.567307
800.224299	2534.172915
800.545526	2532.345497
800.866708	2530.918850
801.187845	2535.634850
801.508936	2533.429345
801.829983	2532.136289
802.150984	2531.493542
802.471940	2533.192411
802.792851	2531.344828
803.113717	2536.915303
803.434538	2531.009591
803.755314	2533.116793
804.076045	2531.579241
804.396731	2532.577390
804.717372	2530.182842
805.037967	2533.136958
805.358518	2533.406660
805.679024	2532.957997
805.999485	2535.125693
806.319901	2532.738707
806.640272	2530.639066
806.960598	2531.009591
807.280879	2532.700898
807.601115	2534.329191
807.921306	2529.177132
808.241453	2534.485467
808.561554	2531.566638
808.881611	2530.560928
809.201623	2532.844571
809.521590	2533.966228
809.841513	2529.691329
810.161390	2534.961856
810.481223	2533.613347
810.801011	2533.489839
811.120755	2533.041176
811.440453	2533.426824
811.760107	2531.304498
812.079716	2527.211082
812.399281	2529.451874
812.718801	2531.312060
813.038276	2528.373068
813.357707	2532.849612
813.677093	2532.297606
813.996434	2530.036648
814.315731	2530.737369
814.634983	2533.638553
814.954191	2532.506814
815.273354	2532.927750
815.592473	2532.826927
815.911547	2533.373892
816.230577	2534.603934
816.549562	2532.559746
816.868502	2531.513706
817.187399	2530.442461
817.506250	2533.285672
817.825058	2532.532019
818.143821	2534.127545
818.462539	2532.393388
818.781213	2531.992616
819.099843	2533.918337
819.418429	2532.869777
819.736970	2534.825744
820.055466	2534.916485
820.373919	2533.714170
820.692327	2537.472350
821.010691	2534.450178
821.329011	2540.499563
821.647286	2542.148020
821.965517	2551.685883
822.283704	2554.264434
822.601847	2552.109340
822.919945	2548.197405
823.237999	2547.458876
823.556010	2545.616334
823.873976	2540.423946
824.191897	2539.942516
824.509775	2538.150385
824.827609	2535.105528
825.145398	2535.665097
825.463144	2536.522093
825.780845	2533.966228
826.098502	2537.613502
826.416116	2536.711136
826.733685	2541.412012
827.051210	2541.502753
827.368692	2540.567619
827.686129	2538.331867
828.003522	2536.035621
828.320872	2532.332894
828.638177	2533.741896
828.955439	2532.206865
829.272656	2529.835002
829.589830	2526.162522
829.906960	2533.603265
830.224046	2533.613347
830.541088	2532.216947
830.858086	2530.563449
831.175041	2531.551515
831.491952	2531.889272
831.808819	2531.647297
832.125642	2529.149405
832.442421	2533.144520
832.759157	2530.039169
833.075849	2534.785415
833.392497	2534.220806
833.709101	2536.416228
834.025662	2534.452699
834.342179	2535.967566
834.658653	2531.249046
834.975083	2535.027391
835.291469	2534.810621
835.607811	2533.116793
835.924110	2532.229550
836.240366	2534.286341
836.556578	2530.923891
836.872746	2531.647297
837.188871	2530.581093
837.504952	2530.568490
837.820990	2529.817358
838.136984	2531.123017
838.452935	2533.290713
838.768842	2529.913140
839.084706	2534.271217
839.400526	2532.312729
839.716303	2531.395239
840.032037	2535.135775
840.347727	2528.403314
840.663373	2531.375075
840.978977	2529.898017
841.294537	2530.792821
841.610054	2529.565300
841.925527	2531.334745
842.240957	2528.857018
842.556344	2530.308871
842.871687	2530.623943
843.186987	2532.685775
843.502244	2532.191742
843.817458	2532.209386
844.132629	2530.185362
844.447756	2528.897348
844.762840	2527.453057
845.077881	2525.595392
845.392879	2529.136802
845.707833	2527.508510
846.022745	2526.139836
846.337613	2531.697708
846.652438	2532.519417
846.967221	2533.005888
847.281960	2529.260311
847.596656	2530.271062
847.911309	2528.234436
848.225919	2531.914478
848.540485	2529.721576
848.855009	2529.131761
849.169490	2529.822399
849.483928	2530.631504
849.798323	2531.455733
850.112675	2528.685619
850.426984	2530.389529
850.741251	2528.463808
851.055474	2531.354910
851.369654	2526.457429
851.683792	2528.877183
851.997887	2531.201155
852.311938	2532.486649
852.625947	2528.799045
852.939914	2530.835671
853.253837	2530.528161
853.567718	2531.717873
853.881555	2530.790301
854.195350	2531.165867
854.509103	2530.351720
854.822812	2530.928932
855.136479	2531.785929
855.450103	2527.427851
855.763685	2530.558408
856.077224	2531.203675
856.390720	2529.940866
856.704173	2530.059333
857.017584	2526.522964
857.330953	2530.225692
857.644278	2530.248377
857.957561	2536.922864
858.270802	2533.063861
858.584000	2530.185362
858.897155	2529.920702
859.210268	2530.366844
859.523339	2528.857018
859.836367	2528.433561
860.149352	2529.038500
860.462295	2530.588655
860.775195	2528.143695
861.088054	2526.422141
861.400869	2529.353572
861.713642	2525.141688
862.026373	2531.586803
862.339062	2530.387008
862.651708	2529.451874
862.964312	2531.130579
863.276873	2530.465146
863.589392	2530.291227
863.901869	2527.778211
864.214303	2530.656710
864.526696	2532.506814
864.839045	2531.264169
865.151353	2530.170239
865.463619	2532.824406
865.775842	2532.842050
866.088023	2529.993798
866.400162	2532.960518
866.712258	2529.887934
867.024313	2530.006401
867.336325	2530.686957
867.648296	2530.923891
867.960224	2531.097811
868.272110	2529.207378
868.583954	2531.216278
868.895755	2531.664941
869.207515	2527.316946
869.519233	2529.020856
869.830909	2530.021525
870.142542	2529.230064
870.454134	2528.761236
870.765684	2533.497400
871.077191	2531.294416
871.388657	2529.668644
871.700081	2528.741072
872.011463	2526.825433
872.322803	2532.892462
872.634101	2529.857687
872.945357	2527.790814
873.256571	2531.289375
873.567744	2530.356762
873.878874	2531.130579
874.189963	2529.983716
874.501010	2528.136133
874.812015	2530.949097
875.122979	2528.887265
875.433900	2528.511699
875.744780	2530.334076
876.055618	2532.085877
876.366415	2531.019673
876.677169	2529.071267
876.987882	2527.223684
877.298554	2523.195803
877.609183	2528.635208
877.919771	2527.006915
878.230317	2528.108407
878.540822	2531.730476
878.851285	2532.975641
879.161707	2529.955990
879.472087	2534.508152
879.782425	2531.669982
880.092722	2535.297092
880.402977	2530.870959
880.713191	2537.941178
881.023363	2539.909748
881.333494	2540.426466
881.643583	2544.235058
881.953631	2543.178936
882.263637	2538.939326
882.573602	2536.199459
882.883526	2535.990251
883.193408	2538.253729
883.503248	2532.738707
883.813048	2536.645601
884.122806	2534.188038
884.432522	2533.414221
884.742197	2531.022194
885.051831	2533.439427
885.361424	2531.133099
885.670975	2530.734848
885.980485	2531.296937
886.289954	2532.060672
886.599382	2530.628984
886.908768	2530.162677
887.218113	2531.871628
887.527417	2530.175280
887.836680	2529.041020
888.145901	2531.422966
888.455082	2531.685106
888.764221	2530.172759
889.073319	2529.524971
889.382376	2529.923222
889.691392	2528.355423
890.000366	2530.492873
890.309300	2529.255269
890.618193	2529.398942
890.927044	2530.268541
891.235855	2529.711494
891.544625	2532.532019
891.853353	2531.342307
892.162041	2526.916174
892.470687	2532.927750
892.779293	2530.457585
893.087858	2525.940711
893.396381	2525.849970
893.704864	2527.639580
894.013306	2526.457429
894.321707	2533.814993
894.630068	2530.475229
894.938387	2533.653676
895.246665	2531.957328
895.554903	2532.748789
895.863100	2530.641587
896.171256	2532.476567
896.479371	2532.532019
896.787446	2528.163860
897.095480	2531.584283
897.403473	2530.553367
897.711425	2528.267203
898.019336	2527.833664
898.327207	2531.952287
898.635038	2530.845753
898.942827	2529.890455
899.250576	2529.562780
899.558284	2530.540764
899.865952	2528.599919
900.173579	2529.499765
900.481165	2530.487832
900.788711	2530.807945
901.096216	2529.666123
901.403681	2528.831812
901.711105	2530.802904
902.018489	2529.905578
902.325832	2534.868594
902.633135	2529.991278
902.940397	2527.780732
903.247619	2528.400794
903.554800	2531.922040
903.861941	2533.734335
904.169041	2532.950435
904.476101	2533.666279
904.783121	2532.015301
905.090100	2531.533871
905.397039	2532.496731
905.703938	2533.089067
906.010796	2530.654190
906.317614	2529.310722
906.624391	2530.991947
906.931129	2530.651669
907.237826	2527.072450
907.544483	2528.143695
907.851099	2529.212420
908.157675	2527.521113
908.464211	2528.854498
908.770707	2524.602284
909.077163	2528.922553
909.383578	2524.604805
909.689954	2524.884589
909.996289	2524.836698
910.302584	2526.767460
910.608839	2529.323325
910.915054	2529.814838
911.221229	2526.273427
911.527363	2529.726617
911.833458	2528.390712
912.139513	2530.049251
912.445527	2527.740403
912.751502	2527.314425
913.057436	2527.296781
913.363331	2528.960362
913.669186	2529.945907
913.975000	2529.852646
914.280775	2528.153777
914.586510	2528.978006
914.892205	2532.867256
915.197859	2531.995137
915.503475	2529.895496
915.809050	2532.201824
916.114585	2533.104190
916.420081	2533.956145
916.725536	2535.334901
917.030952	2534.934129
917.336328	2530.470187
917.641665	2533.802390
917.946961	2530.266021
918.252218	2529.968593
918.557435	2527.778211
918.862612	2529.242667
919.167750	2530.714683
919.472848	2528.610002
919.777906	2529.691329
920.082925	2532.247194
920.387904	2529.635877
920.692843	2526.913653
920.997743	2527.619415
921.302603	2526.293592
921.607423	2527.251411
921.912204	2528.365506
922.216946	2529.605630
922.521647	2529.222502
922.826310	2527.342152
923.130932	2529.169570
923.435516	2529.950949
923.740059	2529.570342
924.044564	2526.175124
924.349028	2527.780732
924.653454	2523.722603
924.957840	2525.822244
925.262186	2527.160670
925.566493	2526.016328
925.870761	2524.130937
926.174989	2528.103366
926.479178	2527.735362
926.783328	2531.944725
927.087438	2527.077491
927.391509	2529.338448
927.695541	2530.623943
927.999533	2525.965917
928.303486	2529.681247
928.607400	2530.155115
928.911275	2527.090094
929.215110	2527.115300
929.518906	2528.909950
929.822663	2528.277286
930.126381	2526.427182
930.430060	2526.974147
930.733699	2528.738551
931.037299	2529.164529
931.340861	2528.320135
931.644383	2527.316946
931.947866	2530.245856
932.251309	2528.461288
932.554714	2527.742923
932.858080	2529.343490
933.161407	2525.345855
933.464694	2526.182686
933.767943	2527.314425
934.071153	2529.177132
934.374323	2524.836698
934.677455	2530.823068
934.980548	2528.315094
935.283602	2527.856349
935.586617	2524.851822
935.889593	2527.720238
936.192530	2527.901720
936.495428	2527.616894
936.798287	2527.808458
937.101108	2527.947090
937.403890	2528.841895
937.706632	2528.093283
938.009336	2525.592871
938.312002	2529.197296
938.614628	2526.931297
938.917216	2528.516740
939.219765	2527.677388
939.522275	2529.081350
939.824747	2528.899868
940.127179	2525.600433
940.429573	2523.639424
940.731929	2527.629497
941.034246	2524.750998
941.336524	2525.043385
941.638763	2528.436082
941.940964	2529.212420
942.243126	2527.924405
942.545250	2527.453057
942.847335	2526.207892
943.149381	2527.455578
943.451389	2527.425331
943.753359	2528.698222
944.055290	2527.548839
944.357182	2530.213089
944.659036	2528.481452
944.960851	2529.572862
945.262628	2528.544467
945.564367	2527.019518
945.866067	2527.052285
946.167729	2526.885927
946.469352	2528.436082
946.770937	2528.360465
947.072484	2528.000022
947.373992	2525.658406
947.675462	2528.423479
947.976893	2528.604961
948.278286	2528.441123
948.579641	2526.192768
948.880958	2526.235618
949.182236	2529.091432
949.483476	2526.843077
949.784678	2525.970958
950.085841	2529.068747
950.386967	2529.716535
950.688054	2526.694363
950.989103	2526.984230
951.290114	2525.688653
951.591087	2527.364837
951.892021	2526.918695
952.192917	2528.925074
952.493776	2527.644621
952.794596	2528.829292
953.095378	2527.765608
953.396122	2530.802904
953.696828	2527.493386
953.997496	2529.439272
954.298126	2526.810310
954.598718	2524.564476
954.899272	2526.510361
955.199788	2528.534384
955.500266	2530.361803
955.800706	2524.100690
956.101108	2522.285874
956.401472	2525.030782
956.701798	2522.802593
957.002087	2523.561286
957.302337	2527.843746
957.602550	2525.882738
957.902724	2527.206040
958.202861	2525.018180
958.502960	2526.006246
958.803022	2525.910464
959.103045	2525.761750
959.403031	2527.231246
959.702979	2525.139167
960.002889	2528.509179
960.302762	2524.503982
960.602596	2526.737213
960.902393	2526.858201
961.202153	2526.953983
961.501875	2527.972296
961.801559	2525.920546
962.101205	2528.572193
962.400814	2524.660258
962.700385	2525.151770
962.999918	2529.734179
963.299414	2527.707635
963.598873	2527.780732
963.898293	2525.421472
964.197677	2525.224867
964.497022	2522.149763
964.796331	2527.304343
965.095601	2525.756709
965.394835	2527.947090
965.694030	2527.959693
965.993189	2526.656555
966.292309	2527.054806
966.591393	2522.890813
966.890439	2525.774353
967.189447	2525.915505
967.488419	2524.541791
967.787353	2525.996163
968.086249	2525.739065
968.385108	2527.246370
968.683930	2526.177645
968.982714	2526.802748
969.281462	2526.023890
969.580172	2526.240659
969.878844	2527.879034
970.177480	2525.650844
970.476078	2525.983561
970.774639	2527.712676
971.073162	2526.984230
971.371649	2523.412572
971.670098	2522.147243
971.968510	2524.725793
972.266885	2520.324865
972.565223	2526.633869
972.863524	2524.589682
973.161788	2525.106400
973.460014	2528.007584
973.758204	2528.289888
974.056356	2526.648993
974.354471	2525.164373
974.652550	2526.394415
974.950591	2525.025741
975.248595	2525.184538
975.546563	2525.088756
975.844493	2525.645803
976.142386	2525.449198
976.440243	2526.341482
976.738062	2526.258303
977.035845	2527.679909
977.333590	2527.069929
977.631299	2527.798376
977.928971	2528.163860
978.226606	2525.955834
978.524204	2525.789476
978.821765	2526.462470
979.119290	2526.550690
979.416777	2525.275278
979.714228	2526.502799
980.011642	2525.716379
980.309020	2529.817358
980.606360	2524.362830
980.903664	2527.195958
981.200931	2527.478263
981.498162	2526.001205
981.795356	2525.552542
982.092513	2525.492048
982.389633	2523.551204
982.686717	2526.235618
982.983764	2524.728313
983.280775	2526.618746
983.577749	2527.102697
983.874686	2526.825433
984.171587	2525.449198
984.468451	2526.525485
984.765279	2523.959537
985.062070	2527.470701
985.358824	2525.434075
985.655543	2526.616225
985.952224	2526.091945
986.248869	2526.747295
986.545478	2518.709176
986.842050	2524.014990
987.138586	2519.777900
987.435086	2523.951976
987.731549	2522.467356
988.027975	2527.750485
988.324366	2523.662109
988.620719	2526.464991
988.917037	2523.601615
989.213318	2524.773684
989.509563	2527.385001
989.805772	2526.391894
990.101944	2526.036493
990.398080	2524.660258
990.694180	2524.267048
990.990244	2528.947759
991.286271	2525.464322
991.582262	2524.982892
991.878217	2527.329549
992.174136	2526.384332
992.470019	2525.605474
992.765865	2524.622449
993.061676	2523.649506
993.357450	2527.705115
993.653188	2525.615556
993.948890	2526.273427
994.244556	2524.166225
994.540186	2525.297964
994.835780	2525.529857
995.131337	2525.265196
995.426859	2525.592871
995.722345	2525.071112
996.017795	2524.617408
996.313208	2526.563293
996.608586	2524.743437
996.903928	2523.054650
997.199234	2523.916687
997.494504	2526.401976
997.789738	2526.452388
998.084936	2526.162522
998.380099	2525.234949
998.675225	2525.660927
998.970316	2524.617408
999.265371	2527.397604
999.560390	2523.583971
999.855373	2524.572037
1000.150320	2527.044723
1000.445232	2523.231091
1000.740108	2525.779394
1001.034948	2524.206554
1001.329752	2526.482635
1001.624521	2526.404497
1001.919254	2520.730678
1002.213951	2520.319824
1002.508613	2522.237983
1002.803239	2525.736544
1003.097829	2520.400483
1003.392384	2526.591020
1003.686903	2526.233098
1003.981386	2524.559435
1004.275834	2525.471883
1004.570246	2526.608664
1004.864623	2524.400638
1005.158964	2524.025072
1005.453270	2525.958355
1005.747540	2525.643283
1006.041775	2525.900382
1006.335974	2524.614887
1006.630138	2523.909126
1006.924266	2525.628159
1007.218359	2523.175638
1007.512416	2528.063037
1007.806438	2524.624970
1008.100425	2523.520957
1008.394376	2525.171935
1008.688292	2525.434075
1008.982172	2527.294261
1009.276017	2524.650175
1009.569827	2527.140505
1009.863602	2526.528005
1010.157341	2525.292922
1010.451045	2523.485669
1010.744714	2524.297295
1011.038347	2524.929959
1011.331945	2525.928108
1011.625508	2526.182686
1011.919036	2523.425175
1012.212528	2525.544980
1012.505986	2525.245032
1012.799408	2522.898374
1013.092795	2524.730834
1013.386147	2525.008097
1013.679464	2524.642614
1013.972745	2523.752850
1014.265992	2525.759229
1014.559204	2527.480783
1014.852380	2526.694363
1015.145521	2525.484486
1015.438628	2524.985412
1015.731699	2523.568848
1016.024736	2523.341996
1016.317737	2524.564476
1016.610703	2527.934487
1016.903635	2522.658920
1017.196531	2520.443332
1017.489393	2524.377953
1017.782219	2520.145904
1018.075011	2523.021883
1018.367768	2524.153622
1018.660490	2526.419620
1018.953177	2526.419620
1019.245829	2526.419620
