Dividing Wavelength (nm)	Counts (n)	Blue Motor Position (mm): 0.000000	Red Motor Position (mm): 30.500000	
326.493990	2078.906311
326.888308	2078.906311
327.282561	2078.906311
327.676750	2054.917981
328.070874	2058.461912
328.464933	2062.746893
328.858929	2072.967832
329.252859	2086.412589
329.646726	2099.141503
330.040528	2115.409306
330.434265	2133.665845
330.827938	2154.873979
331.221547	2174.985662
331.615091	2193.340503
332.008571	2215.418237
332.401986	2237.380023
332.795338	2258.636049
333.188625	2276.862340
333.581847	2297.442851
333.975006	2313.758545
334.368100	2331.306802
334.761129	2346.203412
335.154095	2362.987933
335.546996	2386.716644
335.939833	2419.254772
336.332606	2430.226843
336.725315	2442.847372
337.117960	2452.818774
337.510540	2457.428909
337.903056	2467.062554
338.295508	2475.067907
338.687896	2483.660553
339.080220	2488.900833
339.472480	2493.654641
339.864676	2496.449961
340.256807	2501.539006
340.648875	2503.472288
341.040879	2506.320540
341.432818	2504.982114
341.824694	2506.655777
342.216506	2505.778616
342.608253	2506.655777
342.999937	2504.430107
343.391557	2502.244767
343.783113	2502.017915
344.174605	2500.676968
344.566033	2499.787205
344.957397	2493.309322
345.348697	2499.361227
345.739934	2496.167656
346.131106	2493.934425
346.522215	2491.088694
346.913260	2490.720689
347.304241	2487.660709
347.695159	2488.595843
348.086012	2485.828250
348.476802	2485.762715
348.867528	2484.174751
349.258191	2480.285501
349.648789	2481.366828
350.039324	2481.069400
350.429796	2481.329020
350.820203	2480.925728
351.210548	2479.864565
351.600828	2479.307517
351.991045	2478.563947
352.381198	2478.926910
352.771288	2477.648977
353.161314	2477.628813
353.551276	2477.346508
353.941175	2480.993783
354.331010	2479.390696
354.720782	2477.454893
355.110490	2480.308186
355.500135	2480.376242
355.889717	2479.574698
356.279235	2477.956488
356.668689	2481.036633
357.058080	2479.599904
357.447408	2480.363639
357.836672	2479.418423
358.225873	2482.218783
358.615010	2478.024543
359.004084	2483.262302
359.393095	2485.558548
359.782043	2488.736995
360.170927	2487.501913
360.559748	2490.413179
360.948505	2490.874445
361.337199	2489.180617
361.725830	2490.745895
362.114398	2493.604229
362.502903	2491.370998
362.891344	2492.051554
363.279722	2494.698160
363.668037	2495.971051
364.056289	2492.071719
364.444478	2496.593634
364.832603	2495.419045
365.220665	2499.651093
365.608665	2498.915085
365.996601	2501.821310
366.384474	2500.508090
366.772284	2499.386433
367.160031	2498.920126
367.547715	2504.291476
367.935336	2502.930364
368.322893	2504.576301
368.710388	2505.312309
369.097820	2506.234840
369.485189	2507.106960
369.872495	2511.185253
370.259738	2512.531242
370.646918	2513.239524
371.034035	2514.646006
371.421090	2516.186078
371.808081	2518.182375
372.195010	2522.439629
372.581875	2528.178983
372.968678	2534.011598
373.355418	2538.808256
373.742096	2551.446429
374.128710	2561.422872
374.515262	2571.159861
374.901751	2583.601428
375.288177	2597.603233
375.674540	2614.803650
376.060841	2634.907772
376.447079	2654.081800
376.833254	2675.567198
377.219367	2698.713656
377.605417	2729.948645
377.991404	2754.516708
378.377329	2791.785959
378.763191	2821.054898
379.148991	2868.822351
379.534727	2910.311048
379.920402	2956.803089
380.306013	3001.646673
380.691563	3061.603636
381.077049	3112.887294
381.462474	3167.825789
381.847835	3235.281468
382.233134	3299.699853
382.618371	3355.076928
383.003545	3438.533230
383.388657	3518.465765
383.773706	3600.553394
384.158693	3668.520751
384.543618	3758.732199
384.928480	3829.646110
385.313280	3927.721758
385.698017	4027.448384
386.082692	4137.363182
386.467305	4199.437430
386.851856	4318.219617
387.236344	4463.661947
387.620770	4526.550341
388.005133	4644.074761
388.389435	4778.353455
388.773674	4859.213563
389.157851	4978.066326
389.541965	5112.284527
389.926018	5134.165655
390.310008	5304.634793
390.693936	5423.598462
391.077802	5530.143249
391.461606	5658.929606
391.845348	5769.046050
392.229027	5887.797991
392.612645	6099.271874
392.996200	6217.123968
393.379694	6383.257714
393.763125	6590.955773
394.146494	6685.656369
394.529801	6817.001112
394.913047	7052.264200
395.296230	7044.258847
395.679351	7099.930830
396.062410	7347.358222
396.445408	7248.791062
396.828343	7397.225316
397.211217	7533.220524
397.594028	7425.216323
397.976778	7623.389122
398.359466	7785.540356
398.742092	7770.260619
399.124656	7907.042246
399.507158	8092.342458
399.889598	8115.786344
400.271977	8329.178387
400.654294	8360.804065
401.036549	8556.191627
401.418742	8590.181607
401.800874	8872.355152
402.182944	8964.784708
402.564952	9315.046598
402.946898	9156.724120
403.328783	9205.835041
403.710606	9398.066840
404.092367	9650.124532
404.474067	10007.804480
404.855705	9810.218975
405.237282	9767.585937
405.618797	10191.337768
406.000250	10422.983828
406.381642	10778.972469
406.762972	10733.735675
407.144240	10552.362521
407.525447	10801.234204
407.906593	10738.446633
408.287677	11008.639876
408.668700	11150.336628
409.049661	11142.603498
409.430560	11303.310442
409.811399	11277.507296
410.192176	11438.801534
410.572891	11515.399346
410.953545	11987.775626
411.334138	11474.863428
411.714669	12050.709391
412.095139	11411.264231
412.475547	11881.876107
412.855894	11746.017011
413.236180	12064.809498
413.616405	11765.314548
413.996568	12039.802854
414.376670	12015.360820
414.756711	11901.231617
415.136691	12177.053309
415.516609	12348.228208
415.896466	12433.809357
416.276262	12711.362684
416.655997	13173.218076
417.035670	13221.199779
417.415283	13828.547912
417.794834	13927.840998
418.174324	13674.757431
418.553753	13582.063215
418.933121	14059.689857
419.312428	13895.945618
419.691674	13807.460765
420.070859	14264.595117
420.449983	13924.352520
420.829045	14468.005674
421.208047	14229.191093
421.586988	14686.060784
421.965867	14931.454071
422.344686	14933.720069
422.723444	15497.605895
423.102141	14205.928689
423.480777	15390.758639
423.859352	14887.525456
424.237866	15982.227137
424.616319	15704.416711
424.994712	16348.895462
425.373044	16136.730941
425.751314	16831.197774
426.129524	15963.078314
426.507673	17040.299795
426.885762	16764.853669
427.263789	16942.115762
427.641756	17131.471583
428.019662	17184.665838
428.397508	17228.725523
428.775292	17524.275770
429.153016	17507.309766
429.530679	17577.560766
429.908282	17605.382894
430.285824	17350.688678
430.663305	18057.758396
431.040726	17671.180034
431.418086	17507.355137
431.795385	18139.646899
432.172624	18572.185461
432.549802	18140.473648
432.926920	18359.854581
433.303977	18232.643585
433.680974	18488.837544
434.057910	18804.781779
434.434786	18836.873764
434.811601	18762.370551
435.188355	19809.801333
435.565050	19471.799529
435.941683	19429.456357
436.318257	20329.249387
436.694770	20126.131216
437.071222	20721.499047
437.447614	19799.822369
437.823946	19825.731379
438.200218	20013.456387
438.576429	19778.329409
438.952580	20098.684654
439.328670	20055.343334
439.704700	20482.286215
440.080670	20039.569563
440.456580	20658.512350
440.832429	20832.593475
441.208218	19835.634726
441.583947	20279.105030
441.959616	20399.553318
442.335224	20650.229735
442.710773	20799.737755
443.086261	21340.378820
443.461689	20674.472643
443.837057	20842.012871
444.212365	21493.065287
444.587612	21498.441678
444.962800	21095.676171
445.337927	21531.892254
445.712995	20251.061091
446.088002	22136.898771
446.462949	22338.222291
446.837837	22517.016895
447.212664	22529.798740
447.587431	25481.686704
447.962139	28457.646178
448.336786	30755.008370
448.711374	29100.151318
449.085901	25371.771906
449.460369	25387.991819
449.834776	25369.783171
450.209124	27924.352595
450.583412	27414.344101
450.957640	27903.318380
451.331808	26557.610087
451.705917	25185.337434
452.079965	25216.068308
452.453954	25602.341680
452.827883	25524.937284
453.201752	25319.676622
453.575562	25481.212836
453.949311	26613.922296
454.323001	26682.098861
454.696632	26457.465046
455.070202	28052.002172
455.443713	28226.229490
455.817164	28818.862495
456.190556	29383.133968
456.563888	28790.621951
456.937160	29210.295488
457.310373	27520.039453
457.683526	27960.500188
458.056619	27958.496330
458.429653	27930.601105
458.802628	28543.653303
459.175542	28671.953189
459.548398	30050.519723
459.921194	31675.112208
460.293930	32412.075969
460.666607	34495.027806
461.039224	36283.873686
461.411782	36636.935937
461.784280	35349.553794
462.156719	34785.594872
462.529099	34225.527721
462.901419	32892.316449
463.273680	31830.788080
463.645882	31979.945740
464.018024	31956.106124
464.390106	32887.741602
464.762130	35796.956198
465.134094	40130.263989
465.505999	45597.342403
465.877845	50119.408637
466.249631	51127.110085
466.621358	49260.930384
466.993026	47027.459776
467.364634	44883.769596
467.736184	42910.253647
468.107674	41645.541573
468.479105	40846.039779
468.850477	40126.646961
469.221790	38669.171246
469.593043	36889.933805
469.964238	35982.652141
470.335373	35936.044153
470.706449	37772.889380
471.077467	40525.631603
471.448425	45150.373538
471.819324	47910.521215
472.190164	45904.497386
472.560945	42273.744960
472.931667	39126.663519
473.302330	38038.568270
473.672934	37175.217742
474.043479	37683.809671
474.413965	36891.857005
474.784393	36522.801693
475.154761	37435.454706
475.525070	37452.725699
475.895321	36962.685216
476.265513	37562.693429
476.635645	38541.398161
477.005719	38374.036894
477.375734	38837.702060
477.745691	39539.619719
478.115588	40889.615513
478.485427	42929.215948
478.855207	46350.609254
479.224928	48952.787335
479.594591	50478.018678
479.964194	49341.157827
480.333739	49429.083112
480.703226	49457.706783
481.072653	50068.049362
481.442022	50485.255254
481.811333	50650.191726
482.180584	49308.735646
482.549777	48728.887007
482.918912	48141.033016
483.287988	47753.184283
483.657005	46869.916156
484.025964	46161.954154
484.394864	46086.399861
484.763706	45583.695999
485.132489	44621.485923
485.501213	44399.407973
485.869879	44445.824397
486.238487	43975.837624
486.607036	44070.490329
486.975527	43442.327271
487.343959	43559.317329
487.712333	43514.481306
488.080648	43304.247547
488.448905	43637.475378
488.817104	43332.535982
489.185244	44187.762691
489.553326	45740.657365
489.921350	48287.725552
490.289315	51001.212309
490.657222	51417.415012
491.025070	51502.857528
491.392861	50384.737167
491.760593	48937.358883
492.128267	47083.285513
492.495883	45420.339929
492.863440	43905.420267
493.230939	42434.509877
493.598380	41250.511717
493.965763	40774.820878
494.333088	39827.930869
494.700354	39198.452071
495.067563	38741.463913
495.434713	38392.439626
495.801805	38298.301119
496.168839	37747.053467
496.535815	37243.575788
496.902733	37063.354538
497.269593	36471.908725
497.636395	36211.427264
498.003139	36341.448704
498.369825	35662.732956
498.736453	35706.406993
499.103023	35061.870268
499.469535	34742.964355
499.835989	34586.640695
500.202385	34072.783280
500.568723	33856.540465
500.935003	33760.698048
501.301226	33353.599670
501.667390	33609.622229
502.033497	33554.774476
502.399546	32845.920189
502.765537	32044.590977
503.131470	32081.850145
503.497345	32105.840996
503.863163	30808.409313
504.228923	31014.526970
504.594625	31060.242674
504.960269	30232.777599
505.325856	30485.173049
505.691385	29755.897048
506.056856	29577.667054
506.422270	29610.800038
506.787625	29005.455763
507.152924	28884.805828
507.518164	28642.863211
507.883347	27808.642990
508.248472	27687.859465
508.613540	27743.307116
508.978550	27631.310322
509.343503	27177.326691
509.708398	27016.765941
510.073236	27054.211632
510.438016	26757.204492
510.802738	26112.849248
511.167403	26206.760903
511.532010	26038.459461
511.896561	25922.505361
512.261053	26112.425791
512.625488	25535.957246
512.989866	25145.691280
513.354186	24744.168417
513.718449	24438.830770
514.082655	24512.729044
514.446803	24021.143447
514.810894	24009.105172
515.174927	23640.264110
515.538904	23275.269448
515.902822	23323.662004
516.266684	22725.667732
516.630488	22646.826606
516.994235	22252.197522
517.357925	22246.984968
517.721558	22026.177389
518.085133	21864.928521
518.448651	21619.908280
518.812112	21210.238913
519.175516	20956.668874
519.538863	20815.874488
519.902152	20496.938328
520.265385	20410.845503
520.628560	20123.681215
520.991678	19734.315095
521.354739	19557.547036
521.717743	19400.129445
522.080690	19064.040759
522.443580	19003.201594
522.806413	18741.837932
523.169189	18430.602134
523.531908	18221.694198
523.894569	17890.250936
524.257174	17670.862441
524.619722	17500.872213
524.982213	17232.123260
525.344647	16947.189683
525.707025	16688.253336
526.069345	16572.155563
526.431608	16294.670291
526.793815	16138.848226
527.155964	15750.722229
527.518057	15552.725871
527.880093	15244.774385
528.242072	15169.136913
528.603995	14860.557804
528.965860	14621.909581
529.327669	14425.506227
529.689421	14183.881202
530.051117	13957.666985
530.412755	13778.259882
530.774337	13583.946086
531.135862	13329.322446
531.497331	13155.821054
531.858743	12931.189760
532.220098	12816.480824
532.581396	12534.629913
532.942638	12262.894077
533.303824	12139.199285
533.664953	11954.032663
534.026025	11713.635159
534.387040	11626.944957
534.747999	11446.393512
535.108902	11303.615432
535.469748	11044.379136
535.830537	10890.752493
536.191270	10766.011662
536.551947	10543.903465
536.912567	10439.402866
537.273131	10305.514861
537.633638	10060.608046
537.994089	9965.363005
538.354483	9755.184699
538.714821	9702.187048
539.075103	9619.277712
539.435328	9439.200134
539.795497	9278.205845
540.155609	9137.509762
540.515665	9076.224455
540.875665	8859.434675
541.235609	8771.529554
541.595496	8639.295048
541.955328	8599.679140
542.315102	8396.921412
542.674821	8237.956187
543.034483	8128.232953
543.394090	8002.166298
543.753640	7882.852269
544.113134	7883.195068
544.472571	7645.882750
544.831953	7679.023296
545.191278	7478.624828
545.550548	7334.515883
545.909761	7281.462780
546.268918	7195.528751
546.628019	7130.303782
546.987064	6983.107131
547.346053	6813.069012
547.704986	6797.169212
548.063863	6668.997876
548.422684	6586.436379
548.781449	6483.339741
549.140158	6423.012253
549.498811	6330.018088
549.857408	6193.566657
550.215949	6169.217883
550.574434	6085.653197
550.932864	5982.117979
551.291237	5957.103774
551.649555	5851.544533
552.007817	5792.172343
552.366022	5690.842630
552.724173	5629.043125
553.082267	5580.595116
553.440305	5533.180544
553.798288	5418.423718
554.156215	5366.968660
554.514086	5313.335825
554.871902	5230.257609
555.229661	5166.403834
555.587365	5096.541003
555.945014	5040.795924
556.302606	4976.921984
556.660143	4934.082259
557.017625	4876.663517
557.375050	4808.081139
557.732421	4770.138895
558.089735	4715.381882
558.446994	4657.965660
558.804197	4628.618583
559.161345	4575.530192
559.518437	4492.653623
559.875474	4455.023930
560.232455	4417.963887
560.589381	4378.766395
560.946251	4325.320082
561.303065	4302.765960
561.659825	4250.171602
562.016528	4201.950445
562.373177	4151.107888
562.729770	4129.244403
563.086307	4077.630550
563.442789	4057.256727
563.799216	4023.052498
564.155587	3979.592710
564.511904	3947.074747
564.868164	3920.134821
565.224370	3896.547262
565.580520	3861.740616
565.936615	3834.341945
566.292654	3798.690905
566.648638	3783.325468
567.004567	3752.806322
567.360441	3730.894947
567.716260	3699.382694
568.072023	3685.824511
568.427732	3662.289884
568.783385	3630.664206
569.138982	3620.206332
569.494525	3598.980554
569.850013	3571.317222
570.205445	3558.827763
570.560823	3539.550391
570.916145	3519.350488
571.271412	3502.729803
571.626625	3485.761280
571.981782	3469.067499
572.336884	3446.715023
572.691931	3439.773354
573.046923	3417.370466
573.401860	3403.542581
573.756743	3390.672515
574.111570	3380.827142
574.466342	3364.511447
574.821059	3353.859489
575.175722	3332.981551
575.530330	3325.258503
575.884882	3311.972542
576.239380	3301.265131
576.593823	3291.240797
576.948211	3279.338632
577.302544	3267.617950
577.656823	3256.754263
578.011047	3250.941813
578.365216	3240.609968
578.719330	3228.362485
579.073389	3219.064077
579.427394	3215.111812
579.781344	3210.572253
580.135239	3200.182435
580.489080	3192.262782
580.842866	3179.052438
581.196597	3177.368693
581.550273	3174.197807
581.903895	3166.197496
582.257463	3165.726148
582.610975	3150.950526
582.964434	3151.482368
583.317837	3141.926861
583.671186	3134.962507
584.024481	3134.405459
584.377721	3121.885754
584.730906	3122.851135
585.084037	3119.922224
585.437113	3105.996037
585.790135	3106.832868
586.143103	3093.698142
586.496016	3095.792742
586.848874	3085.899477
587.201679	3087.646237
587.554428	3071.509503
587.907124	3074.637539
588.259765	3066.112948
588.612352	3069.803073
588.964884	3059.398131
589.317362	3058.591547
589.669786	3053.865465
590.022155	3048.247099
590.374470	3052.592574
590.726731	3044.367931
591.078937	3033.211858
591.431090	3034.177239
591.783188	3024.538553
592.135232	3020.082173
592.487222	3019.497399
592.839157	3019.555372
593.191038	3011.847448
593.542866	3003.829493
593.894639	2997.097032
594.246358	2998.821106
594.598022	2995.546877
594.949633	2988.166627
595.301190	2986.097234
595.652692	2985.255361
596.004141	2982.384424
596.355535	2971.152733
596.706876	2968.029738
597.058162	2964.289202
597.409395	2969.131231
597.760573	2969.557208
598.111698	2959.863069
598.462768	2958.885085
598.813785	2955.878037
599.164748	2949.604321
599.515657	2953.458283
599.866511	2943.870009
600.217312	2949.175823
600.568060	2938.475974
600.918753	2946.123404
601.269392	2940.051335
601.619978	2937.117383
601.970510	2938.085285
602.320988	2937.369441
602.671412	2940.240378
603.021783	2934.732917
603.372100	2927.713111
603.722363	2928.749068
604.072572	2929.744696
604.422728	2929.233018
604.772830	2918.356729
605.122878	2917.557706
605.472872	2918.576019
605.822813	2916.534352
606.172701	2915.508477
606.522534	2918.044178
606.872314	2918.797830
607.222041	2913.214752
607.571714	2915.606780
607.921333	2908.987745
608.270899	2910.147210
608.620411	2911.099988
608.969870	2908.897004
609.319276	2908.758372
609.668627	2908.183681
610.017926	2909.900193
610.367171	2910.416912
610.716362	2907.319123
611.065500	2907.956829
611.414585	2907.372055
611.763616	2908.405491
612.112594	2908.813825
612.461518	2909.670821
612.810389	2907.790471
613.159207	2903.835685
613.507971	2905.012795
613.856682	2906.389030
614.205340	2904.760737
614.553945	2908.710481
614.902496	2903.185377
615.250994	2908.723084
615.599439	2905.791653
615.947830	2907.009092
616.296169	2904.768299
616.644454	2905.635377
616.992686	2905.960532
617.340864	2909.701068
617.688990	2903.533216
618.037063	2906.744431
618.385082	2907.175450
618.733048	2909.146541
619.080961	2905.645460
619.428821	2904.952301
619.776628	2904.990110
620.124382	2902.106570
620.472083	2900.826117
620.819731	2900.823596
621.167326	2898.976013
621.514868	2897.650190
621.862357	2891.623490
622.209793	2888.356823
622.557176	2885.770711
622.904506	2881.165617
623.251783	2875.766541
623.599007	2874.322250
623.946179	2870.687578
624.293297	2869.475181
624.640363	2864.111393
624.987376	2865.021321
625.334336	2862.190713
625.681243	2858.009076
626.028097	2855.087728
626.374899	2853.482120
626.721647	2854.306349
627.068343	2853.958509
627.414987	2849.096316
627.761577	2844.450893
628.108115	2849.005576
628.454600	2842.225224
628.801032	2844.828980
629.147412	2841.849658
629.493739	2839.465192
629.840014	2839.719770
630.186236	2839.528206
630.532405	2835.616271
630.878521	2835.041579
631.224585	2833.753565
631.570597	2828.019252
631.916556	2835.084429
632.262462	2832.475632
632.608316	2831.127123
632.954117	2825.607060
633.299866	2827.994046
633.645562	2824.918942
633.991206	2821.385094
634.336797	2817.150524
634.682336	2816.956440
635.027823	2813.467962
635.373257	2813.225986
635.718639	2810.707930
636.063968	2810.423105
636.409245	2801.132258
636.754470	2802.752989
637.099642	2799.123358
637.444762	2795.735703
637.789829	2796.955662
638.134845	2792.892492
638.479808	2794.170425
638.824719	2790.664302
639.169577	2786.699435
639.514383	2785.295473
639.859137	2785.471914
640.203839	2786.732202
640.548489	2784.128446
640.893086	2781.265071
641.237632	2776.559154
641.582125	2777.869854
641.926566	2775.301386
642.270955	2779.724998
642.615292	2777.244751
642.959576	2777.789195
643.303809	2776.836417
643.647990	2776.602003
643.992118	2778.799947
644.336195	2774.424225
644.680219	2775.157713
645.024192	2777.673249
645.368112	2780.458486
645.711981	2780.045112
646.055797	2785.769342
646.399562	2784.188940
646.743274	2791.480969
647.086935	2792.317801
647.430544	2790.651699
647.774101	2788.612552
648.117606	2791.632204
648.461059	2792.847122
648.804460	2792.174128
649.147810	2784.887140
649.491108	2783.689866
649.834354	2780.261881
650.177548	2774.293155
650.520690	2771.694440
650.863781	2770.078750
651.206820	2771.200407
651.549807	2768.437855
651.892742	2765.755961
652.235626	2761.889396
652.578458	2760.251021
652.921238	2755.650968
653.263967	2757.024682
653.606644	2756.664240
653.949269	2753.619383
654.291843	2751.489496
654.634365	2754.199116
654.976836	2750.367839
655.319255	2749.314238
655.661622	2750.146028
656.003938	2748.752149
656.346203	2749.271388
656.688416	2747.817015
657.030577	2746.372724
657.372687	2744.983887
657.714746	2746.866757
658.056753	2747.562437
658.398708	2742.549009
658.740612	2739.975500
659.082465	2743.078330
659.424266	2739.768813
659.766016	2740.083885
660.107715	2742.891808
660.449362	2741.911303
660.790958	2743.582446
661.132503	2741.271077
661.473996	2742.387692
661.815438	2742.211252
662.156829	2743.920203
662.498168	2742.901890
662.839456	2740.318299
663.180693	2741.969277
663.521879	2742.163361
663.863013	2742.430542
664.204097	2742.155799
664.545129	2742.796026
664.886110	2744.895666
665.227040	2742.864081
665.567918	2744.943557
665.908746	2746.103023
666.249522	2746.980183
666.590248	2743.635378
666.930922	2746.433218
667.271545	2744.875502
667.612118	2745.472878
667.952639	2743.552199
668.293109	2744.051273
668.633528	2742.455748
668.973896	2741.679410
669.314213	2744.202508
669.654480	2741.694534
669.994695	2741.520614
670.334859	2743.080851
670.674973	2739.564646
671.015035	2739.017681
671.355047	2738.697568
671.695008	2737.714543
672.034918	2737.475088
672.374777	2736.529872
672.714585	2737.863257
673.054342	2737.220510
673.394049	2736.870149
673.733705	2737.399471
674.073310	2739.158833
674.412864	2737.596076
674.752368	2732.953173
675.091820	2736.391240
675.431223	2731.481156
675.770574	2731.173646
676.109875	2726.303891
676.449125	2725.477142
676.788324	2723.095197
677.127473	2721.824826
677.466571	2722.356667
677.805619	2721.635782
678.144616	2721.933211
678.483562	2723.884137
678.822458	2719.568909
679.161303	2717.181923
679.500098	2718.618652
679.838842	2715.311655
680.177535	2718.958930
680.516179	2719.770556
680.854771	2721.550083
681.193314	2725.787173
681.531805	2729.746999
681.870247	2737.442320
682.208638	2739.998185
682.546978	2742.438104
682.885268	2740.421642
683.223508	2740.729153
683.561697	2737.674213
683.899836	2738.042218
684.237925	2734.107597
684.575963	2732.650704
684.913951	2728.574931
685.251889	2730.856053
685.589776	2731.627349
685.927614	2731.715570
686.265401	2729.159705
686.603137	2730.266238
686.940824	2734.263873
687.278460	2737.651528
687.616046	2737.989286
687.953582	2740.338463
688.291068	2740.656056
688.628504	2744.583115
688.965889	2742.392733
689.303224	2737.918709
689.640510	2735.950139
689.977745	2733.638770
690.314930	2727.763305
690.652065	2724.582337
690.989150	2719.621842
691.326185	2715.856100
691.663170	2708.412836
692.000105	2702.333204
692.336990	2700.001671
692.673825	2697.869263
693.010610	2697.203830
693.347345	2689.742923
693.684030	2687.204702
694.020665	2685.341995
694.357251	2677.293793
694.693786	2677.707168
695.030272	2678.329750
695.366707	2677.901252
695.703093	2676.575429
696.039429	2676.469565
696.375716	2675.050480
696.711952	2673.303720
697.048139	2671.904800
697.384276	2669.480005
697.720363	2672.242557
698.056400	2671.060407
698.392388	2673.336487
698.728326	2672.300530
699.064214	2667.972700
699.400053	2666.742658
699.735842	2666.210817
700.071581	2665.971362
700.407270	2660.708397
700.742910	2660.136226
701.078501	2657.451812
701.414042	2657.424085
701.749533	2655.203457
702.084974	2653.250010
702.420366	2653.708755
702.755709	2654.517860
703.091002	2648.322282
703.426246	2648.521408
703.761440	2648.715492
704.096584	2649.045688
704.431679	2647.470327
704.766725	2649.176758
705.101721	2646.588125
705.436668	2644.778351
705.771565	2643.878505
706.106413	2647.026706
706.441212	2646.275574
706.775961	2649.297745
707.110661	2648.465955
707.445311	2651.530977
707.779913	2647.321613
708.114465	2649.953095
708.448967	2651.168013
708.783421	2655.919301
709.117825	2659.095228
709.452180	2661.671257
709.786485	2662.591268
710.120742	2667.057730
710.454949	2668.496980
710.789107	2669.175015
711.123216	2673.838082
711.457275	2674.566529
711.791286	2675.650377
712.125247	2680.817560
712.459159	2677.692044
712.793023	2685.997345
713.126837	2677.704647
713.460602	2677.840758
713.794318	2678.813701
714.127985	2675.158865
714.461602	2668.270128
714.795171	2670.866322
715.128691	2662.797955
715.462162	2658.245793
715.795584	2656.778818
716.128957	2653.227325
716.462281	2650.535349
716.795556	2646.623413
717.128782	2646.567961
717.461960	2644.869092
717.795088	2643.137455
718.128167	2637.919861
718.461198	2636.296610
718.794180	2636.770478
719.127113	2634.161681
719.459997	2633.602113
719.792833	2628.986937
720.125619	2630.753861
720.458357	2627.532564
720.791046	2628.051802
721.123686	2624.187758
721.456278	2626.980557
721.788821	2624.094497
722.121315	2624.049126
722.453761	2622.383025
722.786158	2622.617439
723.118506	2620.611059
723.450805	2621.841101
723.783056	2622.400669
724.115259	2624.684312
724.447412	2623.865124
724.779518	2624.883437
725.111574	2626.055506
725.443582	2625.480814
725.775542	2626.105917
726.107453	2630.010291
726.439315	2629.241515
726.771129	2637.226702
727.102895	2634.839716
727.434612	2635.772330
727.766281	2637.526651
728.097901	2634.605302
728.429473	2635.311064
728.760996	2637.388019
729.092471	2636.059675
729.423897	2638.265180
729.755276	2639.669142
730.086606	2638.761734
730.417887	2642.744245
730.749120	2645.020326
731.080305	2646.888074
731.411442	2651.339413
731.742530	2651.987201
732.073570	2653.136584
732.404562	2652.423261
732.735506	2653.055926
733.066401	2651.961995
733.397249	2648.609628
733.728048	2642.512352
734.058798	2636.417597
734.389501	2631.144550
734.720156	2630.602626
735.050762	2628.228243
735.381320	2624.215484
735.711831	2623.111472
736.042293	2617.435132
736.372707	2619.098713
736.703073	2619.070987
737.033391	2617.324227
737.363661	2620.240535
737.693883	2619.315483
738.024056	2625.480814
738.354182	2620.043930
738.684260	2626.098355
739.014290	2627.847636
739.344272	2627.598099
739.674207	2630.826958
740.004093	2631.981382
740.333931	2633.045065
740.663722	2633.839047
740.993464	2632.750158
741.323159	2631.726804
741.652806	2630.068264
741.982405	2625.964765
742.311956	2624.558283
742.641460	2623.766822
742.970915	2619.933024
743.300323	2621.067284
743.629683	2616.585698
743.958996	2616.517642
744.288260	2613.263578
744.617477	2612.348608
744.946647	2606.112701
745.275768	2605.379213
745.604842	2605.474995
745.933869	2605.764861
746.262847	2601.691609
746.591778	2605.810232
746.920662	2602.515838
747.249498	2605.459872
747.578286	2607.761158
747.907027	2607.065479
748.235720	2611.274842
748.564365	2610.861468
748.892963	2608.711416
749.221514	2608.277877
749.550017	2608.716457
749.878473	2609.492795
750.206881	2606.082454
750.535242	2606.203442
750.863555	2604.670931
751.191821	2605.643874
751.520039	2607.133535
751.848210	2604.030704
752.176334	2606.236209
752.504411	2604.476847
752.832440	2600.733790
753.160421	2603.937443
753.488356	2600.567432
753.816243	2604.696137
754.144082	2600.063316
754.471875	2602.231012
754.799620	2598.684561
755.127318	2599.700353
755.454969	2599.478542
755.782572	2601.457195
756.110129	2599.705394
756.437638	2598.122472
756.765100	2597.608274
757.092515	2598.482915
757.419882	2598.550970
757.747203	2598.077102
758.074477	2600.022987
758.401703	2602.944336
758.728882	2601.071547
759.056014	2599.556680
759.383099	2601.893255
759.710138	2602.314192
760.037129	2604.738987
760.364073	2605.444748
760.690970	2605.023812
761.017820	2608.550099
761.344623	2609.318875
761.671379	2611.534462
761.998088	2611.778958
762.324751	2626.370578
762.651366	2652.715648
762.977935	2681.631706
763.304456	2700.863708
763.630931	2707.109698
763.957359	2699.565611
764.283740	2684.895853
764.610074	2667.818945
764.936362	2649.953095
765.262602	2640.780716
765.588796	2626.005094
765.914943	2616.167282
766.241044	2609.641509
766.567097	2601.106835
766.893104	2599.105497
767.219064	2593.472008
767.544978	2590.409507
767.870845	2586.588312
768.196665	2582.043712
768.522438	2583.387179
768.848165	2581.975656
769.173846	2578.073803
769.499479	2581.653022
769.825066	2575.389389
770.150607	2576.747980
770.476101	2575.827969
770.801548	2572.954512
771.126949	2572.639439
771.452303	2570.633060
771.777611	2569.309757
772.102872	2570.527196
772.428087	2568.785477
772.753256	2568.737586
773.078378	2565.528892
773.403453	2564.762637
773.728482	2563.194838
774.053465	2562.642831
774.378401	2564.346741
774.703291	2563.709035
775.028135	2559.731565
775.352932	2560.412121
775.677683	2559.781977
776.002388	2558.904816
776.327046	2559.713921
776.651658	2557.417675
776.976224	2558.504044
777.300743	2557.715103
777.625216	2558.105793
777.949643	2559.171997
778.274024	2557.977243
778.598359	2552.021120
778.922647	2555.996070
779.246889	2552.467262
779.571086	2546.758156
779.895236	2556.417006
780.219339	2558.372974
780.543397	2556.601008
780.867409	2556.986657
781.191374	2555.615463
781.515294	2557.057233
781.839167	2555.426420
782.162995	2556.457336
782.486776	2556.633776
782.810511	2554.680329
783.134201	2554.912222
783.457844	2552.807540
783.781441	2553.777962
784.104993	2552.560524
784.428498	2552.484906
784.751958	2552.232849
785.075372	2552.878116
785.398739	2553.500699
785.722061	2553.833415
786.045337	2554.937428
786.368568	2554.357695
786.691752	2555.769218
787.014891	2558.594785
787.337983	2563.777091
787.661030	2568.752710
787.984031	2570.948132
788.306987	2575.228072
788.629897	2575.880901
788.952760	2574.126580
789.275579	2573.549368
789.598351	2571.537947
789.921078	2568.054510
790.243759	2565.566701
790.566395	2560.502862
790.888984	2558.108313
791.211529	2557.586554
791.534027	2556.772408
791.856480	2554.118240
792.178888	2553.485575
792.501249	2553.599001
792.823566	2555.428940
793.145836	2550.150852
793.468062	2553.470452
793.790241	2551.010369
794.112375	2554.607232
794.434464	2553.059598
794.756507	2553.200750
795.078505	2555.045812
795.400457	2555.328117
795.722364	2558.405742
796.044226	2561.387584
796.366042	2561.188458
796.687812	2559.320711
797.009538	2562.572255
797.331218	2563.822461
797.652852	2563.416648
797.974442	2559.978582
798.295986	2560.926318
798.617484	2560.351627
798.938938	2557.823488
799.260346	2558.987995
799.581709	2553.866183
799.903026	2556.288457
800.224299	2553.820812
800.545526	2552.510112
800.866708	2549.676984
801.187845	2552.245452
801.508936	2551.965668
801.829983	2552.399207
802.150984	2549.548434
802.471940	2548.555327
802.792851	2548.330996
803.113717	2550.904505
803.434538	2548.593136
803.755314	2550.115564
804.076045	2549.019113
804.396731	2547.353012
804.717372	2546.450645
805.037967	2546.889226
805.358518	2547.731098
805.679024	2548.706562
805.999485	2550.619679
806.319901	2550.927190
806.640272	2547.368135
806.960598	2549.147663
807.280879	2551.327962
807.601115	2551.282591
807.921306	2551.022972
808.241453	2548.719164
808.561554	2549.482899
808.881611	2550.672612
809.201623	2551.272509
809.521590	2549.016592
809.841513	2547.441232
810.161390	2549.573640
810.481223	2549.213197
810.801011	2548.716644
811.120755	2547.658002
811.440453	2545.954092
811.760107	2546.483413
812.079716	2545.200439
812.399281	2541.659028
812.718801	2545.674308
813.038276	2543.257074
813.357707	2544.865202
813.677093	2546.753114
813.996434	2547.652960
814.315731	2546.939637
814.634983	2546.143135
814.954191	2545.959133
815.273354	2546.410316
815.592473	2548.585574
815.911547	2551.476676
816.230577	2550.135729
816.549562	2553.059598
816.868502	2551.403579
817.187399	2552.996583
817.506250	2556.510268
817.825058	2552.764690
818.143821	2556.938766
818.462539	2561.347255
818.781213	2564.833213
819.099843	2572.745304
819.418429	2579.084555
819.736970	2588.342634
820.055466	2600.300251
820.373919	2616.404217
820.692327	2638.454223
821.010691	2681.298990
821.329011	2766.002977
821.647286	2901.607495
821.965517	3045.829866
822.283704	3131.176600
822.601847	3152.916576
822.919945	3091.011207
823.237999	3019.656195
823.556010	2949.188426
823.873976	2882.650236
824.191897	2822.383242
824.509775	2779.447735
824.827609	2738.667321
825.145398	2714.479865
825.463144	2701.350179
825.780845	2704.553833
826.098502	2724.075701
826.416116	2756.505444
826.733685	2785.734054
827.051210	2791.302008
827.368692	2778.421860
827.686129	2742.586818
828.003522	2705.826724
828.320872	2673.089471
828.638177	2649.075935
828.955439	2628.089611
829.272656	2610.760645
829.589830	2595.133068
829.906960	2585.081007
830.224046	2580.864082
830.541088	2574.003072
830.858086	2570.912844
831.175041	2565.798594
831.491952	2563.880435
831.808819	2567.053841
832.125642	2570.108780
832.442421	2578.005748
832.759157	2598.427462
833.075849	2622.798920
833.392497	2653.013076
833.709101	2671.083092
834.025662	2666.384736
834.342179	2653.434012
834.658653	2632.006588
834.975083	2615.317848
835.291469	2605.265787
835.607811	2587.808271
835.924110	2578.588001
836.240366	2571.432083
836.556578	2563.540157
836.872746	2557.405072
837.188871	2552.051367
837.504952	2548.341078
837.820990	2546.667415
838.136984	2539.715664
838.452935	2540.000489
838.768842	2541.706919
839.084706	2545.797816
839.400526	2557.573951
839.716303	2575.956519
840.032037	2587.145360
840.347727	2581.776531
840.663373	2573.556929
840.978977	2562.801628
841.294537	2554.753426
841.610054	2548.441901
841.925527	2544.356046
842.240957	2542.430325
842.556344	2541.122146
842.871687	2535.796167
843.186987	2533.131917
843.502244	2529.610671
843.817458	2529.267872
844.132629	2527.248890
844.447756	2527.256452
844.762840	2518.852848
845.077881	2525.214785
845.392879	2518.552900
845.707833	2523.465504
846.022745	2517.413599
846.337613	2519.664474
846.652438	2519.745133
846.967221	2524.443488
847.281960	2522.472397
847.596656	2521.665812
847.911309	2521.524660
848.225919	2521.441481
848.540485	2520.037520
848.855009	2519.528363
849.169490	2520.276974
849.483928	2520.304701
849.798323	2518.641120
850.112675	2519.752694
850.426984	2518.719258
850.741251	2518.106758
851.055474	2517.597601
851.369654	2520.763446
851.683792	2518.192457
851.997887	2520.574402
852.311938	2520.987777
852.625947	2518.757067
852.939914	2518.593229
853.253837	2520.594567
853.567718	2519.835873
853.881555	2520.660102
854.195350	2519.356964
854.509103	2520.092972
854.822812	2517.058198
855.136479	2519.293949
855.450103	2518.363857
855.763685	2520.738240
856.077224	2520.753363
856.390720	2518.263033
856.704173	2520.531553
857.017584	2519.740092
857.330953	2519.349402
857.644278	2521.978364
857.957561	2525.580268
858.270802	2518.704134
858.584000	2520.471059
858.897155	2520.700431
859.210268	2521.265041
859.523339	2518.903260
859.836367	2520.566841
860.149352	2520.864269
860.462295	2520.269413
860.775195	2516.599453
861.088054	2514.278001
861.400869	2517.254803
861.713642	2515.185409
862.026373	2517.988291
862.339062	2519.412417
862.651708	2520.783610
862.964312	2521.133971
863.276873	2519.956861
863.589392	2518.474762
863.901869	2519.392252
864.214303	2518.482324
864.526696	2522.487520
864.839045	2524.924918
865.151353	2522.926101
865.463619	2523.687315
865.775842	2524.443488
866.088023	2522.774866
866.400162	2523.541122
866.712258	2523.815864
867.024313	2524.703108
867.336325	2524.035155
867.648296	2523.737727
867.960224	2523.170597
868.272110	2526.233098
868.583954	2526.528005
868.895755	2524.120854
869.207515	2522.648837
869.519233	2527.279137
869.830909	2526.878365
870.142542	2528.068078
870.454134	2523.531039
870.765684	2527.092614
871.077191	2527.445495
871.388657	2527.069929
871.700081	2525.590351
872.011463	2525.469363
872.322803	2526.681760
872.634101	2526.154960
872.945357	2531.354910
873.256571	2532.907585
873.567744	2530.041689
873.878874	2530.061854
874.189963	2533.714170
874.501010	2529.391381
874.812015	2528.930115
875.122979	2529.877852
875.433900	2529.381298
875.744780	2533.918337
876.055618	2528.804086
876.366415	2532.605116
876.677169	2530.019004
876.987882	2533.467153
877.298554	2532.416073
877.609183	2531.987575
877.919771	2533.031094
878.230317	2538.704912
878.540822	2542.642053
878.851285	2547.637837
879.161707	2553.233518
879.472087	2563.618295
879.782425	2581.668146
880.092722	2616.454628
880.402977	2659.611946
880.713191	2714.910883
881.023363	2765.491300
881.333494	2796.070940
881.643583	2807.652991
881.953631	2801.107052
882.263637	2784.824125
882.573602	2765.559356
882.883526	2741.066910
883.193408	2720.778786
883.503248	2699.666434
883.813048	2680.618434
884.122806	2660.461381
884.432522	2641.143679
884.742197	2623.212295
885.051831	2611.148814
885.361424	2597.431834
885.670975	2587.722572
885.980485	2577.960377
886.289954	2569.158523
886.599382	2563.525033
886.908768	2560.921277
887.218113	2550.642365
887.527417	2547.627755
887.836680	2543.826725
888.145901	2542.843700
888.455082	2539.884542
888.764221	2538.281455
889.073319	2537.172402
889.382376	2536.980838
889.691392	2535.891948
890.000366	2534.331711
890.309300	2531.238963
890.618193	2532.635363
890.927044	2534.586290
891.235855	2533.961187
891.544625	2536.605272
891.853353	2536.602751
892.162041	2536.769109
892.470687	2541.008720
892.779293	2545.482744
893.087858	2545.961653
893.396381	2553.969526
893.704864	2568.760272
894.013306	2578.267888
894.321707	2602.654469
894.630068	2612.492281
894.938387	2611.111005
895.246665	2611.247116
895.554903	2603.145982
895.863100	2591.248859
896.171256	2583.036819
896.479371	2579.513053
896.787446	2573.829152
897.095480	2565.352452
897.403473	2561.571586
897.711425	2559.456822
898.019336	2553.339382
898.327207	2548.124308
898.635038	2545.248330
898.942827	2542.838658
899.250576	2539.423277
899.558284	2539.957639
899.865952	2535.697864
900.173579	2535.478574
900.481165	2533.464633
900.788711	2529.961031
901.096216	2533.207534
901.403681	2531.375075
901.711105	2529.706453
902.018489	2527.884076
902.325832	2533.114273
902.633135	2534.520755
902.940397	2539.093081
903.247619	2550.677653
903.554800	2576.127918
903.861941	2606.377362
904.169041	2626.834364
904.476101	2630.448871
904.783121	2626.098355
905.090100	2613.820625
905.397039	2604.912906
905.703938	2593.381267
906.010796	2583.717375
906.317614	2573.304872
906.624391	2565.249108
906.931129	2558.630073
907.237826	2553.404917
907.544483	2546.927034
907.851099	2542.039636
908.157675	2535.954963
908.464211	2528.554549
908.770707	2524.539270
909.077163	2524.327542
909.383578	2519.800585
909.689954	2518.381501
909.996289	2516.564165
910.302584	2516.914525
910.608839	2519.861079
910.915054	2517.451408
911.221229	2519.233456
911.527363	2519.326717
911.833458	2516.647344
912.139513	2519.450225
912.445527	2518.752025
912.751502	2521.940555
913.057436	2523.556245
913.363331	2525.902902
913.669186	2528.368026
913.975000	2533.701567
914.280775	2540.557536
914.586510	2551.237221
914.892205	2560.792728
915.197859	2577.625141
915.503475	2595.218767
915.809050	2614.329782
916.114585	2621.972171
916.420081	2627.144395
916.725536	2625.039713
917.030952	2618.897067
917.336328	2612.343567
917.641665	2605.757300
917.946961	2599.516351
918.252218	2592.993098
918.557435	2584.420616
918.862612	2576.085068
919.167750	2569.859243
919.472848	2562.065619
919.777906	2557.142933
920.082925	2547.458876
920.387904	2547.481561
920.692843	2542.679862
920.997743	2537.888245
921.302603	2536.655683
921.607423	2534.157792
921.912204	2532.221988
922.216946	2527.813499
922.521647	2524.846780
922.826310	2522.331245
923.130932	2526.449867
923.435516	2523.775535
923.740059	2519.886285
924.044564	2521.136491
924.349028	2515.550893
924.653454	2513.088289
924.957840	2512.947137
925.262186	2510.749194
925.566493	2513.594925
925.870761	2510.171982
926.174989	2513.355470
926.479178	2513.179030
926.783328	2507.411950
927.087438	2509.486385
927.391509	2512.879081
927.695541	2507.684172
927.999533	2509.625016
928.303486	2509.236848
928.607400	2510.287928
928.911275	2510.040912
929.215110	2508.644512
929.518906	2509.410767
929.822663	2509.982938
930.126381	2511.651560
930.430060	2509.713237
930.733699	2507.444717
931.037299	2508.173164
931.340861	2509.161230
931.644383	2509.524193
931.947866	2509.609893
932.251309	2508.788185
932.554714	2509.393123
932.858080	2512.264060
933.161407	2509.609893
933.464694	2507.371621
933.767943	2506.444048
934.071153	2511.384379
934.374323	2507.318688
934.677455	2507.870695
934.980548	2509.695593
935.283602	2507.790036
935.586617	2508.536127
935.889593	2507.825324
936.192530	2509.017557
936.495428	2507.416991
936.798287	2508.647033
937.101108	2510.015706
937.403890	2512.523680
937.706632	2513.912518
938.009336	2512.997548
938.312002	2515.215656
938.614628	2516.332272
938.917216	2517.264885
939.219765	2514.411592
939.522275	2518.351254
939.824747	2515.475275
940.127179	2512.924452
940.429573	2511.444873
940.731929	2513.554596
941.034246	2511.591066
941.336524	2516.377642
941.638763	2518.454597
941.940964	2516.173475
942.243126	2514.582991
942.545250	2511.185253
942.847335	2510.860099
943.149381	2515.954185
943.451389	2512.853875
943.753359	2511.719616
944.055290	2511.432270
944.357182	2512.004441
944.659036	2512.962260
944.960851	2510.348422
945.262628	2509.965294
945.564367	2512.710202
945.866067	2509.367918
946.167729	2510.572753
946.469352	2510.136693
946.770937	2510.933196
947.072484	2506.305417
947.373992	2510.776920
947.675462	2508.702485
947.976893	2509.498987
948.278286	2509.879595
948.579641	2512.843793
948.880958	2511.482682
949.182236	2506.678462
949.483476	2507.812722
949.784678	2509.511590
950.085841	2508.538648
950.386967	2510.829852
950.688054	2510.262722
950.989103	2507.038904
951.290114	2509.962774
951.591087	2508.216014
951.892021	2514.237672
952.192917	2513.040398
952.493776	2512.130470
952.794596	2515.124915
953.095378	2513.279853
953.396122	2511.364214
953.696828	2510.734070
953.997496	2511.719616
954.298126	2512.080058
954.598718	2510.850017
954.899272	2507.429594
955.199788	2510.734070
955.500266	2510.103926
955.800706	2508.004285
956.101108	2503.290807
956.401472	2503.351300
956.701798	2504.036897
957.002087	2504.553616
957.302337	2503.890704
957.602550	2504.659480
957.902724	2504.152844
958.202861	2504.364572
958.502960	2502.252329
958.803022	2503.646208
959.103045	2502.385919
959.403031	2505.367762
959.702979	2503.903307
960.002889	2501.859119
960.302762	2501.087822
960.602596	2501.917092
960.902393	2500.901300
961.202153	2500.145127
961.501875	2501.929695
961.801559	2499.570435
962.101205	2502.433810
962.400814	2500.261073
962.700385	2501.533964
962.999918	2499.976248
963.299414	2500.997082
963.598873	2500.404746
963.898293	2501.990189
964.197677	2499.971207
964.497022	2501.594458
964.796331	2500.603872
965.095601	2500.167812
965.394835	2500.984479
965.694030	2502.632936
965.993189	2500.281238
966.292309	2500.563542
966.591393	2501.115549
966.890439	2500.866012
967.189447	2500.558501
967.488419	2502.968173
967.787353	2499.157060
968.086249	2498.534478
968.385108	2503.719305
968.683930	2502.015395
968.982714	2502.065806
969.281462	2502.118738
969.580172	2498.579848
969.878844	2497.327122
970.177480	2498.552122
970.476078	2500.631598
970.774639	2501.251660
971.073162	2499.993892
971.371649	2499.202431
971.670098	2496.903665
971.968510	2503.517658
972.266885	2496.633963
972.565223	2500.092194
972.863524	2499.830054
973.161788	2502.237205
973.460014	2501.768378
973.758204	2501.203769
974.056356	2499.754437
974.354471	2502.428769
974.652550	2503.101763
974.950591	2504.021774
975.248595	2503.310971
975.546563	2502.602689
975.844493	2500.611433
976.142386	2500.389623
976.440243	2499.177225
976.738062	2504.523369
977.035845	2500.301402
977.333590	2505.496311
977.631299	2500.729900
977.928971	2500.848368
978.226606	2498.862153
978.524204	2496.893582
978.821765	2500.717298
979.119290	2502.396002
979.416777	2501.196207
979.714228	2500.152688
980.011642	2500.434993
980.309020	2501.705364
980.606360	2499.860301
980.903664	2501.123110
981.200931	2502.844664
981.498162	2503.394150
981.795356	2506.058400
982.092513	2506.779285
982.389633	2509.478823
982.686717	2511.167609
982.983764	2510.991169
983.280775	2516.034843
983.577749	2511.923783
983.874686	2514.116684
984.171587	2513.254647
984.468451	2512.548886
984.765279	2510.212311
985.062070	2509.335150
985.358824	2508.483195
985.655543	2507.046466
985.952224	2508.480674
986.248869	2506.537310
986.545478	2499.514982
986.842050	2500.014057
987.138586	2498.098418
987.435086	2499.220075
987.731549	2496.001298
988.027975	2500.719818
988.324366	2497.871566
988.620719	2500.722339
988.917037	2495.839981
989.213318	2496.462564
989.509563	2500.535816
989.805772	2498.065651
990.101944	2498.910044
990.398080	2495.592965
990.694180	2498.640342
990.990244	2498.980620
991.286271	2499.507421
991.582262	2497.879128
991.878217	2500.434993
992.174136	2497.952225
992.470019	2500.853409
992.765865	2495.401401
993.061676	2497.422903
993.357450	2500.399705
993.653188	2501.324757
993.948890	2500.142606
994.244556	2499.847698
994.540186	2500.351814
994.835780	2500.258553
995.131337	2502.738800
995.426859	2500.003974
995.722345	2503.187463
996.017795	2504.243585
996.313208	2504.251146
996.608586	2508.379851
996.903928	2503.439521
997.199234	2506.355828
997.494504	2504.777947
997.789738	2504.820797
998.084936	2504.803153
998.380099	2503.444562
998.675225	2501.881804
998.970316	2505.181239
999.265371	2502.078409
999.560390	2502.655621
999.855373	2501.531444
1000.150320	2498.153871
1000.445232	2500.636639
1000.740108	2498.529437
1001.034948	2498.350476
1001.329752	2497.992554
1001.624521	2501.004643
1001.919254	2492.538025
1002.213951	2496.268479
1002.508613	2490.791266
1002.803239	2495.882831
1003.097829	2495.542553
1003.392384	2498.786536
1003.686903	2496.190341
1003.981386	2497.001967
1004.275834	2496.313850
1004.570246	2498.410970
1004.864623	2497.223778
1005.158964	2495.729076
1005.453270	2496.812924
1005.747540	2495.592965
1006.041775	2495.635814
1006.335974	2497.347286
1006.630138	2494.738489
1006.924266	2499.270486
1007.218359	2494.683036
1007.512416	2497.453150
1007.806438	2496.689416
1008.100425	2498.985661
1008.394376	2494.801503
1008.688292	2497.019611
1008.982172	2495.915598
1009.276017	2496.775115
1009.569827	2496.031545
1009.863602	2498.794097
1010.157341	2496.646566
1010.451045	2495.882831
1010.744714	2497.692605
1011.038347	2497.501041
1011.331945	2493.631956
1011.625508	2497.306957
1011.919036	2496.308808
1012.212528	2494.471308
1012.505986	2496.230671
1012.799408	2497.301916
1013.092795	2496.775115
1013.386147	2496.455002
1013.679464	2497.778305
1013.972745	2498.665548
1014.265992	2497.740496
1014.559204	2496.412152
1014.852380	2494.433499
1015.145521	2493.483242
1015.438628	2497.846360
1015.731699	2495.313181
1016.024736	2494.539363
1016.317737	2495.824858
1016.610703	2495.358551
1016.903635	2495.580362
1017.196531	2491.733961
1017.489393	2492.177583
1017.782219	2490.261944
1018.075011	2497.067502
1018.367768	2495.847543
1018.660490	2495.469456
1018.953177	2495.469456
1019.245829	2495.469456
