Dividing Wavelength (nm)	Counts (n)	Blue Motor Position (mm): 0.000000	Red Motor Position (mm): 17.500000	
326.493990	2129.007819
326.888308	2129.007819
327.282561	2129.007819
327.676750	2093.349217
328.070874	2094.062540
328.464933	2097.087233
328.858929	2104.235589
329.252859	2113.108019
329.646726	2126.245266
330.040528	2138.661628
330.434265	2158.470842
330.827938	2172.167657
331.221547	2188.453105
331.615091	2209.142000
332.008571	2228.011039
332.401986	2251.946438
332.795338	2268.083171
333.188625	2289.475307
333.581847	2308.850982
333.975006	2324.163487
334.368100	2343.884481
334.761129	2358.929804
335.154095	2374.678369
335.546996	2393.280227
335.939833	2408.701116
336.332606	2426.556883
336.725315	2435.714139
337.117960	2448.725357
337.510540	2454.131995
337.903056	2466.157667
338.295508	2472.040694
338.687896	2482.491006
339.080220	2491.376039
339.472480	2497.606906
339.864676	2503.598317
340.256807	2506.277690
340.648875	2508.435304
341.040879	2511.759945
341.432818	2513.463855
341.824694	2513.219359
342.216506	2517.007786
342.608253	2515.119874
342.999937	2515.676922
343.391557	2516.105420
343.783113	2512.795902
344.174605	2513.294976
344.566033	2511.981756
344.957397	2508.659635
345.348697	2507.336333
345.739934	2507.532937
346.131106	2502.625374
346.522215	2502.448934
346.913260	2501.294510
347.304241	2499.714108
347.695159	2497.541371
348.086012	2497.390136
348.476802	2493.047182
348.867528	2495.850063
349.258191	2491.681029
349.648789	2492.099445
350.039324	2491.108858
350.429796	2488.071563
350.820203	2487.940493
351.210548	2485.901346
351.600828	2483.219453
351.991045	2482.995121
352.381198	2486.866727
352.771288	2483.048053
353.161314	2484.174751
353.551276	2485.210708
353.941175	2483.373208
354.331010	2483.889926
354.720782	2484.028558
355.110490	2484.802375
355.500135	2481.712147
355.889717	2484.812457
356.279235	2483.567292
356.668689	2485.785400
357.058080	2485.109885
357.447408	2482.125522
357.836672	2480.255254
358.225873	2483.897488
358.615010	2479.277270
359.004084	2485.561068
359.393095	2485.858497
359.782043	2489.276399
360.170927	2487.605256
360.559748	2489.523415
360.948505	2489.072232
361.337199	2489.548621
361.725830	2492.608602
362.114398	2490.574496
362.502903	2489.994763
362.891344	2495.877790
363.279722	2493.533653
363.668037	2494.320073
364.056289	2493.314363
364.444478	2494.249497
364.832603	2493.899137
365.220665	2498.481546
365.608665	2497.468274
365.996601	2499.555312
366.384474	2500.649242
366.772284	2500.329129
367.160031	2499.257883
367.547715	2506.958246
367.935336	2505.251815
368.322893	2510.648371
368.710388	2511.147445
369.097820	2518.358815
369.485189	2520.140863
369.872495	2526.815351
370.259738	2532.610157
370.646918	2541.477547
371.034035	2550.861655
371.421090	2558.367933
371.808081	2569.466033
372.195010	2575.706982
372.581875	2589.910433
372.968678	2603.352669
373.355418	2611.380707
373.742096	2635.696712
374.128710	2647.424957
374.515262	2660.781494
374.901751	2677.523166
375.288177	2689.836184
375.674540	2715.120091
376.060841	2731.662637
376.447079	2751.595360
376.833254	2772.228802
377.219367	2781.915380
377.605417	2822.053047
377.991404	2828.601505
378.377329	2853.661081
378.763191	2868.981148
379.148991	2907.230903
379.534727	2932.610592
379.920402	2960.404993
380.306013	2973.695995
380.691563	3023.323634
381.077049	3043.440359
381.462474	3060.474418
381.847835	3099.676951
382.233134	3118.450208
382.618371	3120.416258
383.003545	3189.127184
383.388657	3197.422403
383.773706	3231.374574
384.158693	3245.414188
384.543618	3269.120214
384.928480	3309.935916
385.313280	3353.161289
385.698017	3352.369828
386.082692	3404.495359
386.467305	3410.801843
386.851856	3443.465999
387.236344	3464.129688
387.620770	3496.758557
388.005133	3521.477855
388.389435	3550.436763
388.773674	3560.100655
389.157851	3604.795525
389.541965	3617.005199
389.926018	3585.364397
390.310008	3655.451559
390.693936	3670.264990
391.077802	3711.178994
391.461606	3702.425031
391.845348	3765.920884
392.229027	3762.548352
392.612645	3776.537554
392.996200	3857.271633
393.379694	3893.494844
393.763125	3956.451294
394.146494	3923.640944
394.529801	3985.548834
394.913047	4035.650341
395.296230	4000.274044
395.679351	4055.676325
396.062410	4080.561981
396.445408	4059.409299
396.828343	4093.318621
397.211217	4114.252012
397.594028	4034.543808
397.976778	4102.314560
398.359466	4126.645689
398.742092	4156.494361
399.124656	4073.267431
399.507158	4156.328003
399.889598	4176.182587
400.271977	4241.127772
400.654294	4211.263977
401.036549	4215.022157
401.418742	4180.956560
401.800874	4284.625368
402.182944	4298.864107
402.564952	4356.683621
402.946898	4338.782484
403.328783	4328.569106
403.710606	4236.210126
404.092367	4419.231737
404.474067	4367.181824
404.855705	4368.071588
405.237282	4289.341367
405.618797	4380.591293
406.000250	4397.980753
406.381642	4457.173982
406.762972	4402.689191
407.144240	4396.975043
407.525447	4379.512486
407.906593	4412.940377
408.287677	4432.048871
408.668700	4346.417311
409.049661	4368.661402
409.430560	4380.427456
409.811399	4291.282212
410.192176	4399.009149
410.572891	4319.474864
410.953545	4375.124162
411.334138	4253.574381
411.714669	4271.896454
412.095139	4160.207170
412.475547	4236.396649
412.855894	4185.370090
413.236180	4158.362108
413.616405	4087.458279
413.996568	4109.977113
414.376670	4038.271741
414.756711	3971.357986
415.136691	3954.752425
415.516609	3962.218374
415.896466	3947.417546
416.276262	3923.391407
416.655997	3865.549207
417.035670	3926.353085
417.415283	3930.423816
417.794834	3853.987321
418.174324	3788.512815
418.553753	3702.823282
418.933121	3742.845002
419.312428	3726.095769
419.691674	3646.506032
420.070859	3657.599091
420.449983	3577.406936
420.829045	3572.915268
421.208047	3499.942045
421.586988	3474.085967
421.965867	3436.849484
422.344686	3425.617794
422.723444	3345.667614
423.102141	3255.478851
423.480777	3297.542239
423.859352	3195.504244
424.237866	3220.526011
424.616319	3181.638550
424.994712	3170.754699
425.373044	3104.713063
425.751314	3096.221240
426.129524	3023.016124
426.507673	3025.035106
426.885762	3006.929802
427.263789	2963.598564
427.641756	2922.429981
428.019662	2909.806932
428.397508	2882.279712
428.775292	2846.603466
429.153016	2834.938236
429.530679	2801.878349
429.908282	2787.427881
430.285824	2760.374529
430.663305	2759.741864
431.040726	2724.002604
431.418086	2706.252702
431.795385	2696.724921
432.172624	2683.262519
432.549802	2670.190807
432.926920	2658.460042
433.303977	2648.539052
433.680974	2637.892135
434.057910	2630.801752
434.434786	2616.729371
434.811601	2607.988010
435.188355	2609.525562
435.565050	2597.885538
435.941683	2589.824733
436.318257	2586.021182
436.694770	2578.731674
437.071222	2576.173288
437.447614	2567.794891
437.823946	2564.939077
438.200218	2562.859601
438.576429	2559.766853
438.952580	2558.125957
439.328670	2556.991698
439.704700	2552.542880
440.080670	2552.626059
440.456580	2554.017417
440.832429	2552.283260
441.208218	2549.238403
441.583947	2552.724361
441.959616	2548.494833
442.335224	2548.446942
442.710773	2545.243289
443.086261	2551.020451
443.461689	2545.281097
443.837057	2545.152548
444.212365	2546.911911
444.587612	2546.077600
444.962800	2544.620706
445.337927	2546.649771
445.712995	2542.090047
446.088002	2544.976108
446.462949	2545.273536
446.837837	2547.433670
447.212664	2542.453010
447.587431	2544.663556
447.962139	2546.906870
448.336786	2550.959957
448.711374	2549.669422
449.085901	2545.966694
449.460369	2545.071890
449.834776	2546.223793
450.209124	2545.381921
450.583412	2547.491643
450.957640	2548.399051
451.331808	2547.431150
451.705917	2545.112219
452.079965	2543.554502
452.453954	2544.492157
452.827883	2543.967877
453.201752	2544.766900
453.575562	2544.845038
453.949311	2548.953578
454.323001	2545.422250
454.696632	2544.255223
455.070202	2548.202446
455.443713	2548.179761
455.817164	2544.799667
456.190556	2545.084493
456.563888	2545.023999
456.937160	2545.591128
457.310373	2546.183464
457.683526	2546.024668
458.056619	2546.369987
458.429653	2548.222611
458.802628	2543.917465
459.175542	2547.206818
459.548398	2544.968546
459.921194	2549.477858
460.293930	2546.226314
460.666607	2551.549772
461.039224	2552.139587
461.411782	2551.275029
461.784280	2553.082283
462.156719	2553.374670
462.529099	2553.898950
462.901419	2551.388455
463.273680	2551.978270
463.645882	2551.317879
464.018024	2550.012220
464.390106	2548.613300
464.762130	2555.335679
465.134094	2554.660164
465.505999	2560.981771
465.877845	2565.622153
466.249631	2569.060220
466.621358	2563.862791
466.993026	2566.012843
467.364634	2566.884962
467.736184	2563.560321
468.107674	2560.775084
468.479105	2560.162584
468.850477	2559.557645
469.221790	2560.356668
469.593043	2561.064950
469.964238	2555.819630
470.335373	2560.250804
470.706449	2557.631924
471.077467	2559.333314
471.448425	2565.423028
471.819324	2566.839592
472.190164	2568.195662
472.560945	2566.060734
472.931667	2560.447409
473.302330	2559.136709
473.672934	2558.458674
474.043479	2561.811041
474.413965	2559.058571
474.784393	2554.466080
475.154761	2558.998077
475.525070	2557.284085
475.895321	2559.655948
476.265513	2558.874569
476.635645	2565.112997
477.005719	2561.869014
477.375734	2563.391443
477.745691	2564.863460
478.115588	2564.941597
478.485427	2565.518810
478.855207	2569.042576
479.224928	2571.512742
479.594591	2574.950808
479.964194	2574.620613
480.333739	2574.492063
480.703226	2575.396951
481.072653	2576.392578
481.442022	2577.607497
481.811333	2576.498443
482.180584	2574.303020
482.549777	2574.822259
482.918912	2571.704305
483.287988	2574.113977
483.657005	2573.009964
484.025964	2570.764130
484.394864	2572.427711
484.763706	2572.515931
485.132489	2570.554922
485.501213	2571.008626
485.869879	2569.781105
486.238487	2568.742628
486.607036	2571.895869
486.975527	2570.267577
487.343959	2568.258677
487.712333	2567.666341
488.080648	2568.132648
488.448905	2569.022412
488.817104	2570.355797
489.185244	2570.789336
489.553326	2570.529717
489.921350	2572.241188
490.289315	2576.606827
490.657222	2574.696230
491.025070	2574.124059
491.392861	2575.245716
491.760593	2573.259501
492.128267	2573.506518
492.495883	2572.271435
492.863440	2569.163564
493.230939	2567.431927
493.598380	2569.765982
493.965763	2562.768860
494.333088	2566.675754
494.700354	2563.819941
495.067563	2565.849005
495.434713	2561.133006
495.801805	2566.572411
496.168839	2567.003429
496.535815	2568.500652
496.902733	2568.248594
497.269593	2569.854202
497.636395	2566.456464
498.003139	2569.718091
498.369825	2565.070147
498.736453	2569.009809
499.103023	2566.670713
499.469535	2566.900086
499.835989	2566.426217
500.202385	2566.010322
500.568723	2567.071485
500.935003	2568.021742
501.301226	2569.183728
501.667390	2566.421176
502.033497	2571.505180
502.399546	2569.385375
502.765537	2568.268759
503.131470	2567.101732
503.497345	2566.413614
503.863163	2567.615930
504.228923	2569.123235
504.594625	2571.469892
504.960269	2569.019891
505.325856	2569.730694
505.691385	2567.426886
506.056856	2570.708677
506.422270	2567.978893
506.787625	2568.939233
507.152924	2571.091805
507.518164	2569.365210
507.883347	2569.397977
508.248472	2567.343707
508.613540	2570.191959
508.978550	2571.485015
509.343503	2569.660117
509.708398	2570.348235
510.073236	2571.754717
510.438016	2573.130952
510.802738	2571.903431
511.167403	2570.970817
511.532010	2568.752710
511.896561	2571.636250
512.261053	2575.308730
512.625488	2568.588872
512.989866	2564.694581
513.354186	2569.433266
513.718449	2564.782801
514.082655	2568.629202
514.446803	2570.673389
514.810894	2572.843606
515.174927	2573.902248
515.538904	2571.472412
515.902822	2572.021898
516.266684	2571.167423
516.630488	2570.161712
516.994235	2570.519634
517.357925	2573.718246
517.721558	2570.983420
518.085133	2571.510221
518.448651	2573.526682
518.812112	2570.532237
519.175516	2571.726991
519.538863	2570.895200
519.902152	2573.176322
520.265385	2571.575756
520.628560	2572.241188
520.991678	2571.290931
521.354739	2571.570715
521.717743	2572.233627
522.080690	2572.457958
522.443580	2569.748338
522.806413	2572.354614
523.169189	2570.554922
523.531908	2573.088102
523.894569	2571.351425
524.257174	2573.279666
524.619722	2572.919223
524.982213	2575.369224
525.344647	2572.495767
525.707025	2573.811508
526.069345	2571.369069
526.431608	2573.932495
526.793815	2573.098184
527.155964	2572.828483
527.518057	2571.195149
527.880093	2574.938206
528.242072	2572.576425
528.603995	2571.714388
528.965860	2574.431570
529.327669	2572.374779
529.689421	2570.819583
530.051117	2571.021229
530.412755	2572.251271
530.774337	2572.858730
531.135862	2572.558781
531.497331	2570.270097
531.858743	2568.498132
532.220098	2569.035014
532.581396	2569.065261
532.942638	2567.036197
533.303824	2573.088102
533.664953	2572.062227
534.026025	2568.798080
534.387040	2572.692372
534.747999	2571.797567
535.108902	2571.394274
535.469748	2572.037022
535.830537	2570.887638
536.191270	2571.482495
536.551947	2572.596590
536.912567	2571.268246
537.273131	2571.200190
537.633638	2572.518452
537.994089	2570.935529
538.354483	2568.364541
538.714821	2572.533575
539.075103	2569.536609
539.435328	2570.121383
539.795497	2569.869325
540.155609	2572.193297
540.515665	2572.309244
540.875665	2570.146589
541.235609	2569.914696
541.595496	2570.254974
541.955328	2571.671538
542.315102	2573.405695
542.674821	2572.256312
543.034483	2572.767989
543.394090	2567.081567
543.753640	2572.226065
544.113134	2569.609706
544.472571	2571.946281
544.831953	2570.355797
545.191278	2570.217165
545.550548	2571.172464
545.909761	2570.070972
546.268918	2569.967628
546.628019	2570.499470
546.987064	2572.402505
547.346053	2568.914027
547.704986	2568.752710
548.063863	2570.948132
548.422684	2570.312947
548.781449	2570.186918
549.140158	2571.285890
549.498811	2570.320509
549.857408	2569.352607
550.215949	2565.365054
550.574434	2565.362534
550.932864	2566.791701
551.291237	2566.953018
551.649555	2572.147927
552.007817	2569.403019
552.366022	2569.592062
552.724173	2570.549881
553.082267	2570.653225
553.440305	2569.377813
553.798288	2571.197669
554.156215	2570.895200
554.514086	2571.938719
554.871902	2571.031311
555.229661	2569.642473
555.587365	2571.162381
555.945014	2571.127093
556.302606	2568.787998
556.660143	2571.207752
557.017625	2570.212124
557.375050	2568.646846
557.732421	2570.260015
558.089735	2570.910324
558.446994	2571.026270
558.804197	2570.161712
559.161345	2570.227247
559.518437	2571.663976
559.875474	2569.713050
560.232455	2570.854871
560.589381	2570.988462
560.946251	2570.408729
561.303065	2570.154151
561.659825	2569.715570
562.016528	2569.173646
562.373177	2570.857392
562.729770	2569.430745
563.086307	2568.551064
563.442789	2570.015519
563.799216	2572.233627
564.155587	2569.866805
564.511904	2567.676423
564.868164	2570.617937
565.224370	2569.264387
565.580520	2569.299675
565.936615	2569.851681
566.292654	2570.438976
566.648638	2569.629871
567.004567	2568.440158
567.360441	2570.965776
567.716260	2569.395457
568.072023	2567.830179
568.427732	2564.283727
568.783385	2566.194324
569.138982	2566.048131
569.494525	2563.620815
569.850013	2564.036710
570.205445	2567.799932
570.560823	2565.980075
570.916145	2568.586352
571.271412	2567.908317
571.626625	2567.489901
571.981782	2567.908317
572.336884	2567.963769
572.691931	2568.208265
573.046923	2568.636763
573.401860	2571.346383
573.756743	2568.120045
574.111570	2567.363872
574.466342	2567.840261
574.821059	2565.579303
575.175722	2568.374623
575.530330	2568.878739
575.884882	2566.824468
576.239380	2566.953018
576.593823	2568.835889
576.948211	2564.245918
577.302544	2567.991496
577.656823	2568.261197
578.011047	2567.860426
578.365216	2563.789694
578.719330	2566.181721
579.073389	2568.097360
579.427394	2565.969993
579.781344	2563.847667
580.135239	2568.876218
580.489080	2567.981413
580.842866	2565.405384
581.196597	2569.002247
581.550273	2566.267421
581.903895	2567.043759
582.257463	2565.798594
582.610975	2566.713563
582.964434	2566.489232
583.317837	2563.769529
583.671186	2564.434962
584.024481	2566.970662
584.377721	2566.176680
584.730906	2565.133161
585.084037	2566.446382
585.437113	2564.525702
585.790135	2564.692060
586.143103	2561.720300
586.496016	2564.613922
586.848874	2560.684343
587.201679	2565.445713
587.554428	2561.006977
587.907124	2562.249621
588.259765	2557.367264
588.612352	2562.801628
588.964884	2563.739282
589.317362	2561.995043
589.669786	2562.776422
590.022155	2562.516803
590.374470	2563.560321
590.726731	2564.596278
591.078937	2561.558983
591.431090	2562.700805
591.783188	2563.751885
592.135232	2562.652914
592.487222	2563.560321
592.839157	2564.092163
593.191038	2565.173491
593.542866	2565.405384
593.894639	2565.082750
594.246358	2564.230795
594.598022	2561.717780
594.949633	2564.747513
595.301190	2563.272976
595.652692	2561.548901
596.004141	2562.002605
596.355535	2564.298850
596.706876	2562.617626
597.058162	2562.121072
597.409395	2560.447409
597.760573	2560.092008
598.111698	2560.999415
598.462768	2563.189797
598.813785	2563.189797
599.164748	2561.347255
599.515657	2561.947152
599.866511	2562.645352
600.217312	2560.439847
600.568060	2558.614949
600.918753	2561.163253
601.269392	2558.985474
601.619978	2559.855073
601.970510	2562.831875
602.320988	2562.466391
602.671412	2560.999415
603.021783	2561.385063
603.372100	2560.853222
603.722363	2561.982440
604.072572	2562.723490
604.422728	2559.746688
604.772830	2555.050854
605.122878	2554.614794
605.472872	2558.652758
605.822813	2552.384083
606.172701	2555.441543
606.522534	2560.122254
606.872314	2563.835064
607.222041	2562.184086
607.571714	2562.867163
607.921333	2562.211813
608.270899	2560.507903
608.620411	2562.322718
608.969870	2562.526885
609.319276	2566.456464
609.668627	2562.796587
610.017926	2569.650035
610.367171	2568.407391
610.716362	2567.061403
611.065500	2568.997206
611.414585	2563.688871
611.763616	2562.668037
612.112594	2564.689540
612.461518	2564.233315
612.810389	2564.069478
613.159207	2563.910682
613.507971	2562.685681
613.856682	2565.236505
614.205340	2564.119889
614.553945	2564.205589
614.902496	2560.167625
615.250994	2562.108469
615.599439	2561.208623
615.947830	2561.271637
616.296169	2560.069322
616.644454	2562.058058
616.992686	2558.773746
617.340864	2561.727862
617.688990	2558.683005
618.037063	2564.061916
618.385082	2560.391956
618.733048	2562.945301
619.080961	2560.517985
619.428821	2562.526885
619.776628	2562.516803
620.124382	2563.094015
620.472083	2560.563355
620.819731	2561.624518
621.167326	2561.914385
621.514868	2559.038406
621.862357	2559.940773
622.209793	2560.737275
622.557176	2559.315670
622.904506	2559.267779
623.251783	2555.101265
623.599007	2557.936914
623.946179	2558.231822
624.293297	2554.027499
624.640363	2560.177707
624.987376	2558.839281
625.334336	2557.944476
625.681243	2556.737120
626.028097	2556.802655
626.374899	2558.166287
626.721647	2558.930022
627.068343	2556.885834
627.414987	2558.395659
627.761577	2556.747202
628.108115	2557.757953
628.454600	2558.723334
628.801032	2559.156873
629.147412	2557.122768
629.493739	2557.705021
629.840014	2557.606719
630.186236	2559.837429
630.532405	2554.193857
630.878521	2554.816440
631.224585	2556.593447
631.570597	2556.250648
631.916556	2555.985988
632.262462	2556.890875
632.608316	2557.016904
632.954117	2555.461708
633.299866	2556.386759
633.645562	2555.068498
633.991206	2555.315514
634.336797	2555.849877
634.682336	2557.994888
635.027823	2555.605381
635.373257	2556.112017
635.718639	2554.387942
636.063968	2556.520350
636.409245	2554.231666
636.754470	2552.941131
637.099642	2553.132695
637.444762	2556.336348
637.789829	2554.329969
638.134845	2554.390462
638.479808	2553.498178
638.824719	2554.007335
639.169577	2553.979608
639.514383	2554.967675
639.859137	2553.178065
640.203839	2553.404917
640.548489	2556.404403
640.893086	2550.566747
641.237632	2549.772766
641.582125	2549.734957
641.926566	2549.409803
642.270955	2553.866182
642.615292	2551.330482
642.959576	2554.907181
643.303809	2549.893753
643.647990	2555.711245
643.992118	2551.025492
644.336195	2552.739485
644.680219	2552.341233
645.024192	2551.547252
645.368112	2552.152190
645.711981	2553.694783
646.055797	2552.482386
646.399562	2555.965823
646.743274	2553.236038
647.086935	2554.788714
647.430544	2555.186965
647.774101	2554.740823
648.117606	2554.801317
648.461059	2551.433826
648.804460	2552.005997
649.147810	2553.218394
649.491108	2553.669577
649.834354	2551.000287
650.177548	2552.913404
650.520690	2552.484906
650.863781	2552.678991
651.206820	2555.935576
651.549807	2551.832077
651.892742	2552.016079
652.235626	2551.174206
652.578458	2552.802499
652.921238	2551.995914
653.263967	2552.706717
653.606644	2551.280071
653.949269	2550.836449
654.291843	2550.637323
654.634365	2551.577499
654.976836	2550.876778
655.319255	2552.540359
655.661622	2552.066491
656.003938	2551.133877
656.346203	2551.426264
656.688416	2550.612118
657.030577	2548.073897
657.372687	2553.200750
657.714746	2549.500543
658.056753	2550.360060
658.398708	2546.301931
658.740612	2550.660009
659.082465	2546.349822
659.424266	2549.646737
659.766016	2546.692621
660.107715	2548.709082
660.449362	2547.617672
660.790958	2552.351316
661.132503	2552.588250
661.473996	2550.062632
661.815438	2554.133364
662.156829	2551.731254
662.498168	2549.881150
662.839456	2548.739329
663.180693	2550.768393
663.521879	2552.996583
663.863013	2549.251006
664.204097	2548.315872
664.545129	2550.455842
664.886110	2555.653272
665.227040	2550.342416
665.567918	2553.846018
665.908746	2549.752601
666.249522	2552.794937
666.590248	2551.179248
666.930922	2551.562375
667.271545	2550.304607
667.612118	2552.225287
667.952639	2550.922149
668.293109	2550.614638
668.633528	2549.631613
668.973896	2549.966850
669.314213	2550.992725
669.654480	2550.929710
669.994695	2550.692776
670.334859	2549.220759
670.674973	2549.261088
671.015035	2547.728578
671.355047	2549.006510
671.695008	2551.874927
672.034918	2548.827549
672.374777	2546.720347
672.714585	2548.520039
673.054342	2549.182951
673.394049	2550.710420
673.733705	2549.555996
674.073310	2555.345761
674.412864	2549.780327
674.752368	2548.595656
675.091820	2551.990873
675.431223	2551.080945
675.770574	2553.241079
676.109875	2547.514329
676.449125	2548.754452
676.788324	2546.438042
677.127473	2546.133052
677.466571	2543.070552
677.805619	2548.905687
678.144616	2550.561706
678.483562	2550.637323
678.822458	2550.624721
679.161303	2551.829556
679.500098	2547.854607
679.838842	2547.358053
680.177535	2549.016592
680.516179	2550.922149
680.854771	2551.224618
681.193314	2550.760832
681.531805	2549.374514
681.870247	2551.330482
682.208638	2551.885009
682.546978	2551.103630
682.885268	2548.550286
683.223508	2553.538507
683.561697	2549.457693
683.899836	2547.857127
684.237925	2547.947868
684.575963	2547.289997
684.913951	2549.208156
685.251889	2552.525236
685.589776	2548.199926
685.927614	2549.750080
686.265401	2549.024154
686.603137	2550.322251
686.940824	2550.556665
687.278460	2550.077755
687.616046	2552.169834
687.953582	2550.120605
688.291068	2550.183620
688.628504	2552.810061
688.965889	2550.753270
689.303224	2550.657488
689.640510	2550.642365
689.977745	2549.941644
690.314930	2548.441901
690.652065	2551.801830
690.989150	2548.935934
691.326185	2547.801674
691.663170	2549.558517
692.000105	2546.317055
692.336990	2548.797302
692.673825	2547.552137
693.010610	2548.320913
693.347345	2544.338402
693.684030	2544.051056
694.020665	2544.698844
694.357251	2540.736497
694.693786	2545.076931
695.030272	2548.421736
695.366707	2547.252189
695.703093	2543.761190
696.039429	2547.088351
696.375716	2548.240255
696.711952	2546.811088
697.048139	2547.244627
697.384276	2544.103988
697.720363	2546.828732
698.056400	2545.848227
698.392388	2544.419060
698.728326	2546.508618
699.064214	2547.022816
699.400053	2548.759494
699.735842	2544.439225
700.071581	2548.152035
700.407270	2547.196736
700.742910	2548.366284
701.078501	2546.929555
701.414042	2545.099616
701.749533	2545.084492
702.084974	2544.897970
702.420366	2543.441076
702.755709	2543.057949
703.091002	2544.214893
703.426246	2545.699513
703.761440	2546.740512
704.096584	2546.095244
704.431679	2543.443597
704.766725	2549.097251
705.101721	2542.437887
705.436668	2545.651622
705.771565	2545.235727
706.106413	2545.084492
706.441212	2544.814791
706.775961	2543.262115
707.110661	2544.953423
707.445311	2547.718495
707.779913	2544.713968
708.114465	2546.811088
708.448967	2546.450645
708.783421	2546.160779
709.117825	2546.155738
709.452180	2544.633309
709.786485	2544.285470
710.120742	2548.751932
710.454949	2545.311344
710.789107	2545.006355
711.123216	2543.062990
711.457275	2544.366128
711.791286	2543.546941
712.125247	2541.843031
712.459159	2546.279246
712.793023	2547.073228
713.126837	2546.014585
713.460602	2544.114070
713.794318	2548.026006
714.127985	2546.551468
714.461602	2547.229503
714.795171	2544.688762
715.128691	2544.658515
715.462162	2545.805377
715.795584	2543.360418
716.128957	2547.118598
716.462281	2545.147507
716.795556	2545.109698
717.128782	2544.703885
717.461960	2542.647095
717.795088	2545.996941
718.128167	2545.344112
718.461198	2541.510314
718.794180	2543.027702
719.127113	2541.757331
719.459997	2545.732281
719.792833	2542.362269
720.125619	2542.891591
720.458357	2542.563916
720.791046	2544.655994
721.123686	2544.673638
721.456278	2543.017619
721.788821	2544.527445
722.121315	2545.823022
722.453761	2543.461241
722.786158	2542.856302
723.118506	2541.631302
723.450805	2540.741538
723.783056	2539.700540
724.115259	2542.238761
724.447412	2541.820345
724.779518	2544.033412
725.111574	2543.075593
725.443582	2544.804708
725.775542	2542.579039
726.107453	2542.430325
726.439315	2541.051569
726.771129	2549.349309
727.102895	2545.127342
727.434612	2543.488967
727.766281	2543.703216
728.097901	2542.314378
728.429473	2541.429656
728.760996	2540.771785
729.092471	2539.423277
729.423897	2543.297403
729.755276	2542.294214
730.086606	2543.708258
730.417887	2544.671118
730.749120	2542.205994
731.080305	2541.754810
731.411442	2545.104657
731.742530	2544.466951
732.073570	2545.215563
732.404562	2543.589790
732.735506	2543.700696
733.066401	2544.872764
733.397249	2545.202960
733.728048	2543.385624
734.058798	2545.107178
734.389501	2542.546272
734.720156	2543.073072
735.050762	2543.821683
735.381320	2543.302445
735.711831	2543.577188
736.042293	2543.617517
736.372707	2541.056611
736.703073	2544.640871
737.033391	2542.087527
737.363661	2540.645757
737.693883	2541.848072
738.024056	2546.012065
738.354182	2543.844369
738.684260	2544.184647
739.014290	2542.427804
739.344272	2543.173895
739.674207	2543.788916
740.004093	2546.201108
740.333931	2543.131045
740.663722	2544.865202
740.993464	2543.456200
741.323159	2542.715150
741.652806	2543.403268
741.982405	2544.199770
742.311956	2543.856972
742.641460	2542.410160
742.970915	2540.897814
743.300323	2543.098278
743.629683	2541.706919
743.958996	2542.884029
744.288260	2541.580891
744.617477	2540.527289
744.946647	2536.779192
745.275768	2538.803215
745.604842	2537.648791
745.933869	2537.915972
746.262847	2538.044521
746.591778	2544.149358
746.920662	2539.332536
747.249498	2541.101981
747.578286	2539.650129
747.907027	2539.428318
748.235720	2541.424615
748.564365	2539.826569
748.892963	2539.163657
749.221514	2539.836651
749.550017	2539.594676
749.878473	2542.052238
750.206881	2540.716333
750.535242	2541.238092
750.863555	2542.664739
751.191821	2540.907897
751.520039	2541.124666
751.848210	2539.173740
752.176334	2538.881353
752.504411	2542.087527
752.832440	2539.945036
753.160421	2543.017619
753.488356	2540.290355
753.816243	2540.396219
754.144082	2542.400078
754.471875	2541.903524
754.799620	2541.258257
755.127318	2540.464275
755.454969	2539.198945
755.782572	2537.994110
756.110129	2539.730787
756.437638	2541.351518
756.765100	2539.163657
757.092515	2541.275901
757.419882	2540.844882
757.747203	2539.062834
758.074477	2541.999306
758.401703	2542.556354
758.728882	2541.938812
759.056014	2540.386137
759.383099	2540.514687
759.710138	2542.843700
760.037129	2540.867567
760.364073	2542.069882
760.690970	2541.782537
761.017820	2542.216076
761.344623	2542.412681
761.671379	2540.923020
761.998088	2535.907072
762.324751	2540.111394
762.651366	2539.347659
762.977935	2547.151366
763.304456	2543.925027
763.630931	2549.185471
763.957359	2548.237734
764.283740	2547.050542
764.610074	2546.864020
764.936362	2544.769420
765.262602	2541.676672
765.588796	2542.301776
765.914943	2539.987886
766.241044	2542.258926
766.567097	2537.641229
766.893104	2541.248174
767.219064	2540.144162
767.544978	2540.658359
767.870845	2539.514017
768.196665	2538.415046
768.522438	2537.550488
768.848165	2538.904038
769.173846	2537.719367
769.499479	2541.550644
769.825066	2539.009902
770.150607	2537.593338
770.476101	2537.946219
770.801548	2539.312371
771.126949	2541.162475
771.452303	2538.891435
771.777611	2539.902186
772.102872	2538.518390
772.428087	2539.960160
772.753256	2537.505118
773.078378	2536.771630
773.403453	2538.702392
773.728482	2537.321116
774.053465	2538.820859
774.378401	2539.151054
774.703291	2537.724408
775.028135	2540.741538
775.352932	2537.978986
775.677683	2537.734490
776.002388	2537.898328
776.327046	2536.224665
776.651658	2538.919161
776.976224	2537.525282
777.300743	2537.863040
777.625216	2538.165509
777.949643	2536.300282
778.274024	2540.197094
778.598359	2534.457740
778.922647	2536.920344
779.246889	2536.650642
779.571086	2537.273225
779.895236	2536.181815
780.219339	2536.726259
780.543397	2538.092412
780.867409	2538.147865
781.191374	2539.524100
781.515294	2536.406146
781.839167	2537.066537
782.162995	2534.717360
782.486776	2539.025026
782.810511	2538.427649
783.134201	2536.249870
783.457844	2536.058307
783.781441	2538.034439
784.104993	2539.133410
784.428498	2536.098636
784.751958	2536.348173
785.075372	2539.279604
785.398739	2539.133410
785.722061	2534.906403
786.045337	2539.168698
786.368568	2539.070396
786.691752	2537.734490
787.014891	2538.778009
787.337983	2534.687113
787.661030	2539.307330
787.984031	2538.266332
788.306987	2538.276414
788.629897	2537.200128
788.952760	2539.206507
789.275579	2536.217103
789.598351	2539.735828
789.921078	2536.280117
790.243759	2538.331867
790.566395	2536.010416
790.888984	2536.007895
791.211529	2537.147196
791.534027	2538.226003
791.856480	2535.355066
792.178888	2539.123328
792.501249	2534.535878
792.823566	2541.744728
793.145836	2538.634336
793.468062	2537.210210
793.790241	2537.172402
794.112375	2537.749614
794.434464	2536.625436
794.756507	2536.995961
795.078505	2537.013605
795.400457	2537.701723
795.722364	2532.635363
796.044226	2537.220293
796.366042	2534.114942
796.687812	2534.505631
797.009538	2535.193749
797.331218	2538.546116
797.652852	2535.443286
797.974442	2536.602751
798.295986	2536.512010
798.617484	2540.481919
798.938938	2537.628626
799.260346	2537.152237
799.581709	2537.495035
799.903026	2538.843544
800.224299	2534.898841
800.545526	2537.810107
800.866708	2538.372196
801.187845	2538.112577
801.508936	2537.132072
801.829983	2536.693492
802.150984	2536.930426
802.471940	2536.454037
802.792851	2536.426311
803.113717	2537.787422
803.434538	2536.645601
803.755314	2534.379602
804.076045	2536.562422
804.396731	2536.900179
804.717372	2539.214069
805.037967	2535.355066
805.358518	2535.193749
805.679024	2539.372865
805.999485	2533.273069
806.319901	2537.605941
806.640272	2538.278935
806.960598	2536.506969
807.280879	2538.478060
807.601115	2536.212062
807.921306	2531.271731
808.241453	2535.849099
808.561554	2535.960004
808.881611	2538.704912
809.201623	2537.769778
809.521590	2536.635519
809.841513	2533.497400
810.161390	2536.491846
810.481223	2533.245343
810.801011	2533.855322
811.120755	2535.856660
811.440453	2537.996630
811.760107	2535.075282
812.079716	2534.694674
812.399281	2532.960518
812.718801	2535.118131
813.038276	2533.139478
813.357707	2537.361445
813.677093	2538.684748
813.996434	2533.973789
814.315731	2534.253573
814.634983	2536.174253
814.954191	2536.086033
815.273354	2536.070909
815.592473	2538.956970
815.911547	2537.658873
816.230577	2536.622916
816.549562	2539.647608
816.868502	2536.532175
817.187399	2536.580066
817.506250	2538.969573
817.825058	2540.439069
818.143821	2537.142155
818.462539	2534.845909
818.781213	2538.810777
819.099843	2539.856816
819.418429	2540.756662
819.736970	2538.909079
820.055466	2542.211035
820.373919	2543.695655
820.692327	2541.273380
821.010691	2547.075748
821.329011	2551.390976
821.647286	2567.131979
821.965517	2578.560275
822.283704	2587.697366
822.601847	2588.622418
822.919945	2584.065215
823.237999	2575.931313
823.556010	2566.259859
823.873976	2561.004456
824.191897	2556.280895
824.509775	2551.527087
824.827609	2550.934752
825.145398	2544.892929
825.463144	2547.017775
825.780845	2547.153886
826.098502	2548.477189
826.416116	2550.402910
826.733685	2554.400545
827.051210	2555.098745
827.368692	2554.266954
827.686129	2551.277550
828.003522	2547.244627
828.320872	2540.723894
828.638177	2540.839841
828.955439	2537.668955
829.272656	2537.994110
829.589830	2536.380940
829.906960	2538.725077
830.224046	2538.220962
830.541088	2538.785571
830.858086	2538.339429
831.175041	2536.350693
831.491952	2538.147865
831.808819	2537.865560
832.125642	2537.268183
832.442421	2538.248688
832.759157	2538.629295
833.075849	2542.183308
833.392497	2542.342105
833.709101	2548.220090
834.025662	2546.248999
834.342179	2546.304452
834.658653	2543.007537
834.975083	2541.875798
835.291469	2542.684903
835.607811	2539.866898
835.924110	2537.820190
836.240366	2537.275745
836.556578	2538.404964
836.872746	2537.749614
837.188871	2538.054603
837.504952	2536.935467
837.820990	2536.837165
838.136984	2534.581248
838.452935	2535.108049
838.768842	2536.194418
839.084706	2534.747607
839.400526	2537.565612
839.716303	2538.057124
840.032037	2541.966539
840.347727	2540.998637
840.663373	2538.283976
840.978977	2537.376568
841.294537	2535.322298
841.610054	2537.258101
841.925527	2535.954963
842.240957	2533.270548
842.556344	2533.305837
842.871687	2534.911444
843.186987	2535.171063
843.502244	2533.073943
843.817458	2535.609644
844.132629	2532.259797
844.447756	2533.338604
844.762840	2526.792666
845.077881	2532.322812
845.392879	2531.937163
845.707833	2533.000847
846.022745	2532.731145
846.337613	2534.795498
846.652438	2534.316588
846.967221	2534.974458
847.281960	2534.989582
847.596656	2531.884231
847.911309	2533.641073
848.225919	2535.226516
848.540485	2533.353727
848.855009	2534.505631
849.169490	2533.285672
849.483928	2533.915816
849.798323	2536.597710
850.112675	2535.534027
850.426984	2532.968079
850.741251	2535.037473
851.055474	2531.992616
851.369654	2535.476053
851.683792	2531.425486
851.997887	2528.458767
852.311938	2533.230219
852.625947	2534.724921
852.939914	2530.099663
853.253837	2536.799356
853.567718	2530.996988
853.881555	2534.717360
854.195350	2532.567308
854.509103	2532.789118
854.822812	2530.142513
855.136479	2534.636701
855.450103	2531.428007
855.763685	2529.971113
856.077224	2534.167874
856.390720	2532.204344
856.704173	2533.704088
857.017584	2533.648635
857.330953	2532.353058
857.644278	2535.183666
857.957561	2533.106711
858.270802	2534.180477
858.584000	2534.402288
858.897155	2533.189890
859.210268	2533.212575
859.523339	2533.585621
859.836367	2533.489839
860.149352	2534.041845
860.462295	2534.321629
860.775195	2528.627646
861.088054	2529.174611
861.400869	2531.760723
861.713642	2528.423479
862.026373	2532.158974
862.339062	2533.336083
862.651708	2530.946577
862.964312	2534.172915
863.276873	2534.359438
863.589392	2532.416073
863.901869	2529.862728
864.214303	2531.090249
864.526696	2530.893644
864.839045	2532.093439
865.151353	2536.035621
865.463619	2530.634025
865.775842	2533.585621
866.088023	2533.235260
866.400162	2533.643594
866.712258	2535.128214
867.024313	2533.968748
867.336325	2535.050076
867.648296	2533.933460
867.960224	2533.071423
868.272110	2533.457071
868.583954	2534.523275
868.895755	2533.391536
869.207515	2533.126876
869.519233	2534.503111
869.830909	2533.938501
870.142542	2531.576721
870.454134	2534.311547
870.765684	2535.105528
871.077191	2532.743748
871.388657	2533.426824
871.700081	2532.905065
872.011463	2533.073943
872.322803	2533.000847
872.634101	2533.552853
872.945357	2533.086546
873.256571	2533.951104
873.567744	2535.927237
873.878874	2534.598893
874.189963	2534.102339
874.501010	2535.266845
874.812015	2533.860363
875.122979	2535.372710
875.433900	2532.700898
875.744780	2532.632843
876.055618	2534.029242
876.366415	2531.128058
876.677169	2534.109901
876.987882	2530.505476
877.298554	2531.501103
877.609183	2534.598892
877.919771	2530.823068
878.230317	2532.169056
878.540822	2537.931095
878.851285	2536.116280
879.161707	2535.899510
879.472087	2538.036959
879.782425	2537.578214
880.092722	2540.169368
880.402977	2545.525593
880.713191	2553.062118
881.023363	2558.788869
881.333494	2562.247101
881.643583	2563.756926
881.953631	2562.045455
882.263637	2563.719118
882.573602	2561.226267
882.883526	2557.158056
883.193408	2553.394835
883.503248	2548.903167
883.813048	2545.666746
884.122806	2547.163968
884.432522	2542.258926
884.742197	2540.368493
885.051831	2541.701878
885.361424	2539.813966
885.670975	2536.945550
885.980485	2535.276928
886.289954	2537.621064
886.599382	2535.755837
886.908768	2537.248019
887.218113	2532.380785
887.527417	2535.274407
887.836680	2538.536034
888.145901	2533.865405
888.455082	2535.949922
888.764221	2532.937832
889.073319	2535.937319
889.382376	2532.968079
889.691392	2532.345497
890.000366	2535.302133
890.309300	2535.087884
890.618193	2534.356917
890.927044	2533.573018
891.235855	2535.241640
891.544625	2535.649973
891.853353	2533.086546
892.162041	2534.828265
892.470687	2533.719211
892.779293	2533.953625
893.087858	2532.862215
893.396381	2531.843902
893.704864	2536.592669
894.013306	2533.938501
894.321707	2540.360931
894.630068	2543.970397
894.938387	2543.168854
895.246665	2544.512322
895.554903	2542.730274
895.863100	2542.561395
896.171256	2539.226672
896.479371	2537.961342
896.787446	2537.515200
897.095480	2536.998482
897.403473	2534.525796
897.711425	2534.722401
898.019336	2534.795498
898.327207	2533.832637
898.635038	2535.647453
898.942827	2535.493697
899.250576	2533.144520
899.558284	2533.603265
899.865952	2535.715508
900.173579	2533.290713
900.481165	2532.506814
900.788711	2534.845909
901.096216	2533.177287
901.403681	2533.363810
901.711105	2532.781557
902.018489	2533.948584
902.325832	2535.836496
902.633135	2533.757020
902.940397	2534.674510
903.247619	2537.071578
903.554800	2537.389171
903.861941	2542.011909
904.169041	2544.005686
904.476101	2546.347302
904.783121	2548.247817
905.090100	2543.965356
905.397039	2542.745397
905.703938	2540.250026
906.010796	2538.450334
906.317614	2537.840354
906.624391	2535.559232
906.931129	2534.828265
907.237826	2533.262987
907.544483	2532.688295
907.851099	2532.017822
908.157675	2533.341125
908.464211	2532.718542
908.770707	2528.909950
909.077163	2534.372041
909.383578	2528.574714
909.689954	2530.316432
909.996289	2528.108407
910.302584	2531.554036
910.608839	2529.663603
910.915054	2532.370702
911.221229	2532.398429
911.527363	2533.845240
911.833458	2532.978162
912.139513	2535.511341
912.445527	2528.579755
912.751502	2532.141330
913.057436	2533.905734
913.363331	2532.335414
913.669186	2533.898172
913.975000	2533.578059
914.280775	2537.386651
914.586510	2534.407329
914.892205	2541.772454
915.197859	2540.141641
915.503475	2540.789429
915.809050	2547.776469
916.114585	2545.394523
916.420081	2545.041643
916.725536	2547.922662
917.030952	2545.278577
917.336328	2541.722043
917.641665	2542.100129
917.946961	2540.602907
918.252218	2536.539737
918.557435	2537.739531
918.862612	2538.374717
919.167750	2537.542926
919.472848	2533.295754
919.777906	2531.932122
920.082925	2536.834644
920.387904	2533.605785
920.692843	2534.561084
920.997743	2532.998326
921.302603	2530.860877
921.607423	2534.886238
921.912204	2536.131403
922.216946	2531.924560
922.521647	2533.199972
922.826310	2532.670651
923.130932	2532.844571
923.435516	2529.509848
923.740059	2534.445137
924.044564	2532.300126
924.349028	2531.359951
924.653454	2528.231915
924.957840	2529.892975
925.262186	2527.846267
925.566493	2529.635877
925.870761	2528.733510
926.174989	2532.274921
926.479178	2531.667462
926.783328	2533.449509
927.087438	2532.048069
927.391509	2531.054961
927.695541	2531.808614
927.999533	2529.043541
928.303486	2529.935825
928.607400	2532.007739
928.911275	2531.501103
929.215110	2532.723583
929.518906	2531.483459
929.822663	2531.624612
930.126381	2531.032276
930.430060	2533.835158
930.733699	2530.618902
931.037299	2533.552853
931.340861	2531.377595
931.644383	2530.233253
931.947866	2527.876514
932.251309	2531.740558
932.554714	2527.195958
932.858080	2532.698377
933.161407	2531.773326
933.464694	2528.851977
933.767943	2530.477749
934.071153	2531.826258
934.374323	2530.843233
934.677455	2529.565300
934.980548	2529.792152
935.283602	2529.134282
935.586617	2529.774508
935.889593	2530.084539
936.192530	2532.519417
936.495428	2527.626977
936.798287	2530.213089
937.101108	2527.919364
937.403890	2528.776360
937.706632	2531.158305
938.009336	2531.644776
938.312002	2532.859694
938.614628	2530.170239
938.917216	2532.206865
939.219765	2530.631504
939.522275	2532.451361
939.824747	2533.177287
940.127179	2529.895496
940.429573	2529.189734
940.731929	2528.746113
941.034246	2524.534229
941.336524	2529.368695
941.638763	2530.218130
941.940964	2531.879190
942.243126	2531.906916
942.545250	2532.055630
942.847335	2530.278624
943.149381	2530.876000
943.451389	2531.528830
943.753359	2532.083357
944.055290	2529.358613
944.357182	2529.189734
944.659036	2528.405835
944.960851	2530.321473
945.262628	2530.790301
945.564367	2529.623274
945.866067	2532.000178
946.167729	2530.989426
946.469352	2530.379447
946.770937	2530.074457
947.072484	2531.279293
947.373992	2530.760054
947.675462	2529.885414
947.976893	2532.224509
948.278286	2532.695857
948.579641	2532.242153
948.880958	2527.773170
949.182236	2529.643438
949.483476	2530.944056
949.784678	2529.406504
950.085841	2527.879034
950.386967	2529.847605
950.688054	2531.249046
950.989103	2527.886596
951.290114	2530.480270
951.591087	2529.257790
951.892021	2529.875331
952.192917	2534.336753
952.493776	2530.840712
952.794596	2530.747451
953.095378	2533.845240
953.396122	2530.336597
953.696828	2530.107224
953.997496	2528.398273
954.298126	2528.927594
954.598718	2528.826771
954.899272	2528.703263
955.199788	2528.725948
955.500266	2527.432892
955.800706	2529.416586
956.101108	2526.331400
956.401472	2527.599250
956.701798	2526.419620
957.002087	2526.648993
957.302337	2528.942718
957.602550	2530.762574
957.902724	2528.851977
958.202861	2531.198634
958.502960	2527.198479
958.803022	2531.859025
959.103045	2531.107893
959.403031	2530.800383
959.702979	2528.378109
960.002889	2531.344828
960.302762	2531.944725
960.602596	2528.685619
960.902393	2525.736544
961.202153	2527.100176
961.501875	2530.288706
961.801559	2531.496062
962.101205	2529.824920
962.400814	2530.939015
962.700385	2527.321987
962.999918	2528.491535
963.299414	2526.911133
963.598873	2529.540095
963.898293	2531.493542
964.197677	2526.704446
964.497022	2531.072605
964.796331	2529.638397
965.095601	2529.842564
965.394835	2529.532533
965.694030	2531.773326
965.993189	2531.024714
966.292309	2527.677388
966.591393	2529.711494
966.890439	2533.290713
967.189447	2527.609333
967.488419	2527.264014
967.787353	2527.200999
968.086249	2529.736700
968.385108	2529.280475
968.683930	2525.590351
968.982714	2529.464477
969.281462	2528.476411
969.580172	2531.100332
969.878844	2528.365506
970.177480	2527.195958
970.476078	2528.075639
970.774639	2526.918695
971.073162	2530.593696
971.371649	2526.611184
971.670098	2525.066071
971.968510	2524.990453
972.266885	2525.398787
972.565223	2529.119158
972.863524	2528.426000
973.161788	2528.299971
973.460014	2528.181504
973.758204	2528.947759
974.056356	2528.630166
974.354471	2527.916843
974.652550	2530.044210
974.950591	2526.676719
975.248595	2528.564631
975.546563	2530.175280
975.844493	2528.831812
976.142386	2525.875176
976.440243	2528.007584
976.738062	2530.366844
977.035845	2528.204189
977.333590	2529.908099
977.631299	2527.679909
977.928971	2528.413397
978.226606	2527.571524
978.524204	2528.337779
978.821765	2527.541277
979.119290	2529.222502
979.416777	2531.135620
979.714228	2528.630166
980.011642	2526.288550
980.309020	2532.043028
980.606360	2527.490866
980.903664	2526.522964
981.200931	2529.396422
981.498162	2530.439941
981.795356	2527.425331
982.092513	2529.605630
982.389633	2529.441792
982.686717	2528.826771
982.983764	2528.809127
983.280775	2529.018335
983.577749	2529.298119
983.874686	2530.941535
984.171587	2528.778880
984.468451	2529.280475
984.765279	2528.448685
985.062070	2530.223171
985.358824	2528.153777
985.655543	2526.810310
985.952224	2528.476411
986.248869	2530.351720
986.545478	2522.679084
986.842050	2524.897192
987.138586	2523.757891
987.435086	2526.306194
987.731549	2520.839063
988.027975	2528.738551
988.324366	2527.508510
988.620719	2529.658562
988.917037	2527.810979
989.213318	2525.880217
989.509563	2526.107069
989.805772	2530.719725
990.101944	2527.258973
990.398080	2527.977337
990.694180	2527.006915
990.990244	2526.316277
991.286271	2525.615556
991.582262	2527.803417
991.878217	2529.013294
992.174136	2526.928777
992.470019	2528.857018
992.765865	2530.392050
993.061676	2526.316277
993.357450	2529.640918
993.653188	2527.442975
993.948890	2528.544467
994.244556	2527.271575
994.540186	2529.333407
994.835780	2526.578417
995.131337	2529.618232
995.426859	2528.501617
995.722345	2525.527336
996.017795	2527.465660
996.313208	2526.843077
996.608586	2526.684281
996.903928	2528.511699
997.199234	2528.262162
997.494504	2528.269724
997.789738	2529.129241
998.084936	2528.345341
998.380099	2526.762419
998.675225	2528.055475
998.970316	2526.278468
999.265371	2530.686957
999.560390	2527.440454
999.855373	2530.565969
1000.150320	2529.414066
1000.445232	2529.096473
1000.740108	2527.493386
1001.034948	2525.925587
1001.329752	2525.184538
1001.624521	2527.269055
1001.919254	2522.053981
1002.213951	2523.145391
1002.508613	2524.801410
1002.803239	2526.313756
1003.097829	2522.767304
1003.392384	2527.879034
1003.686903	2527.410207
1003.981386	2527.889117
1004.275834	2524.249404
1004.570246	2528.473891
1004.864623	2524.014990
1005.158964	2527.790814
1005.453270	2524.781245
1005.747540	2528.161339
1006.041775	2527.468180
1006.335974	2525.786956
1006.630138	2526.165042
1006.924266	2529.845084
1007.218359	2527.289219
1007.512416	2527.846267
1007.806438	2527.059847
1008.100425	2524.516585
1008.394376	2528.572193
1008.688292	2524.783766
1008.982172	2529.033459
1009.276017	2529.988757
1009.569827	2525.199661
1009.863602	2530.218130
1010.157341	2527.178314
1010.451045	2527.236287
1010.744714	2527.427851
1011.038347	2524.493900
1011.331945	2527.425331
1011.625508	2527.601771
1011.919036	2528.302491
1012.212528	2525.328211
1012.505986	2529.676206
1012.799408	2527.672347
1013.092795	2528.360465
1013.386147	2527.379960
1013.679464	2525.860052
1013.972745	2527.702594
1014.265992	2527.425331
1014.559204	2529.535053
1014.852380	2526.832995
1015.145521	2528.302491
1015.438628	2527.992460
1015.731699	2529.081350
1016.024736	2525.202182
1016.317737	2527.226205
1016.610703	2528.206709
1016.903635	2525.492048
1017.196531	2522.711852
1017.489393	2526.220495
1017.782219	2522.696728
1018.075011	2526.769981
1018.367768	2525.323169
1018.660490	2528.667975
1018.953177	2528.667975
1019.245829	2528.667975
