Dividing Wavelength (nm)	Counts (n)	Blue Motor Position (mm): 0.000000	Red Motor Position (mm): 17.000000	
326.493990	2147.012300
326.888308	2147.012300
327.282561	2147.012300
327.676750	2119.278392
328.070874	2121.085645
328.464933	2127.273662
328.858929	2135.846144
329.252859	2148.343164
329.646726	2161.485452
330.040528	2175.257885
330.434265	2193.504341
330.827938	2212.335571
331.221547	2233.495814
331.615091	2253.451222
332.008571	2273.484767
332.401986	2295.209620
332.795338	2313.287198
333.188625	2331.770588
333.581847	2354.848990
333.975006	2371.356249
334.368100	2388.599515
334.761129	2407.032494
335.154095	2425.997315
335.546996	2441.372834
335.939833	2454.167283
336.332606	2469.794860
336.725315	2480.356077
337.117960	2487.973261
337.510540	2496.412152
337.903056	2507.606034
338.295508	2512.437980
338.687896	2517.194309
339.080220	2526.306194
339.472480	2530.971782
339.864676	2537.865560
340.256807	2539.060314
340.648875	2544.754297
341.040879	2544.224976
341.432818	2545.785213
341.824694	2546.236396
342.216506	2546.395192
342.608253	2547.274874
342.999937	2544.809750
343.391557	2544.403937
343.783113	2543.453679
344.174605	2541.732125
344.566033	2538.599048
344.957397	2538.140303
345.348697	2535.004705
345.739934	2536.930426
346.131106	2532.090918
346.522215	2531.135620
346.913260	2527.589168
347.304241	2526.638911
347.695159	2526.528005
348.086012	2525.055988
348.476802	2521.885102
348.867528	2522.855525
349.258191	2520.047602
349.648789	2519.712365
350.039324	2516.266737
350.429796	2517.683301
350.820203	2515.679442
351.210548	2516.702796
351.600828	2516.478465
351.991045	2513.680625
352.381198	2515.777745
352.771288	2512.997548
353.161314	2512.861437
353.551276	2514.663650
353.941175	2512.634585
354.331010	2512.959740
354.720782	2514.774555
355.110490	2514.343536
355.500135	2511.891015
355.889717	2513.622651
356.279235	2515.369411
356.668689	2517.292611
357.058080	2516.901922
357.447408	2513.904956
357.836672	2509.972856
358.225873	2517.209432
358.615010	2513.887312
359.004084	2515.419823
359.393095	2519.059536
359.782043	2519.334279
360.170927	2518.605832
360.559748	2519.339320
360.948505	2521.355781
361.337199	2520.539114
361.725830	2520.443333
362.114398	2521.741430
362.502903	2522.235463
362.891344	2523.624301
363.279722	2523.278982
363.668037	2521.343178
364.056289	2524.791328
364.444478	2526.154960
364.832603	2525.071112
365.220665	2525.640762
365.608665	2525.590351
365.996601	2528.650331
366.384474	2524.352747
366.772284	2525.764270
367.160031	2524.561955
367.547715	2524.516585
367.935336	2526.782583
368.322893	2529.608150
368.710388	2527.589168
369.097820	2531.090249
369.485189	2529.580424
369.872495	2529.411545
370.259738	2529.857687
370.646918	2526.280989
371.034035	2530.470188
371.421090	2530.543284
371.808081	2530.785260
372.195010	2530.996988
372.581875	2529.719056
372.968678	2531.075126
373.355418	2532.779036
373.742096	2534.961856
374.128710	2534.596372
374.515262	2538.110056
374.901751	2537.336239
375.288177	2541.238092
375.674540	2536.365817
376.060841	2542.135418
376.447079	2541.825387
376.833254	2544.451828
377.219367	2544.222455
377.605417	2548.477189
377.991404	2546.082641
378.377329	2551.133877
378.763191	2554.692932
379.148991	2561.478325
379.534727	2560.351627
379.920402	2566.945456
380.306013	2570.078533
380.691563	2574.045921
381.077049	2577.357959
381.462474	2582.484813
381.847835	2590.701894
382.233134	2592.826740
382.618371	2600.930395
383.003545	2604.086157
383.388657	2609.694441
383.773706	2616.638630
384.158693	2624.076853
384.543618	2632.913995
384.928480	2638.784419
385.313280	2644.342291
385.698017	2653.940648
386.082692	2662.407266
386.467305	2668.330622
386.851856	2675.718433
387.236344	2688.749815
387.620770	2689.909281
388.005133	2700.790611
388.389435	2712.571788
388.773674	2717.655792
389.157851	2725.542677
389.541965	2737.762434
389.926018	2737.573390
390.310008	2752.449835
390.693936	2764.707401
391.077802	2771.238216
391.461606	2781.239865
391.845348	2789.643468
392.229027	2796.564973
392.612645	2813.314206
392.996200	2822.814261
393.379694	2834.696260
393.763125	2852.335258
394.146494	2860.209540
394.529801	2869.984337
394.913047	2888.306411
395.296230	2888.117368
395.679351	2895.162380
396.062410	2911.702406
396.445408	2909.963208
396.828343	2919.884199
397.211217	2927.549273
397.594028	2921.383942
397.976778	2938.130655
398.359466	2951.509877
398.742092	2946.859413
399.124656	2964.994964
399.507158	2976.206490
399.889598	2977.512149
400.271977	2998.057371
400.654294	3002.007115
401.036549	3015.030936
401.418742	3019.212573
401.800874	3044.040256
402.182944	3050.787841
402.564952	3079.731625
402.946898	3068.641087
403.328783	3078.095771
403.710606	3093.700663
404.092367	3118.021709
404.474067	3141.924340
404.855705	3133.286323
405.237282	3132.764564
405.618797	3164.254131
406.000250	3188.411341
406.381642	3214.746328
406.762972	3219.921073
407.144240	3209.145606
407.525447	3230.462125
407.906593	3232.826427
408.287677	3251.002307
408.668700	3271.252622
409.049661	3266.385388
409.430560	3283.588325
409.811399	3282.096144
410.192176	3301.370995
410.572891	3308.221923
410.953545	3347.739528
411.334138	3312.562357
411.714669	3360.322248
412.095139	3303.160605
412.475547	3352.213553
412.855894	3338.632684
413.236180	3363.354503
413.616405	3344.480423
413.996568	3361.060778
414.376670	3361.098586
414.756711	3351.296063
415.136691	3373.618292
415.516609	3385.724623
415.896466	3383.120867
416.276262	3403.887900
416.655997	3423.780293
417.035670	3422.981270
417.415283	3477.776092
417.794834	3486.764469
418.174324	3460.570634
418.553753	3451.854479
418.933121	3480.531083
419.312428	3463.295378
419.691674	3450.836166
420.070859	3467.446768
420.449983	3441.515072
420.829045	3467.787046
421.208047	3442.959363
421.586988	3464.979123
421.965867	3478.209631
422.344686	3471.141933
422.723444	3482.219869
423.102141	3395.791807
423.480777	3457.596353
423.859352	3414.217224
424.237866	3476.193170
424.616319	3441.915844
424.994712	3468.379381
425.373044	3439.256635
425.751314	3464.704380
426.129524	3403.968558
426.507673	3444.048252
426.885762	3415.311155
427.263789	3404.994433
427.641756	3386.458111
428.019662	3382.452914
428.397508	3364.922301
428.775292	3360.082794
429.153016	3341.213755
429.530679	3327.597598
429.908282	3310.195535
430.285824	3275.658590
430.663305	3288.160652
431.040726	3249.668922
431.418086	3220.682287
431.795385	3228.178483
432.172624	3221.970302
432.549802	3185.918490
432.926920	3168.322342
433.303977	3145.584218
433.680974	3137.064668
434.057910	3122.644448
434.434786	3100.365068
434.811601	3080.076944
435.188355	3087.227821
435.565050	3055.516443
435.941683	3035.157743
436.318257	3034.255377
436.694770	3015.522449
437.071222	3006.488701
437.447614	2971.792960
437.823946	2951.086420
438.200218	2940.152158
438.576429	2915.662232
438.952580	2900.367372
439.328670	2884.727192
439.704700	2872.840151
440.080670	2849.292921
440.456580	2845.320492
440.832429	2831.661486
441.208218	2804.295582
441.583947	2797.116979
441.959616	2783.412602
442.335224	2772.811056
442.710773	2762.401073
443.086261	2754.060484
443.461689	2737.631364
443.837057	2728.935373
444.212365	2723.087635
444.587612	2711.561037
444.962800	2701.188862
445.337927	2693.957327
445.712995	2678.150789
446.088002	2679.857220
446.462949	2669.013698
446.837837	2666.561177
447.212664	2655.901657
447.587431	2658.611277
447.962139	2661.595640
448.336786	2669.701816
448.711374	2661.285609
449.085901	2644.823721
449.460369	2635.898358
449.834776	2626.335290
450.209124	2630.453912
450.583412	2626.131123
450.957640	2622.577109
451.331808	2617.394803
451.705917	2610.700151
452.079965	2605.084306
452.453954	2603.367793
452.827883	2605.190170
453.201752	2598.049375
453.575562	2597.119282
453.949311	2598.994592
454.323001	2594.351689
454.696632	2592.882193
455.070202	2596.663058
455.443713	2590.306163
455.817164	2588.700556
456.190556	2587.473035
456.563888	2586.416913
456.937160	2585.005390
457.310373	2588.239290
457.683526	2584.662591
458.056619	2586.263158
458.429653	2587.510843
458.802628	2585.217118
459.175542	2584.299628
459.548398	2583.760225
459.921194	2585.965730
460.293930	2586.817685
460.666607	2586.406831
461.039224	2587.765422
461.411782	2588.539239
461.784280	2589.854980
462.156719	2586.520257
462.529099	2588.841708
462.901419	2586.769794
463.273680	2585.988415
463.645882	2583.170410
464.018024	2586.810123
464.390106	2586.459763
464.762130	2585.761563
465.134094	2590.976637
465.505999	2593.124168
465.877845	2595.427975
466.249631	2597.179776
466.621358	2598.364447
466.993026	2599.148347
467.364634	2598.092225
467.736184	2593.477049
468.107674	2588.962696
468.479105	2590.656523
468.850477	2590.149887
469.221790	2590.028900
469.593043	2588.665267
469.964238	2586.817685
470.335373	2587.659557
470.706449	2587.820874
471.077467	2589.827253
471.448425	2592.788931
471.819324	2596.431165
472.190164	2594.757502
472.560945	2592.057964
472.931667	2592.468818
473.302330	2590.001173
473.672934	2586.782397
474.043479	2589.633169
474.413965	2588.912284
474.784393	2583.588826
475.154761	2586.106882
475.525070	2587.145360
475.895321	2585.595205
476.265513	2587.026892
476.635645	2591.223653
477.005719	2590.170052
477.375734	2590.606112
477.745691	2591.440423
478.115588	2592.448653
478.485427	2596.486618
478.855207	2595.309508
479.224928	2598.896289
479.594591	2600.668255
479.964194	2598.835795
480.333739	2600.857298
480.703226	2599.894438
481.072653	2601.638677
481.442022	2600.254880
481.811333	2599.453337
482.180584	2600.053234
482.549777	2602.329315
482.918912	2599.881835
483.287988	2600.799325
483.657005	2599.508789
484.025964	2596.748758
484.394864	2599.463419
484.763706	2596.673140
485.132489	2595.546442
485.501213	2596.995774
485.869879	2597.202462
486.238487	2594.838160
486.607036	2595.939653
486.975527	2597.033583
487.343959	2596.405959
487.712333	2595.082656
488.080648	2598.515682
488.448905	2597.111721
488.817104	2595.919488
489.185244	2596.824375
489.553326	2598.984509
489.921350	2597.371340
490.289315	2601.026177
490.657222	2602.674634
491.025070	2604.113883
491.392861	2603.866867
491.760593	2601.444592
492.128267	2598.581217
492.495883	2598.931577
492.863440	2598.515682
493.230939	2594.507965
493.598380	2594.588623
493.965763	2593.794642
494.333088	2593.504775
494.700354	2592.027717
495.067563	2592.436051
495.434713	2593.053592
495.801805	2593.214909
496.168839	2593.134250
496.535815	2594.520568
496.902733	2591.637028
497.269593	2596.453850
497.636395	2593.303129
498.003139	2593.366143
498.369825	2593.202306
498.736453	2592.730958
499.103023	2593.106524
499.469535	2593.247676
499.835989	2593.749271
500.202385	2591.805906
500.568723	2588.995463
500.935003	2593.829930
501.301226	2590.774990
501.667390	2594.386977
502.033497	2593.106524
502.399546	2593.325814
502.765537	2592.332707
503.131470	2592.415886
503.497345	2592.773808
503.863163	2593.656010
504.228923	2593.040989
504.594625	2593.971082
504.960269	2593.038468
505.325856	2595.632142
505.691385	2594.477718
506.056856	2591.137953
506.422270	2592.408324
506.787625	2591.720207
507.152924	2591.397573
507.518164	2593.209868
507.883347	2592.821699
508.248472	2595.644745
508.613540	2594.185331
508.978550	2595.130547
509.343503	2593.414034
509.708398	2592.405804
510.073236	2593.610639
510.438016	2595.322111
510.802738	2592.713314
511.167403	2594.429827
511.532010	2592.652820
511.896561	2593.575351
512.261053	2595.564087
512.625488	2589.572675
512.989866	2590.651482
513.354186	2591.430340
513.718449	2587.173086
514.082655	2590.170052
514.446803	2591.846236
514.810894	2593.819847
515.174927	2595.490990
515.538904	2591.505958
515.902822	2592.052923
516.266684	2592.108376
516.630488	2592.194075
516.994235	2594.671802
517.357925	2594.996957
517.721558	2591.576534
518.085133	2594.966710
518.448651	2594.311360
518.812112	2592.599888
519.175516	2593.686257
519.538863	2593.035948
519.902152	2594.056782
520.265385	2590.054105
520.628560	2591.682398
520.991678	2594.505444
521.354739	2596.002667
521.717743	2592.816658
522.080690	2593.923191
522.443580	2592.546956
522.806413	2596.035434
523.169189	2592.829261
523.531908	2594.452512
523.894569	2593.151894
524.257174	2594.233222
524.619722	2592.491503
524.982213	2595.531319
525.344647	2593.426637
525.707025	2590.384301
526.069345	2593.721545
526.431608	2592.620053
526.793815	2592.070567
527.155964	2593.315732
527.518057	2592.287337
527.880093	2594.142481
528.242072	2594.432347
528.603995	2592.632656
528.965860	2593.527460
529.327669	2593.643407
529.689421	2591.042172
530.051117	2596.030393
530.412755	2591.634507
530.774337	2591.352202
531.135862	2595.584251
531.497331	2590.028900
531.858743	2590.744743
532.220098	2589.360947
532.581396	2588.506471
532.942638	2586.711820
533.303824	2592.322625
533.664953	2595.100300
534.026025	2594.213057
534.387040	2593.552666
534.747999	2592.052923
535.108902	2593.958479
535.469748	2591.274065
535.830537	2591.652151
536.191270	2592.804055
536.551947	2591.347161
536.912567	2592.085690
537.273131	2594.109714
537.633638	2594.749940
537.994089	2592.914960
538.354483	2591.195927
538.714821	2592.204157
539.075103	2591.165680
539.435328	2591.352202
539.795497	2591.276585
540.155609	2589.860021
540.515665	2592.090732
540.875665	2593.814806
541.235609	2589.174424
541.595496	2593.013263
541.955328	2592.393201
542.315102	2591.919332
542.674821	2590.974116
543.034483	2592.945207
543.394090	2591.944538
543.753640	2593.227512
544.113134	2589.267685
544.472571	2589.335741
544.831953	2591.062336
545.191278	2594.691967
545.550548	2592.917481
545.909761	2592.854466
546.268918	2590.901019
546.628019	2593.466967
546.987064	2590.638879
547.346053	2591.773139
547.704986	2592.615012
548.063863	2591.889085
548.422684	2591.367326
548.781449	2589.981009
549.140158	2592.176431
549.498811	2591.148036
549.857408	2592.534353
550.215949	2586.447160
550.574434	2588.861873
550.932864	2588.997984
551.291237	2589.479414
551.649555	2591.516040
552.007817	2591.503437
552.366022	2592.622573
552.724173	2591.372367
553.082267	2591.551328
553.440305	2588.861872
553.798288	2588.927407
554.156215	2591.924373
554.514086	2592.272213
554.871902	2590.399424
555.229661	2590.603591
555.587365	2589.691142
555.945014	2591.092583
556.302606	2593.046030
556.660143	2592.693149
557.017625	2591.909250
557.375050	2589.865062
557.732421	2590.515371
558.089735	2590.696852
558.446994	2591.069898
558.804197	2591.614342
559.161345	2592.239446
559.518437	2587.788107
559.875474	2590.512850
560.232455	2591.619384
560.589381	2590.313725
560.946251	2593.141812
561.303065	2590.008735
561.659825	2590.447315
562.016528	2591.581575
562.373177	2589.870103
562.729770	2590.457398
563.086307	2592.398242
563.442789	2589.998653
563.799216	2591.745412
564.155587	2591.069898
564.511904	2591.750454
564.868164	2590.860690
565.224370	2592.403283
565.580520	2590.507809
565.936615	2590.298601
566.292654	2591.959662
566.648638	2591.803386
567.004567	2590.311204
567.360441	2591.808427
567.716260	2591.962182
568.072023	2589.570155
568.427732	2587.588981
568.783385	2588.619897
569.138982	2587.425144
569.494525	2587.893971
569.850013	2588.569486
570.205445	2591.579054
570.560823	2591.329517
570.916145	2593.154415
571.271412	2592.496544
571.626625	2588.831626
571.981782	2589.078642
572.336884	2589.910432
572.691931	2589.607963
573.046923	2591.029569
573.401860	2591.684919
573.756743	2591.337079
574.111570	2590.618715
574.466342	2589.413879
574.821059	2589.749116
575.175722	2592.337748
575.530330	2590.081832
575.884882	2589.383632
576.239380	2590.527974
576.593823	2592.257090
576.948211	2589.224836
577.302544	2593.524940
577.656823	2590.144846
578.011047	2592.826740
578.365216	2591.291709
578.719330	2591.130392
579.073389	2590.895978
579.427394	2590.202819
579.781344	2590.681729
580.135239	2589.943200
580.489080	2589.297932
580.842866	2590.185175
581.196597	2591.768098
581.550273	2588.113261
581.903895	2589.451687
582.257463	2588.498909
582.610975	2588.824064
582.964434	2591.803386
583.317837	2589.643251
583.671186	2588.297263
584.024481	2589.262644
584.377721	2590.459918
584.730906	2586.341296
585.084037	2588.705597
585.437113	2588.153590
585.790135	2587.944382
586.143103	2587.004207
586.496016	2592.592326
586.848874	2584.816347
587.201679	2586.963878
587.554428	2587.679722
587.907124	2586.111923
588.259765	2585.322982
588.612352	2589.345823
588.964884	2585.179310
589.317362	2588.849270
589.669786	2588.589650
590.022155	2588.917325
590.374470	2587.982191
590.726731	2590.364136
591.078937	2586.726944
591.431090	2587.778024
591.783188	2589.429002
592.135232	2588.758529
592.487222	2587.720051
592.839157	2586.084197
593.191038	2588.866914
593.542866	2587.604105
593.894639	2586.729464
594.246358	2590.878334
594.598022	2587.344485
594.949633	2588.985381
595.301190	2586.326172
595.652692	2586.313569
596.004141	2588.408169
596.355535	2588.287181
596.706876	2588.461101
597.058162	2587.994794
597.409395	2587.145360
597.760573	2587.248703
598.111698	2585.562437
598.462768	2586.399269
598.813785	2588.579568
599.164748	2586.915987
599.515657	2584.652509
599.866511	2586.681573
600.217312	2584.884402
600.568060	2586.295925
600.918753	2588.992943
601.269392	2586.328693
601.619978	2586.958837
601.970510	2586.621080
602.320988	2588.302304
602.671412	2585.852304
603.021783	2588.027562
603.372100	2589.532346
603.722363	2585.756522
604.072572	2587.311718
604.422728	2587.089907
604.772830	2582.749473
605.122878	2582.061356
605.472872	2585.610328
605.822813	2583.634196
606.172701	2584.816347
606.522534	2584.145873
606.872314	2586.134608
607.222041	2587.394897
607.571714	2589.250041
607.921333	2588.844228
608.270899	2586.026223
608.620411	2584.682756
608.969870	2584.702921
609.319276	2585.746439
609.668627	2585.801892
610.017926	2586.976481
610.367171	2587.399938
610.716362	2587.246183
611.065500	2587.730133
611.414585	2583.455235
611.763616	2585.925400
612.112594	2586.265678
612.461518	2589.411358
612.810389	2588.156111
613.159207	2585.519587
613.507971	2585.746439
613.856682	2587.606625
614.205340	2586.023703
614.553945	2587.180648
614.902496	2588.564444
615.250994	2585.660740
615.599439	2586.734506
615.947830	2586.028744
616.296169	2586.374063
616.644454	2586.492530
616.992686	2591.140474
617.340864	2585.653178
617.688990	2589.166862
618.037063	2589.403797
618.385082	2586.684094
618.733048	2585.806933
619.080961	2589.048395
619.428821	2588.940010
619.776628	2587.097469
620.124382	2586.870617
620.472083	2586.699217
620.819731	2585.905236
621.167326	2583.223342
621.514868	2587.725092
621.862357	2589.439085
622.209793	2586.608477
622.557176	2585.547314
622.904506	2582.840214
623.251783	2582.726788
623.599007	2580.465831
623.946179	2581.935327
624.293297	2583.692169
624.640363	2584.075297
624.987376	2586.742067
625.334336	2585.932962
625.681243	2584.823908
626.028097	2585.428847
626.374899	2587.515884
626.721647	2586.391707
627.068343	2583.946748
627.414987	2584.725606
627.761577	2585.023034
628.108115	2584.299628
628.454600	2585.872468
628.801032	2584.269381
629.147412	2583.820719
629.493739	2582.542786
629.840014	2584.067735
630.186236	2584.770976
630.532405	2584.261820
630.878521	2584.745770
631.224585	2584.856676
631.570597	2584.319793
631.916556	2584.672674
632.262462	2586.056470
632.608316	2585.776686
632.954117	2585.887592
633.299866	2584.697879
633.645562	2584.899526
633.991206	2584.690318
634.336797	2583.470358
634.682336	2587.800710
635.027823	2584.501274
635.373257	2583.810636
635.718639	2582.104206
636.063968	2585.212077
636.409245	2582.580595
636.754470	2579.790316
637.099642	2582.872982
637.444762	2585.007910
637.789829	2583.145204
638.134845	2580.733012
638.479808	2583.331727
638.824719	2582.946078
639.169577	2586.714341
639.514383	2581.385841
639.859137	2582.013465
640.203839	2583.787951
640.548489	2581.413568
640.893086	2578.315779
641.237632	2579.760069
641.582125	2578.436766
641.926566	2574.882753
642.270955	2583.654361
642.615292	2581.461459
642.959576	2584.304669
643.303809	2583.364494
643.647990	2581.716037
643.992118	2583.702252
644.336195	2583.989597
644.680219	2581.373238
645.024192	2583.462797
645.368112	2583.256109
645.711981	2583.125039
646.055797	2582.772159
646.399562	2582.051274
646.743274	2581.537076
647.086935	2583.006572
647.430544	2582.270564
647.774101	2585.333065
648.117606	2581.859710
648.461059	2584.012283
648.804460	2582.159658
649.147810	2583.225862
649.491108	2584.261820
649.834354	2583.941706
650.177548	2582.447004
650.520690	2583.984556
650.863781	2582.066397
651.206820	2588.181317
651.549807	2580.407857
651.892742	2585.754001
652.235626	2582.573033
652.578458	2581.627817
652.921238	2581.285018
653.263967	2580.357446
653.606644	2580.954823
653.949269	2581.710996
654.291843	2579.860892
654.634365	2581.673187
654.976836	2582.026068
655.319255	2580.859041
655.661622	2582.560430
656.003938	2579.823084
656.346203	2584.949937
656.688416	2580.652353
657.030577	2578.431725
657.372687	2580.165882
657.714746	2583.624114
658.056753	2579.079513
658.398708	2577.052970
658.740612	2577.549523
659.082465	2574.630695
659.424266	2579.318968
659.766016	2573.143555
660.107715	2580.954823
660.449362	2580.478434
660.790958	2581.713516
661.132503	2581.627817
661.473996	2580.327199
661.815438	2581.728640
662.156829	2580.170923
662.498168	2576.828638
662.839456	2581.106057
663.180693	2581.418609
663.521879	2581.897518
663.863013	2578.275449
664.204097	2582.298290
664.545129	2576.942064
664.886110	2580.743094
665.227040	2578.719071
665.567918	2579.162692
665.908746	2579.071952
666.249522	2581.433732
666.590248	2579.051787
666.930922	2581.300142
667.271545	2580.017168
667.612118	2579.596232
667.952639	2581.317786
668.293109	2580.173444
668.633528	2581.471541
668.973896	2580.143197
669.314213	2581.680749
669.654480	2581.282498
669.994695	2580.919535
670.334859	2579.354256
670.674973	2578.930799
671.015035	2582.636048
671.355047	2578.593042
671.695008	2580.458269
672.034918	2580.894329
672.374777	2579.792837
672.714585	2579.820563
673.054342	2582.711665
673.394049	2583.311562
673.733705	2581.219483
674.073310	2581.383321
674.412864	2580.959864
674.752368	2580.496078
675.091820	2581.307703
675.431223	2580.876685
675.770574	2581.690831
676.109875	2575.908628
676.449125	2577.592373
676.788324	2574.638257
677.127473	2578.930799
677.466571	2576.483319
677.805619	2581.577405
678.144616	2581.305183
678.483562	2582.177302
678.822458	2578.620768
679.161303	2578.686303
679.500098	2576.879050
679.838842	2580.032292
680.177535	2577.851992
680.516179	2580.574216
680.854771	2578.761921
681.193314	2577.751169
681.531805	2578.275449
681.870247	2581.532035
682.208638	2578.053639
682.546978	2580.228897
682.885268	2581.753846
683.223508	2580.864082
683.561697	2579.427353
683.899836	2582.182344
684.237925	2582.452045
684.575963	2580.443146
684.913951	2582.225193
685.251889	2582.101685
685.589776	2581.600090
685.927614	2580.690162
686.265401	2579.999524
686.603137	2579.182857
686.940824	2579.301324
687.278460	2579.946592
687.616046	2581.244689
687.953582	2580.763259
688.291068	2580.188567
688.628504	2579.770152
688.965889	2582.946078
689.303224	2580.417940
689.640510	2581.484144
689.977745	2579.268557
690.314930	2579.054308
690.652065	2580.135635
690.989150	2580.017168
691.326185	2579.739905
691.663170	2581.141345
692.000105	2582.066397
692.336990	2577.897363
692.673825	2580.634709
693.010610	2582.872982
693.347345	2571.661456
693.684030	2574.718915
694.020665	2572.896538
694.357251	2572.382341
694.693786	2576.979873
695.030272	2577.874678
695.366707	2577.264698
695.703093	2578.046077
696.039429	2578.214956
696.375716	2577.345357
696.711952	2575.714543
697.048139	2576.190932
697.384276	2578.073803
697.720363	2574.776889
698.056400	2578.991293
698.392388	2577.599935
698.728326	2579.921386
699.064214	2574.025757
699.400053	2579.162692
699.735842	2577.574729
700.071581	2574.655901
700.407270	2577.713361
700.742910	2576.453072
701.078501	2577.821746
701.414042	2578.071283
701.749533	2575.419636
702.084974	2574.786971
702.420366	2575.533062
702.755709	2574.625654
703.091002	2576.329564
703.426246	2578.829976
703.761440	2576.024574
704.096584	2574.902918
704.431679	2576.339646
704.766725	2577.272260
705.101721	2575.938875
705.436668	2574.792012
705.771565	2574.360993
706.106413	2575.165057
706.441212	2575.419636
706.775961	2574.905438
707.110661	2577.121025
707.445311	2576.997517
707.779913	2575.301169
708.114465	2579.132446
708.448967	2577.133628
708.783421	2575.772517
709.117825	2573.372927
709.452180	2578.746797
709.786485	2575.386868
710.120742	2579.082034
710.454949	2578.721592
710.789107	2574.809656
711.123216	2572.478122
711.457275	2575.157496
711.791286	2573.186405
712.125247	2575.134811
712.459159	2578.749318
712.793023	2576.720253
713.126837	2579.646643
713.460602	2579.772672
713.794318	2578.552713
714.127985	2578.121694
714.461602	2577.773855
714.795171	2576.120356
715.128691	2575.134811
715.462162	2576.125397
715.795584	2572.263873
716.128957	2575.724626
716.462281	2575.764955
716.795556	2578.998855
717.128782	2574.035839
717.461960	2575.270922
717.795088	2575.439800
718.128167	2575.659091
718.461198	2573.806467
718.794180	2575.782599
719.127113	2574.144224
719.459997	2574.396282
719.792833	2573.657752
720.125619	2577.078175
720.458357	2571.532906
720.791046	2573.413257
721.123686	2573.153637
721.456278	2577.952816
721.788821	2574.494584
722.121315	2575.825449
722.453761	2575.573391
722.786158	2575.439800
723.118506	2571.739593
723.450805	2574.139183
723.783056	2574.156827
724.115259	2573.393092
724.447412	2572.868812
724.779518	2575.137331
725.111574	2573.383010
725.443582	2571.759758
725.775542	2573.435942
726.107453	2574.703792
726.439315	2575.477609
726.771129	2577.920048
727.102895	2575.462486
727.434612	2576.140521
727.766281	2575.984245
728.097901	2571.333781
728.429473	2573.577094
728.760996	2572.493246
729.092471	2572.563822
729.423897	2577.370562
729.755276	2575.182702
730.086606	2574.832341
730.417887	2574.353432
730.749120	2577.025243
731.080305	2574.444172
731.411442	2576.241344
731.742530	2575.459965
732.073570	2575.669173
732.404562	2576.054821
732.735506	2576.054821
733.066401	2578.643454
733.397249	2576.750500
733.728048	2576.027095
734.058798	2575.563309
734.389501	2574.388720
734.720156	2575.679255
735.050762	2572.742783
735.381320	2572.314285
735.711831	2575.583473
736.042293	2573.178843
736.372707	2575.127249
736.703073	2574.807136
737.033391	2572.483164
737.363661	2575.459965
737.693883	2572.770509
738.024056	2576.334605
738.354182	2571.805128
738.684260	2573.677917
739.014290	2576.364852
739.344272	2577.824266
739.674207	2572.450396
740.004093	2573.932495
740.333931	2576.528690
740.663722	2573.922413
740.993464	2573.304872
741.323159	2573.786302
741.652806	2574.131621
741.982405	2578.630851
742.311956	2574.973494
742.641460	2575.749831
742.970915	2578.842579
743.300323	2574.928123
743.629683	2576.947105
743.958996	2571.301013
744.288260	2572.178174
744.617477	2572.616754
744.946647	2569.738255
745.275768	2571.855540
745.604842	2572.425190
745.933869	2571.180025
746.262847	2568.387226
746.591778	2575.001220
746.920662	2570.416291
747.249498	2572.140365
747.578286	2574.663463
747.907027	2576.049780
748.235720	2572.488205
748.564365	2572.621795
748.892963	2575.845613
749.221514	2572.543658
749.550017	2573.037691
749.878473	2571.603482
750.206881	2574.512228
750.535242	2572.722618
750.863555	2575.452403
751.191821	2574.723957
751.520039	2574.242526
751.848210	2575.757393
752.176334	2575.459965
752.504411	2574.855027
752.832440	2574.930644
753.160421	2574.381158
753.488356	2573.987948
753.816243	2572.999882
754.144082	2572.987279
754.471875	2574.832341
754.799620	2571.699264
755.127318	2570.607854
755.454969	2571.472412
755.782572	2572.808318
756.110129	2571.863102
756.437638	2573.640108
756.765100	2573.173802
757.092515	2574.837383
757.419882	2573.304872
757.747203	2573.889646
758.074477	2571.696744
758.401703	2572.929306
758.728882	2574.469378
759.056014	2573.753534
759.383099	2573.458627
759.710138	2576.415264
760.037129	2575.495253
760.364073	2572.793195
760.690970	2573.015005
761.017820	2572.026939
761.344623	2571.636250
761.671379	2574.635736
761.998088	2569.466033
762.324751	2570.771692
762.651366	2572.392423
762.977935	2575.308730
763.304456	2576.916858
763.630931	2581.070769
763.957359	2576.410222
764.283740	2578.988773
764.610074	2577.322671
764.936362	2577.108422
765.262602	2574.164388
765.588796	2574.005592
765.914943	2574.728998
766.241044	2574.295458
766.567097	2574.895356
766.893104	2573.972825
767.219064	2574.560119
767.544978	2573.776220
767.870845	2570.648184
768.196665	2573.942578
768.522438	2572.331929
768.848165	2572.644481
769.173846	2573.292269
769.499479	2574.297979
769.825066	2571.275807
770.150607	2570.065930
770.476101	2568.820765
770.801548	2571.943760
771.126949	2572.160530
771.452303	2571.684141
771.777611	2568.687175
772.102872	2571.479974
772.428087	2572.314285
772.753256	2572.147927
773.078378	2570.323029
773.403453	2569.753379
773.728482	2571.313616
774.053465	2571.366548
774.378401	2571.318657
774.703291	2572.384861
775.028135	2571.948801
775.352932	2570.839748
775.677683	2569.574418
776.002388	2571.910993
776.327046	2569.244222
776.651658	2570.570046
776.976224	2570.869994
777.300743	2567.600806
777.625216	2571.666497
777.949643	2569.781105
778.274024	2574.343349
778.598359	2567.822617
778.922647	2567.505024
779.246889	2565.347410
779.571086	2565.397822
779.895236	2567.991496
780.219339	2569.554253
780.543397	2571.220355
780.867409	2569.483677
781.191374	2571.885787
781.515294	2570.012998
781.839167	2568.661969
782.162995	2569.892011
782.486776	2570.060889
782.810511	2570.975859
783.134201	2573.380489
783.457844	2569.337484
783.781441	2568.409911
784.104993	2567.936043
784.428498	2570.287741
784.751958	2570.280179
785.075372	2571.316137
785.398739	2569.644994
785.722061	2567.008471
786.045337	2568.309088
786.368568	2567.961249
786.691752	2568.593913
787.014891	2572.432752
787.337983	2571.469892
787.661030	2568.220868
787.984031	2569.718091
788.306987	2571.994172
788.629897	2570.280179
788.952760	2570.025601
789.275579	2571.318657
789.598351	2572.135324
789.921078	2570.030642
790.243759	2571.008626
790.566395	2571.353945
790.888984	2570.892680
791.211529	2571.346383
791.534027	2570.633060
791.856480	2570.081054
792.178888	2569.524006
792.501249	2570.476784
792.823566	2571.663976
793.145836	2569.014850
793.468062	2570.312947
793.790241	2569.811352
794.112375	2572.929306
794.434464	2567.873028
794.756507	2569.486198
795.078505	2568.399829
795.400457	2567.651218
795.722364	2564.245918
796.044226	2565.967472
796.366042	2565.579303
796.687812	2567.031156
797.009538	2568.215827
797.331218	2569.907134
797.652852	2570.877556
797.974442	2571.522824
798.295986	2569.924778
798.617484	2569.229099
798.938938	2569.299675
799.260346	2571.137176
799.581709	2570.791857
799.903026	2572.233627
800.224299	2567.767164
800.545526	2570.940571
800.866708	2568.954356
801.187845	2569.488718
801.508936	2569.632391
801.829983	2570.612896
802.150984	2568.540981
802.471940	2569.889490
802.792851	2567.744479
803.113717	2570.360838
803.434538	2568.553584
803.755314	2568.309088
804.076045	2569.072823
804.396731	2568.384706
804.717372	2569.516445
805.037967	2569.506362
805.358518	2570.733883
805.679024	2569.738255
805.999485	2570.176836
806.319901	2569.569377
806.640272	2568.074675
806.960598	2570.252453
807.280879	2567.447051
807.601115	2570.169274
807.921306	2568.107442
808.241453	2569.599624
808.561554	2569.140879
808.881611	2570.943091
809.201623	2569.118193
809.521590	2567.525189
809.841513	2568.755230
810.161390	2568.669531
810.481223	2567.499983
810.801011	2568.004098
811.120755	2568.707339
811.440453	2570.416291
811.760107	2569.876887
812.079716	2565.140723
812.399281	2563.542677
812.718801	2565.145764
813.038276	2564.676937
813.357707	2567.656259
813.677093	2567.353790
813.996434	2571.759758
814.315731	2570.348235
814.634983	2568.268759
814.954191	2568.656928
815.273354	2566.169118
815.592473	2569.793708
815.911547	2570.713719
816.230577	2568.041907
816.549562	2569.362689
816.868502	2569.531568
817.187399	2567.197514
817.506250	2567.086608
817.825058	2569.672720
818.143821	2568.495611
818.462539	2569.917216
818.781213	2571.469892
819.099843	2570.592731
819.418429	2571.535427
819.736970	2571.051476
820.055466	2570.625498
820.373919	2572.662125
820.692327	2572.999882
821.010691	2575.177660
821.329011	2581.645461
821.647286	2590.107037
821.965517	2594.906216
822.283704	2602.672113
822.601847	2607.710747
822.919945	2608.746704
823.237999	2603.037597
823.556010	2600.648090
823.873976	2594.074426
824.191897	2592.466298
824.509775	2589.194589
824.827609	2586.731985
825.145398	2583.210739
825.463144	2579.692014
825.780845	2582.041191
826.098502	2581.469020
826.416116	2582.255440
826.733685	2582.058835
827.051210	2581.113619
827.368692	2586.996646
827.686129	2583.896336
828.003522	2581.595049
828.320872	2575.359142
828.638177	2577.489029
828.955439	2571.313616
829.272656	2569.390416
829.589830	2567.560477
829.906960	2574.192115
830.224046	2570.587690
830.541088	2570.494428
830.858086	2568.525858
831.175041	2569.844120
831.491952	2570.494428
831.808819	2570.728842
832.125642	2568.528378
832.442421	2572.621795
832.759157	2569.791187
833.075849	2570.915365
833.392497	2573.345201
833.709101	2576.546334
834.025662	2575.744790
834.342179	2578.582960
834.658653	2575.517938
834.975083	2571.858061
835.291469	2576.803433
835.607811	2573.327557
835.924110	2569.796229
836.240366	2570.943091
836.556578	2569.186249
836.872746	2568.876218
837.188871	2567.114335
837.504952	2568.972000
837.820990	2566.204407
838.136984	2566.458985
838.452935	2568.205745
838.768842	2569.869325
839.084706	2566.370765
839.400526	2569.672720
839.716303	2569.400498
840.032037	2570.002916
840.347727	2572.861250
840.663373	2570.786815
840.978977	2568.961918
841.294537	2568.311609
841.610054	2569.012329
841.925527	2568.644325
842.240957	2567.121897
842.556344	2567.784808
842.871687	2567.772205
843.186987	2567.820096
843.502244	2563.646021
843.817458	2567.573080
844.132629	2567.200034
844.447756	2566.746331
844.762840	2560.578479
845.077881	2566.159036
845.392879	2563.194838
845.707833	2566.179201
846.022745	2563.318346
846.337613	2567.368913
846.652438	2565.952349
846.967221	2566.786660
847.281960	2566.227092
847.596656	2568.926630
847.911309	2567.462174
848.225919	2566.544684
848.540485	2568.099880
848.855009	2563.900599
849.169490	2567.948646
849.483928	2568.621640
849.798323	2564.752554
850.112675	2569.498801
850.426984	2569.153482
850.741251	2565.465878
851.055474	2566.103583
851.369654	2566.280024
851.683792	2565.344890
851.997887	2566.902606
852.311938	2565.642318
852.625947	2567.469736
852.939914	2564.503017
853.253837	2565.649880
853.567718	2562.907492
853.881555	2564.782801
854.195350	2563.267934
854.509103	2567.348748
854.822812	2567.212637
855.136479	2565.720456
855.450103	2566.365723
855.763685	2565.375137
856.077224	2566.549726
856.390720	2564.482852
856.704173	2565.201217
857.017584	2568.818245
857.330953	2567.522668
857.644278	2563.646021
857.957561	2566.927812
858.270802	2568.477967
858.584000	2566.733728
858.897155	2568.384706
859.210268	2564.755075
859.523339	2567.880590
859.836367	2564.868501
860.149352	2563.706515
860.462295	2565.619633
860.775195	2563.041082
861.088054	2562.279868
861.400869	2562.458829
861.713642	2562.811710
862.026373	2562.859601
862.339062	2567.923440
862.651708	2564.986968
862.964312	2563.797256
863.276873	2565.178532
863.589392	2567.154664
863.901869	2565.967472
864.214303	2564.031669
864.526696	2566.035528
864.839045	2565.191135
865.151353	2567.820096
865.463619	2564.760116
865.775842	2566.290106
866.088023	2564.770198
866.400162	2568.546023
866.712258	2564.739951
867.024313	2565.906978
867.336325	2565.581824
867.648296	2562.864642
867.960224	2568.029304
868.272110	2566.053172
868.583954	2565.793552
868.895755	2564.218192
869.207515	2566.789180
869.519233	2564.266083
869.830909	2566.779098
870.142542	2566.912689
870.454134	2566.481670
870.765684	2567.346228
871.077191	2563.711556
871.388657	2566.436300
871.700081	2566.285065
872.011463	2567.089129
872.322803	2563.094015
872.634101	2564.177863
872.945357	2566.718604
873.256571	2567.620971
873.567744	2566.968141
873.878874	2566.494273
874.189963	2564.540826
874.501010	2566.774057
874.812015	2567.086608
875.122979	2567.043759
875.433900	2566.814386
875.744780	2567.237843
876.055618	2566.098542
876.366415	2566.925292
876.677169	2566.350600
876.987882	2562.194169
877.298554	2564.719787
877.609183	2564.155177
877.919771	2566.421176
878.230317	2562.277348
878.540822	2568.777916
878.851285	2568.573749
879.161707	2567.323543
879.472087	2565.569221
879.782425	2570.572566
880.092722	2569.798749
880.402977	2571.832855
880.713191	2578.431725
881.023363	2579.462641
881.333494	2585.685946
881.643583	2587.586461
881.953631	2587.042016
882.263637	2585.224680
882.573602	2586.701738
882.883526	2583.150245
883.193408	2583.460276
883.503248	2581.973136
883.813048	2580.105388
884.122806	2579.565985
884.432522	2578.794688
884.742197	2575.729667
885.051831	2576.722774
885.361424	2570.675910
885.670975	2570.610375
885.980485	2571.568194
886.289954	2567.880590
886.599382	2568.485529
886.908768	2570.438976
887.218113	2566.786660
887.527417	2569.052658
887.836680	2566.244736
888.145901	2567.031156
888.455082	2565.670044
888.764221	2566.927812
889.073319	2566.887483
889.382376	2565.395301
889.691392	2564.031669
890.000366	2566.557287
890.309300	2565.443192
890.618193	2567.434448
890.927044	2566.680796
891.235855	2566.585014
891.544625	2569.723132
891.853353	2562.897410
892.162041	2567.008471
892.470687	2569.851681
892.779293	2569.166084
893.087858	2564.603840
893.396381	2563.948490
893.704864	2563.557801
894.013306	2565.654921
894.321707	2571.626167
894.630068	2570.010478
894.938387	2571.827814
895.246665	2571.159861
895.554903	2572.291600
895.863100	2569.755899
896.171256	2569.428224
896.479371	2568.243553
896.787446	2569.498801
897.095480	2568.616599
897.403473	2570.872515
897.711425	2565.904458
898.019336	2568.379664
898.327207	2568.145251
898.635038	2568.934191
898.942827	2567.958728
899.250576	2567.704150
899.558284	2568.087278
899.865952	2564.208110
900.173579	2566.194324
900.481165	2566.958059
900.788711	2565.798594
901.096216	2569.390416
901.403681	2564.818089
901.711105	2565.909499
902.018489	2566.090981
902.325832	2568.888821
902.633135	2566.980744
902.940397	2565.919581
903.247619	2564.172822
903.554800	2566.602658
903.861941	2567.444530
904.169041	2573.108267
904.476101	2572.526013
904.783121	2574.678586
905.090100	2572.379820
905.397039	2571.225396
905.703938	2573.108267
906.010796	2570.310426
906.317614	2571.371589
906.624391	2568.160374
906.931129	2568.540981
907.237826	2568.785477
907.544483	2566.761454
907.851099	2566.733728
908.157675	2567.956207
908.464211	2567.646177
908.770707	2563.429251
909.077163	2561.241391
909.383578	2563.772050
909.689954	2564.187945
909.996289	2561.266596
910.302584	2565.932184
910.608839	2565.717935
910.915054	2566.146433
911.221229	2564.591237
911.527363	2567.424366
911.833458	2562.869683
912.139513	2566.254818
912.445527	2563.172153
912.751502	2565.264231
913.057436	2562.050496
913.363331	2563.822461
913.669186	2564.616443
913.975000	2566.632905
914.280775	2565.944787
914.586510	2565.027297
914.892205	2566.801783
915.197859	2568.198183
915.503475	2570.083574
915.809050	2573.025088
916.114585	2571.207752
916.420081	2571.747155
916.725536	2572.001733
917.030952	2573.567012
917.336328	2571.212793
917.641665	2575.273442
917.946961	2572.581466
918.252218	2566.141392
918.557435	2570.449058
918.862612	2571.225396
919.167750	2570.184398
919.472848	2568.225909
919.777906	2565.992678
920.082925	2568.432597
920.387904	2564.371947
920.692843	2565.584345
920.997743	2567.056362
921.302603	2566.307750
921.607423	2565.591906
921.912204	2566.073337
922.216946	2565.417987
922.521647	2562.874724
922.826310	2565.579303
923.130932	2566.002760
923.435516	2563.144426
923.740059	2566.315312
924.044564	2562.116031
924.349028	2566.214489
924.653454	2561.932029
924.957840	2559.207285
925.262186	2562.247101
925.566493	2561.874055
925.870761	2560.462532
926.174989	2562.937739
926.479178	2563.315825
926.783328	2562.662996
927.087438	2564.563511
927.391509	2560.034034
927.695541	2563.451937
927.999533	2562.549570
928.303486	2562.965465
928.607400	2562.221895
928.911275	2562.496638
929.215110	2563.492266
929.518906	2562.352965
929.822663	2562.347924
930.126381	2564.855898
930.430060	2564.208110
930.733699	2563.542677
931.037299	2562.826833
931.340861	2565.017215
931.644383	2563.784653
931.947866	2562.065619
932.251309	2563.605692
932.554714	2562.912533
932.858080	2563.814900
933.161407	2561.380022
933.464694	2562.471432
933.767943	2563.847667
934.071153	2564.737431
934.374323	2560.359189
934.677455	2562.652914
934.980548	2562.713408
935.283602	2563.673747
935.586617	2563.333469
935.889593	2562.688202
936.192530	2564.656772
936.495428	2563.353634
936.798287	2561.866494
937.101108	2564.223233
937.403890	2562.100907
937.706632	2563.938408
938.009336	2563.308264
938.312002	2564.046793
938.614628	2565.634756
938.917216	2565.135682
939.219765	2564.374468
939.522275	2563.693912
939.824747	2564.850857
940.127179	2559.814744
940.429573	2559.325752
940.731929	2560.417162
941.034246	2559.978582
941.336524	2560.815413
941.638763	2563.716597
941.940964	2563.908161
942.243126	2561.616957
942.545250	2562.650393
942.847335	2562.973027
943.149381	2563.315825
943.451389	2563.643500
943.753359	2566.552246
944.055290	2560.414641
944.357182	2561.863973
944.659036	2561.921946
944.960851	2561.803479
945.262628	2564.578634
945.564367	2565.193655
945.866067	2564.308933
946.167729	2561.687533
946.469352	2560.268448
946.770937	2560.273489
947.072484	2562.325239
947.373992	2562.597461
947.675462	2563.837585
947.976893	2562.985630
948.278286	2563.308264
948.579641	2564.195507
948.880958	2562.070660
949.182236	2560.429765
949.483476	2564.432441
949.784678	2561.924467
950.085841	2562.877245
950.386967	2565.695250
950.688054	2563.923284
950.989103	2565.438151
951.290114	2561.211144
951.591087	2562.284909
951.892021	2562.894889
952.192917	2565.332287
952.493776	2563.512430
952.794596	2561.453119
953.095378	2563.870352
953.396122	2563.514951
953.696828	2561.816082
953.997496	2563.653583
954.298126	2563.855229
954.598718	2563.351113
954.899272	2562.373130
955.199788	2559.691236
955.500266	2564.180383
955.800706	2560.785166
956.101108	2558.183931
956.401472	2561.390105
956.701798	2558.846842
957.002087	2558.176369
957.302337	2562.824313
957.602550	2562.826833
957.902724	2559.507234
958.202861	2560.528067
958.502960	2559.340876
958.803022	2562.622667
959.103045	2561.422872
959.403031	2561.511092
959.702979	2563.038562
960.002889	2561.291802
960.302762	2562.499158
960.602596	2562.690722
960.902393	2559.572769
961.202153	2561.816082
961.501875	2560.996895
961.801559	2559.681153
962.101205	2560.651576
962.400814	2561.037224
962.700385	2561.354817
962.999918	2563.822461
963.299414	2561.276679
963.598873	2564.548387
963.898293	2564.195507
964.197677	2563.020918
964.497022	2561.753068
964.796331	2561.972358
965.095601	2562.809189
965.394835	2562.625187
965.694030	2560.086966
965.993189	2564.044272
966.292309	2561.105279
966.591393	2559.620660
966.890439	2563.779612
967.189447	2559.771894
967.488419	2562.892368
967.787353	2561.382543
968.086249	2562.993192
968.385108	2562.859601
968.683930	2560.422203
968.982714	2562.000084
969.281462	2560.502862
969.580172	2560.351627
969.878844	2562.950342
970.177480	2560.429765
970.476078	2562.126113
970.774639	2563.467060
971.073162	2561.453119
971.371649	2558.199054
971.670098	2556.601008
971.968510	2558.239383
972.266885	2559.237532
972.565223	2564.127451
972.863524	2559.492110
973.161788	2560.918757
973.460014	2560.671740
973.758204	2561.659806
974.056356	2562.413459
974.354471	2560.873386
974.652550	2561.218705
974.950591	2558.055381
975.248595	2560.258366
975.546563	2562.473953
975.844493	2560.737275
976.142386	2561.536298
976.440243	2563.167111
976.738062	2561.342214
977.035845	2558.546894
977.333590	2561.311967
977.631299	2561.334652
977.928971	2560.981771
978.226606	2564.223233
978.524204	2559.744168
978.821765	2558.864487
979.119290	2561.374981
979.416777	2560.540670
979.714228	2560.500341
980.011642	2560.923798
980.309020	2564.379509
980.606360	2560.969168
980.903664	2556.933725
981.200931	2560.016390
981.498162	2561.437996
981.795356	2561.450598
982.092513	2562.922615
982.389633	2560.770043
982.686717	2563.761967
982.983764	2560.535629
983.280775	2564.999571
983.577749	2559.953376
983.874686	2562.806669
984.171587	2564.351783
984.468451	2563.285578
984.765279	2559.366081
985.062070	2563.867832
985.358824	2562.095866
985.655543	2560.880948
985.952224	2561.415310
986.248869	2557.652089
986.545478	2558.710731
986.842050	2558.428427
987.138586	2559.348437
987.435086	2556.754764
987.731549	2556.830381
988.027975	2558.617470
988.324366	2561.223747
988.620719	2559.008159
988.917037	2560.691905
989.213318	2564.034190
989.509563	2561.175856
989.805772	2561.808520
990.101944	2560.701987
990.398080	2559.270299
990.694180	2560.333983
990.990244	2560.961607
991.286271	2561.609395
991.582262	2562.504200
991.878217	2559.691236
992.174136	2560.747357
992.470019	2562.098387
992.765865	2558.927501
993.061676	2559.557645
993.357450	2561.125444
993.653188	2559.154353
993.948890	2562.514282
994.244556	2561.062430
994.540186	2561.324570
994.835780	2561.251473
995.131337	2563.754406
995.426859	2560.530588
995.722345	2558.544373
996.017795	2561.874055
996.313208	2561.811041
996.608586	2559.978582
996.903928	2562.221895
997.199234	2560.817934
997.494504	2562.748696
997.789738	2562.121072
998.084936	2558.650238
998.380099	2559.247614
998.675225	2559.696277
998.970316	2562.925136
999.265371	2561.236349
999.560390	2561.259035
999.855373	2563.487225
1000.150320	2559.328273
1000.445232	2563.157029
1000.740108	2561.468242
1001.034948	2560.354147
1001.329752	2558.786349
1001.624521	2558.919939
1001.919254	2556.865669
1002.213951	2557.876420
1002.508613	2558.466235
1002.803239	2560.613767
1003.097829	2554.622356
1003.392384	2560.704508
1003.686903	2560.512944
1003.981386	2561.125444
1004.275834	2559.429096
1004.570246	2561.122923
1004.864623	2558.614949
1005.158964	2562.085784
1005.453270	2559.756771
1005.747540	2558.100752
1006.041775	2561.974878
1006.335974	2558.725855
1006.630138	2561.059909
1006.924266	2562.602502
1007.218359	2561.710218
1007.512416	2561.750547
1007.806438	2561.082594
1008.100425	2559.532439
1008.394376	2559.257697
1008.688292	2559.683674
1008.982172	2559.988664
1009.276017	2559.804662
1009.569827	2560.989333
1009.863602	2559.605536
1010.157341	2560.810372
1010.451045	2559.529919
1010.744714	2560.220557
1011.038347	2558.975392
1011.331945	2558.950186
1011.625508	2560.366750
1011.919036	2559.025803
1012.212528	2563.693912
1012.505986	2559.968499
1012.799408	2558.952707
1013.092795	2558.788869
1013.386147	2559.411452
1013.679464	2559.555125
1013.972745	2560.659137
1014.265992	2560.429765
1014.559204	2558.909857
1014.852380	2560.606205
1015.145521	2559.194682
1015.438628	2559.114024
1015.731699	2558.186451
1016.024736	2561.274158
1016.317737	2560.800290
1016.610703	2559.290464
1016.903635	2555.146636
1017.196531	2557.508416
1017.489393	2559.388767
1017.782219	2557.251317
1018.075011	2558.879610
1018.367768	2559.403890
1018.660490	2559.101421
1018.953177	2559.101421
1019.245829	2559.101421
