Dividing Wavelength (nm)	Counts (n)	Blue Motor Position (mm): 0.000000	Red Motor Position (mm): 2.100000	
326.493990	2112.243462
326.888308	2112.243462
327.282561	2112.243462
327.676750	2122.325769
328.070874	2049.229038
328.464933	2044.187885
328.858929	2051.749615
329.252859	2071.914231
329.646726	2089.558269
330.040528	2122.325769
330.434265	2109.722885
330.827938	2124.846346
331.221547	2165.175577
331.615091	2177.778462
332.008571	2215.587115
332.401986	2187.860769
332.795338	2170.216731
333.188625	2240.792885
333.581847	2263.478077
333.975006	2255.916346
334.368100	2344.136538
334.761129	2334.054231
335.154095	2374.383462
335.546996	2366.821731
335.939833	2361.780577
336.332606	2386.986346
336.725315	2326.492500
337.117960	2482.768269
337.510540	2346.657115
337.903056	2369.342308
338.295508	2533.179808
338.687896	2386.986346
339.080220	2510.494615
339.472480	2422.274423
339.864676	2465.124231
340.256807	2404.630385
340.648875	2507.974038
341.040879	2439.918462
341.432818	2455.041923
341.824694	2523.097500
342.216506	2513.015192
342.608253	2402.109808
342.999937	2500.412308
343.391557	2487.809423
343.783113	2535.700385
344.174605	2485.288846
344.566033	2480.247692
344.957397	2485.288846
345.348697	2447.480192
345.739934	2437.397885
346.131106	2477.727115
346.522215	2470.165385
346.913260	2467.644808
347.304241	2447.480192
347.695159	2497.891731
348.086012	2467.644808
348.476802	2465.124231
348.867528	2432.356731
349.258191	2442.439038
349.648789	2462.603654
350.039324	2467.644808
350.429796	2381.945192
350.820203	2515.535769
351.210548	2419.753846
351.600828	2414.712692
351.991045	2392.027500
352.381198	2500.412308
352.771288	2392.027500
353.161314	2439.918462
353.551276	2477.727115
353.941175	2505.453462
354.331010	2439.918462
354.720782	2505.453462
355.110490	2490.330000
355.500135	2427.315577
355.889717	2407.150962
356.279235	2419.753846
356.668689	2407.150962
357.058080	2495.371154
357.447408	2381.945192
357.836672	2472.685962
358.225873	2480.247692
358.615010	2442.439038
359.004084	2457.562500
359.393095	2500.412308
359.782043	2389.506923
360.170927	2409.671538
360.559748	2409.671538
360.948505	2518.056346
361.337199	2429.836154
361.725830	2495.371154
362.114398	2460.083077
362.502903	2490.330000
362.891344	2457.562500
363.279722	2374.383462
363.668037	2462.603654
364.056289	2419.753846
364.444478	2555.865000
364.832603	2386.986346
365.220665	2457.562500
365.608665	2364.301154
365.996601	2505.453462
366.384474	2492.850577
366.772284	2502.932885
367.160031	2417.233269
367.547715	2482.768269
367.935336	2417.233269
368.322893	2465.124231
368.710388	2470.165385
369.097820	2417.233269
369.485189	2500.412308
369.872495	2427.315577
370.259738	2442.439038
370.646918	2409.671538
371.034035	2437.397885
371.421090	2485.288846
371.808081	2472.685962
372.195010	2505.453462
372.581875	2399.589231
372.968678	2477.727115
373.355418	2442.439038
373.742096	2500.412308
374.128710	2457.562500
374.515262	2455.041923
374.901751	2462.603654
375.288177	2399.589231
375.674540	2434.877308
376.060841	2477.727115
376.447079	2371.862885
376.833254	2434.877308
377.219367	2495.371154
377.605417	2447.480192
377.991404	2492.850577
378.377329	2450.000769
378.763191	2492.850577
379.148991	2518.056346
379.534727	2457.562500
379.920402	2389.506923
380.306013	2475.206538
380.691563	2444.959615
381.077049	2482.768269
381.462474	2381.945192
381.847835	2419.753846
382.233134	2477.727115
382.618371	2477.727115
383.003545	2439.918462
383.388657	2404.630385
383.773706	2500.412308
384.158693	2457.562500
384.543618	2502.932885
384.928480	2475.206538
385.313280	2497.891731
385.698017	2475.206538
386.082692	2513.015192
386.467305	2540.741538
386.851856	2442.439038
387.236344	2502.932885
387.620770	2452.521346
388.005133	2439.918462
388.389435	2444.959615
388.773674	2424.795000
389.157851	2485.288846
389.541965	2455.041923
389.926018	2480.247692
390.310008	2371.862885
390.693936	2462.603654
391.077802	2513.015192
391.461606	2518.056346
391.845348	2455.041923
392.229027	2389.506923
392.612645	2490.330000
392.996200	2399.589231
393.379694	2492.850577
393.763125	2417.233269
394.146494	2409.671538
394.529801	2439.918462
394.913047	2510.494615
395.296230	2419.753846
395.679351	2507.974038
396.062410	2455.041923
396.445408	2465.124231
396.828343	2581.070769
397.211217	2419.753846
397.594028	2442.439038
397.976778	2427.315577
398.359466	2422.274423
398.742092	2510.494615
399.124656	2429.836154
399.507158	2414.712692
399.889598	2492.850577
400.271977	2450.000769
400.654294	2475.206538
401.036549	2460.083077
401.418742	2513.015192
401.800874	2495.371154
402.182944	2470.165385
402.564952	2447.480192
402.946898	2404.630385
403.328783	2470.165385
403.710606	2467.644808
404.092367	2409.671538
404.474067	2523.097500
404.855705	2492.850577
405.237282	2419.753846
405.618797	2371.862885
406.000250	2429.836154
406.381642	2419.753846
406.762972	2465.124231
407.144240	2404.630385
407.525447	2429.836154
407.906593	2530.659231
408.287677	2485.288846
408.668700	2397.068654
409.049661	2487.809423
409.430560	2525.618077
409.811399	2434.877308
410.192176	2467.644808
410.572891	2467.644808
410.953545	2492.850577
411.334138	2417.233269
411.714669	2437.397885
412.095139	2457.562500
412.475547	2472.685962
412.855894	2535.700385
413.236180	2422.274423
413.616405	2437.397885
413.996568	2548.303269
414.376670	2525.618077
414.756711	2397.068654
415.136691	2560.906154
415.516609	2462.603654
415.896466	2507.974038
416.276262	2452.521346
416.655997	2386.986346
417.035670	2450.000769
417.415283	2490.330000
417.794834	2427.315577
418.174324	2555.865000
418.553753	2477.727115
418.933121	2465.124231
419.312428	2500.412308
419.691674	2518.056346
420.070859	2518.056346
420.449983	2462.603654
420.829045	2492.850577
421.208047	2505.453462
421.586988	2553.344423
421.965867	2472.685962
422.344686	2455.041923
422.723444	2450.000769
423.102141	2497.891731
423.480777	2530.659231
423.859352	2520.576923
424.237866	2477.727115
424.616319	2475.206538
424.994712	2513.015192
425.373044	2470.165385
425.751314	2475.206538
426.129524	2437.397885
426.507673	2502.932885
426.885762	2460.083077
427.263789	2515.535769
427.641756	2432.356731
428.019662	2518.056346
428.397508	2505.453462
428.775292	2495.371154
429.153016	2533.179808
429.530679	2545.782692
429.908282	2608.797115
430.285824	2437.397885
430.663305	2528.138654
431.040726	2515.535769
431.418086	2472.685962
431.795385	2402.109808
432.172624	2548.303269
432.549802	2467.644808
432.926920	2533.179808
433.303977	2475.206538
433.680974	2560.906154
434.057910	2467.644808
434.434786	2502.932885
434.811601	2485.288846
435.188355	2502.932885
435.565050	2515.535769
435.941683	2356.739423
436.318257	2480.247692
436.694770	2538.220962
437.071222	2490.330000
437.447614	2452.521346
437.823946	2417.233269
438.200218	2495.371154
438.576429	2472.685962
438.952580	2455.041923
439.328670	2495.371154
439.704700	2482.768269
440.080670	2523.097500
440.456580	2485.288846
440.832429	2573.509038
441.208218	2407.150962
441.583947	2515.535769
441.959616	2500.412308
442.335224	2492.850577
442.710773	2500.412308
443.086261	2482.768269
443.461689	2472.685962
443.837057	2450.000769
444.212365	2485.288846
444.587612	2465.124231
444.962800	2495.371154
445.337927	2470.165385
445.712995	2515.535769
446.088002	2497.891731
446.462949	2412.192115
446.837837	2437.397885
447.212664	2515.535769
447.587431	2538.220962
447.962139	2467.644808
448.336786	2540.741538
448.711374	2548.303269
449.085901	2487.809423
449.460369	2412.192115
449.834776	2447.480192
450.209124	2485.288846
450.583412	2392.027500
450.957640	2543.262115
451.331808	2626.441154
451.705917	2497.891731
452.079965	2467.644808
452.453954	2500.412308
452.827883	2510.494615
453.201752	2472.685962
453.575562	2543.262115
453.949311	2487.809423
454.323001	2485.288846
454.696632	2495.371154
455.070202	2505.453462
455.443713	2465.124231
455.817164	2533.179808
456.190556	2457.562500
456.563888	2432.356731
456.937160	2528.138654
457.310373	2457.562500
457.683526	2505.453462
458.056619	2528.138654
458.429653	2404.630385
458.802628	2427.315577
459.175542	2513.015192
459.548398	2447.480192
459.921194	2513.015192
460.293930	2472.685962
460.666607	2543.262115
461.039224	2490.330000
461.411782	2492.850577
461.784280	2505.453462
462.156719	2490.330000
462.529099	2460.083077
462.901419	2510.494615
463.273680	2485.288846
463.645882	2487.809423
464.018024	2450.000769
464.390106	2404.630385
464.762130	2540.741538
465.134094	2442.439038
465.505999	2487.809423
465.877845	2470.165385
466.249631	2538.220962
466.621358	2495.371154
466.993026	2505.453462
467.364634	2462.603654
467.736184	2404.630385
468.107674	2502.932885
468.479105	2497.891731
468.850477	2523.097500
469.221790	2485.288846
469.593043	2467.644808
469.964238	2470.165385
470.335373	2477.727115
470.706449	2576.029615
471.077467	2543.262115
471.448425	2563.426731
471.819324	2480.247692
472.190164	2568.467885
472.560945	2568.467885
472.931667	2510.494615
473.302330	2444.959615
473.672934	2555.865000
474.043479	2447.480192
474.413965	2402.109808
474.784393	2455.041923
475.154761	2492.850577
475.525070	2482.768269
475.895321	2386.986346
476.265513	2550.823846
476.635645	2553.344423
477.005719	2460.083077
477.375734	2460.083077
477.745691	2477.727115
478.115588	2555.865000
478.485427	2596.194231
478.855207	2424.795000
479.224928	2535.700385
479.594591	2492.850577
479.964194	2533.179808
480.333739	2573.509038
480.703226	2482.768269
481.072653	2477.727115
481.442022	2636.523462
481.811333	2485.288846
482.180584	2540.741538
482.549777	2530.659231
482.918912	2538.220962
483.287988	2502.932885
483.657005	2518.056346
484.025964	2444.959615
484.394864	2606.276538
484.763706	2497.891731
485.132489	2480.247692
485.501213	2538.220962
485.869879	2492.850577
486.238487	2563.426731
486.607036	2462.603654
486.975527	2565.947308
487.343959	2477.727115
487.712333	2490.330000
488.080648	2510.494615
488.448905	2480.247692
488.817104	2497.891731
489.185244	2392.027500
489.553326	2540.741538
489.921350	2429.836154
490.289315	2540.741538
490.657222	2412.192115
491.025070	2475.206538
491.392861	2505.453462
491.760593	2510.494615
492.128267	2535.700385
492.495883	2429.836154
492.863440	2487.809423
493.230939	2533.179808
493.598380	2485.288846
493.965763	2442.439038
494.333088	2404.630385
494.700354	2513.015192
495.067563	2530.659231
495.434713	2533.179808
495.801805	2455.041923
496.168839	2502.932885
496.535815	2450.000769
496.902733	2510.494615
497.269593	2475.206538
497.636395	2497.891731
498.003139	2490.330000
498.369825	2495.371154
498.736453	2515.535769
499.103023	2573.509038
499.469535	2482.768269
499.835989	2515.535769
500.202385	2417.233269
500.568723	2543.262115
500.935003	2500.412308
501.301226	2601.235385
501.667390	2523.097500
502.033497	2523.097500
502.399546	2389.506923
502.765537	2540.741538
503.131470	2555.865000
503.497345	2490.330000
503.863163	2520.576923
504.228923	2525.618077
504.594625	2475.206538
504.960269	2533.179808
505.325856	2520.576923
505.691385	2429.836154
506.056856	2457.562500
506.422270	2457.562500
506.787625	2576.029615
507.152924	2545.782692
507.518164	2520.576923
507.883347	2528.138654
508.248472	2432.356731
508.613540	2507.974038
508.978550	2573.509038
509.343503	2530.659231
509.708398	2568.467885
510.073236	2475.206538
510.438016	2518.056346
510.802738	2525.618077
511.167403	2530.659231
511.532010	2538.220962
511.896561	2497.891731
512.261053	2487.809423
512.625488	2523.097500
512.989866	2475.206538
513.354186	2482.768269
513.718449	2482.768269
514.082655	2412.192115
514.446803	2510.494615
514.810894	2543.262115
515.174927	2545.782692
515.538904	2480.247692
515.902822	2475.206538
516.266684	2500.412308
516.630488	2419.753846
516.994235	2442.439038
517.357925	2475.206538
517.721558	2477.727115
518.085133	2500.412308
518.448651	2480.247692
518.812112	2455.041923
519.175516	2492.850577
519.538863	2487.809423
519.902152	2485.288846
520.265385	2490.330000
520.628560	2472.685962
520.991678	2444.959615
521.354739	2492.850577
521.717743	2457.562500
522.080690	2550.823846
522.443580	2465.124231
522.806413	2457.562500
523.169189	2490.330000
523.531908	2518.056346
523.894569	2470.165385
524.257174	2462.603654
524.619722	2528.138654
524.982213	2470.165385
525.344647	2543.262115
525.707025	2480.247692
526.069345	2495.371154
526.431608	2472.685962
526.793815	2555.865000
527.155964	2455.041923
527.518057	2530.659231
527.880093	2598.714808
528.242072	2434.877308
528.603995	2442.439038
528.965860	2568.467885
529.327669	2555.865000
529.689421	2482.768269
530.051117	2442.439038
530.412755	2510.494615
530.774337	2477.727115
531.135862	2538.220962
531.497331	2565.947308
531.858743	2530.659231
532.220098	2505.453462
532.581396	2477.727115
532.942638	2427.315577
533.303824	2457.562500
533.664953	2490.330000
534.026025	2472.685962
534.387040	2538.220962
534.747999	2543.262115
535.108902	2487.809423
535.469748	2505.453462
535.830537	2525.618077
536.191270	2467.644808
536.551947	2394.548077
536.912567	2437.397885
537.273131	2528.138654
537.633638	2467.644808
537.994089	2502.932885
538.354483	2502.932885
538.714821	2523.097500
539.075103	2482.768269
539.435328	2492.850577
539.795497	2500.412308
540.155609	2505.453462
540.515665	2414.712692
540.875665	2530.659231
541.235609	2525.618077
541.595496	2540.741538
541.955328	2462.603654
542.315102	2457.562500
542.674821	2545.782692
543.034483	2502.932885
543.394090	2535.700385
543.753640	2419.753846
544.113134	2548.303269
544.472571	2507.974038
544.831953	2485.288846
545.191278	2548.303269
545.550548	2555.865000
545.909761	2462.603654
546.268918	2513.015192
546.628019	2492.850577
546.987064	2457.562500
547.346053	2487.809423
547.704986	2505.453462
548.063863	2510.494615
548.422684	2570.988462
548.781449	2538.220962
549.140158	2427.315577
549.498811	2472.685962
549.857408	2455.041923
550.215949	2475.206538
550.574434	2402.109808
550.932864	2538.220962
551.291237	2495.371154
551.649555	2543.262115
552.007817	2543.262115
552.366022	2414.712692
552.724173	2513.015192
553.082267	2507.974038
553.440305	2606.276538
553.798288	2510.494615
554.156215	2513.015192
554.514086	2490.330000
554.871902	2543.262115
555.229661	2523.097500
555.587365	2520.576923
555.945014	2560.906154
556.302606	2450.000769
556.660143	2515.535769
557.017625	2470.165385
557.375050	2505.453462
557.732421	2545.782692
558.089735	2455.041923
558.446994	2497.891731
558.804197	2535.700385
559.161345	2457.562500
559.518437	2477.727115
559.875474	2392.027500
560.232455	2457.562500
560.589381	2457.562500
560.946251	2623.920577
561.303065	2457.562500
561.659825	2505.453462
562.016528	2462.603654
562.373177	2533.179808
562.729770	2515.535769
563.086307	2447.480192
563.442789	2497.891731
563.799216	2485.288846
564.155587	2576.029615
564.511904	2472.685962
564.868164	2437.397885
565.224370	2502.932885
565.580520	2507.974038
565.936615	2573.509038
566.292654	2455.041923
566.648638	2457.562500
567.004567	2495.371154
567.360441	2528.138654
567.716260	2480.247692
568.072023	2518.056346
568.427732	2487.809423
568.783385	2437.397885
569.138982	2507.974038
569.494525	2485.288846
569.850013	2467.644808
570.205445	2502.932885
570.560823	2548.303269
570.916145	2523.097500
571.271412	2502.932885
571.626625	2487.809423
571.981782	2485.288846
572.336884	2462.603654
572.691931	2465.124231
573.046923	2460.083077
573.401860	2523.097500
573.756743	2462.603654
574.111570	2450.000769
574.466342	2437.397885
574.821059	2470.165385
575.175722	2394.548077
575.530330	2550.823846
575.884882	2465.124231
576.239380	2518.056346
576.593823	2439.918462
576.948211	2457.562500
577.302544	2505.453462
577.656823	2477.727115
578.011047	2492.850577
578.365216	2586.111923
578.719330	2513.015192
579.073389	2558.385577
579.427394	2437.397885
579.781344	2591.153077
580.135239	2497.891731
580.489080	2525.618077
580.842866	2482.768269
581.196597	2497.891731
581.550273	2490.330000
581.903895	2467.644808
582.257463	2422.274423
582.610975	2475.206538
582.964434	2472.685962
583.317837	2419.753846
583.671186	2593.673654
584.024481	2465.124231
584.377721	2528.138654
584.730906	2535.700385
585.084037	2455.041923
585.437113	2470.165385
585.790135	2603.755962
586.143103	2447.480192
586.496016	2593.673654
586.848874	2502.932885
587.201679	2485.288846
587.554428	2465.124231
587.907124	2548.303269
588.259765	2495.371154
588.612352	2515.535769
588.964884	2457.562500
589.317362	2533.179808
589.669786	2392.027500
590.022155	2462.603654
590.374470	2412.192115
590.726731	2573.509038
591.078937	2455.041923
591.431090	2540.741538
591.783188	2510.494615
592.135232	2429.836154
592.487222	2460.083077
592.839157	2427.315577
593.191038	2540.741538
593.542866	2480.247692
593.894639	2455.041923
594.246358	2465.124231
594.598022	2528.138654
594.949633	2565.947308
595.301190	2490.330000
595.652692	2492.850577
596.004141	2507.974038
596.355535	2477.727115
596.706876	2578.550192
597.058162	2439.918462
597.409395	2450.000769
597.760573	2442.439038
598.111698	2558.385577
598.462768	2497.891731
598.813785	2500.412308
599.164748	2455.041923
599.515657	2505.453462
599.866511	2573.509038
600.217312	2467.644808
600.568060	2500.412308
600.918753	2467.644808
601.269392	2437.397885
601.619978	2515.535769
601.970510	2462.603654
602.320988	2540.741538
602.671412	2507.974038
603.021783	2543.262115
603.372100	2452.521346
603.722363	2475.206538
604.072572	2450.000769
604.422728	2492.850577
604.772830	2510.494615
605.122878	2530.659231
605.472872	2472.685962
605.822813	2520.576923
606.172701	2460.083077
606.522534	2495.371154
606.872314	2455.041923
607.222041	2495.371154
607.571714	2525.618077
607.921333	2404.630385
608.270899	2482.768269
608.620411	2442.439038
608.969870	2487.809423
609.319276	2462.603654
609.668627	2523.097500
610.017926	2581.070769
610.367171	2455.041923
610.716362	2407.150962
611.065500	2475.206538
611.414585	2394.548077
611.763616	2475.206538
612.112594	2467.644808
612.461518	2492.850577
612.810389	2467.644808
613.159207	2528.138654
613.507971	2588.632500
613.856682	2518.056346
614.205340	2500.412308
614.553945	2402.109808
614.902496	2513.015192
615.250994	2528.138654
615.599439	2507.974038
615.947830	2570.988462
616.296169	2470.165385
616.644454	2525.618077
616.992686	2427.315577
617.340864	2588.632500
617.688990	2530.659231
618.037063	2490.330000
618.385082	2442.439038
618.733048	2543.262115
619.080961	2528.138654
619.428821	2475.206538
619.776628	2455.041923
620.124382	2460.083077
620.472083	2515.535769
620.819731	2497.891731
621.167326	2523.097500
621.514868	2578.550192
621.862357	2460.083077
622.209793	2523.097500
622.557176	2472.685962
622.904506	2480.247692
623.251783	2553.344423
623.599007	2565.947308
623.946179	2480.247692
624.293297	2576.029615
624.640363	2450.000769
624.987376	2550.823846
625.334336	2472.685962
625.681243	2570.988462
626.028097	2482.768269
626.374899	2565.947308
626.721647	2429.836154
627.068343	2530.659231
627.414987	2520.576923
627.761577	2591.153077
628.108115	2497.891731
628.454600	2525.618077
628.801032	2515.535769
629.147412	2495.371154
629.493739	2409.671538
629.840014	2487.809423
630.186236	2442.439038
630.532405	2507.974038
630.878521	2477.727115
631.224585	2570.988462
631.570597	2427.315577
631.916556	2550.823846
632.262462	2533.179808
632.608316	2487.809423
632.954117	2480.247692
633.299866	2558.385577
633.645562	2475.206538
633.991206	2490.330000
634.336797	2447.480192
634.682336	2475.206538
635.027823	2502.932885
635.373257	2427.315577
635.718639	2480.247692
636.063968	2472.685962
636.409245	2553.344423
636.754470	2414.712692
637.099642	2513.015192
637.444762	2434.877308
637.789829	2550.823846
638.134845	2570.988462
638.479808	2558.385577
638.824719	2475.206538
639.169577	2477.727115
639.514383	2450.000769
639.859137	2414.712692
640.203839	2518.056346
640.548489	2457.562500
640.893086	2502.932885
641.237632	2545.782692
641.582125	2548.303269
641.926566	2447.480192
642.270955	2487.809423
642.615292	2475.206538
642.959576	2528.138654
643.303809	2442.439038
643.647990	2507.974038
643.992118	2573.509038
644.336195	2573.509038
644.680219	2588.632500
645.024192	2550.823846
645.368112	2543.262115
645.711981	2515.535769
646.055797	2475.206538
646.399562	2412.192115
646.743274	2480.247692
647.086935	2530.659231
647.430544	2477.727115
647.774101	2417.233269
648.117606	2520.576923
648.461059	2490.330000
648.804460	2616.358846
649.147810	2487.809423
649.491108	2482.768269
649.834354	2495.371154
650.177548	2535.700385
650.520690	2477.727115
650.863781	2533.179808
651.206820	2495.371154
651.549807	2523.097500
651.892742	2538.220962
652.235626	2598.714808
652.578458	2545.782692
652.921238	2538.220962
653.263967	2505.453462
653.606644	2523.097500
653.949269	2487.809423
654.291843	2502.932885
654.634365	2553.344423
654.976836	2482.768269
655.319255	2500.412308
655.661622	2518.056346
656.003938	2570.988462
656.346203	2444.959615
656.688416	2520.576923
657.030577	2505.453462
657.372687	2467.644808
657.714746	2515.535769
658.056753	2492.850577
658.398708	2530.659231
658.740612	2568.467885
659.082465	2482.768269
659.424266	2492.850577
659.766016	2465.124231
660.107715	2510.494615
660.449362	2407.150962
660.790958	2424.795000
661.132503	2540.741538
661.473996	2427.315577
661.815438	2560.906154
662.156829	2507.974038
662.498168	2613.838269
662.839456	2485.288846
663.180693	2523.097500
663.521879	2555.865000
663.863013	2452.521346
664.204097	2520.576923
664.545129	2442.439038
664.886110	2505.453462
665.227040	2603.755962
665.567918	2540.741538
665.908746	2460.083077
666.249522	2465.124231
666.590248	2457.562500
666.930922	2495.371154
667.271545	2495.371154
667.612118	2545.782692
667.952639	2492.850577
668.293109	2518.056346
668.633528	2528.138654
668.973896	2447.480192
669.314213	2482.768269
669.654480	2500.412308
669.994695	2513.015192
670.334859	2482.768269
670.674973	2563.426731
671.015035	2460.083077
671.355047	2510.494615
671.695008	2475.206538
672.034918	2520.576923
672.374777	2429.836154
672.714585	2485.288846
673.054342	2465.124231
673.394049	2523.097500
673.733705	2419.753846
674.073310	2520.576923
674.412864	2553.344423
674.752368	2538.220962
675.091820	2555.865000
675.431223	2379.424615
675.770574	2515.535769
676.109875	2505.453462
676.449125	2472.685962
676.788324	2422.274423
677.127473	2540.741538
677.466571	2422.274423
677.805619	2497.891731
678.144616	2465.124231
678.483562	2535.700385
678.822458	2434.877308
679.161303	2540.741538
679.500098	2467.644808
679.838842	2487.809423
680.177535	2397.068654
680.516179	2533.179808
680.854771	2485.288846
681.193314	2452.521346
681.531805	2533.179808
681.870247	2548.303269
682.208638	2450.000769
682.546978	2543.262115
682.885268	2495.371154
683.223508	2485.288846
683.561697	2518.056346
683.899836	2525.618077
684.237925	2480.247692
684.575963	2513.015192
684.913951	2497.891731
685.251889	2472.685962
685.589776	2422.274423
685.927614	2540.741538
686.265401	2434.877308
686.603137	2462.603654
686.940824	2444.959615
687.278460	2475.206538
687.616046	2500.412308
687.953582	2462.603654
688.291068	2565.947308
688.628504	2502.932885
688.965889	2518.056346
689.303224	2455.041923
689.640510	2535.700385
689.977745	2477.727115
690.314930	2485.288846
690.652065	2482.768269
690.989150	2492.850577
691.326185	2487.809423
691.663170	2452.521346
692.000105	2523.097500
692.336990	2455.041923
692.673825	2434.877308
693.010610	2497.891731
693.347345	2450.000769
693.684030	2470.165385
694.020665	2528.138654
694.357251	2573.509038
694.693786	2447.480192
695.030272	2525.618077
695.366707	2399.589231
695.703093	2548.303269
696.039429	2535.700385
696.375716	2553.344423
696.711952	2407.150962
697.048139	2510.494615
697.384276	2487.809423
697.720363	2467.644808
698.056400	2429.836154
698.392388	2492.850577
698.728326	2505.453462
699.064214	2487.809423
699.400053	2477.727115
699.735842	2535.700385
700.071581	2470.165385
700.407270	2533.179808
700.742910	2523.097500
701.078501	2513.015192
701.414042	2497.891731
701.749533	2485.288846
702.084974	2611.317692
702.420366	2465.124231
702.755709	2586.111923
703.091002	2477.727115
703.426246	2386.986346
703.761440	2455.041923
704.096584	2497.891731
704.431679	2583.591346
704.766725	2523.097500
705.101721	2518.056346
705.436668	2538.220962
705.771565	2492.850577
706.106413	2545.782692
706.441212	2439.918462
706.775961	2533.179808
707.110661	2518.056346
707.445311	2490.330000
707.779913	2573.509038
708.114465	2460.083077
708.448967	2565.947308
708.783421	2452.521346
709.117825	2621.400000
709.452180	2495.371154
709.786485	2616.358846
710.120742	2507.974038
710.454949	2510.494615
710.789107	2555.865000
711.123216	2397.068654
711.457275	2497.891731
711.791286	2442.439038
712.125247	2570.988462
712.459159	2538.220962
712.793023	2472.685962
713.126837	2427.315577
713.460602	2505.453462
713.794318	2520.576923
714.127985	2528.138654
714.461602	2515.535769
714.795171	2588.632500
715.128691	2477.727115
715.462162	2560.906154
715.795584	2563.426731
716.128957	2507.974038
716.462281	2467.644808
716.795556	2487.809423
717.128782	2570.988462
717.461960	2429.836154
717.795088	2583.591346
718.128167	2558.385577
718.461198	2497.891731
718.794180	2550.823846
719.127113	2460.083077
719.459997	2460.083077
719.792833	2477.727115
720.125619	2528.138654
720.458357	2460.083077
720.791046	2555.865000
721.123686	2485.288846
721.456278	2568.467885
721.788821	2507.974038
722.121315	2530.659231
722.453761	2548.303269
722.786158	2543.262115
723.118506	2442.439038
723.450805	2518.056346
723.783056	2429.836154
724.115259	2462.603654
724.447412	2399.589231
724.779518	2429.836154
725.111574	2502.932885
725.443582	2460.083077
725.775542	2460.083077
726.107453	2485.288846
726.439315	2520.576923
726.771129	2490.330000
727.102895	2540.741538
727.434612	2470.165385
727.766281	2528.138654
728.097901	2576.029615
728.429473	2596.194231
728.760996	2530.659231
729.092471	2505.453462
729.423897	2533.179808
729.755276	2467.644808
730.086606	2452.521346
730.417887	2515.535769
730.749120	2518.056346
731.080305	2535.700385
731.411442	2467.644808
731.742530	2500.412308
732.073570	2538.220962
732.404562	2558.385577
732.735506	2467.644808
733.066401	2538.220962
733.397249	2520.576923
733.728048	2447.480192
734.058798	2417.233269
734.389501	2442.439038
734.720156	2538.220962
735.050762	2450.000769
735.381320	2533.179808
735.711831	2432.356731
736.042293	2470.165385
736.372707	2417.233269
736.703073	2540.741538
737.033391	2550.823846
737.363661	2480.247692
737.693883	2470.165385
738.024056	2447.480192
738.354182	2510.494615
738.684260	2515.535769
739.014290	2460.083077
739.344272	2364.301154
739.674207	2528.138654
740.004093	2480.247692
740.333931	2366.821731
740.663722	2399.589231
740.993464	2487.809423
741.323159	2457.562500
741.652806	2515.535769
741.982405	2528.138654
742.311956	2510.494615
742.641460	2477.727115
742.970915	2583.591346
743.300323	2497.891731
743.629683	2442.439038
743.958996	2485.288846
744.288260	2467.644808
744.617477	2510.494615
744.946647	2477.727115
745.275768	2520.576923
745.604842	2467.644808
745.933869	2502.932885
746.262847	2460.083077
746.591778	2523.097500
746.920662	2475.206538
747.249498	2437.397885
747.578286	2424.795000
747.907027	2530.659231
748.235720	2379.424615
748.564365	2457.562500
748.892963	2492.850577
749.221514	2538.220962
749.550017	2581.070769
749.878473	2485.288846
750.206881	2502.932885
750.535242	2560.906154
750.863555	2563.426731
751.191821	2460.083077
751.520039	2538.220962
751.848210	2505.453462
752.176334	2535.700385
752.504411	2429.836154
752.832440	2460.083077
753.160421	2583.591346
753.488356	2407.150962
753.816243	2543.262115
754.144082	2540.741538
754.471875	2439.918462
754.799620	2419.753846
755.127318	2432.356731
755.454969	2570.988462
755.782572	2525.618077
756.110129	2565.947308
756.437638	2490.330000
756.765100	2520.576923
757.092515	2429.836154
757.419882	2502.932885
757.747203	2477.727115
758.074477	2581.070769
758.401703	2515.535769
758.728882	2460.083077
759.056014	2480.247692
759.383099	2482.768269
759.710138	2520.576923
760.037129	2502.932885
760.364073	2490.330000
760.690970	2480.247692
761.017820	2576.029615
761.344623	2465.124231
761.671379	2611.317692
761.998088	2505.453462
762.324751	2515.535769
762.651366	2467.644808
762.977935	2472.685962
763.304456	2510.494615
763.630931	2548.303269
763.957359	2432.356731
764.283740	2523.097500
764.610074	2475.206538
764.936362	2611.317692
765.262602	2558.385577
765.588796	2540.741538
765.914943	2530.659231
766.241044	2437.397885
766.567097	2550.823846
766.893104	2467.644808
767.219064	2465.124231
767.544978	2465.124231
767.870845	2477.727115
768.196665	2550.823846
768.522438	2502.932885
768.848165	2548.303269
769.173846	2538.220962
769.499479	2528.138654
769.825066	2399.589231
770.150607	2510.494615
770.476101	2462.603654
770.801548	2507.974038
771.126949	2467.644808
771.452303	2465.124231
771.777611	2505.453462
772.102872	2475.206538
772.428087	2482.768269
772.753256	2573.509038
773.078378	2457.562500
773.403453	2548.303269
773.728482	2477.727115
774.053465	2591.153077
774.378401	2434.877308
774.703291	2533.179808
775.028135	2548.303269
775.352932	2422.274423
775.677683	2591.153077
776.002388	2497.891731
776.327046	2570.988462
776.651658	2492.850577
776.976224	2470.165385
777.300743	2490.330000
777.625216	2442.439038
777.949643	2490.330000
778.274024	2520.576923
778.598359	2419.753846
778.922647	2515.535769
779.246889	2444.959615
779.571086	2419.753846
779.895236	2450.000769
780.219339	2495.371154
780.543397	2523.097500
780.867409	2442.439038
781.191374	2510.494615
781.515294	2535.700385
781.839167	2412.192115
782.162995	2500.412308
782.486776	2450.000769
782.810511	2434.877308
783.134201	2477.727115
783.457844	2545.782692
783.781441	2505.453462
784.104993	2450.000769
784.428498	2518.056346
784.751958	2457.562500
785.075372	2548.303269
785.398739	2447.480192
785.722061	2515.535769
786.045337	2583.591346
786.368568	2442.439038
786.691752	2548.303269
787.014891	2543.262115
787.337983	2447.480192
787.661030	2414.712692
787.984031	2485.288846
788.306987	2462.603654
788.629897	2540.741538
788.952760	2588.632500
789.275579	2538.220962
789.598351	2482.768269
789.921078	2480.247692
790.243759	2439.918462
790.566395	2462.603654
790.888984	2497.891731
791.211529	2450.000769
791.534027	2515.535769
791.856480	2434.877308
792.178888	2500.412308
792.501249	2497.891731
792.823566	2515.535769
793.145836	2502.932885
793.468062	2513.015192
793.790241	2576.029615
794.112375	2558.385577
794.434464	2482.768269
794.756507	2495.371154
795.078505	2560.906154
795.400457	2472.685962
795.722364	2492.850577
796.044226	2495.371154
796.366042	2482.768269
796.687812	2596.194231
797.009538	2470.165385
797.331218	2429.836154
797.652852	2497.891731
797.974442	2460.083077
798.295986	2467.644808
798.617484	2530.659231
798.938938	2495.371154
799.260346	2437.397885
799.581709	2515.535769
799.903026	2477.727115
800.224299	2414.712692
800.545526	2513.015192
800.866708	2477.727115
801.187845	2482.768269
801.508936	2487.809423
801.829983	2518.056346
802.150984	2470.165385
802.471940	2518.056346
802.792851	2520.576923
803.113717	2533.179808
803.434538	2518.056346
803.755314	2550.823846
804.076045	2533.179808
804.396731	2465.124231
804.717372	2455.041923
805.037967	2407.150962
805.358518	2359.260000
805.679024	2470.165385
805.999485	2523.097500
806.319901	2558.385577
806.640272	2452.521346
806.960598	2394.548077
807.280879	2555.865000
807.601115	2460.083077
807.921306	2518.056346
808.241453	2490.330000
808.561554	2502.932885
808.881611	2497.891731
809.201623	2505.453462
809.521590	2528.138654
809.841513	2399.589231
810.161390	2475.206538
810.481223	2477.727115
810.801011	2497.891731
811.120755	2427.315577
811.440453	2455.041923
811.760107	2482.768269
812.079716	2482.768269
812.399281	2472.685962
812.718801	2452.521346
813.038276	2462.603654
813.357707	2460.083077
813.677093	2485.288846
813.996434	2480.247692
814.315731	2545.782692
814.634983	2465.124231
814.954191	2515.535769
815.273354	2482.768269
815.592473	2525.618077
815.911547	2427.315577
816.230577	2462.603654
816.549562	2492.850577
816.868502	2530.659231
817.187399	2467.644808
817.506250	2528.138654
817.825058	2510.494615
818.143821	2475.206538
818.462539	2535.700385
818.781213	2432.356731
819.099843	2472.685962
819.418429	2460.083077
819.736970	2447.480192
820.055466	2507.974038
820.373919	2444.959615
820.692327	2570.988462
821.010691	2424.795000
821.329011	2553.344423
821.647286	2477.727115
821.965517	2543.262115
822.283704	2510.494615
822.601847	2457.562500
822.919945	2535.700385
823.237999	2477.727115
823.556010	2550.823846
823.873976	2540.741538
824.191897	2492.850577
824.509775	2502.932885
824.827609	2487.809423
825.145398	2424.795000
825.463144	2394.548077
825.780845	2495.371154
826.098502	2460.083077
826.416116	2422.274423
826.733685	2502.932885
827.051210	2523.097500
827.368692	2422.274423
827.686129	2470.165385
828.003522	2485.288846
828.320872	2460.083077
828.638177	2540.741538
828.955439	2560.906154
829.272656	2495.371154
829.589830	2497.891731
829.906960	2490.330000
830.224046	2429.836154
830.541088	2480.247692
830.858086	2533.179808
831.175041	2482.768269
831.491952	2555.865000
831.808819	2500.412308
832.125642	2480.247692
832.442421	2460.083077
832.759157	2535.700385
833.075849	2442.439038
833.392497	2510.494615
833.709101	2490.330000
834.025662	2485.288846
834.342179	2568.467885
834.658653	2515.535769
834.975083	2419.753846
835.291469	2525.618077
835.607811	2477.727115
835.924110	2482.768269
836.240366	2523.097500
836.556578	2470.165385
836.872746	2548.303269
837.188871	2543.262115
837.504952	2500.412308
837.820990	2444.959615
838.136984	2525.618077
838.452935	2462.603654
838.768842	2545.782692
839.084706	2465.124231
839.400526	2502.932885
839.716303	2422.274423
840.032037	2535.700385
840.347727	2538.220962
840.663373	2472.685962
840.978977	2480.247692
841.294537	2480.247692
841.610054	2452.521346
841.925527	2452.521346
842.240957	2535.700385
842.556344	2505.453462
842.871687	2475.206538
843.186987	2490.330000
843.502244	2611.317692
843.817458	2492.850577
844.132629	2467.644808
844.447756	2528.138654
844.762840	2475.206538
845.077881	2500.412308
845.392879	2495.371154
845.707833	2447.480192
846.022745	2487.809423
846.337613	2417.233269
846.652438	2450.000769
846.967221	2558.385577
847.281960	2472.685962
847.596656	2477.727115
847.911309	2543.262115
848.225919	2570.988462
848.540485	2457.562500
848.855009	2424.795000
849.169490	2513.015192
849.483928	2429.836154
849.798323	2591.153077
850.112675	2492.850577
850.426984	2523.097500
850.741251	2419.753846
851.055474	2601.235385
851.369654	2470.165385
851.683792	2460.083077
851.997887	2500.412308
852.311938	2485.288846
852.625947	2555.865000
852.939914	2500.412308
853.253837	2485.288846
853.567718	2439.918462
853.881555	2407.150962
854.195350	2492.850577
854.509103	2540.741538
854.822812	2492.850577
855.136479	2555.865000
855.450103	2528.138654
855.763685	2389.506923
856.077224	2545.782692
856.390720	2409.671538
856.704173	2462.603654
857.017584	2497.891731
857.330953	2434.877308
857.644278	2407.150962
857.957561	2535.700385
858.270802	2525.618077
858.584000	2447.480192
858.897155	2608.797115
859.210268	2513.015192
859.523339	2553.344423
859.836367	2518.056346
860.149352	2507.974038
860.462295	2482.768269
860.775195	2550.823846
861.088054	2429.836154
861.400869	2568.467885
861.713642	2492.850577
862.026373	2470.165385
862.339062	2439.918462
862.651708	2485.288846
862.964312	2497.891731
863.276873	2429.836154
863.589392	2576.029615
863.901869	2414.712692
864.214303	2452.521346
864.526696	2583.591346
864.839045	2565.947308
865.151353	2477.727115
865.463619	2467.644808
865.775842	2465.124231
866.088023	2439.918462
866.400162	2492.850577
866.712258	2467.644808
867.024313	2583.591346
867.336325	2518.056346
867.648296	2500.412308
867.960224	2480.247692
868.272110	2533.179808
868.583954	2404.630385
868.895755	2487.809423
869.207515	2470.165385
869.519233	2540.741538
869.830909	2591.153077
870.142542	2558.385577
870.454134	2447.480192
870.765684	2444.959615
871.077191	2505.453462
871.388657	2480.247692
871.700081	2447.480192
872.011463	2492.850577
872.322803	2472.685962
872.634101	2487.809423
872.945357	2490.330000
873.256571	2513.015192
873.567744	2535.700385
873.878874	2505.453462
874.189963	2563.426731
874.501010	2399.589231
874.812015	2555.865000
875.122979	2603.755962
875.433900	2502.932885
875.744780	2550.823846
876.055618	2394.548077
876.366415	2452.521346
876.677169	2470.165385
876.987882	2520.576923
877.298554	2470.165385
877.609183	2452.521346
877.919771	2525.618077
878.230317	2429.836154
878.540822	2505.453462
878.851285	2500.412308
879.161707	2505.453462
879.472087	2518.056346
879.782425	2515.535769
880.092722	2417.233269
880.402977	2505.453462
880.713191	2452.521346
881.023363	2548.303269
881.333494	2513.015192
881.643583	2507.974038
881.953631	2427.315577
882.263637	2515.535769
882.573602	2513.015192
882.883526	2460.083077
883.193408	2487.809423
883.503248	2477.727115
883.813048	2482.768269
884.122806	2485.288846
884.432522	2424.795000
884.742197	2412.192115
885.051831	2518.056346
885.361424	2470.165385
885.670975	2472.685962
885.980485	2513.015192
886.289954	2404.630385
886.599382	2573.509038
886.908768	2515.535769
887.218113	2495.371154
887.527417	2560.906154
887.836680	2528.138654
888.145901	2450.000769
888.455082	2462.603654
888.764221	2528.138654
889.073319	2591.153077
889.382376	2583.591346
889.691392	2470.165385
890.000366	2555.865000
890.309300	2573.509038
890.618193	2525.618077
890.927044	2424.795000
891.235855	2444.959615
891.544625	2467.644808
891.853353	2475.206538
892.162041	2432.356731
892.470687	2548.303269
892.779293	2502.932885
893.087858	2392.027500
893.396381	2407.150962
893.704864	2399.589231
894.013306	2507.974038
894.321707	2515.535769
894.630068	2455.041923
894.938387	2412.192115
895.246665	2525.618077
895.554903	2497.891731
895.863100	2497.891731
896.171256	2497.891731
896.479371	2540.741538
896.787446	2492.850577
897.095480	2487.809423
897.403473	2573.509038
897.711425	2447.480192
898.019336	2460.083077
898.327207	2495.371154
898.635038	2427.315577
898.942827	2480.247692
899.250576	2528.138654
899.558284	2500.412308
899.865952	2467.644808
900.173579	2518.056346
900.481165	2485.288846
900.788711	2432.356731
901.096216	2576.029615
901.403681	2472.685962
901.711105	2412.192115
902.018489	2467.644808
902.325832	2505.453462
902.633135	2402.109808
902.940397	2525.618077
903.247619	2439.918462
903.554800	2482.768269
903.861941	2457.562500
904.169041	2444.959615
904.476101	2452.521346
904.783121	2570.988462
905.090100	2450.000769
905.397039	2497.891731
905.703938	2467.644808
906.010796	2444.959615
906.317614	2520.576923
906.624391	2480.247692
906.931129	2548.303269
907.237826	2492.850577
907.544483	2492.850577
907.851099	2545.782692
908.157675	2530.659231
908.464211	2467.644808
908.770707	2515.535769
909.077163	2460.083077
909.383578	2427.315577
909.689954	2525.618077
909.996289	2452.521346
910.302584	2447.480192
910.608839	2424.795000
910.915054	2543.262115
911.221229	2467.644808
911.527363	2490.330000
911.833458	2492.850577
912.139513	2502.932885
912.445527	2490.330000
912.751502	2492.850577
913.057436	2460.083077
913.363331	2460.083077
913.669186	2596.194231
913.975000	2475.206538
914.280775	2394.548077
914.586510	2535.700385
914.892205	2505.453462
915.197859	2392.027500
915.503475	2487.809423
915.809050	2518.056346
916.114585	2497.891731
916.420081	2548.303269
916.725536	2485.288846
917.030952	2447.480192
917.336328	2497.891731
917.641665	2497.891731
917.946961	2528.138654
918.252218	2432.356731
918.557435	2467.644808
918.862612	2442.439038
919.167750	2437.397885
919.472848	2457.562500
919.777906	2485.288846
920.082925	2487.809423
920.387904	2520.576923
920.692843	2593.673654
920.997743	2422.274423
921.302603	2497.891731
921.607423	2578.550192
921.912204	2490.330000
922.216946	2485.288846
922.521647	2414.712692
922.826310	2452.521346
923.130932	2447.480192
923.435516	2475.206538
923.740059	2518.056346
924.044564	2467.644808
924.349028	2414.712692
924.653454	2457.562500
924.957840	2513.015192
925.262186	2457.562500
925.566493	2492.850577
925.870761	2573.509038
926.174989	2427.315577
926.479178	2550.823846
926.783328	2507.974038
927.087438	2520.576923
927.391509	2470.165385
927.695541	2603.755962
927.999533	2450.000769
928.303486	2533.179808
928.607400	2465.124231
928.911275	2535.700385
929.215110	2495.371154
929.518906	2505.453462
929.822663	2576.029615
930.126381	2467.644808
930.430060	2412.192115
930.733699	2558.385577
931.037299	2477.727115
931.340861	2427.315577
931.644383	2533.179808
931.947866	2434.877308
932.251309	2422.274423
932.554714	2467.644808
932.858080	2457.562500
933.161407	2485.288846
933.464694	2492.850577
933.767943	2470.165385
934.071153	2558.385577
934.374323	2462.603654
934.677455	2568.467885
934.980548	2444.959615
935.283602	2490.330000
935.586617	2462.603654
935.889593	2490.330000
936.192530	2528.138654
936.495428	2507.974038
936.798287	2475.206538
937.101108	2500.412308
937.403890	2495.371154
937.706632	2386.986346
938.009336	2502.932885
938.312002	2523.097500
938.614628	2565.947308
938.917216	2462.603654
939.219765	2472.685962
939.522275	2495.371154
939.824747	2429.836154
940.127179	2513.015192
940.429573	2540.741538
940.731929	2434.877308
941.034246	2548.303269
941.336524	2530.659231
941.638763	2475.206538
941.940964	2505.453462
942.243126	2563.426731
942.545250	2361.780577
942.847335	2429.836154
943.149381	2452.521346
943.451389	2472.685962
943.753359	2439.918462
944.055290	2465.124231
944.357182	2465.124231
944.659036	2485.288846
944.960851	2419.753846
945.262628	2555.865000
945.564367	2447.480192
945.866067	2497.891731
946.167729	2457.562500
946.469352	2485.288846
946.770937	2437.397885
947.072484	2452.521346
947.373992	2583.591346
947.675462	2422.274423
947.976893	2467.644808
948.278286	2528.138654
948.579641	2515.535769
948.880958	2475.206538
949.182236	2460.083077
949.483476	2422.274423
949.784678	2487.809423
950.085841	2427.315577
950.386967	2477.727115
950.688054	2500.412308
950.989103	2510.494615
951.290114	2502.932885
951.591087	2482.768269
951.892021	2437.397885
952.192917	2545.782692
952.493776	2500.412308
952.794596	2475.206538
953.095378	2394.548077
953.396122	2487.809423
953.696828	2442.439038
953.997496	2530.659231
954.298126	2543.262115
954.598718	2432.356731
954.899272	2502.932885
955.199788	2429.836154
955.500266	2515.535769
955.800706	2439.918462
956.101108	2419.753846
956.401472	2455.041923
956.701798	2460.083077
957.002087	2492.850577
957.302337	2460.083077
957.602550	2550.823846
957.902724	2442.439038
958.202861	2555.865000
958.502960	2409.671538
958.803022	2480.247692
959.103045	2485.288846
959.403031	2485.288846
959.702979	2437.397885
960.002889	2520.576923
960.302762	2560.906154
960.602596	2502.932885
960.902393	2472.685962
961.202153	2477.727115
961.501875	2444.959615
961.801559	2515.535769
962.101205	2480.247692
962.400814	2384.465769
962.700385	2528.138654
962.999918	2407.150962
963.299414	2467.644808
963.598873	2465.124231
963.898293	2492.850577
964.197677	2518.056346
964.497022	2568.467885
964.796331	2472.685962
965.095601	2507.974038
965.394835	2505.453462
965.694030	2528.138654
965.993189	2462.603654
966.292309	2490.330000
966.591393	2402.109808
966.890439	2502.932885
967.189447	2513.015192
967.488419	2475.206538
967.787353	2570.988462
968.086249	2490.330000
968.385108	2520.576923
968.683930	2570.988462
968.982714	2477.727115
969.281462	2434.877308
969.580172	2399.589231
969.878844	2485.288846
970.177480	2455.041923
970.476078	2452.521346
970.774639	2437.397885
971.073162	2424.795000
971.371649	2427.315577
971.670098	2507.974038
971.968510	2495.371154
972.266885	2502.932885
972.565223	2422.274423
972.863524	2533.179808
973.161788	2432.356731
973.460014	2487.809423
973.758204	2384.465769
974.056356	2460.083077
974.354471	2475.206538
974.652550	2475.206538
974.950591	2502.932885
975.248595	2598.714808
975.546563	2540.741538
975.844493	2502.932885
976.142386	2477.727115
976.440243	2495.371154
976.738062	2497.891731
977.035845	2495.371154
977.333590	2505.453462
977.631299	2427.315577
977.928971	2593.673654
978.226606	2457.562500
978.524204	2538.220962
978.821765	2533.179808
979.119290	2462.603654
979.416777	2419.753846
979.714228	2457.562500
980.011642	2462.603654
980.309020	2550.823846
980.606360	2616.358846
980.903664	2535.700385
981.200931	2427.315577
981.498162	2535.700385
981.795356	2455.041923
982.092513	2553.344423
982.389633	2548.303269
982.686717	2568.467885
982.983764	2482.768269
983.280775	2482.768269
983.577749	2455.041923
983.874686	2477.727115
984.171587	2487.809423
984.468451	2450.000769
984.765279	2424.795000
985.062070	2447.480192
985.358824	2518.056346
985.655543	2412.192115
985.952224	2550.823846
986.248869	2452.521346
986.545478	2497.891731
986.842050	2487.809423
987.138586	2525.618077
987.435086	2419.753846
987.731549	2389.506923
988.027975	2507.974038
988.324366	2437.397885
988.620719	2533.179808
988.917037	2535.700385
989.213318	2495.371154
989.509563	2548.303269
989.805772	2543.262115
990.101944	2444.959615
990.398080	2573.509038
990.694180	2462.603654
990.990244	2523.097500
991.286271	2485.288846
991.582262	2518.056346
991.878217	2540.741538
992.174136	2480.247692
992.470019	2490.330000
992.765865	2492.850577
993.061676	2402.109808
993.357450	2520.576923
993.653188	2510.494615
993.948890	2530.659231
994.244556	2470.165385
994.540186	2545.782692
994.835780	2470.165385
995.131337	2444.959615
995.426859	2414.712692
995.722345	2525.618077
996.017795	2593.673654
996.313208	2570.988462
996.608586	2507.974038
996.903928	2502.932885
997.199234	2447.480192
997.494504	2520.576923
997.789738	2480.247692
998.084936	2442.439038
998.380099	2515.535769
998.675225	2523.097500
998.970316	2510.494615
999.265371	2505.453462
999.560390	2465.124231
999.855373	2487.809423
1000.150320	2414.712692
1000.445232	2535.700385
1000.740108	2558.385577
1001.034948	2502.932885
1001.329752	2548.303269
1001.624521	2412.192115
1001.919254	2588.632500
1002.213951	2442.439038
1002.508613	2540.741538
1002.803239	2513.015192
1003.097829	2505.453462
1003.392384	2457.562500
1003.686903	2470.165385
1003.981386	2480.247692
1004.275834	2505.453462
1004.570246	2462.603654
1004.864623	2432.356731
1005.158964	2485.288846
1005.453270	2505.453462
1005.747540	2447.480192
1006.041775	2439.918462
1006.335974	2510.494615
1006.630138	2457.562500
1006.924266	2417.233269
1007.218359	2467.644808
1007.512416	2520.576923
1007.806438	2414.712692
1008.100425	2482.768269
1008.394376	2553.344423
1008.688292	2472.685962
1008.982172	2515.535769
1009.276017	2502.932885
1009.569827	2500.412308
1009.863602	2470.165385
1010.157341	2495.371154
1010.451045	2482.768269
1010.744714	2525.618077
1011.038347	2505.453462
1011.331945	2475.206538
1011.625508	2497.891731
1011.919036	2439.918462
1012.212528	2543.262115
1012.505986	2452.521346
1012.799408	2381.945192
1013.092795	2487.809423
1013.386147	2429.836154
1013.679464	2450.000769
1013.972745	2470.165385
1014.265992	2475.206538
1014.559204	2462.603654
1014.852380	2485.288846
1015.145521	2480.247692
1015.438628	2480.247692
1015.731699	2528.138654
1016.024736	2434.877308
1016.317737	2472.685962
1016.610703	2470.165385
1016.903635	2475.206538
1017.196531	2603.755962
1017.489393	2467.644808
1017.782219	2470.165385
1018.075011	2444.959615
1018.367768	2533.179808
1018.660490	2540.741538
1018.953177	2540.741538
1019.245829	2540.741538
