Dividing Wavelength (nm)	Counts (n)	Blue Motor Position (mm): 0.000000	Red Motor Position (mm): 4.000000	
326.493990	2054.270192
326.888308	2054.270192
327.282561	2054.270192
327.676750	2059.311346
328.070874	2046.708462
328.464933	2074.434808
328.858929	2013.940962
329.252859	2112.243462
329.646726	2071.914231
330.040528	2092.078846
330.434265	2079.475962
330.827938	2084.517115
331.221547	2165.175577
331.615091	2170.216731
332.008571	2170.216731
332.401986	2213.066538
332.795338	2235.751731
333.188625	2180.299038
333.581847	2208.025385
333.975006	2228.190000
334.368100	2326.492500
334.761129	2286.163269
335.154095	2334.054231
335.546996	2253.395769
335.939833	2334.054231
336.332606	2351.698269
336.725315	2392.027500
337.117960	2371.862885
337.510540	2381.945192
337.903056	2482.768269
338.295508	2475.206538
338.687896	2495.371154
339.080220	2379.424615
339.472480	2424.795000
339.864676	2374.383462
340.256807	2507.974038
340.648875	2452.521346
341.040879	2455.041923
341.432818	2502.932885
341.824694	2457.562500
342.216506	2472.685962
342.608253	2550.823846
342.999937	2482.768269
343.391557	2490.330000
343.783113	2452.521346
344.174605	2475.206538
344.566033	2485.288846
344.957397	2500.412308
345.348697	2490.330000
345.739934	2540.741538
346.131106	2467.644808
346.522215	2447.480192
346.913260	2439.918462
347.304241	2500.412308
347.695159	2465.124231
348.086012	2467.644808
348.476802	2427.315577
348.867528	2480.247692
349.258191	2450.000769
349.648789	2407.150962
350.039324	2432.356731
350.429796	2502.932885
350.820203	2429.836154
351.210548	2455.041923
351.600828	2412.192115
351.991045	2515.535769
352.381198	2434.877308
352.771288	2490.330000
353.161314	2432.356731
353.551276	2465.124231
353.941175	2452.521346
354.331010	2482.768269
354.720782	2480.247692
355.110490	2439.918462
355.500135	2417.233269
355.889717	2349.177692
356.279235	2424.795000
356.668689	2480.247692
357.058080	2389.506923
357.447408	2371.862885
357.836672	2480.247692
358.225873	2407.150962
358.615010	2495.371154
359.004084	2444.959615
359.393095	2450.000769
359.782043	2460.083077
360.170927	2447.480192
360.559748	2442.439038
360.948505	2366.821731
361.337199	2485.288846
361.725830	2470.165385
362.114398	2568.467885
362.502903	2384.465769
362.891344	2366.821731
363.279722	2452.521346
363.668037	2465.124231
364.056289	2472.685962
364.444478	2467.644808
364.832603	2452.521346
365.220665	2490.330000
365.608665	2407.150962
365.996601	2399.589231
366.384474	2447.480192
366.772284	2460.083077
367.160031	2429.836154
367.547715	2402.109808
367.935336	2540.741538
368.322893	2442.439038
368.710388	2465.124231
369.097820	2455.041923
369.485189	2510.494615
369.872495	2414.712692
370.259738	2495.371154
370.646918	2487.809423
371.034035	2477.727115
371.421090	2480.247692
371.808081	2432.356731
372.195010	2518.056346
372.581875	2462.603654
372.968678	2492.850577
373.355418	2520.576923
373.742096	2404.630385
374.128710	2477.727115
374.515262	2495.371154
374.901751	2500.412308
375.288177	2369.342308
375.674540	2467.644808
376.060841	2442.439038
376.447079	2518.056346
376.833254	2475.206538
377.219367	2450.000769
377.605417	2412.192115
377.991404	2495.371154
378.377329	2558.385577
378.763191	2447.480192
379.148991	2419.753846
379.534727	2475.206538
379.920402	2482.768269
380.306013	2371.862885
380.691563	2487.809423
381.077049	2525.618077
381.462474	2447.480192
381.847835	2439.918462
382.233134	2419.753846
382.618371	2432.356731
383.003545	2513.015192
383.388657	2462.603654
383.773706	2490.330000
384.158693	2394.548077
384.543618	2515.535769
384.928480	2419.753846
385.313280	2485.288846
385.698017	2455.041923
386.082692	2381.945192
386.467305	2467.644808
386.851856	2409.671538
387.236344	2371.862885
387.620770	2452.521346
388.005133	2525.618077
388.389435	2502.932885
388.773674	2424.795000
389.157851	2475.206538
389.541965	2379.424615
389.926018	2472.685962
390.310008	2439.918462
390.693936	2452.521346
391.077802	2502.932885
391.461606	2455.041923
391.845348	2434.877308
392.229027	2414.712692
392.612645	2490.330000
392.996200	2470.165385
393.379694	2397.068654
393.763125	2457.562500
394.146494	2407.150962
394.529801	2465.124231
394.913047	2384.465769
395.296230	2563.426731
395.679351	2528.138654
396.062410	2452.521346
396.445408	2513.015192
396.828343	2437.397885
397.211217	2439.918462
397.594028	2518.056346
397.976778	2465.124231
398.359466	2500.412308
398.742092	2442.439038
399.124656	2485.288846
399.507158	2507.974038
399.889598	2381.945192
400.271977	2409.671538
400.654294	2500.412308
401.036549	2502.932885
401.418742	2472.685962
401.800874	2434.877308
402.182944	2490.330000
402.564952	2480.247692
402.946898	2535.700385
403.328783	2434.877308
403.710606	2502.932885
404.092367	2505.453462
404.474067	2439.918462
404.855705	2477.727115
405.237282	2538.220962
405.618797	2545.782692
406.000250	2432.356731
406.381642	2525.618077
406.762972	2366.821731
407.144240	2452.521346
407.525447	2437.397885
407.906593	2399.589231
408.287677	2457.562500
408.668700	2472.685962
409.049661	2550.823846
409.430560	2487.809423
409.811399	2465.124231
410.192176	2412.192115
410.572891	2495.371154
410.953545	2414.712692
411.334138	2417.233269
411.714669	2422.274423
412.095139	2465.124231
412.475547	2386.986346
412.855894	2523.097500
413.236180	2442.439038
413.616405	2495.371154
413.996568	2412.192115
414.376670	2462.603654
414.756711	2444.959615
415.136691	2485.288846
415.516609	2507.974038
415.896466	2505.453462
416.276262	2480.247692
416.655997	2543.262115
417.035670	2392.027500
417.415283	2588.632500
417.794834	2397.068654
418.174324	2439.918462
418.553753	2475.206538
418.933121	2535.700385
419.312428	2447.480192
419.691674	2482.768269
420.070859	2460.083077
420.449983	2497.891731
420.829045	2457.562500
421.208047	2507.974038
421.586988	2530.659231
421.965867	2545.782692
422.344686	2548.303269
422.723444	2457.562500
423.102141	2497.891731
423.480777	2460.083077
423.859352	2472.685962
424.237866	2467.644808
424.616319	2472.685962
424.994712	2462.603654
425.373044	2530.659231
425.751314	2470.165385
426.129524	2452.521346
426.507673	2555.865000
426.885762	2545.782692
427.263789	2465.124231
427.641756	2560.906154
428.019662	2480.247692
428.397508	2432.356731
428.775292	2427.315577
429.153016	2482.768269
429.530679	2520.576923
429.908282	2550.823846
430.285824	2485.288846
430.663305	2467.644808
431.040726	2470.165385
431.418086	2495.371154
431.795385	2480.247692
432.172624	2543.262115
432.549802	2437.397885
432.926920	2525.618077
433.303977	2397.068654
433.680974	2480.247692
434.057910	2455.041923
434.434786	2518.056346
434.811601	2472.685962
435.188355	2412.192115
435.565050	2460.083077
435.941683	2402.109808
436.318257	2543.262115
436.694770	2419.753846
437.071222	2550.823846
437.447614	2475.206538
437.823946	2455.041923
438.200218	2429.836154
438.576429	2510.494615
438.952580	2450.000769
439.328670	2447.480192
439.704700	2477.727115
440.080670	2510.494615
440.456580	2515.535769
440.832429	2515.535769
441.208218	2472.685962
441.583947	2472.685962
441.959616	2490.330000
442.335224	2507.974038
442.710773	2548.303269
443.086261	2505.453462
443.461689	2379.424615
443.837057	2520.576923
444.212365	2497.891731
444.587612	2447.480192
444.962800	2497.891731
445.337927	2465.124231
445.712995	2560.906154
446.088002	2482.768269
446.462949	2518.056346
446.837837	2442.439038
447.212664	2502.932885
447.587431	2490.330000
447.962139	2540.741538
448.336786	2437.397885
448.711374	2535.700385
449.085901	2434.877308
449.460369	2525.618077
449.834776	2540.741538
450.209124	2462.603654
450.583412	2543.262115
450.957640	2543.262115
451.331808	2502.932885
451.705917	2460.083077
452.079965	2480.247692
452.453954	2525.618077
452.827883	2520.576923
453.201752	2470.165385
453.575562	2495.371154
453.949311	2570.988462
454.323001	2513.015192
454.696632	2475.206538
455.070202	2545.782692
455.443713	2477.727115
455.817164	2540.741538
456.190556	2465.124231
456.563888	2513.015192
456.937160	2442.439038
457.310373	2533.179808
457.683526	2515.535769
458.056619	2563.426731
458.429653	2480.247692
458.802628	2480.247692
459.175542	2535.700385
459.548398	2477.727115
459.921194	2545.782692
460.293930	2475.206538
460.666607	2510.494615
461.039224	2528.138654
461.411782	2507.974038
461.784280	2447.480192
462.156719	2487.809423
462.529099	2495.371154
462.901419	2477.727115
463.273680	2472.685962
463.645882	2543.262115
464.018024	2573.509038
464.390106	2518.056346
464.762130	2573.509038
465.134094	2475.206538
465.505999	2480.247692
465.877845	2500.412308
466.249631	2467.644808
466.621358	2485.288846
466.993026	2452.521346
467.364634	2470.165385
467.736184	2460.083077
468.107674	2513.015192
468.479105	2538.220962
468.850477	2570.988462
469.221790	2495.371154
469.593043	2515.535769
469.964238	2450.000769
470.335373	2457.562500
470.706449	2465.124231
471.077467	2518.056346
471.448425	2442.439038
471.819324	2510.494615
472.190164	2502.932885
472.560945	2442.439038
472.931667	2457.562500
473.302330	2500.412308
473.672934	2419.753846
474.043479	2525.618077
474.413965	2465.124231
474.784393	2513.015192
475.154761	2475.206538
475.525070	2530.659231
475.895321	2513.015192
476.265513	2578.550192
476.635645	2439.918462
477.005719	2507.974038
477.375734	2450.000769
477.745691	2475.206538
478.115588	2447.480192
478.485427	2525.618077
478.855207	2518.056346
479.224928	2490.330000
479.594591	2543.262115
479.964194	2513.015192
480.333739	2513.015192
480.703226	2487.809423
481.072653	2439.918462
481.442022	2465.124231
481.811333	2475.206538
482.180584	2434.877308
482.549777	2462.603654
482.918912	2475.206538
483.287988	2467.644808
483.657005	2523.097500
484.025964	2548.303269
484.394864	2424.795000
484.763706	2487.809423
485.132489	2492.850577
485.501213	2490.330000
485.869879	2452.521346
486.238487	2467.644808
486.607036	2553.344423
486.975527	2434.877308
487.343959	2429.836154
487.712333	2419.753846
488.080648	2553.344423
488.448905	2434.877308
488.817104	2523.097500
489.185244	2465.124231
489.553326	2480.247692
489.921350	2505.453462
490.289315	2432.356731
490.657222	2480.247692
491.025070	2497.891731
491.392861	2495.371154
491.760593	2497.891731
492.128267	2515.535769
492.495883	2455.041923
492.863440	2462.603654
493.230939	2513.015192
493.598380	2492.850577
493.965763	2492.850577
494.333088	2533.179808
494.700354	2414.712692
495.067563	2530.659231
495.434713	2530.659231
495.801805	2475.206538
496.168839	2500.412308
496.535815	2543.262115
496.902733	2495.371154
497.269593	2409.671538
497.636395	2452.521346
498.003139	2490.330000
498.369825	2510.494615
498.736453	2427.315577
499.103023	2555.865000
499.469535	2530.659231
499.835989	2520.576923
500.202385	2495.371154
500.568723	2558.385577
500.935003	2523.097500
501.301226	2490.330000
501.667390	2520.576923
502.033497	2447.480192
502.399546	2518.056346
502.765537	2530.659231
503.131470	2495.371154
503.497345	2586.111923
503.863163	2487.809423
504.228923	2518.056346
504.594625	2404.630385
504.960269	2538.220962
505.325856	2386.986346
505.691385	2497.891731
506.056856	2593.673654
506.422270	2507.974038
506.787625	2462.603654
507.152924	2553.344423
507.518164	2447.480192
507.883347	2470.165385
508.248472	2507.974038
508.613540	2490.330000
508.978550	2586.111923
509.343503	2513.015192
509.708398	2510.494615
510.073236	2523.097500
510.438016	2530.659231
510.802738	2507.974038
511.167403	2444.959615
511.532010	2465.124231
511.896561	2510.494615
512.261053	2444.959615
512.625488	2487.809423
512.989866	2457.562500
513.354186	2518.056346
513.718449	2444.959615
514.082655	2543.262115
514.446803	2447.480192
514.810894	2523.097500
515.174927	2477.727115
515.538904	2497.891731
515.902822	2525.618077
516.266684	2533.179808
516.630488	2409.671538
516.994235	2513.015192
517.357925	2513.015192
517.721558	2558.385577
518.085133	2530.659231
518.448651	2495.371154
518.812112	2510.494615
519.175516	2439.918462
519.538863	2533.179808
519.902152	2490.330000
520.265385	2417.233269
520.628560	2596.194231
520.991678	2439.918462
521.354739	2495.371154
521.717743	2525.618077
522.080690	2482.768269
522.443580	2407.150962
522.806413	2560.906154
523.169189	2543.262115
523.531908	2427.315577
523.894569	2450.000769
524.257174	2502.932885
524.619722	2450.000769
524.982213	2591.153077
525.344647	2447.480192
525.707025	2500.412308
526.069345	2485.288846
526.431608	2470.165385
526.793815	2560.906154
527.155964	2538.220962
527.518057	2470.165385
527.880093	2477.727115
528.242072	2500.412308
528.603995	2510.494615
528.965860	2447.480192
529.327669	2475.206538
529.689421	2427.315577
530.051117	2545.782692
530.412755	2576.029615
530.774337	2442.439038
531.135862	2467.644808
531.497331	2487.809423
531.858743	2538.220962
532.220098	2437.397885
532.581396	2570.988462
532.942638	2507.974038
533.303824	2492.850577
533.664953	2497.891731
534.026025	2523.097500
534.387040	2631.482308
534.747999	2518.056346
535.108902	2525.618077
535.469748	2608.797115
535.830537	2490.330000
536.191270	2530.659231
536.551947	2497.891731
536.912567	2447.480192
537.273131	2452.521346
537.633638	2500.412308
537.994089	2505.453462
538.354483	2507.974038
538.714821	2492.850577
539.075103	2485.288846
539.435328	2455.041923
539.795497	2523.097500
540.155609	2376.904038
540.515665	2530.659231
540.875665	2467.644808
541.235609	2502.932885
541.595496	2500.412308
541.955328	2523.097500
542.315102	2475.206538
542.674821	2407.150962
543.034483	2520.576923
543.394090	2480.247692
543.753640	2530.659231
544.113134	2492.850577
544.472571	2538.220962
544.831953	2530.659231
545.191278	2475.206538
545.550548	2500.412308
545.909761	2444.959615
546.268918	2533.179808
546.628019	2535.700385
546.987064	2487.809423
547.346053	2444.959615
547.704986	2558.385577
548.063863	2434.877308
548.422684	2573.509038
548.781449	2644.085192
549.140158	2472.685962
549.498811	2568.467885
549.857408	2462.603654
550.215949	2470.165385
550.574434	2510.494615
550.932864	2555.865000
551.291237	2563.426731
551.649555	2450.000769
552.007817	2525.618077
552.366022	2560.906154
552.724173	2457.562500
553.082267	2510.494615
553.440305	2470.165385
553.798288	2492.850577
554.156215	2510.494615
554.514086	2523.097500
554.871902	2475.206538
555.229661	2520.576923
555.587365	2414.712692
555.945014	2515.535769
556.302606	2490.330000
556.660143	2533.179808
557.017625	2490.330000
557.375050	2553.344423
557.732421	2447.480192
558.089735	2505.453462
558.446994	2470.165385
558.804197	2550.823846
559.161345	2525.618077
559.518437	2528.138654
559.875474	2457.562500
560.232455	2455.041923
560.589381	2429.836154
560.946251	2543.262115
561.303065	2578.550192
561.659825	2492.850577
562.016528	2497.891731
562.373177	2495.371154
562.729770	2490.330000
563.086307	2568.467885
563.442789	2490.330000
563.799216	2598.714808
564.155587	2477.727115
564.511904	2520.576923
564.868164	2462.603654
565.224370	2515.535769
565.580520	2573.509038
565.936615	2442.439038
566.292654	2505.453462
566.648638	2560.906154
567.004567	2507.974038
567.360441	2520.576923
567.716260	2500.412308
568.072023	2518.056346
568.427732	2510.494615
568.783385	2492.850577
569.138982	2465.124231
569.494525	2475.206538
569.850013	2513.015192
570.205445	2535.700385
570.560823	2465.124231
570.916145	2477.727115
571.271412	2553.344423
571.626625	2520.576923
571.981782	2457.562500
572.336884	2578.550192
572.691931	2603.755962
573.046923	2404.630385
573.401860	2586.111923
573.756743	2457.562500
574.111570	2518.056346
574.466342	2565.947308
574.821059	2603.755962
575.175722	2482.768269
575.530330	2497.891731
575.884882	2467.644808
576.239380	2477.727115
576.593823	2495.371154
576.948211	2485.288846
577.302544	2442.439038
577.656823	2528.138654
578.011047	2528.138654
578.365216	2518.056346
578.719330	2462.603654
579.073389	2550.823846
579.427394	2472.685962
579.781344	2558.385577
580.135239	2533.179808
580.489080	2465.124231
580.842866	2495.371154
581.196597	2545.782692
581.550273	2472.685962
581.903895	2444.959615
582.257463	2528.138654
582.610975	2543.262115
582.964434	2523.097500
583.317837	2414.712692
583.671186	2492.850577
584.024481	2482.768269
584.377721	2576.029615
584.730906	2495.371154
585.084037	2603.755962
585.437113	2465.124231
585.790135	2515.535769
586.143103	2543.262115
586.496016	2452.521346
586.848874	2550.823846
587.201679	2452.521346
587.554428	2462.603654
587.907124	2565.947308
588.259765	2460.083077
588.612352	2586.111923
588.964884	2439.918462
589.317362	2520.576923
589.669786	2507.974038
590.022155	2475.206538
590.374470	2467.644808
590.726731	2490.330000
591.078937	2495.371154
591.431090	2457.562500
591.783188	2578.550192
592.135232	2588.632500
592.487222	2460.083077
592.839157	2518.056346
593.191038	2518.056346
593.542866	2487.809423
593.894639	2457.562500
594.246358	2550.823846
594.598022	2472.685962
594.949633	2528.138654
595.301190	2538.220962
595.652692	2583.591346
596.004141	2465.124231
596.355535	2470.165385
596.706876	2492.850577
597.058162	2507.974038
597.409395	2455.041923
597.760573	2553.344423
598.111698	2470.165385
598.462768	2480.247692
598.813785	2497.891731
599.164748	2487.809423
599.515657	2480.247692
599.866511	2505.453462
600.217312	2470.165385
600.568060	2487.809423
600.918753	2407.150962
601.269392	2490.330000
601.619978	2477.727115
601.970510	2510.494615
602.320988	2523.097500
602.671412	2518.056346
603.021783	2550.823846
603.372100	2598.714808
603.722363	2475.206538
604.072572	2520.576923
604.422728	2507.974038
604.772830	2495.371154
605.122878	2523.097500
605.472872	2447.480192
605.822813	2550.823846
606.172701	2482.768269
606.522534	2563.426731
606.872314	2601.235385
607.222041	2457.562500
607.571714	2545.782692
607.921333	2480.247692
608.270899	2450.000769
608.620411	2404.630385
608.969870	2477.727115
609.319276	2507.974038
609.668627	2450.000769
610.017926	2626.441154
610.367171	2518.056346
610.716362	2487.809423
611.065500	2422.274423
611.414585	2606.276538
611.763616	2477.727115
612.112594	2497.891731
612.461518	2397.068654
612.810389	2545.782692
613.159207	2497.891731
613.507971	2573.509038
613.856682	2518.056346
614.205340	2482.768269
614.553945	2548.303269
614.902496	2543.262115
615.250994	2540.741538
615.599439	2427.315577
615.947830	2570.988462
616.296169	2528.138654
616.644454	2560.906154
616.992686	2530.659231
617.340864	2553.344423
617.688990	2444.959615
618.037063	2548.303269
618.385082	2429.836154
618.733048	2520.576923
619.080961	2475.206538
619.428821	2548.303269
619.776628	2533.179808
620.124382	2465.124231
620.472083	2515.535769
620.819731	2447.480192
621.167326	2543.262115
621.514868	2555.865000
621.862357	2502.932885
622.209793	2452.521346
622.557176	2573.509038
622.904506	2495.371154
623.251783	2507.974038
623.599007	2586.111923
623.946179	2510.494615
624.293297	2419.753846
624.640363	2467.644808
624.987376	2543.262115
625.334336	2442.439038
625.681243	2490.330000
626.028097	2535.700385
626.374899	2543.262115
626.721647	2485.288846
627.068343	2510.494615
627.414987	2485.288846
627.761577	2548.303269
628.108115	2505.453462
628.454600	2452.521346
628.801032	2540.741538
629.147412	2548.303269
629.493739	2462.603654
629.840014	2528.138654
630.186236	2470.165385
630.532405	2540.741538
630.878521	2452.521346
631.224585	2470.165385
631.570597	2462.603654
631.916556	2540.741538
632.262462	2424.795000
632.608316	2586.111923
632.954117	2545.782692
633.299866	2490.330000
633.645562	2439.918462
633.991206	2467.644808
634.336797	2492.850577
634.682336	2482.768269
635.027823	2409.671538
635.373257	2394.548077
635.718639	2513.015192
636.063968	2490.330000
636.409245	2520.576923
636.754470	2455.041923
637.099642	2528.138654
637.444762	2470.165385
637.789829	2500.412308
638.134845	2525.618077
638.479808	2513.015192
638.824719	2487.809423
639.169577	2414.712692
639.514383	2525.618077
639.859137	2543.262115
640.203839	2500.412308
640.548489	2563.426731
640.893086	2472.685962
641.237632	2533.179808
641.582125	2465.124231
641.926566	2465.124231
642.270955	2515.535769
642.615292	2530.659231
642.959576	2460.083077
643.303809	2497.891731
643.647990	2578.550192
643.992118	2502.932885
644.336195	2550.823846
644.680219	2510.494615
645.024192	2568.467885
645.368112	2452.521346
645.711981	2495.371154
646.055797	2495.371154
646.399562	2500.412308
646.743274	2477.727115
647.086935	2560.906154
647.430544	2492.850577
647.774101	2472.685962
648.117606	2490.330000
648.461059	2507.974038
648.804460	2465.124231
649.147810	2540.741538
649.491108	2419.753846
649.834354	2450.000769
650.177548	2543.262115
650.520690	2472.685962
650.863781	2515.535769
651.206820	2540.741538
651.549807	2485.288846
651.892742	2409.671538
652.235626	2450.000769
652.578458	2513.015192
652.921238	2414.712692
653.263967	2412.192115
653.606644	2495.371154
653.949269	2505.453462
654.291843	2505.453462
654.634365	2533.179808
654.976836	2414.712692
655.319255	2462.603654
655.661622	2457.562500
656.003938	2553.344423
656.346203	2460.083077
656.688416	2427.315577
657.030577	2510.494615
657.372687	2442.439038
657.714746	2505.453462
658.056753	2414.712692
658.398708	2482.768269
658.740612	2495.371154
659.082465	2530.659231
659.424266	2482.768269
659.766016	2497.891731
660.107715	2460.083077
660.449362	2492.850577
660.790958	2626.441154
661.132503	2601.235385
661.473996	2528.138654
661.815438	2500.412308
662.156829	2581.070769
662.498168	2568.467885
662.839456	2399.589231
663.180693	2422.274423
663.521879	2439.918462
663.863013	2485.288846
664.204097	2497.891731
664.545129	2525.618077
664.886110	2525.618077
665.227040	2565.947308
665.567918	2472.685962
665.908746	2528.138654
666.249522	2437.397885
666.590248	2502.932885
666.930922	2538.220962
667.271545	2535.700385
667.612118	2558.385577
667.952639	2477.727115
668.293109	2515.535769
668.633528	2407.150962
668.973896	2492.850577
669.314213	2523.097500
669.654480	2518.056346
669.994695	2497.891731
670.334859	2477.727115
670.674973	2525.618077
671.015035	2480.247692
671.355047	2482.768269
671.695008	2502.932885
672.034918	2543.262115
672.374777	2578.550192
672.714585	2505.453462
673.054342	2500.412308
673.394049	2515.535769
673.733705	2455.041923
674.073310	2417.233269
674.412864	2397.068654
674.752368	2555.865000
675.091820	2472.685962
675.431223	2548.303269
675.770574	2487.809423
676.109875	2548.303269
676.449125	2492.850577
676.788324	2490.330000
677.127473	2568.467885
677.466571	2482.768269
677.805619	2442.439038
678.144616	2434.877308
678.483562	2530.659231
678.822458	2442.439038
679.161303	2510.494615
679.500098	2444.959615
679.838842	2523.097500
680.177535	2429.836154
680.516179	2495.371154
680.854771	2495.371154
681.193314	2447.480192
681.531805	2439.918462
681.870247	2545.782692
682.208638	2457.562500
682.546978	2492.850577
682.885268	2507.974038
683.223508	2475.206538
683.561697	2422.274423
683.899836	2513.015192
684.237925	2470.165385
684.575963	2467.644808
684.913951	2497.891731
685.251889	2545.782692
685.589776	2505.453462
685.927614	2404.630385
686.265401	2538.220962
686.603137	2472.685962
686.940824	2543.262115
687.278460	2518.056346
687.616046	2618.879423
687.953582	2467.644808
688.291068	2480.247692
688.628504	2480.247692
688.965889	2523.097500
689.303224	2447.480192
689.640510	2417.233269
689.977745	2414.712692
690.314930	2495.371154
690.652065	2455.041923
690.989150	2548.303269
691.326185	2502.932885
691.663170	2523.097500
692.000105	2533.179808
692.336990	2563.426731
692.673825	2513.015192
693.010610	2525.618077
693.347345	2505.453462
693.684030	2495.371154
694.020665	2560.906154
694.357251	2581.070769
694.693786	2487.809423
695.030272	2523.097500
695.366707	2533.179808
695.703093	2490.330000
696.039429	2510.494615
696.375716	2543.262115
696.711952	2550.823846
697.048139	2500.412308
697.384276	2450.000769
697.720363	2525.618077
698.056400	2455.041923
698.392388	2374.383462
698.728326	2500.412308
699.064214	2419.753846
699.400053	2422.274423
699.735842	2467.644808
700.071581	2457.562500
700.407270	2530.659231
700.742910	2591.153077
701.078501	2510.494615
701.414042	2492.850577
701.749533	2533.179808
702.084974	2404.630385
702.420366	2525.618077
702.755709	2535.700385
703.091002	2550.823846
703.426246	2576.029615
703.761440	2558.385577
704.096584	2477.727115
704.431679	2548.303269
704.766725	2495.371154
705.101721	2533.179808
705.436668	2452.521346
705.771565	2543.262115
706.106413	2513.015192
706.441212	2513.015192
706.775961	2560.906154
707.110661	2550.823846
707.445311	2500.412308
707.779913	2424.795000
708.114465	2439.918462
708.448967	2550.823846
708.783421	2505.453462
709.117825	2515.535769
709.452180	2533.179808
709.786485	2601.235385
710.120742	2429.836154
710.454949	2482.768269
710.789107	2507.974038
711.123216	2475.206538
711.457275	2540.741538
711.791286	2515.535769
712.125247	2485.288846
712.459159	2502.932885
712.793023	2533.179808
713.126837	2500.412308
713.460602	2447.480192
713.794318	2518.056346
714.127985	2455.041923
714.461602	2525.618077
714.795171	2485.288846
715.128691	2502.932885
715.462162	2518.056346
715.795584	2437.397885
716.128957	2507.974038
716.462281	2472.685962
716.795556	2555.865000
717.128782	2513.015192
717.461960	2563.426731
717.795088	2447.480192
718.128167	2429.836154
718.461198	2462.603654
718.794180	2455.041923
719.127113	2565.947308
719.459997	2457.562500
719.792833	2505.453462
720.125619	2480.247692
720.458357	2472.685962
720.791046	2462.603654
721.123686	2482.768269
721.456278	2472.685962
721.788821	2555.865000
722.121315	2535.700385
722.453761	2480.247692
722.786158	2495.371154
723.118506	2374.383462
723.450805	2553.344423
723.783056	2482.768269
724.115259	2475.206538
724.447412	2482.768269
724.779518	2548.303269
725.111574	2525.618077
725.443582	2545.782692
725.775542	2628.961731
726.107453	2475.206538
726.439315	2462.603654
726.771129	2533.179808
727.102895	2497.891731
727.434612	2573.509038
727.766281	2492.850577
728.097901	2439.918462
728.429473	2525.618077
728.760996	2518.056346
729.092471	2530.659231
729.423897	2550.823846
729.755276	2444.959615
730.086606	2507.974038
730.417887	2548.303269
730.749120	2555.865000
731.080305	2530.659231
731.411442	2477.727115
731.742530	2477.727115
732.073570	2553.344423
732.404562	2437.397885
732.735506	2540.741538
733.066401	2477.727115
733.397249	2477.727115
733.728048	2520.576923
734.058798	2472.685962
734.389501	2565.947308
734.720156	2538.220962
735.050762	2598.714808
735.381320	2500.412308
735.711831	2520.576923
736.042293	2432.356731
736.372707	2497.891731
736.703073	2462.603654
737.033391	2495.371154
737.363661	2520.576923
737.693883	2540.741538
738.024056	2518.056346
738.354182	2450.000769
738.684260	2457.562500
739.014290	2505.453462
739.344272	2475.206538
739.674207	2487.809423
740.004093	2510.494615
740.333931	2502.932885
740.663722	2518.056346
740.993464	2518.056346
741.323159	2523.097500
741.652806	2404.630385
741.982405	2540.741538
742.311956	2492.850577
742.641460	2472.685962
742.970915	2490.330000
743.300323	2603.755962
743.629683	2550.823846
743.958996	2465.124231
744.288260	2530.659231
744.617477	2480.247692
744.946647	2404.630385
745.275768	2525.618077
745.604842	2538.220962
745.933869	2520.576923
746.262847	2485.288846
746.591778	2513.015192
746.920662	2507.974038
747.249498	2482.768269
747.578286	2550.823846
747.907027	2487.809423
748.235720	2520.576923
748.564365	2487.809423
748.892963	2535.700385
749.221514	2470.165385
749.550017	2588.632500
749.878473	2470.165385
750.206881	2518.056346
750.535242	2487.809423
750.863555	2555.865000
751.191821	2482.768269
751.520039	2455.041923
751.848210	2447.480192
752.176334	2437.397885
752.504411	2492.850577
752.832440	2429.836154
753.160421	2593.673654
753.488356	2528.138654
753.816243	2573.509038
754.144082	2460.083077
754.471875	2500.412308
754.799620	2465.124231
755.127318	2538.220962
755.454969	2414.712692
755.782572	2530.659231
756.110129	2434.877308
756.437638	2467.644808
756.765100	2518.056346
757.092515	2543.262115
757.419882	2419.753846
757.747203	2477.727115
758.074477	2523.097500
758.401703	2553.344423
758.728882	2434.877308
759.056014	2465.124231
759.383099	2452.521346
759.710138	2540.741538
760.037129	2429.836154
760.364073	2462.603654
760.690970	2492.850577
761.017820	2475.206538
761.344623	2515.535769
761.671379	2530.659231
761.998088	2550.823846
762.324751	2581.070769
762.651366	2422.274423
762.977935	2482.768269
763.304456	2444.959615
763.630931	2515.535769
763.957359	2510.494615
764.283740	2540.741538
764.610074	2470.165385
764.936362	2497.891731
765.262602	2487.809423
765.588796	2555.865000
765.914943	2475.206538
766.241044	2500.412308
766.567097	2497.891731
766.893104	2462.603654
767.219064	2523.097500
767.544978	2538.220962
767.870845	2565.947308
768.196665	2482.768269
768.522438	2450.000769
768.848165	2495.371154
769.173846	2523.097500
769.499479	2482.768269
769.825066	2515.535769
770.150607	2545.782692
770.476101	2502.932885
770.801548	2470.165385
771.126949	2475.206538
771.452303	2553.344423
771.777611	2553.344423
772.102872	2470.165385
772.428087	2520.576923
772.753256	2442.439038
773.078378	2444.959615
773.403453	2439.918462
773.728482	2535.700385
774.053465	2601.235385
774.378401	2495.371154
774.703291	2518.056346
775.028135	2540.741538
775.352932	2507.974038
775.677683	2490.330000
776.002388	2477.727115
776.327046	2487.809423
776.651658	2455.041923
776.976224	2497.891731
777.300743	2520.576923
777.625216	2467.644808
777.949643	2513.015192
778.274024	2518.056346
778.598359	2437.397885
778.922647	2414.712692
779.246889	2543.262115
779.571086	2455.041923
779.895236	2427.315577
780.219339	2472.685962
780.543397	2457.562500
780.867409	2591.153077
781.191374	2482.768269
781.515294	2502.932885
781.839167	2525.618077
782.162995	2427.315577
782.486776	2465.124231
782.810511	2550.823846
783.134201	2500.412308
783.457844	2518.056346
783.781441	2402.109808
784.104993	2518.056346
784.428498	2460.083077
784.751958	2374.383462
785.075372	2482.768269
785.398739	2540.741538
785.722061	2568.467885
786.045337	2470.165385
786.368568	2533.179808
786.691752	2495.371154
787.014891	2535.700385
787.337983	2518.056346
787.661030	2515.535769
787.984031	2500.412308
788.306987	2497.891731
788.629897	2533.179808
788.952760	2482.768269
789.275579	2533.179808
789.598351	2470.165385
789.921078	2553.344423
790.243759	2540.741538
790.566395	2465.124231
790.888984	2565.947308
791.211529	2500.412308
791.534027	2460.083077
791.856480	2470.165385
792.178888	2583.591346
792.501249	2588.632500
792.823566	2485.288846
793.145836	2495.371154
793.468062	2414.712692
793.790241	2525.618077
794.112375	2452.521346
794.434464	2462.603654
794.756507	2477.727115
795.078505	2482.768269
795.400457	2518.056346
795.722364	2510.494615
796.044226	2485.288846
796.366042	2502.932885
796.687812	2384.465769
797.009538	2477.727115
797.331218	2434.877308
797.652852	2452.521346
797.974442	2581.070769
798.295986	2477.727115
798.617484	2563.426731
798.938938	2452.521346
799.260346	2505.453462
799.581709	2460.083077
799.903026	2603.755962
800.224299	2439.918462
800.545526	2495.371154
800.866708	2538.220962
801.187845	2530.659231
801.508936	2540.741538
801.829983	2576.029615
802.150984	2548.303269
802.471940	2472.685962
802.792851	2560.906154
803.113717	2470.165385
803.434538	2492.850577
803.755314	2442.439038
804.076045	2475.206538
804.396731	2480.247692
804.717372	2560.906154
805.037967	2480.247692
805.358518	2555.865000
805.679024	2538.220962
805.999485	2434.877308
806.319901	2495.371154
806.640272	2505.453462
806.960598	2477.727115
807.280879	2513.015192
807.601115	2472.685962
807.921306	2462.603654
808.241453	2417.233269
808.561554	2422.274423
808.881611	2465.124231
809.201623	2560.906154
809.521590	2586.111923
809.841513	2593.673654
810.161390	2500.412308
810.481223	2507.974038
810.801011	2515.535769
811.120755	2492.850577
811.440453	2535.700385
811.760107	2525.618077
812.079716	2553.344423
812.399281	2563.426731
812.718801	2470.165385
813.038276	2573.509038
813.357707	2447.480192
813.677093	2535.700385
813.996434	2495.371154
814.315731	2490.330000
814.634983	2510.494615
814.954191	2442.439038
815.273354	2502.932885
815.592473	2518.056346
815.911547	2480.247692
816.230577	2480.247692
816.549562	2500.412308
816.868502	2439.918462
817.187399	2467.644808
817.506250	2485.288846
817.825058	2550.823846
818.143821	2555.865000
818.462539	2525.618077
818.781213	2437.397885
819.099843	2507.974038
819.418429	2510.494615
819.736970	2492.850577
820.055466	2507.974038
820.373919	2553.344423
820.692327	2563.426731
821.010691	2530.659231
821.329011	2500.412308
821.647286	2543.262115
821.965517	2510.494615
822.283704	2616.358846
822.601847	2510.494615
822.919945	2475.206538
823.237999	2475.206538
823.556010	2530.659231
823.873976	2578.550192
824.191897	2550.823846
824.509775	2513.015192
824.827609	2467.644808
825.145398	2444.959615
825.463144	2518.056346
825.780845	2460.083077
826.098502	2576.029615
826.416116	2492.850577
826.733685	2452.521346
827.051210	2558.385577
827.368692	2525.618077
827.686129	2427.315577
828.003522	2470.165385
828.320872	2444.959615
828.638177	2447.480192
828.955439	2447.480192
829.272656	2452.521346
829.589830	2535.700385
829.906960	2563.426731
830.224046	2386.986346
830.541088	2507.974038
830.858086	2565.947308
831.175041	2563.426731
831.491952	2525.618077
831.808819	2518.056346
832.125642	2392.027500
832.442421	2472.685962
832.759157	2470.165385
833.075849	2467.644808
833.392497	2482.768269
833.709101	2515.535769
834.025662	2576.029615
834.342179	2520.576923
834.658653	2452.521346
834.975083	2439.918462
835.291469	2437.397885
835.607811	2518.056346
835.924110	2520.576923
836.240366	2540.741538
836.556578	2465.124231
836.872746	2462.603654
837.188871	2452.521346
837.504952	2495.371154
837.820990	2439.918462
838.136984	2482.768269
838.452935	2465.124231
838.768842	2555.865000
839.084706	2427.315577
839.400526	2510.494615
839.716303	2439.918462
840.032037	2543.262115
840.347727	2497.891731
840.663373	2402.109808
840.978977	2485.288846
841.294537	2465.124231
841.610054	2520.576923
841.925527	2502.932885
842.240957	2510.494615
842.556344	2472.685962
842.871687	2507.974038
843.186987	2460.083077
843.502244	2495.371154
843.817458	2485.288846
844.132629	2525.618077
844.447756	2477.727115
844.762840	2565.947308
845.077881	2548.303269
845.392879	2588.632500
845.707833	2462.603654
846.022745	2482.768269
846.337613	2502.932885
846.652438	2543.262115
846.967221	2462.603654
847.281960	2520.576923
847.596656	2485.288846
847.911309	2450.000769
848.225919	2545.782692
848.540485	2424.795000
848.855009	2560.906154
849.169490	2502.932885
849.483928	2515.535769
849.798323	2543.262115
850.112675	2507.974038
850.426984	2490.330000
850.741251	2424.795000
851.055474	2482.768269
851.369654	2465.124231
851.683792	2457.562500
851.997887	2555.865000
852.311938	2447.480192
852.625947	2500.412308
852.939914	2523.097500
853.253837	2553.344423
853.567718	2497.891731
853.881555	2507.974038
854.195350	2576.029615
854.509103	2520.576923
854.822812	2475.206538
855.136479	2482.768269
855.450103	2437.397885
855.763685	2477.727115
856.077224	2570.988462
856.390720	2538.220962
856.704173	2444.959615
857.017584	2452.521346
857.330953	2462.603654
857.644278	2530.659231
857.957561	2513.015192
858.270802	2482.768269
858.584000	2495.371154
858.897155	2470.165385
859.210268	2535.700385
859.523339	2480.247692
859.836367	2510.494615
860.149352	2563.426731
860.462295	2510.494615
860.775195	2533.179808
861.088054	2520.576923
861.400869	2520.576923
861.713642	2495.371154
862.026373	2490.330000
862.339062	2480.247692
862.651708	2424.795000
862.964312	2404.630385
863.276873	2538.220962
863.589392	2525.618077
863.901869	2455.041923
864.214303	2513.015192
864.526696	2482.768269
864.839045	2447.480192
865.151353	2507.974038
865.463619	2543.262115
865.775842	2495.371154
866.088023	2480.247692
866.400162	2543.262115
866.712258	2497.891731
867.024313	2550.823846
867.336325	2487.809423
867.648296	2485.288846
867.960224	2535.700385
868.272110	2507.974038
868.583954	2460.083077
868.895755	2558.385577
869.207515	2477.727115
869.519233	2538.220962
869.830909	2432.356731
870.142542	2490.330000
870.454134	2568.467885
870.765684	2548.303269
871.077191	2513.015192
871.388657	2470.165385
871.700081	2545.782692
872.011463	2472.685962
872.322803	2477.727115
872.634101	2545.782692
872.945357	2510.494615
873.256571	2467.644808
873.567744	2414.712692
873.878874	2447.480192
874.189963	2553.344423
874.501010	2485.288846
874.812015	2412.192115
875.122979	2467.644808
875.433900	2462.603654
875.744780	2434.877308
876.055618	2507.974038
876.366415	2510.494615
876.677169	2553.344423
876.987882	2450.000769
877.298554	2427.315577
877.609183	2452.521346
877.919771	2505.453462
878.230317	2470.165385
878.540822	2555.865000
878.851285	2477.727115
879.161707	2419.753846
879.472087	2487.809423
879.782425	2495.371154
880.092722	2538.220962
880.402977	2538.220962
880.713191	2510.494615
881.023363	2462.603654
881.333494	2457.562500
881.643583	2513.015192
881.953631	2452.521346
882.263637	2530.659231
882.573602	2490.330000
882.883526	2568.467885
883.193408	2495.371154
883.503248	2540.741538
883.813048	2470.165385
884.122806	2439.918462
884.432522	2477.727115
884.742197	2543.262115
885.051831	2490.330000
885.361424	2510.494615
885.670975	2485.288846
885.980485	2518.056346
886.289954	2485.288846
886.599382	2495.371154
886.908768	2490.330000
887.218113	2528.138654
887.527417	2462.603654
887.836680	2573.509038
888.145901	2487.809423
888.455082	2515.535769
888.764221	2558.385577
889.073319	2490.330000
889.382376	2525.618077
889.691392	2482.768269
890.000366	2502.932885
890.309300	2437.397885
890.618193	2490.330000
890.927044	2502.932885
891.235855	2439.918462
891.544625	2545.782692
891.853353	2447.480192
892.162041	2470.165385
892.470687	2460.083077
892.779293	2490.330000
893.087858	2502.932885
893.396381	2497.891731
893.704864	2490.330000
894.013306	2525.618077
894.321707	2500.412308
894.630068	2495.371154
894.938387	2558.385577
895.246665	2500.412308
895.554903	2432.356731
895.863100	2490.330000
896.171256	2608.797115
896.479371	2492.850577
896.787446	2505.453462
897.095480	2515.535769
897.403473	2525.618077
897.711425	2558.385577
898.019336	2510.494615
898.327207	2482.768269
898.635038	2593.673654
898.942827	2558.385577
899.250576	2513.015192
899.558284	2490.330000
899.865952	2555.865000
900.173579	2450.000769
900.481165	2447.480192
900.788711	2550.823846
901.096216	2520.576923
901.403681	2442.439038
901.711105	2434.877308
902.018489	2417.233269
902.325832	2500.412308
902.633135	2450.000769
902.940397	2540.741538
903.247619	2507.974038
903.554800	2492.850577
903.861941	2465.124231
904.169041	2530.659231
904.476101	2576.029615
904.783121	2472.685962
905.090100	2490.330000
905.397039	2462.603654
905.703938	2550.823846
906.010796	2598.714808
906.317614	2495.371154
906.624391	2525.618077
906.931129	2465.124231
907.237826	2510.494615
907.544483	2442.439038
907.851099	2497.891731
908.157675	2452.521346
908.464211	2593.673654
908.770707	2450.000769
909.077163	2525.618077
909.383578	2553.344423
909.689954	2560.906154
909.996289	2439.918462
910.302584	2535.700385
910.608839	2543.262115
910.915054	2530.659231
911.221229	2570.988462
911.527363	2470.165385
911.833458	2457.562500
912.139513	2490.330000
912.445527	2505.453462
912.751502	2429.836154
913.057436	2540.741538
913.363331	2482.768269
913.669186	2505.453462
913.975000	2472.685962
914.280775	2520.576923
914.586510	2535.700385
914.892205	2465.124231
915.197859	2477.727115
915.503475	2510.494615
915.809050	2500.412308
916.114585	2568.467885
916.420081	2407.150962
916.725536	2392.027500
917.030952	2470.165385
917.336328	2495.371154
917.641665	2558.385577
917.946961	2432.356731
918.252218	2576.029615
918.557435	2460.083077
918.862612	2507.974038
919.167750	2412.192115
919.472848	2510.494615
919.777906	2427.315577
920.082925	2530.659231
920.387904	2573.509038
920.692843	2485.288846
920.997743	2444.959615
921.302603	2538.220962
921.607423	2460.083077
921.912204	2450.000769
922.216946	2523.097500
922.521647	2432.356731
922.826310	2437.397885
923.130932	2389.506923
923.435516	2535.700385
923.740059	2570.988462
924.044564	2535.700385
924.349028	2482.768269
924.653454	2515.535769
924.957840	2568.467885
925.262186	2480.247692
925.566493	2482.768269
925.870761	2500.412308
926.174989	2497.891731
926.479178	2507.974038
926.783328	2455.041923
927.087438	2606.276538
927.391509	2475.206538
927.695541	2402.109808
927.999533	2472.685962
928.303486	2432.356731
928.607400	2533.179808
928.911275	2502.932885
929.215110	2495.371154
929.518906	2550.823846
929.822663	2535.700385
930.126381	2470.165385
930.430060	2510.494615
930.733699	2432.356731
931.037299	2530.659231
931.340861	2432.356731
931.644383	2495.371154
931.947866	2555.865000
932.251309	2540.741538
932.554714	2490.330000
932.858080	2460.083077
933.161407	2502.932885
933.464694	2523.097500
933.767943	2485.288846
934.071153	2495.371154
934.374323	2389.506923
934.677455	2490.330000
934.980548	2550.823846
935.283602	2538.220962
935.586617	2538.220962
935.889593	2439.918462
936.192530	2555.865000
936.495428	2510.494615
936.798287	2482.768269
937.101108	2507.974038
937.403890	2490.330000
937.706632	2457.562500
938.009336	2495.371154
938.312002	2480.247692
938.614628	2442.439038
938.917216	2384.465769
939.219765	2452.521346
939.522275	2543.262115
939.824747	2465.124231
940.127179	2515.535769
940.429573	2482.768269
940.731929	2510.494615
941.034246	2444.959615
941.336524	2452.521346
941.638763	2422.274423
941.940964	2490.330000
942.243126	2530.659231
942.545250	2507.974038
942.847335	2465.124231
943.149381	2530.659231
943.451389	2485.288846
943.753359	2525.618077
944.055290	2518.056346
944.357182	2502.932885
944.659036	2444.959615
944.960851	2507.974038
945.262628	2472.685962
945.564367	2447.480192
945.866067	2525.618077
946.167729	2558.385577
946.469352	2427.315577
946.770937	2550.823846
947.072484	2477.727115
947.373992	2523.097500
947.675462	2397.068654
947.976893	2528.138654
948.278286	2525.618077
948.579641	2422.274423
948.880958	2555.865000
949.182236	2523.097500
949.483476	2432.356731
949.784678	2407.150962
950.085841	2505.453462
950.386967	2477.727115
950.688054	2490.330000
950.989103	2480.247692
951.290114	2538.220962
951.591087	2407.150962
951.892021	2548.303269
952.192917	2505.453462
952.493776	2485.288846
952.794596	2523.097500
953.095378	2437.397885
953.396122	2492.850577
953.696828	2548.303269
953.997496	2482.768269
954.298126	2510.494615
954.598718	2447.480192
954.899272	2530.659231
955.199788	2422.274423
955.500266	2535.700385
955.800706	2480.247692
956.101108	2518.056346
956.401472	2525.618077
956.701798	2510.494615
957.002087	2472.685962
957.302337	2520.576923
957.602550	2462.603654
957.902724	2487.809423
958.202861	2500.412308
958.502960	2480.247692
958.803022	2475.206538
959.103045	2424.795000
959.403031	2462.603654
959.702979	2434.877308
960.002889	2399.589231
960.302762	2492.850577
960.602596	2472.685962
960.902393	2535.700385
961.202153	2467.644808
961.501875	2515.535769
961.801559	2485.288846
962.101205	2485.288846
962.400814	2447.480192
962.700385	2523.097500
962.999918	2518.056346
963.299414	2548.303269
963.598873	2472.685962
963.898293	2492.850577
964.197677	2495.371154
964.497022	2452.521346
964.796331	2548.303269
965.095601	2495.371154
965.394835	2505.453462
965.694030	2442.439038
965.993189	2444.959615
966.292309	2397.068654
966.591393	2543.262115
966.890439	2497.891731
967.189447	2520.576923
967.488419	2523.097500
967.787353	2523.097500
968.086249	2460.083077
968.385108	2487.809423
968.683930	2505.453462
968.982714	2444.959615
969.281462	2530.659231
969.580172	2515.535769
969.878844	2467.644808
970.177480	2487.809423
970.476078	2432.356731
970.774639	2444.959615
971.073162	2548.303269
971.371649	2492.850577
971.670098	2507.974038
971.968510	2520.576923
972.266885	2452.521346
972.565223	2437.397885
972.863524	2485.288846
973.161788	2538.220962
973.460014	2515.535769
973.758204	2520.576923
974.056356	2427.315577
974.354471	2422.274423
974.652550	2437.397885
974.950591	2553.344423
975.248595	2540.741538
975.546563	2361.780577
975.844493	2560.906154
976.142386	2558.385577
976.440243	2505.453462
976.738062	2560.906154
977.035845	2530.659231
977.333590	2455.041923
977.631299	2528.138654
977.928971	2538.220962
978.226606	2444.959615
978.524204	2520.576923
978.821765	2437.397885
979.119290	2397.068654
979.416777	2543.262115
979.714228	2553.344423
980.011642	2505.453462
980.309020	2502.932885
980.606360	2487.809423
980.903664	2439.918462
981.200931	2520.576923
981.498162	2482.768269
981.795356	2525.618077
982.092513	2472.685962
982.389633	2505.453462
982.686717	2540.741538
982.983764	2490.330000
983.280775	2487.809423
983.577749	2510.494615
983.874686	2507.974038
984.171587	2460.083077
984.468451	2470.165385
984.765279	2497.891731
985.062070	2429.836154
985.358824	2528.138654
985.655543	2505.453462
985.952224	2485.288846
986.248869	2563.426731
986.545478	2455.041923
986.842050	2477.727115
987.138586	2422.274423
987.435086	2513.015192
987.731549	2505.453462
988.027975	2533.179808
988.324366	2492.850577
988.620719	2525.618077
988.917037	2510.494615
989.213318	2472.685962
989.509563	2485.288846
989.805772	2565.947308
990.101944	2447.480192
990.398080	2439.918462
990.694180	2450.000769
990.990244	2457.562500
991.286271	2518.056346
991.582262	2457.562500
991.878217	2560.906154
992.174136	2444.959615
992.470019	2442.439038
992.765865	2553.344423
993.061676	2548.303269
993.357450	2465.124231
993.653188	2497.891731
993.948890	2500.412308
994.244556	2475.206538
994.540186	2518.056346
994.835780	2477.727115
995.131337	2487.809423
995.426859	2515.535769
995.722345	2467.644808
996.017795	2568.467885
996.313208	2472.685962
996.608586	2432.356731
996.903928	2492.850577
997.199234	2492.850577
997.494504	2497.891731
997.789738	2500.412308
998.084936	2480.247692
998.380099	2500.412308
998.675225	2434.877308
998.970316	2412.192115
999.265371	2576.029615
999.560390	2475.206538
999.855373	2490.330000
1000.150320	2462.603654
1000.445232	2520.576923
1000.740108	2518.056346
1001.034948	2467.644808
1001.329752	2510.494615
1001.624521	2545.782692
1001.919254	2465.124231
1002.213951	2487.809423
1002.508613	2427.315577
1002.803239	2460.083077
1003.097829	2533.179808
1003.392384	2462.603654
1003.686903	2528.138654
1003.981386	2523.097500
1004.275834	2505.453462
1004.570246	2555.865000
1004.864623	2480.247692
1005.158964	2402.109808
1005.453270	2535.700385
1005.747540	2472.685962
1006.041775	2477.727115
1006.335974	2586.111923
1006.630138	2460.083077
1006.924266	2472.685962
1007.218359	2530.659231
1007.512416	2533.179808
1007.806438	2568.467885
1008.100425	2455.041923
1008.394376	2455.041923
1008.688292	2510.494615
1008.982172	2495.371154
1009.276017	2462.603654
1009.569827	2472.685962
1009.863602	2452.521346
1010.157341	2439.918462
1010.451045	2518.056346
1010.744714	2460.083077
1011.038347	2455.041923
1011.331945	2495.371154
1011.625508	2429.836154
1011.919036	2497.891731
1012.212528	2475.206538
1012.505986	2563.426731
1012.799408	2528.138654
1013.092795	2545.782692
1013.386147	2402.109808
1013.679464	2513.015192
1013.972745	2535.700385
1014.265992	2553.344423
1014.559204	2553.344423
1014.852380	2591.153077
1015.145521	2520.576923
1015.438628	2467.644808
1015.731699	2500.412308
1016.024736	2505.453462
1016.317737	2550.823846
1016.610703	2555.865000
1016.903635	2502.932885
1017.196531	2475.206538
1017.489393	2472.685962
1017.782219	2414.712692
1018.075011	2518.056346
1018.367768	2485.288846
1018.660490	2528.138654
1018.953177	2528.138654
1019.245829	2528.138654
