Dividing Wavelength (nm)	Counts (n)	Blue Motor Position (mm): 0.000000	Red Motor Position (mm): 8.600000	
326.493990	2119.805192
326.888308	2119.805192
327.282561	2119.805192
327.676750	2056.790769
328.070874	2066.873077
328.464933	2102.161154
328.858929	2056.790769
329.252859	2104.681731
329.646726	2061.831923
330.040528	2187.860769
330.434265	2049.229038
330.827938	2092.078846
331.221547	2139.969808
331.615091	2200.463654
332.008571	2187.860769
332.401986	2187.860769
332.795338	2235.751731
333.188625	2228.190000
333.581847	2283.642692
333.975006	2258.436923
334.368100	2268.519231
334.761129	2281.122115
335.154095	2374.383462
335.546996	2336.574808
335.939833	2359.260000
336.332606	2323.971923
336.725315	2414.712692
337.117960	2457.562500
337.510540	2457.562500
337.903056	2480.247692
338.295508	2437.397885
338.687896	2407.150962
339.080220	2492.850577
339.472480	2397.068654
339.864676	2434.877308
340.256807	2447.480192
340.648875	2432.356731
341.040879	2535.700385
341.432818	2452.521346
341.824694	2538.220962
342.216506	2472.685962
342.608253	2510.494615
342.999937	2548.303269
343.391557	2470.165385
343.783113	2492.850577
344.174605	2450.000769
344.566033	2485.288846
344.957397	2397.068654
345.348697	2444.959615
345.739934	2480.247692
346.131106	2404.630385
346.522215	2472.685962
346.913260	2457.562500
347.304241	2528.138654
347.695159	2505.453462
348.086012	2497.891731
348.476802	2465.124231
348.867528	2442.439038
349.258191	2513.015192
349.648789	2507.974038
350.039324	2432.356731
350.429796	2432.356731
350.820203	2510.494615
351.210548	2444.959615
351.600828	2437.397885
351.991045	2485.288846
352.381198	2414.712692
352.771288	2399.589231
353.161314	2412.192115
353.551276	2402.109808
353.941175	2442.439038
354.331010	2371.862885
354.720782	2545.782692
355.110490	2429.836154
355.500135	2409.671538
355.889717	2444.959615
356.279235	2399.589231
356.668689	2437.397885
357.058080	2424.795000
357.447408	2450.000769
357.836672	2412.192115
358.225873	2455.041923
358.615010	2407.150962
359.004084	2427.315577
359.393095	2470.165385
359.782043	2429.836154
360.170927	2432.356731
360.559748	2422.274423
360.948505	2427.315577
361.337199	2490.330000
361.725830	2409.671538
362.114398	2450.000769
362.502903	2404.630385
362.891344	2417.233269
363.279722	2470.165385
363.668037	2495.371154
364.056289	2394.548077
364.444478	2447.480192
364.832603	2397.068654
365.220665	2389.506923
365.608665	2487.809423
365.996601	2538.220962
366.384474	2563.426731
366.772284	2397.068654
367.160031	2399.589231
367.547715	2452.521346
367.935336	2452.521346
368.322893	2450.000769
368.710388	2351.698269
369.097820	2384.465769
369.485189	2490.330000
369.872495	2475.206538
370.259738	2424.795000
370.646918	2500.412308
371.034035	2462.603654
371.421090	2450.000769
371.808081	2437.397885
372.195010	2568.467885
372.581875	2475.206538
372.968678	2540.741538
373.355418	2455.041923
373.742096	2402.109808
374.128710	2467.644808
374.515262	2427.315577
374.901751	2475.206538
375.288177	2437.397885
375.674540	2490.330000
376.060841	2457.562500
376.447079	2513.015192
376.833254	2467.644808
377.219367	2518.056346
377.605417	2429.836154
377.991404	2376.904038
378.377329	2550.823846
378.763191	2528.138654
379.148991	2477.727115
379.534727	2409.671538
379.920402	2432.356731
380.306013	2480.247692
380.691563	2482.768269
381.077049	2472.685962
381.462474	2510.494615
381.847835	2434.877308
382.233134	2490.330000
382.618371	2530.659231
383.003545	2505.453462
383.388657	2500.412308
383.773706	2447.480192
384.158693	2490.330000
384.543618	2455.041923
384.928480	2492.850577
385.313280	2450.000769
385.698017	2417.233269
386.082692	2586.111923
386.467305	2437.397885
386.851856	2480.247692
387.236344	2439.918462
387.620770	2467.644808
388.005133	2457.562500
388.389435	2361.780577
388.773674	2470.165385
389.157851	2465.124231
389.541965	2518.056346
389.926018	2457.562500
390.310008	2500.412308
390.693936	2404.630385
391.077802	2477.727115
391.461606	2326.492500
391.845348	2487.809423
392.229027	2480.247692
392.612645	2442.439038
392.996200	2442.439038
393.379694	2482.768269
393.763125	2538.220962
394.146494	2475.206538
394.529801	2480.247692
394.913047	2399.589231
395.296230	2429.836154
395.679351	2442.439038
396.062410	2467.644808
396.445408	2560.906154
396.828343	2485.288846
397.211217	2450.000769
397.594028	2444.959615
397.976778	2462.603654
398.359466	2429.836154
398.742092	2543.262115
399.124656	2434.877308
399.507158	2477.727115
399.889598	2470.165385
400.271977	2434.877308
400.654294	2450.000769
401.036549	2472.685962
401.418742	2482.768269
401.800874	2465.124231
402.182944	2513.015192
402.564952	2520.576923
402.946898	2495.371154
403.328783	2480.247692
403.710606	2462.603654
404.092367	2495.371154
404.474067	2490.330000
404.855705	2497.891731
405.237282	2429.836154
405.618797	2570.988462
406.000250	2523.097500
406.381642	2490.330000
406.762972	2487.809423
407.144240	2460.083077
407.525447	2570.988462
407.906593	2520.576923
408.287677	2515.535769
408.668700	2477.727115
409.049661	2460.083077
409.430560	2424.795000
409.811399	2460.083077
410.192176	2492.850577
410.572891	2548.303269
410.953545	2434.877308
411.334138	2417.233269
411.714669	2475.206538
412.095139	2545.782692
412.475547	2528.138654
412.855894	2477.727115
413.236180	2432.356731
413.616405	2513.015192
413.996568	2558.385577
414.376670	2492.850577
414.756711	2507.974038
415.136691	2480.247692
415.516609	2434.877308
415.896466	2518.056346
416.276262	2581.070769
416.655997	2603.755962
417.035670	2429.836154
417.415283	2497.891731
417.794834	2477.727115
418.174324	2550.823846
418.553753	2424.795000
418.933121	2505.453462
419.312428	2452.521346
419.691674	2482.768269
420.070859	2495.371154
420.449983	2427.315577
420.829045	2427.315577
421.208047	2495.371154
421.586988	2429.836154
421.965867	2523.097500
422.344686	2477.727115
422.723444	2407.150962
423.102141	2452.521346
423.480777	2530.659231
423.859352	2480.247692
424.237866	2518.056346
424.616319	2497.891731
424.994712	2470.165385
425.373044	2500.412308
425.751314	2510.494615
426.129524	2442.439038
426.507673	2397.068654
426.885762	2505.453462
427.263789	2455.041923
427.641756	2525.618077
428.019662	2419.753846
428.397508	2538.220962
428.775292	2462.603654
429.153016	2432.356731
429.530679	2417.233269
429.908282	2510.494615
430.285824	2623.920577
430.663305	2434.877308
431.040726	2490.330000
431.418086	2518.056346
431.795385	2480.247692
432.172624	2500.412308
432.549802	2523.097500
432.926920	2389.506923
433.303977	2487.809423
433.680974	2530.659231
434.057910	2409.671538
434.434786	2495.371154
434.811601	2409.671538
435.188355	2593.673654
435.565050	2429.836154
435.941683	2424.795000
436.318257	2462.603654
436.694770	2555.865000
437.071222	2520.576923
437.447614	2465.124231
437.823946	2507.974038
438.200218	2485.288846
438.576429	2407.150962
438.952580	2505.453462
439.328670	2477.727115
439.704700	2462.603654
440.080670	2432.356731
440.456580	2447.480192
440.832429	2513.015192
441.208218	2447.480192
441.583947	2439.918462
441.959616	2485.288846
442.335224	2528.138654
442.710773	2404.630385
443.086261	2507.974038
443.461689	2455.041923
443.837057	2513.015192
444.212365	2502.932885
444.587612	2467.644808
444.962800	2472.685962
445.337927	2492.850577
445.712995	2520.576923
446.088002	2455.041923
446.462949	2442.439038
446.837837	2434.877308
447.212664	2444.959615
447.587431	2465.124231
447.962139	2452.521346
448.336786	2409.671538
448.711374	2528.138654
449.085901	2417.233269
449.460369	2553.344423
449.834776	2379.424615
450.209124	2480.247692
450.583412	2507.974038
450.957640	2502.932885
451.331808	2545.782692
451.705917	2545.782692
452.079965	2510.494615
452.453954	2513.015192
452.827883	2475.206538
453.201752	2457.562500
453.575562	2538.220962
453.949311	2550.823846
454.323001	2500.412308
454.696632	2487.809423
455.070202	2472.685962
455.443713	2507.974038
455.817164	2490.330000
456.190556	2490.330000
456.563888	2432.356731
456.937160	2555.865000
457.310373	2472.685962
457.683526	2485.288846
458.056619	2520.576923
458.429653	2439.918462
458.802628	2533.179808
459.175542	2404.630385
459.548398	2513.015192
459.921194	2485.288846
460.293930	2434.877308
460.666607	2500.412308
461.039224	2538.220962
461.411782	2500.412308
461.784280	2482.768269
462.156719	2482.768269
462.529099	2500.412308
462.901419	2568.467885
463.273680	2475.206538
463.645882	2439.918462
464.018024	2500.412308
464.390106	2465.124231
464.762130	2482.768269
465.134094	2432.356731
465.505999	2455.041923
465.877845	2520.576923
466.249631	2472.685962
466.621358	2525.618077
466.993026	2460.083077
467.364634	2563.426731
467.736184	2515.535769
468.107674	2359.260000
468.479105	2497.891731
468.850477	2455.041923
469.221790	2495.371154
469.593043	2502.932885
469.964238	2485.288846
470.335373	2462.603654
470.706449	2477.727115
471.077467	2523.097500
471.448425	2439.918462
471.819324	2518.056346
472.190164	2399.589231
472.560945	2528.138654
472.931667	2545.782692
473.302330	2505.453462
473.672934	2568.467885
474.043479	2414.712692
474.413965	2568.467885
474.784393	2518.056346
475.154761	2518.056346
475.525070	2548.303269
475.895321	2447.480192
476.265513	2427.315577
476.635645	2462.603654
477.005719	2548.303269
477.375734	2462.603654
477.745691	2482.768269
478.115588	2477.727115
478.485427	2460.083077
478.855207	2442.439038
479.224928	2480.247692
479.594591	2424.795000
479.964194	2437.397885
480.333739	2485.288846
480.703226	2419.753846
481.072653	2495.371154
481.442022	2381.945192
481.811333	2477.727115
482.180584	2497.891731
482.549777	2475.206538
482.918912	2497.891731
483.287988	2505.453462
483.657005	2447.480192
484.025964	2467.644808
484.394864	2467.644808
484.763706	2492.850577
485.132489	2477.727115
485.501213	2553.344423
485.869879	2528.138654
486.238487	2497.891731
486.607036	2485.288846
486.975527	2487.809423
487.343959	2500.412308
487.712333	2442.439038
488.080648	2462.603654
488.448905	2513.015192
488.817104	2442.439038
489.185244	2525.618077
489.553326	2460.083077
489.921350	2560.906154
490.289315	2465.124231
490.657222	2500.412308
491.025070	2578.550192
491.392861	2535.700385
491.760593	2495.371154
492.128267	2497.891731
492.495883	2525.618077
492.863440	2543.262115
493.230939	2457.562500
493.598380	2513.015192
493.965763	2442.439038
494.333088	2477.727115
494.700354	2510.494615
495.067563	2477.727115
495.434713	2510.494615
495.801805	2510.494615
496.168839	2432.356731
496.535815	2465.124231
496.902733	2437.397885
497.269593	2490.330000
497.636395	2495.371154
498.003139	2485.288846
498.369825	2507.974038
498.736453	2558.385577
499.103023	2581.070769
499.469535	2457.562500
499.835989	2543.262115
500.202385	2528.138654
500.568723	2538.220962
500.935003	2480.247692
501.301226	2467.644808
501.667390	2470.165385
502.033497	2477.727115
502.399546	2477.727115
502.765537	2495.371154
503.131470	2563.426731
503.497345	2480.247692
503.863163	2568.467885
504.228923	2502.932885
504.594625	2482.768269
504.960269	2581.070769
505.325856	2495.371154
505.691385	2538.220962
506.056856	2485.288846
506.422270	2450.000769
506.787625	2586.111923
507.152924	2432.356731
507.518164	2558.385577
507.883347	2472.685962
508.248472	2520.576923
508.613540	2477.727115
508.978550	2515.535769
509.343503	2487.809423
509.708398	2439.918462
510.073236	2520.576923
510.438016	2467.644808
510.802738	2654.167500
511.167403	2533.179808
511.532010	2480.247692
511.896561	2394.548077
512.261053	2578.550192
512.625488	2495.371154
512.989866	2490.330000
513.354186	2439.918462
513.718449	2492.850577
514.082655	2472.685962
514.446803	2502.932885
514.810894	2465.124231
515.174927	2530.659231
515.538904	2419.753846
515.902822	2520.576923
516.266684	2455.041923
516.630488	2518.056346
516.994235	2450.000769
517.357925	2550.823846
517.721558	2520.576923
518.085133	2381.945192
518.448651	2578.550192
518.812112	2485.288846
519.175516	2495.371154
519.538863	2500.412308
519.902152	2480.247692
520.265385	2472.685962
520.628560	2472.685962
520.991678	2452.521346
521.354739	2439.918462
521.717743	2490.330000
522.080690	2495.371154
522.443580	2485.288846
522.806413	2490.330000
523.169189	2495.371154
523.531908	2485.288846
523.894569	2472.685962
524.257174	2432.356731
524.619722	2490.330000
524.982213	2518.056346
525.344647	2553.344423
525.707025	2581.070769
526.069345	2576.029615
526.431608	2439.918462
526.793815	2462.603654
527.155964	2470.165385
527.518057	2540.741538
527.880093	2462.603654
528.242072	2540.741538
528.603995	2596.194231
528.965860	2455.041923
529.327669	2455.041923
529.689421	2535.700385
530.051117	2601.235385
530.412755	2492.850577
530.774337	2568.467885
531.135862	2518.056346
531.497331	2538.220962
531.858743	2505.453462
532.220098	2480.247692
532.581396	2513.015192
532.942638	2462.603654
533.303824	2568.467885
533.664953	2588.632500
534.026025	2485.288846
534.387040	2505.453462
534.747999	2596.194231
535.108902	2543.262115
535.469748	2538.220962
535.830537	2457.562500
536.191270	2507.974038
536.551947	2492.850577
536.912567	2470.165385
537.273131	2482.768269
537.633638	2497.891731
537.994089	2513.015192
538.354483	2470.165385
538.714821	2414.712692
539.075103	2409.671538
539.435328	2533.179808
539.795497	2525.618077
540.155609	2520.576923
540.515665	2573.509038
540.875665	2550.823846
541.235609	2460.083077
541.595496	2462.603654
541.955328	2560.906154
542.315102	2475.206538
542.674821	2495.371154
543.034483	2510.494615
543.394090	2555.865000
543.753640	2475.206538
544.113134	2472.685962
544.472571	2472.685962
544.831953	2550.823846
545.191278	2492.850577
545.550548	2573.509038
545.909761	2535.700385
546.268918	2525.618077
546.628019	2545.782692
546.987064	2485.288846
547.346053	2535.700385
547.704986	2447.480192
548.063863	2487.809423
548.422684	2447.480192
548.781449	2472.685962
549.140158	2467.644808
549.498811	2477.727115
549.857408	2487.809423
550.215949	2513.015192
550.574434	2500.412308
550.932864	2538.220962
551.291237	2407.150962
551.649555	2578.550192
552.007817	2515.535769
552.366022	2540.741538
552.724173	2523.097500
553.082267	2477.727115
553.440305	2457.562500
553.798288	2543.262115
554.156215	2480.247692
554.514086	2460.083077
554.871902	2497.891731
555.229661	2487.809423
555.587365	2455.041923
555.945014	2515.535769
556.302606	2455.041923
556.660143	2533.179808
557.017625	2518.056346
557.375050	2487.809423
557.732421	2553.344423
558.089735	2432.356731
558.446994	2510.494615
558.804197	2548.303269
559.161345	2523.097500
559.518437	2460.083077
559.875474	2455.041923
560.232455	2510.494615
560.589381	2402.109808
560.946251	2565.947308
561.303065	2480.247692
561.659825	2548.303269
562.016528	2550.823846
562.373177	2480.247692
562.729770	2543.262115
563.086307	2470.165385
563.442789	2452.521346
563.799216	2475.206538
564.155587	2465.124231
564.511904	2560.906154
564.868164	2505.453462
565.224370	2505.453462
565.580520	2457.562500
565.936615	2513.015192
566.292654	2510.494615
566.648638	2472.685962
567.004567	2558.385577
567.360441	2507.974038
567.716260	2505.453462
568.072023	2525.618077
568.427732	2485.288846
568.783385	2397.068654
569.138982	2457.562500
569.494525	2533.179808
569.850013	2523.097500
570.205445	2507.974038
570.560823	2482.768269
570.916145	2528.138654
571.271412	2485.288846
571.626625	2510.494615
571.981782	2452.521346
572.336884	2545.782692
572.691931	2457.562500
573.046923	2528.138654
573.401860	2611.317692
573.756743	2429.836154
574.111570	2462.603654
574.466342	2422.274423
574.821059	2502.932885
575.175722	2490.330000
575.530330	2480.247692
575.884882	2505.453462
576.239380	2505.453462
576.593823	2535.700385
576.948211	2465.124231
577.302544	2581.070769
577.656823	2422.274423
578.011047	2497.891731
578.365216	2467.644808
578.719330	2553.344423
579.073389	2475.206538
579.427394	2495.371154
579.781344	2523.097500
580.135239	2487.809423
580.489080	2500.412308
580.842866	2482.768269
581.196597	2523.097500
581.550273	2470.165385
581.903895	2502.932885
582.257463	2545.782692
582.610975	2515.535769
582.964434	2444.959615
583.317837	2424.795000
583.671186	2399.589231
584.024481	2432.356731
584.377721	2513.015192
584.730906	2528.138654
585.084037	2523.097500
585.437113	2470.165385
585.790135	2505.453462
586.143103	2429.836154
586.496016	2518.056346
586.848874	2404.630385
587.201679	2505.453462
587.554428	2447.480192
587.907124	2576.029615
588.259765	2523.097500
588.612352	2578.550192
588.964884	2462.603654
589.317362	2548.303269
589.669786	2477.727115
590.022155	2470.165385
590.374470	2442.439038
590.726731	2500.412308
591.078937	2457.562500
591.431090	2523.097500
591.783188	2480.247692
592.135232	2480.247692
592.487222	2490.330000
592.839157	2507.974038
593.191038	2434.877308
593.542866	2414.712692
593.894639	2485.288846
594.246358	2520.576923
594.598022	2548.303269
594.949633	2462.603654
595.301190	2457.562500
595.652692	2437.397885
596.004141	2480.247692
596.355535	2507.974038
596.706876	2530.659231
597.058162	2452.521346
597.409395	2497.891731
597.760573	2545.782692
598.111698	2583.591346
598.462768	2510.494615
598.813785	2530.659231
599.164748	2447.480192
599.515657	2518.056346
599.866511	2419.753846
600.217312	2525.618077
600.568060	2490.330000
600.918753	2502.932885
601.269392	2492.850577
601.619978	2434.877308
601.970510	2523.097500
602.320988	2565.947308
602.671412	2500.412308
603.021783	2439.918462
603.372100	2528.138654
603.722363	2505.453462
604.072572	2447.480192
604.422728	2520.576923
604.772830	2475.206538
605.122878	2507.974038
605.472872	2553.344423
605.822813	2487.809423
606.172701	2480.247692
606.522534	2573.509038
606.872314	2513.015192
607.222041	2480.247692
607.571714	2437.397885
607.921333	2596.194231
608.270899	2419.753846
608.620411	2576.029615
608.969870	2490.330000
609.319276	2502.932885
609.668627	2487.809423
610.017926	2450.000769
610.367171	2472.685962
610.716362	2475.206538
611.065500	2535.700385
611.414585	2472.685962
611.763616	2470.165385
612.112594	2490.330000
612.461518	2447.480192
612.810389	2528.138654
613.159207	2465.124231
613.507971	2485.288846
613.856682	2480.247692
614.205340	2467.644808
614.553945	2513.015192
614.902496	2497.891731
615.250994	2533.179808
615.599439	2419.753846
615.947830	2477.727115
616.296169	2505.453462
616.644454	2563.426731
616.992686	2485.288846
617.340864	2576.029615
617.688990	2477.727115
618.037063	2518.056346
618.385082	2424.795000
618.733048	2523.097500
619.080961	2558.385577
619.428821	2583.591346
619.776628	2513.015192
620.124382	2482.768269
620.472083	2500.412308
620.819731	2442.439038
621.167326	2455.041923
621.514868	2450.000769
621.862357	2495.371154
622.209793	2450.000769
622.557176	2510.494615
622.904506	2422.274423
623.251783	2515.535769
623.599007	2457.562500
623.946179	2540.741538
624.293297	2434.877308
624.640363	2444.959615
624.987376	2507.974038
625.334336	2502.932885
625.681243	2465.124231
626.028097	2477.727115
626.374899	2492.850577
626.721647	2386.986346
627.068343	2500.412308
627.414987	2518.056346
627.761577	2452.521346
628.108115	2495.371154
628.454600	2578.550192
628.801032	2450.000769
629.147412	2497.891731
629.493739	2611.317692
629.840014	2412.192115
630.186236	2548.303269
630.532405	2510.494615
630.878521	2543.262115
631.224585	2490.330000
631.570597	2495.371154
631.916556	2518.056346
632.262462	2485.288846
632.608316	2520.576923
632.954117	2419.753846
633.299866	2467.644808
633.645562	2467.644808
633.991206	2538.220962
634.336797	2495.371154
634.682336	2510.494615
635.027823	2482.768269
635.373257	2442.439038
635.718639	2502.932885
636.063968	2437.397885
636.409245	2586.111923
636.754470	2515.535769
637.099642	2560.906154
637.444762	2444.959615
637.789829	2518.056346
638.134845	2427.315577
638.479808	2518.056346
638.824719	2581.070769
639.169577	2543.262115
639.514383	2553.344423
639.859137	2523.097500
640.203839	2553.344423
640.548489	2520.576923
640.893086	2444.959615
641.237632	2530.659231
641.582125	2490.330000
641.926566	2485.288846
642.270955	2500.412308
642.615292	2502.932885
642.959576	2570.988462
643.303809	2485.288846
643.647990	2543.262115
643.992118	2490.330000
644.336195	2500.412308
644.680219	2460.083077
645.024192	2538.220962
645.368112	2475.206538
645.711981	2470.165385
646.055797	2424.795000
646.399562	2540.741538
646.743274	2472.685962
647.086935	2462.603654
647.430544	2444.959615
647.774101	2507.974038
648.117606	2485.288846
648.461059	2359.260000
648.804460	2455.041923
649.147810	2457.562500
649.491108	2477.727115
649.834354	2467.644808
650.177548	2525.618077
650.520690	2412.192115
650.863781	2513.015192
651.206820	2558.385577
651.549807	2528.138654
651.892742	2442.439038
652.235626	2505.453462
652.578458	2510.494615
652.921238	2492.850577
653.263967	2507.974038
653.606644	2545.782692
653.949269	2543.262115
654.291843	2485.288846
654.634365	2460.083077
654.976836	2573.509038
655.319255	2553.344423
655.661622	2560.906154
656.003938	2502.932885
656.346203	2455.041923
656.688416	2394.548077
657.030577	2540.741538
657.372687	2515.535769
657.714746	2525.618077
658.056753	2492.850577
658.398708	2523.097500
658.740612	2495.371154
659.082465	2533.179808
659.424266	2588.632500
659.766016	2515.535769
660.107715	2550.823846
660.449362	2507.974038
660.790958	2505.453462
661.132503	2502.932885
661.473996	2507.974038
661.815438	2525.618077
662.156829	2523.097500
662.498168	2487.809423
662.839456	2490.330000
663.180693	2477.727115
663.521879	2507.974038
663.863013	2601.235385
664.204097	2452.521346
664.545129	2495.371154
664.886110	2497.891731
665.227040	2487.809423
665.567918	2414.712692
665.908746	2470.165385
666.249522	2507.974038
666.590248	2528.138654
666.930922	2462.603654
667.271545	2487.809423
667.612118	2515.535769
667.952639	2507.974038
668.293109	2447.480192
668.633528	2455.041923
668.973896	2467.644808
669.314213	2548.303269
669.654480	2437.397885
669.994695	2397.068654
670.334859	2432.356731
670.674973	2533.179808
671.015035	2518.056346
671.355047	2588.632500
671.695008	2472.685962
672.034918	2555.865000
672.374777	2480.247692
672.714585	2482.768269
673.054342	2497.891731
673.394049	2510.494615
673.733705	2467.644808
674.073310	2565.947308
674.412864	2455.041923
674.752368	2578.550192
675.091820	2475.206538
675.431223	2502.932885
675.770574	2457.562500
676.109875	2487.809423
676.449125	2457.562500
676.788324	2487.809423
677.127473	2505.453462
677.466571	2447.480192
677.805619	2513.015192
678.144616	2513.015192
678.483562	2457.562500
678.822458	2472.685962
679.161303	2497.891731
679.500098	2555.865000
679.838842	2480.247692
680.177535	2518.056346
680.516179	2555.865000
680.854771	2477.727115
681.193314	2543.262115
681.531805	2475.206538
681.870247	2422.274423
682.208638	2568.467885
682.546978	2477.727115
682.885268	2480.247692
683.223508	2507.974038
683.561697	2455.041923
683.899836	2492.850577
684.237925	2487.809423
684.575963	2525.618077
684.913951	2538.220962
685.251889	2452.521346
685.589776	2470.165385
685.927614	2467.644808
686.265401	2427.315577
686.603137	2422.274423
686.940824	2475.206538
687.278460	2515.535769
687.616046	2548.303269
687.953582	2518.056346
688.291068	2500.412308
688.628504	2563.426731
688.965889	2548.303269
689.303224	2543.262115
689.640510	2472.685962
689.977745	2515.535769
690.314930	2495.371154
690.652065	2467.644808
690.989150	2475.206538
691.326185	2495.371154
691.663170	2538.220962
692.000105	2578.550192
692.336990	2482.768269
692.673825	2543.262115
693.010610	2462.603654
693.347345	2538.220962
693.684030	2452.521346
694.020665	2475.206538
694.357251	2495.371154
694.693786	2475.206538
695.030272	2482.768269
695.366707	2586.111923
695.703093	2492.850577
696.039429	2533.179808
696.375716	2548.303269
696.711952	2495.371154
697.048139	2437.397885
697.384276	2485.288846
697.720363	2480.247692
698.056400	2482.768269
698.392388	2497.891731
698.728326	2487.809423
699.064214	2407.150962
699.400053	2485.288846
699.735842	2470.165385
700.071581	2482.768269
700.407270	2502.932885
700.742910	2583.591346
701.078501	2518.056346
701.414042	2470.165385
701.749533	2495.371154
702.084974	2470.165385
702.420366	2450.000769
702.755709	2417.233269
703.091002	2560.906154
703.426246	2386.986346
703.761440	2535.700385
704.096584	2460.083077
704.431679	2482.768269
704.766725	2505.453462
705.101721	2543.262115
705.436668	2553.344423
705.771565	2505.453462
706.106413	2530.659231
706.441212	2472.685962
706.775961	2586.111923
707.110661	2429.836154
707.445311	2442.439038
707.779913	2540.741538
708.114465	2444.959615
708.448967	2452.521346
708.783421	2485.288846
709.117825	2490.330000
709.452180	2490.330000
709.786485	2497.891731
710.120742	2475.206538
710.454949	2467.644808
710.789107	2510.494615
711.123216	2505.453462
711.457275	2497.891731
711.791286	2452.521346
712.125247	2538.220962
712.459159	2505.453462
712.793023	2528.138654
713.126837	2528.138654
713.460602	2535.700385
713.794318	2407.150962
714.127985	2467.644808
714.461602	2518.056346
714.795171	2487.809423
715.128691	2502.932885
715.462162	2472.685962
715.795584	2548.303269
716.128957	2502.932885
716.462281	2593.673654
716.795556	2475.206538
717.128782	2555.865000
717.461960	2452.521346
717.795088	2540.741538
718.128167	2520.576923
718.461198	2497.891731
718.794180	2457.562500
719.127113	2434.877308
719.459997	2475.206538
719.792833	2475.206538
720.125619	2472.685962
720.458357	2558.385577
720.791046	2528.138654
721.123686	2467.644808
721.456278	2558.385577
721.788821	2565.947308
722.121315	2447.480192
722.453761	2543.262115
722.786158	2513.015192
723.118506	2427.315577
723.450805	2467.644808
723.783056	2507.974038
724.115259	2495.371154
724.447412	2510.494615
724.779518	2477.727115
725.111574	2513.015192
725.443582	2563.426731
725.775542	2462.603654
726.107453	2500.412308
726.439315	2492.850577
726.771129	2505.453462
727.102895	2495.371154
727.434612	2470.165385
727.766281	2444.959615
728.097901	2505.453462
728.429473	2513.015192
728.760996	2507.974038
729.092471	2424.795000
729.423897	2588.632500
729.755276	2442.439038
730.086606	2540.741538
730.417887	2417.233269
730.749120	2492.850577
731.080305	2513.015192
731.411442	2555.865000
731.742530	2429.836154
732.073570	2507.974038
732.404562	2500.412308
732.735506	2495.371154
733.066401	2482.768269
733.397249	2555.865000
733.728048	2518.056346
734.058798	2530.659231
734.389501	2462.603654
734.720156	2515.535769
735.050762	2538.220962
735.381320	2477.727115
735.711831	2505.453462
736.042293	2515.535769
736.372707	2518.056346
736.703073	2502.932885
737.033391	2573.509038
737.363661	2482.768269
737.693883	2528.138654
738.024056	2558.385577
738.354182	2495.371154
738.684260	2495.371154
739.014290	2424.795000
739.344272	2472.685962
739.674207	2422.274423
740.004093	2452.521346
740.333931	2462.603654
740.663722	2513.015192
740.993464	2485.288846
741.323159	2495.371154
741.652806	2520.576923
741.982405	2414.712692
742.311956	2450.000769
742.641460	2452.521346
742.970915	2518.056346
743.300323	2525.618077
743.629683	2487.809423
743.958996	2520.576923
744.288260	2490.330000
744.617477	2492.850577
744.946647	2462.603654
745.275768	2462.603654
745.604842	2510.494615
745.933869	2424.795000
746.262847	2505.453462
746.591778	2409.671538
746.920662	2550.823846
747.249498	2490.330000
747.578286	2507.974038
747.907027	2659.208654
748.235720	2480.247692
748.564365	2490.330000
748.892963	2444.959615
749.221514	2487.809423
749.550017	2432.356731
749.878473	2444.959615
750.206881	2475.206538
750.535242	2482.768269
750.863555	2523.097500
751.191821	2530.659231
751.520039	2482.768269
751.848210	2502.932885
752.176334	2414.712692
752.504411	2505.453462
752.832440	2465.124231
753.160421	2540.741538
753.488356	2500.412308
753.816243	2528.138654
754.144082	2513.015192
754.471875	2563.426731
754.799620	2500.412308
755.127318	2540.741538
755.454969	2518.056346
755.782572	2450.000769
756.110129	2525.618077
756.437638	2520.576923
756.765100	2455.041923
757.092515	2487.809423
757.419882	2525.618077
757.747203	2487.809423
758.074477	2429.836154
758.401703	2523.097500
758.728882	2568.467885
759.056014	2568.467885
759.383099	2392.027500
759.710138	2480.247692
760.037129	2429.836154
760.364073	2543.262115
760.690970	2502.932885
761.017820	2404.630385
761.344623	2525.618077
761.671379	2485.288846
761.998088	2550.823846
762.324751	2465.124231
762.651366	2472.685962
762.977935	2467.644808
763.304456	2502.932885
763.630931	2490.330000
763.957359	2452.521346
764.283740	2465.124231
764.610074	2462.603654
764.936362	2495.371154
765.262602	2450.000769
765.588796	2480.247692
765.914943	2477.727115
766.241044	2520.576923
766.567097	2568.467885
766.893104	2500.412308
767.219064	2490.330000
767.544978	2467.644808
767.870845	2455.041923
768.196665	2492.850577
768.522438	2490.330000
768.848165	2520.576923
769.173846	2442.439038
769.499479	2507.974038
769.825066	2581.070769
770.150607	2460.083077
770.476101	2470.165385
770.801548	2455.041923
771.126949	2573.509038
771.452303	2480.247692
771.777611	2465.124231
772.102872	2520.576923
772.428087	2553.344423
772.753256	2535.700385
773.078378	2495.371154
773.403453	2507.974038
773.728482	2570.988462
774.053465	2500.412308
774.378401	2447.480192
774.703291	2467.644808
775.028135	2563.426731
775.352932	2455.041923
775.677683	2490.330000
776.002388	2432.356731
776.327046	2497.891731
776.651658	2530.659231
776.976224	2477.727115
777.300743	2485.288846
777.625216	2490.330000
777.949643	2482.768269
778.274024	2505.453462
778.598359	2538.220962
778.922647	2487.809423
779.246889	2586.111923
779.571086	2434.877308
779.895236	2477.727115
780.219339	2482.768269
780.543397	2523.097500
780.867409	2492.850577
781.191374	2583.591346
781.515294	2507.974038
781.839167	2540.741538
782.162995	2495.371154
782.486776	2505.453462
782.810511	2500.412308
783.134201	2477.727115
783.457844	2495.371154
783.781441	2528.138654
784.104993	2402.109808
784.428498	2545.782692
784.751958	2507.974038
785.075372	2543.262115
785.398739	2437.397885
785.722061	2480.247692
786.045337	2523.097500
786.368568	2588.632500
786.691752	2475.206538
787.014891	2528.138654
787.337983	2480.247692
787.661030	2450.000769
787.984031	2553.344423
788.306987	2538.220962
788.629897	2573.509038
788.952760	2475.206538
789.275579	2460.083077
789.598351	2444.959615
789.921078	2518.056346
790.243759	2505.453462
790.566395	2477.727115
790.888984	2510.494615
791.211529	2492.850577
791.534027	2467.644808
791.856480	2487.809423
792.178888	2417.233269
792.501249	2525.618077
792.823566	2480.247692
793.145836	2507.974038
793.468062	2477.727115
793.790241	2361.780577
794.112375	2533.179808
794.434464	2510.494615
794.756507	2482.768269
795.078505	2452.521346
795.400457	2520.576923
795.722364	2606.276538
796.044226	2581.070769
796.366042	2460.083077
796.687812	2530.659231
797.009538	2565.947308
797.331218	2482.768269
797.652852	2485.288846
797.974442	2550.823846
798.295986	2530.659231
798.617484	2588.632500
798.938938	2439.918462
799.260346	2442.439038
799.581709	2505.453462
799.903026	2480.247692
800.224299	2518.056346
800.545526	2444.959615
800.866708	2535.700385
801.187845	2462.603654
801.508936	2480.247692
801.829983	2417.233269
802.150984	2558.385577
802.471940	2467.644808
802.792851	2460.083077
803.113717	2495.371154
803.434538	2528.138654
803.755314	2492.850577
804.076045	2573.509038
804.396731	2535.700385
804.717372	2583.591346
805.037967	2502.932885
805.358518	2515.535769
805.679024	2424.795000
805.999485	2397.068654
806.319901	2475.206538
806.640272	2455.041923
806.960598	2568.467885
807.280879	2432.356731
807.601115	2457.562500
807.921306	2502.932885
808.241453	2452.521346
808.561554	2603.755962
808.881611	2505.453462
809.201623	2533.179808
809.521590	2460.083077
809.841513	2550.823846
810.161390	2555.865000
810.481223	2507.974038
810.801011	2525.618077
811.120755	2490.330000
811.440453	2525.618077
811.760107	2437.397885
812.079716	2588.632500
812.399281	2427.315577
812.718801	2540.741538
813.038276	2462.603654
813.357707	2507.974038
813.677093	2437.397885
813.996434	2477.727115
814.315731	2510.494615
814.634983	2485.288846
814.954191	2462.603654
815.273354	2507.974038
815.592473	2422.274423
815.911547	2530.659231
816.230577	2518.056346
816.549562	2596.194231
816.868502	2563.426731
817.187399	2460.083077
817.506250	2500.412308
817.825058	2543.262115
818.143821	2482.768269
818.462539	2505.453462
818.781213	2455.041923
819.099843	2520.576923
819.418429	2565.947308
819.736970	2439.918462
820.055466	2492.850577
820.373919	2497.891731
820.692327	2500.412308
821.010691	2523.097500
821.329011	2550.823846
821.647286	2535.700385
821.965517	2533.179808
822.283704	2419.753846
822.601847	2530.659231
822.919945	2485.288846
823.237999	2467.644808
823.556010	2490.330000
823.873976	2414.712692
824.191897	2510.494615
824.509775	2452.521346
824.827609	2497.891731
825.145398	2374.383462
825.463144	2452.521346
825.780845	2520.576923
826.098502	2505.453462
826.416116	2477.727115
826.733685	2502.932885
827.051210	2434.877308
827.368692	2505.453462
827.686129	2538.220962
828.003522	2548.303269
828.320872	2480.247692
828.638177	2513.015192
828.955439	2437.397885
829.272656	2487.809423
829.589830	2452.521346
829.906960	2490.330000
830.224046	2540.741538
830.541088	2397.068654
830.858086	2397.068654
831.175041	2490.330000
831.491952	2565.947308
831.808819	2465.124231
832.125642	2533.179808
832.442421	2477.727115
832.759157	2510.494615
833.075849	2427.315577
833.392497	2442.439038
833.709101	2535.700385
834.025662	2528.138654
834.342179	2545.782692
834.658653	2422.274423
834.975083	2505.453462
835.291469	2513.015192
835.607811	2513.015192
835.924110	2538.220962
836.240366	2510.494615
836.556578	2507.974038
836.872746	2540.741538
837.188871	2480.247692
837.504952	2513.015192
837.820990	2419.753846
838.136984	2397.068654
838.452935	2374.383462
838.768842	2444.959615
839.084706	2515.535769
839.400526	2495.371154
839.716303	2533.179808
840.032037	2472.685962
840.347727	2422.274423
840.663373	2472.685962
840.978977	2427.315577
841.294537	2480.247692
841.610054	2470.165385
841.925527	2565.947308
842.240957	2409.671538
842.556344	2497.891731
842.871687	2465.124231
843.186987	2495.371154
843.502244	2523.097500
843.817458	2470.165385
844.132629	2487.809423
844.447756	2563.426731
844.762840	2467.644808
845.077881	2591.153077
845.392879	2560.906154
845.707833	2442.439038
846.022745	2465.124231
846.337613	2447.480192
846.652438	2460.083077
846.967221	2490.330000
847.281960	2450.000769
847.596656	2497.891731
847.911309	2513.015192
848.225919	2535.700385
848.540485	2465.124231
848.855009	2475.206538
849.169490	2457.562500
849.483928	2419.753846
849.798323	2447.480192
850.112675	2472.685962
850.426984	2422.274423
850.741251	2472.685962
851.055474	2434.877308
851.369654	2538.220962
851.683792	2510.494615
851.997887	2540.741538
852.311938	2525.618077
852.625947	2502.932885
852.939914	2543.262115
853.253837	2520.576923
853.567718	2455.041923
853.881555	2502.932885
854.195350	2490.330000
854.509103	2470.165385
854.822812	2455.041923
855.136479	2462.603654
855.450103	2515.535769
855.763685	2530.659231
856.077224	2495.371154
856.390720	2422.274423
856.704173	2374.383462
857.017584	2472.685962
857.330953	2495.371154
857.644278	2442.439038
857.957561	2490.330000
858.270802	2422.274423
858.584000	2465.124231
858.897155	2492.850577
859.210268	2485.288846
859.523339	2465.124231
859.836367	2505.453462
860.149352	2543.262115
860.462295	2419.753846
860.775195	2467.644808
861.088054	2528.138654
861.400869	2553.344423
861.713642	2470.165385
862.026373	2485.288846
862.339062	2422.274423
862.651708	2482.768269
862.964312	2389.506923
863.276873	2560.906154
863.589392	2513.015192
863.901869	2439.918462
864.214303	2500.412308
864.526696	2450.000769
864.839045	2505.453462
865.151353	2460.083077
865.463619	2611.317692
865.775842	2555.865000
866.088023	2520.576923
866.400162	2528.138654
866.712258	2460.083077
867.024313	2520.576923
867.336325	2462.603654
867.648296	2485.288846
867.960224	2513.015192
868.272110	2535.700385
868.583954	2560.906154
868.895755	2455.041923
869.207515	2538.220962
869.519233	2434.877308
869.830909	2472.685962
870.142542	2465.124231
870.454134	2477.727115
870.765684	2497.891731
871.077191	2598.714808
871.388657	2525.618077
871.700081	2452.521346
872.011463	2467.644808
872.322803	2467.644808
872.634101	2507.974038
872.945357	2568.467885
873.256571	2439.918462
873.567744	2422.274423
873.878874	2497.891731
874.189963	2462.603654
874.501010	2482.768269
874.812015	2404.630385
875.122979	2490.330000
875.433900	2402.109808
875.744780	2439.918462
876.055618	2525.618077
876.366415	2412.192115
876.677169	2460.083077
876.987882	2555.865000
877.298554	2565.947308
877.609183	2432.356731
877.919771	2545.782692
878.230317	2485.288846
878.540822	2523.097500
878.851285	2507.974038
879.161707	2515.535769
879.472087	2432.356731
879.782425	2518.056346
880.092722	2540.741538
880.402977	2472.685962
880.713191	2538.220962
881.023363	2455.041923
881.333494	2568.467885
881.643583	2485.288846
881.953631	2545.782692
882.263637	2407.150962
882.573602	2482.768269
882.883526	2492.850577
883.193408	2497.891731
883.503248	2497.891731
883.813048	2487.809423
884.122806	2530.659231
884.432522	2434.877308
884.742197	2568.467885
885.051831	2487.809423
885.361424	2437.397885
885.670975	2414.712692
885.980485	2528.138654
886.289954	2477.727115
886.599382	2477.727115
886.908768	2492.850577
887.218113	2518.056346
887.527417	2487.809423
887.836680	2472.685962
888.145901	2442.439038
888.455082	2525.618077
888.764221	2518.056346
889.073319	2477.727115
889.382376	2480.247692
889.691392	2460.083077
890.000366	2427.315577
890.309300	2523.097500
890.618193	2523.097500
890.927044	2500.412308
891.235855	2455.041923
891.544625	2467.644808
891.853353	2480.247692
892.162041	2444.959615
892.470687	2535.700385
892.779293	2417.233269
893.087858	2507.974038
893.396381	2444.959615
893.704864	2593.673654
894.013306	2507.974038
894.321707	2497.891731
894.630068	2437.397885
894.938387	2482.768269
895.246665	2485.288846
895.554903	2523.097500
895.863100	2492.850577
896.171256	2533.179808
896.479371	2480.247692
896.787446	2467.644808
897.095480	2495.371154
897.403473	2555.865000
897.711425	2500.412308
898.019336	2439.918462
898.327207	2502.932885
898.635038	2447.480192
898.942827	2487.809423
899.250576	2465.124231
899.558284	2500.412308
899.865952	2475.206538
900.173579	2407.150962
900.481165	2513.015192
900.788711	2487.809423
901.096216	2455.041923
901.403681	2513.015192
901.711105	2553.344423
902.018489	2576.029615
902.325832	2442.439038
902.633135	2487.809423
902.940397	2530.659231
903.247619	2505.453462
903.554800	2593.673654
903.861941	2601.235385
904.169041	2422.274423
904.476101	2470.165385
904.783121	2553.344423
905.090100	2490.330000
905.397039	2480.247692
905.703938	2530.659231
906.010796	2490.330000
906.317614	2530.659231
906.624391	2404.630385
906.931129	2455.041923
907.237826	2475.206538
907.544483	2525.618077
907.851099	2525.618077
908.157675	2467.644808
908.464211	2502.932885
908.770707	2427.315577
909.077163	2538.220962
909.383578	2573.509038
909.689954	2482.768269
909.996289	2591.153077
910.302584	2543.262115
910.608839	2538.220962
910.915054	2530.659231
911.221229	2455.041923
911.527363	2515.535769
911.833458	2455.041923
912.139513	2447.480192
912.445527	2465.124231
912.751502	2487.809423
913.057436	2467.644808
913.363331	2492.850577
913.669186	2492.850577
913.975000	2482.768269
914.280775	2417.233269
914.586510	2518.056346
914.892205	2505.453462
915.197859	2409.671538
915.503475	2495.371154
915.809050	2497.891731
916.114585	2477.727115
916.420081	2502.932885
916.725536	2500.412308
917.030952	2507.974038
917.336328	2422.274423
917.641665	2467.644808
917.946961	2439.918462
918.252218	2555.865000
918.557435	2442.439038
918.862612	2525.618077
919.167750	2558.385577
919.472848	2545.782692
919.777906	2457.562500
920.082925	2520.576923
920.387904	2432.356731
920.692843	2482.768269
920.997743	2513.015192
921.302603	2502.932885
921.607423	2450.000769
921.912204	2530.659231
922.216946	2485.288846
922.521647	2404.630385
922.826310	2540.741538
923.130932	2439.918462
923.435516	2439.918462
923.740059	2538.220962
924.044564	2467.644808
924.349028	2460.083077
924.653454	2439.918462
924.957840	2540.741538
925.262186	2432.356731
925.566493	2472.685962
925.870761	2465.124231
926.174989	2500.412308
926.479178	2555.865000
926.783328	2500.412308
927.087438	2540.741538
927.391509	2482.768269
927.695541	2455.041923
927.999533	2427.315577
928.303486	2535.700385
928.607400	2535.700385
928.911275	2490.330000
929.215110	2513.015192
929.518906	2548.303269
929.822663	2462.603654
930.126381	2513.015192
930.430060	2500.412308
930.733699	2500.412308
931.037299	2457.562500
931.340861	2470.165385
931.644383	2460.083077
931.947866	2424.795000
932.251309	2555.865000
932.554714	2543.262115
932.858080	2434.877308
933.161407	2450.000769
933.464694	2472.685962
933.767943	2447.480192
934.071153	2520.576923
934.374323	2533.179808
934.677455	2439.918462
934.980548	2460.083077
935.283602	2538.220962
935.586617	2490.330000
935.889593	2540.741538
936.192530	2374.383462
936.495428	2586.111923
936.798287	2447.480192
937.101108	2490.330000
937.403890	2505.453462
937.706632	2543.262115
938.009336	2598.714808
938.312002	2447.480192
938.614628	2465.124231
938.917216	2422.274423
939.219765	2535.700385
939.522275	2457.562500
939.824747	2381.945192
940.127179	2386.986346
940.429573	2465.124231
940.731929	2397.068654
941.034246	2467.644808
941.336524	2419.753846
941.638763	2427.315577
941.940964	2513.015192
942.243126	2467.644808
942.545250	2518.056346
942.847335	2444.959615
943.149381	2492.850577
943.451389	2470.165385
943.753359	2462.603654
944.055290	2497.891731
944.357182	2533.179808
944.659036	2550.823846
944.960851	2394.548077
945.262628	2550.823846
945.564367	2513.015192
945.866067	2434.877308
946.167729	2505.453462
946.469352	2518.056346
946.770937	2576.029615
947.072484	2485.288846
947.373992	2553.344423
947.675462	2477.727115
947.976893	2502.932885
948.278286	2427.315577
948.579641	2462.603654
948.880958	2510.494615
949.182236	2497.891731
949.483476	2540.741538
949.784678	2482.768269
950.085841	2550.823846
950.386967	2540.741538
950.688054	2442.439038
950.989103	2505.453462
951.290114	2424.795000
951.591087	2495.371154
951.892021	2414.712692
952.192917	2515.535769
952.493776	2558.385577
952.794596	2452.521346
953.095378	2482.768269
953.396122	2437.397885
953.696828	2457.562500
953.997496	2452.521346
954.298126	2475.206538
954.598718	2530.659231
954.899272	2523.097500
955.199788	2432.356731
955.500266	2485.288846
955.800706	2467.644808
956.101108	2455.041923
956.401472	2414.712692
956.701798	2460.083077
957.002087	2518.056346
957.302337	2568.467885
957.602550	2523.097500
957.902724	2482.768269
958.202861	2490.330000
958.502960	2538.220962
958.803022	2457.562500
959.103045	2515.535769
959.403031	2530.659231
959.702979	2520.576923
960.002889	2417.233269
960.302762	2462.603654
960.602596	2497.891731
960.902393	2535.700385
961.202153	2490.330000
961.501875	2507.974038
961.801559	2419.753846
962.101205	2513.015192
962.400814	2482.768269
962.700385	2510.494615
962.999918	2427.315577
963.299414	2500.412308
963.598873	2495.371154
963.898293	2434.877308
964.197677	2525.618077
964.497022	2502.932885
964.796331	2460.083077
965.095601	2513.015192
965.394835	2412.192115
965.694030	2533.179808
965.993189	2520.576923
966.292309	2460.083077
966.591393	2485.288846
966.890439	2555.865000
967.189447	2399.589231
967.488419	2444.959615
967.787353	2535.700385
968.086249	2467.644808
968.385108	2513.015192
968.683930	2465.124231
968.982714	2482.768269
969.281462	2477.727115
969.580172	2613.838269
969.878844	2444.959615
970.177480	2523.097500
970.476078	2455.041923
970.774639	2553.344423
971.073162	2480.247692
971.371649	2462.603654
971.670098	2450.000769
971.968510	2548.303269
972.266885	2505.453462
972.565223	2535.700385
972.863524	2495.371154
973.161788	2520.576923
973.460014	2492.850577
973.758204	2477.727115
974.056356	2507.974038
974.354471	2487.809423
974.652550	2480.247692
974.950591	2550.823846
975.248595	2457.562500
975.546563	2502.932885
975.844493	2543.262115
976.142386	2500.412308
976.440243	2500.412308
976.738062	2502.932885
977.035845	2450.000769
977.333590	2500.412308
977.631299	2475.206538
977.928971	2470.165385
978.226606	2485.288846
978.524204	2429.836154
978.821765	2460.083077
979.119290	2523.097500
979.416777	2485.288846
979.714228	2482.768269
980.011642	2570.988462
980.309020	2404.630385
980.606360	2560.906154
980.903664	2462.603654
981.200931	2480.247692
981.498162	2439.918462
981.795356	2518.056346
982.092513	2505.453462
982.389633	2545.782692
982.686717	2460.083077
982.983764	2485.288846
983.280775	2487.809423
983.577749	2507.974038
983.874686	2447.480192
984.171587	2500.412308
984.468451	2507.974038
984.765279	2432.356731
985.062070	2563.426731
985.358824	2518.056346
985.655543	2470.165385
985.952224	2502.932885
986.248869	2414.712692
986.545478	2495.371154
986.842050	2467.644808
987.138586	2455.041923
987.435086	2505.453462
987.731549	2523.097500
988.027975	2568.467885
988.324366	2452.521346
988.620719	2472.685962
988.917037	2452.521346
989.213318	2530.659231
989.509563	2497.891731
989.805772	2475.206538
990.101944	2419.753846
990.398080	2535.700385
990.694180	2419.753846
990.990244	2568.467885
991.286271	2482.768269
991.582262	2384.465769
991.878217	2598.714808
992.174136	2495.371154
992.470019	2528.138654
992.765865	2485.288846
993.061676	2452.521346
993.357450	2513.015192
993.653188	2427.315577
993.948890	2548.303269
994.244556	2432.356731
994.540186	2545.782692
994.835780	2490.330000
995.131337	2518.056346
995.426859	2492.850577
995.722345	2455.041923
996.017795	2452.521346
996.313208	2500.412308
996.608586	2518.056346
996.903928	2495.371154
997.199234	2442.439038
997.494504	2520.576923
997.789738	2530.659231
998.084936	2422.274423
998.380099	2457.562500
998.675225	2550.823846
998.970316	2505.453462
999.265371	2444.959615
999.560390	2510.494615
999.855373	2462.603654
1000.150320	2535.700385
1000.445232	2553.344423
1000.740108	2397.068654
1001.034948	2455.041923
1001.329752	2429.836154
1001.624521	2533.179808
1001.919254	2470.165385
1002.213951	2482.768269
1002.508613	2482.768269
1002.803239	2485.288846
1003.097829	2515.535769
1003.392384	2530.659231
1003.686903	2586.111923
1003.981386	2470.165385
1004.275834	2341.615962
1004.570246	2497.891731
1004.864623	2500.412308
1005.158964	2518.056346
1005.453270	2530.659231
1005.747540	2465.124231
1006.041775	2397.068654
1006.335974	2500.412308
1006.630138	2447.480192
1006.924266	2495.371154
1007.218359	2533.179808
1007.512416	2497.891731
1007.806438	2444.959615
1008.100425	2573.509038
1008.394376	2543.262115
1008.688292	2555.865000
1008.982172	2437.397885
1009.276017	2502.932885
1009.569827	2560.906154
1009.863602	2576.029615
1010.157341	2487.809423
1010.451045	2472.685962
1010.744714	2424.795000
1011.038347	2505.453462
1011.331945	2548.303269
1011.625508	2502.932885
1011.919036	2480.247692
1012.212528	2502.932885
1012.505986	2477.727115
1012.799408	2437.397885
1013.092795	2465.124231
1013.386147	2505.453462
1013.679464	2515.535769
1013.972745	2397.068654
1014.265992	2477.727115
1014.559204	2507.974038
1014.852380	2523.097500
1015.145521	2568.467885
1015.438628	2442.439038
1015.731699	2437.397885
1016.024736	2442.439038
1016.317737	2545.782692
1016.610703	2523.097500
1016.903635	2515.535769
1017.196531	2397.068654
1017.489393	2444.959615
1017.782219	2452.521346
1018.075011	2470.165385
1018.367768	2553.344423
1018.660490	2432.356731
1018.953177	2432.356731
1019.245829	2432.356731
