Dividing Wavelength (nm)	Counts (n)	Blue Motor Position (mm): 0.000000	Red Motor Position (mm): 43.600000	
326.493990	2130.247943
326.888308	2130.247943
327.282561	2130.247943
327.676750	2096.497418
328.070874	2093.374423
328.464933	2095.882397
328.858929	2102.841710
329.252859	2112.924017
329.646726	2125.040431
330.040528	2137.056021
330.434265	2154.538742
330.827938	2170.282266
331.221547	2187.371777
331.615091	2210.482947
332.008571	2226.140771
332.401986	2246.050808
332.795338	2264.879518
333.188625	2284.502209
333.581847	2305.271763
333.975006	2324.143322
334.368100	2341.462206
334.761129	2359.925432
335.154095	2375.401775
335.546996	2394.923643
335.939833	2419.053126
336.332606	2436.036773
336.725315	2446.766869
337.117960	2455.679629
337.510540	2463.725311
337.903056	2475.135962
338.295508	2482.687611
338.687896	2490.209012
339.080220	2499.076402
339.472480	2507.124604
339.864676	2512.783299
340.256807	2512.916890
340.648875	2516.788496
341.040879	2521.272602
341.432818	2524.254445
341.824694	2523.626821
342.216506	2525.812161
342.608253	2527.594209
342.999937	2525.940711
343.391557	2525.847449
343.783113	2526.192768
344.174605	2524.196472
344.566033	2520.375277
344.957397	2518.378980
345.348697	2517.280008
345.739934	2516.647344
346.131106	2513.567199
346.522215	2513.536952
346.913260	2508.465551
347.304241	2510.789523
347.695159	2507.883298
348.086012	2507.447238
348.476802	2504.203255
348.867528	2504.175529
349.258191	2501.249139
349.648789	2500.780312
350.039324	2498.063130
350.429796	2500.097236
350.820203	2495.141781
351.210548	2495.741679
351.600828	2491.847387
351.991045	2497.019611
352.381198	2493.349651
352.771288	2496.460043
353.161314	2494.708242
353.551276	2492.598519
353.941175	2493.828561
354.331010	2493.115238
354.720782	2491.890237
355.110490	2492.817809
355.500135	2494.751092
355.889717	2495.345948
356.279235	2492.772439
356.668689	2492.573313
357.058080	2493.866369
357.447408	2490.549290
357.836672	2491.507109
358.225873	2493.672285
358.615010	2491.854949
359.004084	2498.741165
359.393095	2496.633963
359.782043	2497.778305
360.170927	2497.405259
360.559748	2500.011536
360.948505	2499.467091
361.337199	2503.416835
361.725830	2500.838285
362.114398	2503.971362
362.502903	2503.290807
362.891344	2503.815087
363.279722	2505.229130
363.668037	2504.548574
364.056289	2506.010509
364.444478	2505.037566
364.832603	2505.307268
365.220665	2509.733401
365.608665	2506.912876
365.996601	2508.004285
366.384474	2509.483864
366.772284	2512.059894
367.160031	2511.074348
367.547715	2515.687004
367.935336	2516.879237
368.322893	2518.777231
368.710388	2521.111285
369.097820	2529.509848
369.485189	2530.568490
369.872495	2541.278421
370.259738	2545.132383
370.646918	2554.521532
371.034035	2559.454302
371.421090	2571.469892
371.808081	2579.767631
372.195010	2586.598394
372.581875	2601.696650
372.968678	2616.338682
373.355418	2623.842439
373.742096	2641.037815
374.128710	2655.941986
374.515262	2674.024605
374.901751	2685.152952
375.288177	2700.102494
375.674540	2723.236349
376.060841	2740.706467
376.447079	2760.591299
376.833254	2781.002931
377.219367	2795.324849
377.605417	2831.200220
377.991404	2842.177333
378.377329	2863.776156
378.763191	2878.650081
379.148991	2918.150042
379.534727	2944.026284
379.920402	2971.172898
380.306013	2982.825525
380.691563	3030.356044
381.077049	3054.843449
381.462474	3072.792477
381.847835	3111.334619
382.233134	3132.220119
382.618371	3132.472177
383.003545	3201.503217
383.388657	3211.638457
383.773706	3240.786408
384.158693	3255.970364
384.543618	3282.612862
384.928480	3316.393634
385.313280	3366.245604
385.698017	3363.984647
386.082692	3417.567071
386.467305	3421.446239
386.851856	3455.153914
387.236344	3475.106801
387.620770	3506.069568
388.005133	3536.808003
388.389435	3559.662074
388.773674	3572.648087
389.157851	3614.275415
389.541965	3633.036069
389.926018	3594.380501
390.310008	3663.565296
390.693936	3682.698996
391.077802	3727.013259
391.461606	3714.773337
391.845348	3777.835651
392.229027	3776.686268
392.612645	3791.741674
392.996200	3865.476111
393.379694	3909.339190
393.763125	3972.903099
394.146494	3940.067544
394.529801	3999.527953
394.913047	4049.130387
395.296230	4014.467413
395.679351	4072.314653
396.062410	4094.745267
396.445408	4075.699788
396.828343	4107.779170
397.211217	4131.109630
397.594028	4052.034091
397.976778	4117.619503
398.359466	4147.135458
398.742092	4173.054551
399.124656	4097.603601
399.507158	4176.656455
399.889598	4200.617060
400.271977	4260.420268
400.654294	4232.797265
401.036549	4243.355962
401.418742	4217.026015
401.800874	4320.389834
402.182944	4334.931042
402.564952	4400.965116
402.946898	4390.172006
403.328783	4381.644894
403.710606	4298.478459
404.092367	4485.011233
404.474067	4454.693734
404.855705	4460.223880
405.237282	4386.403743
405.618797	4498.748378
406.000250	4529.892626
406.381642	4613.790029
406.762972	4573.884255
407.144240	4588.228858
407.525447	4588.929579
407.906593	4644.551150
408.287677	4688.124363
408.668700	4618.596769
409.049661	4666.084438
409.430560	4708.775450
409.811399	4637.947238
410.192176	4796.675529
410.572891	4731.327051
410.953545	4844.899206
411.334138	4719.566039
411.714669	4789.975835
412.095139	4681.507848
412.475547	4824.878264
412.855894	4804.423782
413.236180	4817.593797
413.616405	4767.013379
413.996568	4855.034446
414.376670	4799.793482
414.756711	4750.506121
415.136691	4783.346718
415.516609	4861.169530
415.896466	4899.005911
416.276262	4933.908339
416.655997	4914.046193
417.035670	5098.073514
417.415283	5187.611968
417.794834	5132.154235
418.174324	5086.597328
418.553753	4991.795909
418.933121	5175.644269
419.312428	5247.097584
419.691674	5182.497718
420.070859	5310.416997
420.449983	5223.399119
420.829045	5334.995142
421.208047	5243.425103
421.586988	5316.950332
421.965867	5331.461293
422.344686	5455.982834
422.723444	5308.839115
423.102141	5133.948886
423.480777	5427.903608
423.859352	5197.273340
424.237866	5461.860820
424.616319	5450.896310
424.994712	5561.335388
425.373044	5436.483651
425.751314	5580.126289
426.129524	5384.342997
426.507673	5580.847174
426.885762	5658.939688
427.263789	5593.286221
427.641756	5472.192665
428.019662	5596.326037
428.397508	5602.100679
428.775292	5545.606988
429.153016	5646.029293
429.530679	5576.801648
429.908282	5660.169730
430.285824	5532.197519
430.663305	5806.131298
431.040726	5539.240011
431.418086	5542.194127
431.795385	5643.097862
432.172624	5656.880377
432.549802	5647.740765
432.926920	5665.682232
433.303977	5673.506102
433.680974	5713.411876
434.057910	5731.101285
434.434786	5739.164611
434.811601	5702.815371
435.188355	5934.416061
435.565050	5810.139016
435.941683	5795.363394
436.318257	6006.058419
436.694770	5990.859340
437.071222	6026.860740
437.447614	5958.555626
437.823946	5868.984404
438.200218	6023.455441
438.576429	5889.617847
438.952580	5989.644422
439.328670	6030.155134
439.704700	5941.700528
440.080670	5926.105719
440.456580	6198.809457
440.832429	6076.823616
441.208218	5926.284680
441.583947	6081.572383
441.959616	6081.355613
442.335224	6011.092011
442.710773	6152.609802
443.086261	6181.704822
443.461689	5971.287060
443.837057	6120.595955
444.212365	6272.342247
444.587612	6169.023799
444.962800	6326.713612
445.337927	6307.791641
445.712995	5911.579634
446.088002	6493.051524
446.462949	6314.264482
446.837837	6250.476242
447.212664	6423.760865
447.587431	6566.667494
447.962139	7108.089937
448.336786	8034.364148
448.711374	7771.480578
449.085901	6849.451019
449.460369	6773.513598
449.834776	6707.366098
450.209124	7094.037721
450.583412	7247.853407
450.957640	7397.295893
451.331808	7159.925602
451.705917	6707.628238
452.079965	6635.290201
452.453954	6850.350865
452.827883	6727.578604
453.201752	6819.829199
453.575562	6611.543845
453.949311	6812.935421
454.323001	6709.029678
454.696632	6779.358816
455.070202	6919.598675
455.443713	7077.946358
455.817164	7173.871954
456.190556	7251.258707
456.563888	7329.993968
456.937160	7375.891153
457.310373	7027.910386
457.683526	7055.929119
458.056619	6948.154291
458.429653	6936.748680
458.802628	6871.402723
459.175542	6976.848538
459.548398	7336.975966
459.921194	7493.135789
460.293930	7500.238775
460.666607	8030.953807
461.039224	8337.718101
461.411782	8466.388512
461.784280	8486.331317
462.156719	8372.373513
462.529099	8249.560923
462.901419	7839.034560
463.273680	7729.558343
463.645882	7744.764983
464.018024	7608.091741
464.390106	7776.446114
464.762130	8166.079416
465.134094	8630.036969
465.505999	9660.600050
465.877845	10881.267563
466.249631	11529.194463
466.621358	11145.993674
466.993026	10523.625423
467.364634	10256.993755
467.736184	9896.294157
468.107674	9559.240090
468.479105	9592.904915
468.850477	9356.041261
469.221790	9127.732444
469.593043	8796.568966
469.964238	8662.890168
470.335373	8675.062034
470.706449	8731.089418
471.077467	8716.701965
471.448425	10030.068736
471.819324	11101.467683
472.190164	11124.059614
472.560945	9877.717505
472.931667	9081.366432
473.302330	8951.770969
473.672934	8594.988347
474.043479	8950.303993
474.413965	8892.449191
474.784393	8772.391592
475.154761	8929.877238
475.525070	9019.869396
475.895321	8848.946554
476.265513	9020.784365
476.635645	9197.668371
477.005719	9190.630921
477.375734	9304.966810
477.745691	9540.449189
478.115588	9677.213172
478.485427	9917.230068
478.855207	10455.050608
479.224928	11273.050916
479.594591	11905.410734
479.964194	11721.043135
480.333739	11654.114256
480.703226	11564.994217
481.072653	11655.898824
481.442022	11903.384190
481.811333	12088.265987
482.180584	11896.959239
482.549777	11601.865217
482.918912	11418.712536
483.287988	11445.168511
483.657005	11456.939605
484.025964	11138.827674
484.394864	11267.306521
484.763706	11237.314176
485.132489	10993.849131
485.501213	10964.693617
485.869879	11034.488392
486.238487	10880.655062
486.607036	10987.073820
486.975527	10765.434450
487.343959	10953.363624
487.712333	11009.411173
488.080648	10933.630028
488.448905	10983.144241
488.817104	10917.084961
489.185244	11183.454489
489.553326	11336.899650
489.921350	11884.953732
490.289315	12936.006582
490.657222	13286.346610
491.025070	13197.082899
491.392861	13063.295717
491.760593	12686.287985
492.128267	12332.653563
492.495883	12003.047802
492.863440	11670.767708
493.230939	11333.577530
493.598380	11267.586305
493.965763	11131.644030
494.333088	11035.988136
494.700354	10962.823349
495.067563	11018.124807
495.434713	10849.747748
495.801805	10979.093673
496.168839	10898.094934
496.535815	10838.019504
496.902733	10834.258803
497.269593	10767.551735
497.636395	10864.702331
498.003139	10854.589776
498.369825	10718.778571
498.736453	10881.086081
499.103023	10806.713938
499.469535	10836.368526
499.835989	10823.170785
500.202385	10789.069900
500.568723	10635.980140
500.935003	10856.734787
501.301226	10665.856538
501.667390	10923.945971
502.033497	11022.808039
502.399546	10880.478622
502.765537	10789.541248
503.131470	10861.198729
503.497345	11036.567868
503.863163	10649.969342
504.228923	10962.760335
504.594625	11029.558144
504.960269	10771.763619
505.325856	10995.454738
505.691385	10787.086206
506.056856	10938.819895
506.422270	10973.099742
506.787625	10853.367297
507.152924	10968.839967
507.518164	10951.458068
507.883347	10875.334124
508.248472	10792.228183
508.613540	11027.113184
508.978550	10907.317725
509.343503	10884.488860
509.708398	10995.421971
510.073236	11113.402615
510.438016	11117.347318
510.802738	11063.580891
511.167403	11115.774478
511.532010	11010.419403
511.896561	11255.467371
512.261053	11318.915334
512.625488	11193.516632
512.989866	11164.280460
513.354186	11161.364152
513.718449	11057.607124
514.082655	11252.215827
514.446803	11146.336473
514.810894	11269.922880
515.174927	11134.577982
515.538904	11161.911118
515.902822	11319.510190
516.266684	11204.307222
516.630488	11146.684312
516.994235	11201.093486
517.357925	11264.753177
517.721558	11357.283556
518.085133	11371.398786
518.448651	11377.377595
518.812112	11259.888463
519.175516	11277.361103
519.538863	11390.129193
519.902152	11303.935545
520.265385	11475.034827
520.628560	11382.348172
520.991678	11356.658452
521.354739	11424.116653
521.717743	11356.933195
522.080690	11335.994763
522.443580	11468.342695
522.806413	11425.681931
523.169189	11458.323402
523.531908	11511.240394
523.894569	11332.405461
524.257174	11335.059629
524.619722	11460.228958
524.982213	11399.662015
525.344647	11461.857251
525.707025	11403.009342
526.069345	11495.403609
526.431608	11417.139696
526.793815	11530.560616
527.155964	11311.537605
527.518057	11370.219156
527.880093	11320.382309
528.242072	11387.694316
528.603995	11290.165633
528.965860	11214.976824
529.327669	11265.131263
529.689421	11220.249871
530.051117	11179.328304
530.412755	11284.799325
530.774337	11172.222798
531.135862	11161.275932
531.497331	11181.816114
531.858743	11036.058712
532.220098	11201.718589
532.581396	11070.550287
532.942638	11051.925744
533.303824	11013.673468
533.664953	11029.875737
534.026025	10937.252097
534.387040	11042.206399
534.747999	11042.597088
535.108902	11105.152767
535.469748	10855.109015
535.830537	10962.404934
536.191270	10947.500762
536.551947	10970.306942
536.912567	10957.068872
537.273131	10883.092460
537.633638	10866.318021
537.994089	10858.778975
538.354483	10801.768566
538.714821	10953.454365
539.075103	10957.048708
539.435328	10923.290621
539.795497	10752.047666
540.155609	10902.914277
540.515665	10993.287042
540.875665	10732.543442
541.235609	10793.473348
541.595496	10794.453852
541.955328	10952.388161
542.315102	10832.940541
542.674821	10791.529983
543.034483	10782.468509
543.394090	10789.974787
543.753640	10721.387368
544.113134	10940.231418
544.472571	10790.461258
544.831953	10934.144225
545.191278	10747.893755
545.550548	10766.326734
545.909761	10911.751420
546.268918	10876.178518
546.628019	10959.292021
546.987064	10831.526497
547.346053	10749.287634
547.704986	10843.070740
548.063863	10833.275778
548.422684	10828.645478
548.781449	10741.882179
549.140158	10844.149547
549.498811	10716.252953
549.857408	10577.596017
550.215949	10798.262444
550.574434	10659.358491
550.932864	10755.994889
551.291237	10814.147120
551.649555	10764.506878
552.007817	10772.300502
552.366022	10730.395910
552.724173	10730.529501
553.082267	10713.109794
553.440305	10851.403767
553.798288	10650.168467
554.156215	10813.786677
554.514086	10783.199476
554.871902	10630.835642
555.229661	10675.076808
555.587365	10645.109669
555.945014	10541.133351
556.302606	10673.130923
556.660143	10563.311907
557.017625	10722.146062
557.375050	10616.286872
557.732421	10747.482901
558.089735	10662.723461
558.446994	10662.685652
558.804197	10697.613287
559.161345	10710.223733
559.518437	10549.637777
559.875474	10642.145471
560.232455	10667.467187
560.589381	10616.861564
560.946251	10611.419638
561.303065	10718.919723
561.659825	10654.226596
562.016528	10585.586245
562.373177	10465.886568
562.729770	10579.199103
563.086307	10494.616104
563.442789	10587.796791
563.799216	10465.616866
564.155587	10518.997644
564.511904	10463.751639
564.868164	10459.254930
565.224370	10475.734462
565.580520	10395.844776
565.936615	10399.252596
566.292654	10270.776270
566.648638	10407.383977
567.004567	10362.880671
567.360441	10348.541109
567.716260	10257.563406
568.072023	10350.413898
568.427732	10300.735847
568.783385	10208.422238
569.138982	10282.691037
569.494525	10299.349530
569.850013	10173.998719
570.205445	10262.239076
570.560823	10152.566253
570.916145	10069.656917
571.271412	10143.532506
571.626625	10084.999668
571.981782	10060.809692
572.336884	10038.210199
572.691931	10041.832268
573.046923	9982.986879
573.401860	9946.657804
573.756743	9885.206139
574.111570	9922.135111
574.466342	9908.287062
574.821059	9936.028531
575.175722	9831.868210
575.530330	9840.985137
575.884882	9829.624897
576.239380	9760.596377
576.593823	9736.545032
576.948211	9748.870653
577.302544	9628.840780
577.656823	9643.341659
578.011047	9645.900045
578.365216	9621.198391
578.719330	9547.012771
579.073389	9554.249347
579.427394	9501.017283
579.781344	9483.090940
580.135239	9430.826778
580.489080	9438.638046
580.842866	9343.650104
581.196597	9348.401392
581.550273	9379.351556
581.903895	9351.804171
582.257463	9421.203215
582.610975	9297.977251
582.964434	9324.586981
583.317837	9241.455834
583.671186	9225.699707
584.024481	9227.317918
584.377721	9142.659301
584.730906	9118.706258
585.084037	9148.060897
585.437113	9085.895908
585.790135	9104.525492
586.143103	9003.137806
586.496016	8982.814394
586.848874	9036.578300
587.201679	9027.718472
587.554428	8910.027695
587.907124	8960.847567
588.259765	8930.671220
588.612352	8933.905120
588.964884	8814.364239
589.317362	8827.622473
589.669786	8821.951175
590.022155	8874.580821
590.374470	8889.792503
590.726731	8824.076022
591.078937	8675.886263
591.431090	8794.260117
591.783188	8665.128441
592.135232	8658.302718
592.487222	8659.326073
592.839157	8706.143268
593.191038	8638.354873
593.542866	8587.388807
593.894639	8489.272830
594.246358	8538.202269
594.598022	8547.541007
594.949633	8449.568702
595.301190	8424.667923
595.652692	8455.146739
596.004141	8561.784787
596.355535	8336.825817
596.706876	8319.005338
597.058162	8254.372705
597.409395	8326.705701
597.760573	8395.335969
598.111698	8297.353582
598.462768	8286.263044
598.813785	8248.847600
599.164748	8218.283084
599.515657	8207.336219
599.866511	8117.563351
600.217312	8249.407168
600.568060	8102.334025
600.918753	8207.830252
601.269392	8177.895880
601.619978	8090.371367
601.970510	8152.705235
602.320988	8148.916808
602.671412	8204.800518
603.021783	8145.635016
603.372100	8114.689893
603.722363	8116.504709
604.072572	8091.117458
604.422728	8104.854602
604.772830	8032.899693
605.122878	8035.395064
605.472872	8032.380454
605.822813	8067.756751
606.172701	8012.306579
606.522534	8084.551355
606.872314	8083.893485
607.222041	8053.371819
607.571714	8107.866692
607.921333	8064.858088
608.270899	8072.132473
608.620411	8163.694950
608.969870	8066.095691
609.319276	8058.365082
609.668627	8073.775889
610.017926	8108.920293
610.367171	8163.382398
610.716362	8133.359807
611.065500	8120.998897
611.414585	8149.035275
611.763616	8141.032443
612.112594	8121.409752
612.461518	8132.215465
612.810389	8190.949948
613.159207	8139.686455
613.507971	8076.409892
613.856682	8198.151237
614.205340	8156.355030
614.553945	8232.909992
614.902496	8129.344528
615.250994	8183.108433
615.599439	8165.560177
615.947830	8178.911673
616.296169	8147.036457
616.644454	8166.742328
616.992686	8162.323756
617.340864	8217.887354
617.688990	8121.792879
618.037063	8215.391983
618.385082	8161.464239
618.733048	8242.568843
619.080961	8184.025923
619.428821	8204.029222
619.776628	8205.710447
620.124382	8154.089031
620.472083	8139.996486
620.819731	8163.163108
621.167326	8057.140081
621.514868	8071.595590
621.862357	7956.682488
622.209793	7972.209242
622.557176	7907.775734
622.904506	7878.078297
623.251783	7806.670352
623.599007	7766.338601
623.946179	7767.235926
624.293297	7727.284782
624.640363	7641.378479
624.987376	7620.240921
625.334336	7565.594814
625.681243	7517.086311
626.028097	7507.031729
626.374899	7479.766649
626.721647	7473.445042
627.068343	7404.837459
627.414987	7379.364508
627.761577	7329.099163
628.108115	7365.498815
628.454600	7257.381188
628.801032	7306.272819
629.147412	7274.629496
629.493739	7253.408759
629.840014	7190.840478
630.186236	7253.315497
630.532405	7127.306816
630.878521	7179.608787
631.224585	7130.800336
631.570597	7058.716877
631.916556	7088.232832
632.262462	7085.382060
632.608316	7039.734412
632.954117	7019.136257
633.299866	6996.579614
633.645562	6992.564335
633.991206	6916.062305
634.336797	6859.659355
634.682336	6817.848025
635.027823	6782.224712
635.373257	6769.339523
635.718639	6704.560696
636.063968	6719.048972
636.409245	6614.427385
636.754470	6602.946158
637.099642	6561.046607
637.444762	6504.590725
637.789829	6519.658734
638.134845	6454.716070
638.479808	6438.778462
638.824719	6444.656447
639.169577	6367.824222
639.514383	6386.894907
639.859137	6315.212219
640.203839	6320.636501
640.548489	6307.675694
640.893086	6282.575789
641.237632	6250.879535
641.582125	6269.574654
641.926566	6236.897894
642.270955	6248.979020
642.615292	6245.893833
642.959576	6252.636377
643.303809	6243.587506
643.647990	6245.646817
643.992118	6240.819912
644.336195	6186.312436
644.680219	6205.491506
645.024192	6196.102357
645.368112	6285.030831
645.711981	6300.169416
646.055797	6367.315065
646.399562	6327.071534
646.743274	6439.794254
647.086935	6490.853581
647.430544	6483.596840
647.774101	6496.471947
648.117606	6503.932855
648.461059	6490.893910
648.804460	6445.137878
649.147810	6359.833993
649.491108	6330.428942
649.834354	6301.401978
650.177548	6215.835954
650.520690	6131.782275
650.863781	6108.277895
651.206820	6125.879084
651.549807	6046.440582
651.892742	5984.406663
652.235626	5991.010574
652.578458	5973.094314
652.921238	5880.352206
653.263967	5918.324698
653.606644	5855.809349
653.949269	5850.569069
654.291843	5796.348939
654.634365	5836.683211
654.976836	5788.134379
655.319255	5784.633298
655.661622	5755.679431
656.003938	5754.131796
656.346203	5712.020518
656.688416	5738.584878
657.030577	5688.488412
657.372687	5659.973125
657.714746	5645.701618
658.056753	5684.349624
658.398708	5619.159943
658.740612	5612.581237
659.082465	5646.127596
659.424266	5638.586030
659.766016	5635.775586
660.107715	5604.585967
660.449362	5615.174911
660.790958	5610.146360
661.132503	5587.264563
661.473996	5616.188183
661.815438	5601.805771
662.156829	5598.231593
662.498168	5584.907823
662.839456	5559.923865
663.180693	5584.043266
663.521879	5589.747331
663.863013	5567.450308
664.204097	5580.804324
664.545129	5617.990396
664.886110	5605.896667
665.227040	5629.002796
665.567918	5597.838383
665.908746	5612.997133
666.249522	5613.108038
666.590248	5598.811326
666.930922	5617.430827
667.271545	5622.469461
667.612118	5617.153564
667.952639	5594.793526
668.293109	5603.156800
668.633528	5564.637344
668.973896	5562.434360
669.314213	5552.677206
669.654480	5523.811559
669.994695	5516.514489
670.334859	5511.574158
670.674973	5489.919882
671.015035	5492.891642
671.355047	5478.983099
671.695008	5463.887364
672.034918	5440.345175
672.374777	5443.752995
672.714585	5427.341519
673.054342	5421.829017
673.394049	5408.293519
673.733705	5429.337816
674.073310	5406.592130
674.412864	5377.552563
674.752368	5358.262588
675.091820	5352.205641
675.431223	5307.510771
675.770574	5295.601045
676.109875	5247.147995
676.449125	5249.701340
676.788324	5219.043563
677.127473	5158.963091
677.466571	5154.297503
677.805619	5136.434174
678.144616	5115.500783
678.483562	5094.741312
678.822458	5068.557558
679.161303	5054.800250
679.500098	5043.676944
679.838842	5025.513666
680.177535	5023.446793
680.516179	5030.214542
680.854771	5041.032858
681.193314	5097.624852
681.531805	5177.756513
681.870247	5289.622237
682.208638	5364.382548
682.546978	5376.514085
682.885268	5352.263615
683.223508	5274.009783
683.561697	5222.806784
683.899836	5192.033060
684.237925	5149.238705
684.575963	5112.934836
684.913951	5079.607768
685.251889	5112.087922
685.589776	5092.172844
685.927614	5065.265685
686.265401	5107.659268
686.603137	5092.548410
686.940824	5140.451974
687.278460	5152.359179
687.616046	5148.285927
687.953582	5200.582857
688.291068	5181.466802
688.628504	5214.163726
688.965889	5184.330177
689.303224	5139.577334
689.640510	5090.471454
689.977745	5023.565260
690.314930	4946.223878
690.652065	4899.240324
690.989150	4826.917411
691.326185	4761.185806
691.663170	4707.588258
692.000105	4648.589114
692.336990	4592.135752
692.673825	4557.351791
693.010610	4505.256507
693.347345	4461.098520
693.684030	4424.340947
694.020665	4393.342892
694.357251	4325.120957
694.693786	4323.434691
695.030272	4299.864776
695.366707	4265.274899
695.703093	4240.401846
696.039429	4248.129935
696.375716	4223.937437
696.711952	4207.525961
697.048139	4195.522974
697.384276	4175.665869
697.720363	4178.199048
698.056400	4173.863656
698.392388	4138.441989
698.728326	4122.925317
699.064214	4106.118110
699.400053	4095.657716
699.735842	4058.305287
700.071581	4037.626473
700.407270	4015.518493
700.742910	4004.090197
701.078501	3960.804330
701.414042	3951.205973
701.749533	3922.715892
702.084974	3884.135942
702.420366	3913.346908
702.755709	3872.460629
703.091002	3827.798527
703.426246	3846.947350
703.761440	3829.381449
704.096584	3801.319866
704.431679	3803.613591
704.766725	3790.410809
705.101721	3778.301958
705.436668	3790.501550
705.771565	3758.235645
706.106413	3774.223664
706.441212	3780.656177
706.775961	3780.734315
707.110661	3777.359262
707.445311	3798.385915
707.779913	3797.420534
708.114465	3806.925629
708.448967	3826.235769
708.783421	3856.354143
709.117825	3878.048748
709.452180	3883.863719
709.786485	3916.790016
710.120742	3968.426555
710.454949	3959.627221
710.789107	3993.801202
711.123216	4038.637225
711.457275	4033.701935
711.791286	4073.146443
712.125247	4075.306578
712.459159	4028.426368
712.793023	4077.038214
713.126837	4019.798433
713.460602	4015.561343
713.794318	3979.708657
714.127985	3971.058037
714.461602	3899.221595
714.795171	3888.544431
715.128691	3836.953262
715.462162	3790.080614
715.795584	3754.961416
716.128957	3740.120259
716.462281	3708.809652
716.795556	3686.215201
717.128782	3653.286384
717.461960	3606.789301
717.795088	3610.605455
718.128167	3580.169488
718.461198	3545.723284
718.794180	3538.189280
719.127113	3517.674304
719.459997	3503.123013
719.792833	3474.537151
720.125619	3471.509938
720.458357	3442.871143
720.791046	3437.870318
721.123686	3420.468255
721.456278	3398.995460
721.788821	3402.587282
722.121315	3383.950137
722.453761	3371.705174
722.786158	3366.139740
723.118506	3379.022409
723.450805	3358.197402
723.783056	3367.679813
724.115259	3363.331817
724.447412	3364.571941
724.779518	3366.681664
725.111574	3362.971375
725.443582	3376.484188
725.775542	3366.716952
726.107453	3393.639234
726.439315	3388.023389
726.771129	3407.898138
727.102895	3423.939089
727.434612	3442.974486
727.766281	3451.955302
728.097901	3455.037968
728.429473	3453.891105
728.760996	3453.006383
729.092471	3450.382462
729.423897	3436.262190
729.755276	3430.477466
730.086606	3426.003442
730.417887	3456.388997
730.749120	3487.724809
731.080305	3507.642408
731.411442	3526.657640
731.742530	3512.078623
732.073570	3510.306658
732.404562	3530.383053
732.735506	3523.338040
733.066401	3503.793487
733.397249	3464.066674
733.728048	3418.492123
734.058798	3359.772763
734.389501	3315.871874
734.720156	3287.696866
735.050762	3259.340375
735.381320	3243.362438
735.711831	3225.272257
736.042293	3206.937581
736.372707	3209.669886
736.703073	3194.891744
737.033391	3197.371992
737.363661	3204.137220
737.693883	3208.167622
738.024056	3213.735577
738.354182	3217.584498
738.684260	3242.576018
739.014290	3255.683018
739.344272	3255.977926
739.674207	3275.656070
740.004093	3279.701596
740.333931	3273.755555
740.663722	3270.136006
740.993464	3264.530243
741.323159	3253.676639
741.652806	3231.566138
741.982405	3216.591391
742.311956	3196.396528
742.641460	3187.725744
742.970915	3167.850995
743.300323	3148.402223
743.629683	3130.478401
743.958996	3119.786113
744.288260	3103.236005
744.617477	3081.705237
744.946647	3070.594534
745.275768	3057.757236
745.604842	3050.233314
745.933869	3033.884852
746.262847	3028.145498
746.591778	3030.661034
746.920662	3021.173582
747.249498	3013.851306
747.578286	3025.264479
747.907027	3038.434493
748.235720	3044.415822
748.564365	3048.582336
748.892963	3041.963301
749.221514	3034.424255
749.550017	3028.037113
749.878473	3019.078983
750.206881	3005.266221
750.535242	2999.887310
750.863555	2998.362361
751.191821	2994.604181
751.520039	2990.530929
751.848210	2982.381903
752.176334	2984.247130
752.504411	2984.879795
752.832440	2971.573670
753.160421	2966.018318
753.488356	2963.482618
753.816243	2962.915488
754.144082	2949.571554
754.471875	2945.589042
754.799620	2946.693055
755.127318	2941.931685
755.454969	2940.676438
755.782572	2941.157868
756.110129	2935.347938
756.437638	2933.684357
756.765100	2928.227308
757.092515	2932.870211
757.419882	2936.320881
757.747203	2927.539191
758.074477	2927.783687
758.401703	2929.656475
758.728882	2938.044955
759.056014	2941.004113
759.383099	2941.924123
759.710138	2942.808846
760.037129	2950.300000
760.364073	2952.770166
760.690970	2948.180195
761.017820	2942.609720
761.344623	2947.696244
761.671379	2961.216619
761.998088	2976.614823
762.324751	3023.298429
762.651366	3140.606079
762.977935	3366.089328
763.304456	3540.901420
763.630931	3553.922721
763.957359	3402.562077
764.283740	3256.603029
764.610074	3162.421672
764.936362	3075.066038
765.262602	3017.115453
765.588796	2969.244657
765.914943	2931.814089
766.241044	2897.577093
766.567097	2881.450442
766.893104	2864.459233
767.219064	2847.808302
767.544978	2835.732217
767.870845	2816.888384
768.196665	2810.702889
768.522438	2809.331695
768.848165	2801.369192
769.173846	2790.704631
769.499479	2784.753549
769.825066	2778.704165
770.150607	2768.793256
770.476101	2769.728390
770.801548	2769.400715
771.126949	2751.809609
771.452303	2747.794330
771.777611	2744.333578
772.102872	2744.981366
772.428087	2737.470047
772.753256	2730.278841
773.078378	2725.724158
773.403453	2718.101934
773.728482	2713.085986
774.053465	2716.743343
774.378401	2710.832590
774.703291	2701.771116
775.028135	2698.617874
775.352932	2699.832792
775.677683	2694.728624
776.002388	2693.702749
776.327046	2690.105886
776.651658	2689.644620
776.976224	2682.846624
777.300743	2683.055832
777.625216	2682.017354
777.949643	2679.259843
778.274024	2677.356808
778.598359	2669.795077
778.922647	2673.850685
779.246889	2669.142247
779.571086	2664.481701
779.895236	2668.141578
780.219339	2672.683658
780.543397	2670.142917
780.867409	2674.248936
781.191374	2670.911692
781.515294	2670.037052
781.839167	2672.721467
782.162995	2668.255004
782.486776	2666.815755
782.810511	2665.802483
783.134201	2662.651762
783.457844	2661.202430
783.781441	2659.947183
784.104993	2653.524753
784.428498	2654.800165
784.751958	2656.627583
785.075372	2653.050884
785.398739	2650.696666
785.722061	2651.049546
786.045337	2653.628097
786.368568	2651.004176
786.691752	2651.798158
787.014891	2663.536484
787.337983	2671.032680
787.661030	2690.342820
787.984031	2709.652960
788.306987	2717.002962
788.629897	2716.002293
788.952760	2706.968545
789.275579	2695.898172
789.598351	2679.302693
789.921078	2667.705519
790.243759	2659.876607
790.566395	2654.729589
790.888984	2648.140801
791.211529	2642.565284
791.534027	2639.638895
791.856480	2636.082361
792.178888	2634.436424
792.501249	2629.435599
792.823566	2628.707152
793.145836	2626.690691
793.468062	2625.458129
793.790241	2625.848818
794.112375	2624.114661
794.434464	2627.635907
794.756507	2629.153295
795.078505	2633.135806
795.400457	2638.111425
795.722364	2648.667601
796.044226	2658.228149
796.366042	2658.903664
796.687812	2652.786224
797.009538	2656.317552
797.331218	2651.780514
797.652852	2647.626603
797.974442	2645.184164
798.295986	2640.258957
798.617484	2636.112607
798.938938	2635.464819
799.260346	2631.580610
799.581709	2625.281688
799.903026	2626.829323
800.224299	2625.863942
800.545526	2620.875720
800.866708	2617.931686
801.187845	2613.576129
801.508936	2615.058228
801.829983	2614.702827
802.150984	2608.597990
802.471940	2606.493308
802.792851	2609.618823
803.113717	2607.322578
803.434538	2609.696961
803.755314	2603.675303
804.076045	2605.258225
804.396731	2604.154213
804.717372	2607.226796
805.037967	2608.371138
805.358518	2604.721342
805.679024	2610.364914
805.999485	2609.533124
806.319901	2612.061262
806.640272	2608.819801
806.960598	2608.928185
807.280879	2611.000100
807.601115	2613.399689
807.921306	2608.973556
808.241453	2611.219390
808.561554	2607.572115
808.881611	2609.228134
809.201623	2606.142948
809.521590	2607.889708
809.841513	2603.894593
810.161390	2608.318206
810.481223	2605.538009
810.801011	2600.882504
811.120755	2600.678337
811.440453	2604.670931
811.760107	2598.324118
812.079716	2593.570310
812.399281	2593.187182
812.718801	2590.938828
813.038276	2589.492017
813.357707	2595.584251
813.677093	2593.993767
813.996434	2593.930753
814.315731	2592.995619
814.634983	2592.859507
814.954191	2592.912440
815.273354	2594.875969
815.592473	2592.766246
815.911547	2597.880497
816.230577	2599.793615
816.549562	2599.304623
816.868502	2600.454006
817.187399	2600.920312
817.506250	2602.931733
817.825058	2601.989037
818.143821	2603.108173
818.462539	2605.858123
818.781213	2611.012702
819.099843	2620.361522
819.418429	2630.700929
819.736970	2645.814308
820.055466	2663.206289
820.373919	2678.912004
820.692327	2706.116590
821.010691	2741.513052
821.329011	2862.924201
821.647286	3151.336175
821.965517	3594.377980
822.283704	3826.825584
822.601847	3789.074904
822.919945	3545.254457
823.237999	3334.897189
823.556010	3155.313645
823.873976	3013.775689
824.191897	2912.826583
824.509775	2842.109277
824.827609	2783.344547
825.145398	2757.990063
825.463144	2753.586616
825.780845	2771.434821
826.098502	2798.624284
826.416116	2871.794112
826.733685	2951.199846
827.051210	2964.863894
827.368692	2923.654982
827.686129	2848.312417
828.003522	2780.103085
828.320872	2724.572255
828.638177	2688.805268
828.955439	2659.110351
829.272656	2639.389357
829.589830	2624.981740
829.906960	2618.095524
830.224046	2609.591097
830.541088	2604.802001
830.858086	2599.526433
831.175041	2595.760692
831.491952	2594.820516
831.808819	2596.315218
832.125642	2601.565580
832.442421	2609.099585
832.759157	2628.132461
833.075849	2665.220230
833.392497	2717.179402
833.709101	2759.837646
834.025662	2747.194432
834.342179	2717.103785
834.658653	2675.741118
834.975083	2650.454690
835.291469	2629.881741
835.607811	2613.021602
835.924110	2599.531475
836.240366	2594.961669
836.556578	2587.359609
836.872746	2582.164700
837.188871	2576.513566
837.504952	2575.006261
837.820990	2569.276990
838.136984	2568.031825
838.452935	2567.585683
838.768842	2569.627350
839.084706	2573.133472
839.400526	2588.009917
839.716303	2614.113012
840.032037	2635.671507
840.347727	2626.393263
840.663373	2614.508743
840.978977	2595.296905
841.294537	2580.879205
841.610054	2576.080027
841.925527	2570.927968
842.240957	2568.548543
842.556344	2565.178532
842.871687	2562.047975
843.186987	2560.669220
843.502244	2556.653941
843.817458	2553.576316
844.132629	2551.975750
844.447756	2553.760318
844.762840	2548.094061
845.077881	2546.874102
845.392879	2548.146993
845.707833	2550.614638
846.022745	2546.059956
846.337613	2552.091696
846.652438	2551.607746
846.967221	2551.517005
847.281960	2548.620862
847.596656	2550.992725
847.911309	2548.157076
848.225919	2550.019782
848.540485	2550.113043
848.855009	2550.067673
849.169490	2548.308310
849.483928	2547.685728
849.798323	2548.255378
850.112675	2548.262940
850.426984	2548.827549
850.741251	2547.247148
851.055474	2545.639019
851.369654	2547.158927
851.683792	2545.855789
851.997887	2546.816129
852.311938	2547.105995
852.625947	2549.019113
852.939914	2550.165976
853.253837	2549.888712
853.567718	2547.506767
853.881555	2550.095399
854.195350	2548.961140
854.509103	2550.995245
854.822812	2546.279246
855.136479	2546.475851
855.450103	2546.218752
855.763685	2547.138763
856.077224	2544.908052
856.390720	2548.935934
856.704173	2546.425439
857.017584	2549.014072
857.330953	2549.112374
857.644278	2546.790923
857.957561	2551.864844
858.270802	2548.177240
858.584000	2547.390820
858.897155	2549.283774
859.210268	2548.114226
859.523339	2548.421736
859.836367	2547.322765
860.149352	2547.244627
860.462295	2549.301418
860.775195	2542.561395
861.088054	2545.389482
861.400869	2543.902342
861.713642	2542.183308
862.026373	2544.164482
862.339062	2543.279759
862.651708	2548.043650
862.964312	2548.237734
863.276873	2547.763866
863.589392	2547.922662
863.901869	2550.574309
864.214303	2550.299566
864.526696	2552.005997
864.839045	2553.185627
865.151353	2551.416182
865.463619	2549.598846
865.775842	2553.389793
866.088023	2549.722354
866.400162	2550.866696
866.712258	2552.779814
867.024313	2552.374001
867.336325	2550.160934
867.648296	2551.804351
867.960224	2548.474668
868.272110	2549.785368
868.583954	2547.854607
868.895755	2551.217056
869.207515	2550.402910
869.519233	2552.989022
869.830909	2551.499361
870.142542	2551.501881
870.454134	2552.013558
870.765684	2555.897767
871.077191	2552.366439
871.388657	2553.783003
871.700081	2554.050185
872.011463	2553.004145
872.322803	2552.560524
872.634101	2554.289639
872.945357	2553.601522
873.256571	2556.447253
873.567744	2554.640000
873.878874	2555.502037
874.189963	2554.221584
874.501010	2558.468756
874.812015	2552.842828
875.122979	2554.612273
875.433900	2557.243756
875.744780	2557.785680
876.055618	2556.205278
876.366415	2557.253838
876.677169	2556.207798
876.987882	2554.539177
877.298554	2551.673281
877.609183	2555.499516
877.919771	2553.523384
878.230317	2556.464897
878.540822	2562.289951
878.851285	2562.138716
879.161707	2567.593244
879.472087	2574.529872
879.782425	2583.361974
880.092722	2599.591968
880.402977	2633.148409
880.713191	2694.133768
881.023363	2774.522527
881.333494	2827.827688
881.643583	2849.272757
881.953631	2833.408246
882.263637	2797.048923
882.573602	2755.598036
882.883526	2723.564024
883.193408	2691.633355
883.503248	2668.282731
883.813048	2651.639361
884.122806	2630.544653
884.432522	2615.806840
884.742197	2605.719491
885.051831	2594.366812
885.361424	2586.127047
885.670975	2580.294432
885.980485	2576.727815
886.289954	2574.522310
886.599382	2572.863771
886.908768	2566.337997
887.218113	2563.104097
887.527417	2562.975548
887.836680	2561.811041
888.145901	2558.350289
888.455082	2560.318859
888.764221	2556.515309
889.073319	2554.335010
889.382376	2557.619322
889.691392	2553.578837
890.000366	2555.587737
890.309300	2557.949517
890.618193	2558.327604
890.927044	2556.112017
891.235855	2556.739640
891.544625	2556.217881
891.853353	2558.987995
892.162041	2555.928014
892.470687	2559.093859
892.779293	2564.167780
893.087858	2564.571073
893.396381	2562.821792
893.704864	2574.063565
894.013306	2585.038157
894.321707	2604.580190
894.630068	2617.115019
894.938387	2622.236832
895.246665	2615.093517
895.554903	2609.510439
895.863100	2598.676999
896.171256	2589.577716
896.479371	2581.209401
896.787446	2574.116497
897.095480	2572.765468
897.403473	2570.050807
897.711425	2563.361196
898.019336	2562.378171
898.327207	2559.396328
898.635038	2562.027811
898.942827	2560.326421
899.250576	2554.813919
899.558284	2557.954558
899.865952	2555.706204
900.173579	2555.393652
900.481165	2555.285267
900.788711	2553.662016
901.096216	2553.624207
901.403681	2551.514484
901.711105	2552.275698
902.018489	2552.933569
902.325832	2555.675957
902.633135	2552.656306
902.940397	2556.860628
903.247619	2563.094015
903.554800	2575.248237
903.861941	2600.635487
904.169041	2626.670526
904.476101	2641.274749
904.783121	2639.878349
905.090100	2625.879065
905.397039	2610.458176
905.703938	2596.158943
906.010796	2584.458425
906.317614	2575.293607
906.624391	2569.801270
906.931129	2563.663665
907.237826	2557.400031
907.544483	2556.618652
907.851099	2553.470452
908.157675	2551.620348
908.464211	2549.845862
908.770707	2544.577857
909.077163	2546.939637
909.383578	2543.274718
909.689954	2543.796478
909.996289	2539.569470
910.302584	2543.511652
910.608839	2545.155069
910.915054	2545.785213
911.221229	2544.212373
911.527363	2546.259081
911.833458	2544.577857
912.139513	2546.674977
912.445527	2546.279246
912.751502	2545.507949
913.057436	2547.393341
913.363331	2548.356201
913.669186	2548.953578
913.975000	2553.538508
914.280775	2555.617983
914.586510	2566.274983
914.892205	2570.900241
915.197859	2582.101685
915.503475	2596.955445
915.809050	2611.789040
916.114585	2618.282046
916.420081	2622.625000
916.725536	2619.605349
917.030952	2614.256685
917.336328	2602.074737
917.641665	2595.004518
917.946961	2587.805751
918.252218	2576.841241
918.557435	2572.215982
918.862612	2567.825138
919.167750	2566.572411
919.472848	2559.935732
919.777906	2557.243756
920.082925	2555.113868
920.387904	2553.967006
920.692843	2552.507592
920.997743	2551.869886
921.302603	2552.255534
921.607423	2551.796789
921.912204	2548.426777
922.216946	2546.745553
922.521647	2547.577343
922.826310	2544.824873
923.130932	2547.274874
923.435516	2544.318237
923.740059	2545.669266
924.044564	2542.689944
924.349028	2545.016437
924.653454	2538.200797
924.957840	2539.821528
925.262186	2541.021323
925.566493	2539.614841
925.870761	2536.597710
926.174989	2541.139790
926.479178	2544.991231
926.783328	2541.134748
927.087438	2539.219110
927.391509	2538.389840
927.695541	2538.198276
927.999533	2538.152906
928.303486	2539.808925
928.607400	2539.486291
928.911275	2538.034439
929.215110	2537.656352
929.518906	2536.867412
929.822663	2537.978986
930.126381	2536.756506
930.430060	2537.805066
930.733699	2536.252391
931.037299	2541.399409
931.340861	2538.147865
931.644383	2536.789274
931.947866	2538.979655
932.251309	2539.836651
932.554714	2538.737680
932.858080	2537.159799
933.161407	2539.952598
933.464694	2536.829603
933.767943	2539.430838
934.071153	2536.882535
934.374323	2538.213400
934.677455	2535.682741
934.980548	2538.717515
935.283602	2538.349511
935.586617	2537.492515
935.889593	2538.578883
936.192530	2533.827596
936.495428	2537.913451
936.798287	2539.236754
937.101108	2538.382278
937.403890	2540.557536
937.706632	2540.897814
938.009336	2537.580735
938.312002	2544.116591
938.614628	2539.733308
938.917216	2545.379400
939.219765	2541.419574
939.522275	2540.328164
939.824747	2543.231868
940.127179	2540.078627
940.429573	2538.717515
940.731929	2538.568801
941.034246	2537.527803
941.336524	2540.547454
941.638763	2538.236085
941.940964	2538.609130
942.243126	2541.850592
942.545250	2540.829759
942.847335	2541.553164
943.149381	2539.619882
943.451389	2541.797660
943.753359	2539.796322
944.055290	2537.376568
944.357182	2538.530992
944.659036	2538.594007
944.960851	2538.281455
945.262628	2536.033101
945.564367	2540.746580
945.866067	2539.350180
946.167729	2540.015612
946.469352	2537.963863
946.770937	2538.281455
947.072484	2537.986548
947.373992	2539.062834
947.675462	2538.044521
947.976893	2538.810777
948.278286	2539.783719
948.579641	2540.063503
948.880958	2535.919675
949.182236	2538.515869
949.483476	2537.434542
949.784678	2536.418749
950.085841	2536.441434
950.386967	2539.307330
950.688054	2538.326826
950.989103	2537.641229
951.290114	2537.679038
951.591087	2536.948070
951.892021	2538.979655
952.192917	2538.422608
952.493776	2537.147196
952.794596	2537.212731
953.095378	2538.740200
953.396122	2539.582073
953.696828	2540.003009
953.997496	2539.405633
954.298126	2536.280117
954.598718	2538.117618
954.899272	2538.946888
955.199788	2535.929757
955.500266	2536.680889
955.800706	2534.019160
956.101108	2529.179652
956.401472	2531.697708
956.701798	2531.186031
957.002087	2532.597554
957.302337	2534.220806
957.602550	2538.735159
957.902724	2534.959335
958.202861	2536.791794
958.502960	2535.324819
958.803022	2534.629139
959.103045	2534.740045
959.403031	2535.632329
959.702979	2535.377751
960.002889	2535.977648
960.302762	2531.307019
960.602596	2534.671989
960.902393	2533.341125
961.202153	2533.668800
961.501875	2533.966228
961.801559	2531.483459
962.101205	2532.564787
962.400814	2532.683254
962.700385	2533.910775
962.999918	2530.671834
963.299414	2532.418593
963.598873	2532.020342
963.898293	2531.695188
964.197677	2533.313398
964.497022	2532.229550
964.796331	2531.390198
965.095601	2531.186031
965.394835	2532.456402
965.694030	2531.349869
965.993189	2533.426824
966.292309	2533.157122
966.591393	2528.998171
966.890439	2529.711494
967.189447	2530.079498
967.488419	2530.139992
967.787353	2533.010929
968.086249	2530.185362
968.385108	2530.918850
968.683930	2532.050589
968.982714	2533.646114
969.281462	2531.317101
969.580172	2532.285003
969.878844	2532.910106
970.177480	2531.047400
970.476078	2534.062010
970.774639	2532.365661
971.073162	2530.424817
971.371649	2530.450023
971.670098	2526.117151
971.968510	2530.321473
972.266885	2527.659744
972.565223	2531.851464
972.863524	2532.761392
973.161788	2532.421114
973.460014	2530.528161
973.758204	2533.908254
974.056356	2529.870290
974.354471	2532.335414
974.652550	2530.502955
974.950591	2533.630991
975.248595	2531.584283
975.546563	2533.474715
975.844493	2528.441123
976.142386	2532.133768
976.440243	2531.218799
976.738062	2530.949097
977.035845	2530.147554
977.333590	2531.652338
977.631299	2532.925229
977.928971	2531.841381
978.226606	2530.742410
978.524204	2533.852802
978.821765	2530.853315
979.119290	2531.685106
979.416777	2531.254087
979.714228	2530.565969
980.011642	2530.218130
980.309020	2533.610826
980.606360	2532.721063
980.903664	2531.735517
981.200931	2528.302491
981.498162	2530.563449
981.795356	2531.455733
982.092513	2531.417924
982.389633	2532.426155
982.686717	2536.275076
982.983764	2534.140148
983.280775	2534.240971
983.577749	2537.550488
983.874686	2536.975797
984.171587	2535.725590
984.468451	2533.794828
984.765279	2534.487987
985.062070	2531.521268
985.358824	2531.995137
985.655543	2530.109745
985.952224	2529.749303
986.248869	2530.689478
986.545478	2528.007584
986.842050	2528.373068
987.138586	2526.008766
987.435086	2528.829292
987.731549	2526.122192
988.027975	2531.853984
988.324366	2531.548994
988.620719	2528.753675
988.917037	2531.372554
989.213318	2528.819210
989.509563	2527.120341
989.805772	2529.182173
990.101944	2530.805424
990.398080	2531.604447
990.694180	2527.727800
990.990244	2528.310053
991.286271	2528.736031
991.582262	2531.838861
991.878217	2531.092770
992.174136	2529.371216
992.470019	2532.244674
992.765865	2528.042872
993.061676	2528.753675
993.357450	2529.061185
993.653188	2526.966586
993.948890	2531.057482
994.244556	2529.033459
994.540186	2534.014119
994.835780	2532.073274
995.131337	2530.462626
995.426859	2529.804755
995.722345	2530.747451
996.017795	2529.323325
996.313208	2532.153933
996.608586	2532.095960
996.903928	2531.125538
997.199234	2531.009591
997.494504	2528.662934
997.789738	2530.669313
998.084936	2533.338604
998.380099	2530.669313
998.675225	2531.294416
998.970316	2527.979858
999.265371	2529.751823
999.560390	2529.426669
999.855373	2529.880372
1000.150320	2530.112266
1000.445232	2531.995137
1000.740108	2528.579755
1001.034948	2528.552028
1001.329752	2528.544467
1001.624521	2530.611340
1001.919254	2523.188241
1002.213951	2528.052954
1002.508613	2528.431041
1002.803239	2526.066740
1003.097829	2525.202182
1003.392384	2528.867101
1003.686903	2528.431041
1003.981386	2529.202337
1004.275834	2525.418951
1004.570246	2530.402132
1004.864623	2530.049251
1005.158964	2530.422297
1005.453270	2529.469518
1005.747540	2528.330218
1006.041775	2527.591689
1006.335974	2528.244518
1006.630138	2529.154446
1006.924266	2527.430372
1007.218359	2526.943900
1007.512416	2526.825433
1007.806438	2528.060516
1008.100425	2528.113448
1008.394376	2530.507996
1008.688292	2529.169570
1008.982172	2527.702594
1009.276017	2528.441123
1009.569827	2529.789632
1009.863602	2530.616381
1010.157341	2528.773839
1010.451045	2526.618746
1010.744714	2527.634538
1011.038347	2527.211082
1011.331945	2525.179497
1011.625508	2529.310722
1011.919036	2529.071267
1012.212528	2527.634538
1012.505986	2529.512368
1012.799408	2529.771988
1013.092795	2528.025228
1013.386147	2525.613036
1013.679464	2528.199148
1013.972745	2529.333407
1014.265992	2526.157480
1014.559204	2526.757378
1014.852380	2527.228726
1015.145521	2528.123530
1015.438628	2528.806607
1015.731699	2527.321987
1016.024736	2524.887110
1016.317737	2531.007070
1016.610703	2525.673530
1016.903635	2525.663447
1017.196531	2520.886954
1017.489393	2524.750998
1017.782219	2520.518950
1018.075011	2526.548170
1018.367768	2527.004394
1018.660490	2524.463653
1018.953177	2524.463653
1019.245829	2524.463653
