Dividing Wavelength (nm)	Counts (n)	Blue Motor Position (mm): 0.000000	Red Motor Position (mm): 29.800000	
326.493990	2128.798611
326.888308	2128.798611
327.282561	2128.798611
327.676750	2093.896182
328.070874	2095.663107
328.464933	2097.840885
328.858929	2104.530496
329.252859	2114.050715
329.646726	2126.381378
330.040528	2135.440331
330.434265	2154.016983
330.827938	2171.335867
331.221547	2192.584330
331.615091	2207.586804
332.008571	2226.947356
332.401986	2249.254461
332.795338	2266.351535
333.188625	2288.769546
333.581847	2304.848306
333.975006	2323.687098
334.368100	2340.522031
334.761129	2358.690350
335.154095	2374.759028
335.546996	2392.771070
335.939833	2413.230593
336.332606	2425.856163
336.725315	2437.491146
337.117960	2446.774431
337.510540	2460.680454
337.903056	2466.381999
338.295508	2475.874491
338.687896	2484.041161
339.080220	2491.428972
339.472480	2498.736124
339.864676	2500.490446
340.256807	2508.652074
340.648875	2508.077382
341.040879	2514.419154
341.432818	2515.495440
341.824694	2516.864113
342.216506	2517.174144
342.608253	2517.645492
342.999937	2517.547190
343.391557	2517.716068
343.783113	2516.256654
344.174605	2515.775224
344.566033	2513.589884
344.957397	2511.795233
345.348697	2508.831035
345.739934	2507.706857
346.131106	2507.212824
346.522215	2506.723832
346.913260	2501.826351
347.304241	2500.256032
347.695159	2500.324087
348.086012	2500.165291
348.476802	2494.720845
348.867528	2495.887872
349.258191	2490.849239
349.648789	2492.936277
350.039324	2489.107520
350.429796	2492.603560
350.820203	2487.171717
351.210548	2488.628611
351.600828	2486.516367
351.991045	2484.903198
352.381198	2486.682725
352.771288	2486.476038
353.161314	2484.782210
353.551276	2486.286995
353.941175	2482.629638
354.331010	2485.833291
354.720782	2485.258599
355.110490	2483.680718
355.500135	2483.789103
355.889717	2484.089052
356.279235	2483.733650
356.668689	2486.748260
357.058080	2484.946048
357.447408	2483.963023
357.836672	2482.828763
358.225873	2485.808085
358.615010	2482.375059
359.004084	2487.965699
359.393095	2486.980153
359.782043	2490.526605
360.170927	2490.408138
360.559748	2492.411997
360.948505	2493.334528
361.337199	2491.459218
361.725830	2492.114568
362.114398	2491.774291
362.502903	2495.230002
362.891344	2496.170177
363.279722	2494.690598
363.668037	2495.020794
364.056289	2495.630773
364.444478	2499.968686
364.832603	2498.146309
365.220665	2499.847698
365.608665	2497.211175
365.996601	2499.008346
366.384474	2498.826865
366.772284	2502.756444
367.160031	2503.875580
367.547715	2506.144100
367.935336	2507.653925
368.322893	2512.995028
368.710388	2511.933865
369.097820	2522.258148
369.485189	2521.202026
369.872495	2531.881711
370.259738	2535.725590
370.646918	2544.217414
371.034035	2550.581871
371.421090	2560.107131
371.808081	2571.802608
372.195010	2581.829463
372.581875	2593.935794
372.968678	2610.374997
373.355418	2617.175513
373.742096	2634.665796
374.128710	2650.910915
374.515262	2664.280055
374.901751	2680.348733
375.288177	2694.889941
375.674540	2713.751418
376.060841	2733.028790
376.447079	2755.194744
376.833254	2774.640995
377.219367	2786.152469
377.605417	2825.062615
377.991404	2835.649038
378.377329	2856.161493
378.763191	2871.927702
379.148991	2912.992941
379.534727	2936.247784
379.920402	2967.150057
380.306013	2979.175730
380.691563	3024.735158
381.077049	3050.041750
381.462474	3067.307702
381.847835	3109.083744
382.233134	3124.615539
382.618371	3126.730303
383.003545	3196.232691
383.388657	3204.359031
383.773706	3234.399267
384.158693	3250.992224
384.543618	3277.622120
384.928480	3313.316009
385.313280	3360.682691
385.698017	3357.962988
386.082692	3411.169847
386.467305	3419.596135
386.851856	3448.262657
387.236344	3471.860298
387.620770	3505.716687
388.005133	3528.790048
388.389435	3555.298956
388.773674	3570.918971
389.157851	3609.617388
389.541965	3625.431488
389.926018	3588.588215
390.310008	3663.411541
390.693936	3680.380065
391.077802	3720.757187
391.461606	3707.766133
391.845348	3770.145371
392.229027	3774.836165
392.612645	3781.734984
392.996200	3864.346892
393.379694	3903.841812
393.763125	3967.287254
394.146494	3934.459260
394.529801	3996.742716
394.913047	4044.923544
395.296230	4014.192670
395.679351	4065.746030
396.062410	4090.757714
396.445408	4073.579983
396.828343	4106.047534
397.211217	4129.743478
397.594028	4046.718194
397.976778	4116.530613
398.359466	4145.618071
398.742092	4171.751413
399.124656	4092.751491
399.507158	4172.265610
399.889598	4195.694373
400.271977	4256.954474
400.654294	4229.379363
401.036549	4236.994026
401.418742	4210.787588
401.800874	4313.763237
402.182944	4336.372812
402.564952	4396.309611
402.946898	4386.915421
403.328783	4379.998957
403.710606	4293.800268
404.092367	4485.820338
404.474067	4449.614772
404.855705	4455.182726
405.237282	4388.165627
405.618797	4497.644365
406.000250	4530.805075
406.381642	4609.684009
406.762972	4570.582299
407.144240	4583.041511
407.525447	4581.819031
407.906593	4640.503103
408.287677	4686.813663
408.668700	4614.266418
409.049661	4665.852545
409.430560	4703.399059
409.811399	4632.795179
410.192176	4795.705107
410.572891	4734.830653
410.953545	4838.769163
411.334138	4720.556626
411.714669	4784.730515
412.095139	4677.301006
412.475547	4820.636133
412.855894	4805.623577
413.236180	4805.111900
413.616405	4763.948358
413.996568	4851.543447
414.376670	4796.163852
414.756711	4747.728445
415.136691	4779.570894
415.516609	4858.154920
415.896466	4895.356115
416.276262	4934.780459
416.655997	4908.304319
417.035670	5092.999593
417.415283	5186.144993
417.794834	5127.745746
418.174324	5082.312347
418.553753	4988.133511
418.933121	5170.504813
419.312428	5241.083487
419.691674	5178.273231
420.070859	5305.766532
420.449983	5213.788160
420.829045	5335.569834
421.208047	5238.300770
421.586988	5308.156039
421.965867	5324.078523
422.344686	5453.333708
422.723444	5310.462367
423.102141	5130.888905
423.480777	5429.912507
423.859352	5195.508936
424.237866	5457.797650
424.616319	5446.702070
424.994712	5556.006888
425.373044	5437.388538
425.751314	5577.661165
426.129524	5377.534919
426.507673	5573.202264
426.885762	5657.540768
427.263789	5585.396815
427.641756	5470.650072
428.019662	5592.799750
428.397508	5596.762097
428.775292	5546.259817
429.153016	5643.705321
429.530679	5572.864507
429.908282	5655.299975
430.285824	5526.276684
430.663305	5802.577285
431.040726	5531.479154
431.418086	5537.357140
431.795385	5638.339013
432.172624	5654.314430
432.549802	5648.028111
432.926920	5660.280635
433.303977	5666.352705
433.680974	5706.820567
434.057910	5725.152723
434.434786	5734.055401
434.811601	5699.982242
435.188355	5938.305311
435.565050	5804.389580
435.941683	5788.882990
436.318257	6004.294015
436.694770	5985.077136
437.071222	6020.496283
437.447614	5954.384071
437.823946	5866.257140
438.200218	6018.628536
438.576429	5883.480242
438.952580	5983.584955
439.328670	6024.551892
439.704700	5936.372028
440.080670	5925.253764
440.456580	6194.895001
440.832429	6076.342186
441.208218	5922.612199
441.583947	6075.916208
441.959616	6082.578093
442.335224	6007.263254
442.710773	6148.176107
443.086261	6171.075549
443.461689	5968.118695
443.837057	6115.499348
444.212365	6274.446929
444.587612	6165.426936
444.962800	6316.901006
445.337927	6299.110774
445.712995	5909.021248
446.088002	6486.765205
446.462949	6316.901006
446.837837	6246.216467
447.212664	6415.432878
447.587431	6559.504014
447.962139	7100.490398
448.336786	8031.717542
448.711374	7773.199611
449.085901	6845.622263
449.460369	6766.453462
449.834776	6699.106167
450.209124	7089.470436
450.583412	7242.308138
450.957640	7383.798203
451.331808	7154.092987
451.705917	6704.124636
452.079965	6626.490867
452.453954	6836.769996
452.827883	6709.884154
453.201752	6806.996942
453.575562	6609.267764
453.949311	6808.892416
454.323001	6698.697834
454.696632	6773.319513
455.070202	6910.547283
455.443713	7067.541417
455.817164	7165.851478
456.190556	7249.436330
456.563888	7323.621950
456.937160	7363.797425
457.310373	7021.321597
457.683526	7040.258692
458.056619	6936.143742
458.429653	6920.982471
458.802628	6853.025197
459.175542	6961.800694
459.548398	7314.956206
459.921194	7471.070658
460.293930	7479.101217
460.666607	8004.069334
461.039224	8301.885580
461.411782	8428.786546
461.784280	8448.575595
462.156719	8323.827202
462.529099	8206.438893
462.901419	7793.495297
463.273680	7681.735437
463.645882	7695.202879
464.018024	7560.125162
464.390106	7718.230870
464.762130	8096.178777
465.134094	8547.175523
465.505999	9541.888438
465.877845	10732.077135
466.249631	11366.004752
466.621358	10980.570732
466.993026	10360.745743
467.364634	10104.042627
467.736184	9737.969158
468.107674	9401.353672
468.479105	9418.672556
468.850477	9169.674844
469.221790	8944.239485
469.593043	8611.931665
469.964238	8459.038510
470.335373	8465.798697
470.706449	8507.297476
471.077467	8467.512689
471.448425	9698.575062
471.819324	10694.487771
472.190164	10716.046266
472.560945	9505.214044
472.931667	8731.654027
473.302330	8588.339065
473.672934	8228.866987
474.043479	8547.392293
474.413965	8468.677196
474.784393	8329.410280
475.154761	8457.397614
475.525070	8511.877364
475.895321	8329.208634
476.265513	8454.322510
476.635645	8582.796316
477.005719	8548.768528
477.375734	8626.082184
477.745691	8805.897621
478.115588	8886.177996
478.485427	9063.324142
478.855207	9488.353905
479.224928	10130.223860
479.594591	10627.057298
479.964194	10422.076420
480.333739	10339.913174
480.703226	10207.179594
481.072653	10222.986132
481.442022	10339.283030
481.811333	10439.556621
482.180584	10226.633406
482.549777	9921.343650
482.918912	9710.015960
483.287988	9671.015073
483.657005	9612.953584
484.025964	9294.566910
484.394864	9336.111059
484.763706	9239.603210
485.132489	9000.231581
485.501213	8904.928567
485.869879	8897.646621
486.238487	8695.642545
486.607036	8730.691167
486.975527	8480.299576
487.343959	8552.120895
487.712333	8510.846448
488.080648	8390.950165
488.448905	8335.570570
488.817104	8223.583858
489.185244	8328.661668
489.553326	8344.717743
489.921350	8603.424718
490.289315	9163.479266
490.657222	9305.589393
491.025070	9136.098239
491.392861	8976.548240
491.760593	8670.913165
492.128267	8368.958132
492.495883	8085.541942
492.863440	7804.283366
493.230939	7515.541197
493.598380	7393.036118
493.965763	7223.227371
494.333088	7104.989628
494.700354	6976.099927
495.067563	6931.243740
495.434713	6755.297388
495.801805	6747.004690
496.168839	6626.929447
496.535815	6505.924111
496.902733	6440.827691
497.269593	6318.703218
497.636395	6297.144724
498.003139	6199.505136
498.369825	6079.755047
498.736453	6054.241767
499.103023	5956.955060
499.469535	5889.665738
499.835989	5814.940715
500.202385	5714.180652
500.568723	5586.815900
500.935003	5609.246514
501.301226	5442.878355
501.667390	5481.304550
502.033497	5439.412562
502.399546	5325.520293
502.765537	5220.394592
503.131470	5169.567158
503.497345	5149.178211
503.863163	4972.407631
504.228923	4990.071834
504.594625	4950.647491
504.960269	4814.919464
505.325856	4808.212209
505.691385	4689.125032
506.056856	4667.848842
506.422270	4610.430100
506.787625	4531.473028
507.152924	4492.595649
507.518164	4434.549283
507.883347	4353.517776
508.248472	4285.648722
508.613540	4279.090181
508.978550	4194.446687
509.343503	4142.762258
509.708398	4109.568780
510.073236	4074.101742
510.438016	4024.227087
510.802738	3968.209785
511.167403	3928.019186
511.532010	3859.540152
511.896561	3856.969164
512.261053	3820.720747
512.625488	3752.297166
512.989866	3700.930329
513.354186	3659.610511
513.718449	3605.455916
514.082655	3592.139708
514.446803	3543.585835
514.810894	3520.540200
515.174927	3468.941470
515.538904	3436.589865
515.902822	3416.468099
516.266684	3371.702653
516.630488	3333.992302
516.994235	3310.624033
517.357925	3279.799898
517.721558	3261.563524
518.085133	3230.741909
518.448651	3207.179556
518.812112	3169.711180
519.175516	3143.693785
519.538863	3124.030765
519.902152	3099.808021
520.265385	3080.636512
520.628560	3057.265723
520.991678	3031.392001
521.354739	3014.801564
521.717743	2994.387411
522.080690	2973.330512
522.443580	2958.106227
522.806413	2937.976900
523.169189	2922.903850
523.531908	2906.772158
523.894569	2888.593757
524.257174	2873.795450
524.619722	2860.844725
524.982213	2854.245855
525.344647	2836.332115
525.707025	2824.969354
526.069345	2812.444607
526.431608	2801.477577
526.793815	2791.566669
527.155964	2778.293311
527.518057	2769.821652
527.880093	2762.469129
528.242072	2755.930752
528.603995	2748.452200
528.965860	2737.691857
529.327669	2730.452761
529.689421	2722.172665
530.051117	2717.113868
530.412755	2709.849565
530.774337	2705.945191
531.135862	2700.571321
531.497331	2692.984385
531.858743	2682.710513
532.220098	2686.766121
532.581396	2678.538958
532.942638	2676.971159
533.303824	2671.768689
533.664953	2668.749037
534.026025	2665.066475
534.387040	2664.819458
534.747999	2662.823161
535.108902	2660.809220
535.469748	2656.156235
535.830537	2652.922335
536.191270	2651.178096
536.551947	2650.573157
536.912567	2648.959988
537.273131	2645.985707
537.633638	2643.414719
537.994089	2643.500418
538.354483	2639.981693
538.714821	2640.435397
539.075103	2638.592855
539.435328	2636.334418
539.795497	2635.595889
540.155609	2637.438431
540.515665	2636.505817
540.875665	2632.387195
541.235609	2632.591362
541.595496	2632.838378
541.955328	2630.834519
542.315102	2627.618263
542.674821	2628.087091
543.034483	2627.426699
543.394090	2626.146246
543.753640	2625.347223
544.113134	2627.189765
544.472571	2623.933180
544.831953	2623.209774
545.191278	2622.408231
545.550548	2621.122737
545.909761	2620.663992
546.268918	2622.831688
546.628019	2622.433437
546.987064	2619.638117
547.346053	2620.273302
547.704986	2620.462345
548.063863	2619.650720
548.422684	2618.440843
548.781449	2616.366408
549.140158	2618.942437
549.498811	2615.736264
549.857408	2613.863475
550.215949	2614.082765
550.574434	2611.607559
550.932864	2614.538990
551.291237	2611.473968
551.649555	2615.685852
552.007817	2615.532097
552.366022	2615.426233
552.724173	2614.523866
553.082267	2615.106119
553.440305	2614.158382
553.798288	2608.232506
554.156215	2613.293825
554.514086	2614.140738
554.871902	2612.903135
555.229661	2613.306427
555.587365	2614.599483
555.945014	2612.212497
556.302606	2611.436159
556.660143	2610.594287
557.017625	2610.427929
557.375050	2611.945316
557.732421	2612.827518
558.089735	2612.467075
558.446994	2609.956581
558.804197	2611.050511
559.161345	2611.496653
559.518437	2607.259563
559.875474	2611.090840
560.232455	2611.347939
560.589381	2610.795933
560.946251	2612.157044
561.303065	2613.003958
561.659825	2611.726026
562.016528	2608.275356
562.373177	2608.577825
562.729770	2609.122270
563.086307	2611.325254
563.442789	2609.538165
563.799216	2609.452465
564.155587	2608.222424
564.511904	2607.998092
564.868164	2609.452465
565.224370	2609.351642
565.580520	2607.430963
565.936615	2606.727722
566.292654	2607.095726
566.648638	2608.986159
567.004567	2607.594800
567.360441	2608.650922
567.716260	2606.100098
568.072023	2607.317537
568.427732	2603.980293
568.783385	2603.904676
569.138982	2603.138420
569.494525	2605.830396
569.850013	2600.322936
570.205445	2608.303082
570.560823	2605.205293
570.916145	2605.142279
571.271412	2604.186980
571.626625	2604.313009
571.981782	2605.739656
572.336884	2606.364759
572.691931	2603.675303
573.046923	2601.699171
573.401860	2603.929881
573.756743	2603.829058
574.111570	2602.019284
574.466342	2601.384099
574.821059	2602.082298
575.175722	2602.266301
575.530330	2603.007350
575.884882	2603.277052
576.239380	2601.152206
576.593823	2605.976590
576.948211	2602.273862
577.302544	2600.897627
577.656823	2603.592124
578.011047	2602.941815
578.365216	2602.863677
578.719330	2604.764192
579.073389	2599.922164
579.427394	2601.825200
579.781344	2602.513317
580.135239	2600.343100
580.489080	2599.236567
580.842866	2599.912082
581.196597	2598.558532
581.550273	2601.646239
581.903895	2598.278748
582.257463	2598.755137
582.610975	2598.026690
582.964434	2600.822010
583.317837	2595.861515
583.671186	2600.852257
584.024481	2598.654314
584.377721	2597.046186
584.730906	2595.639704
585.084037	2596.801690
585.437113	2600.479212
585.790135	2598.747575
586.143103	2596.158943
586.496016	2595.506113
586.848874	2592.141143
587.201679	2595.296905
587.554428	2594.689446
587.907124	2593.726586
588.259765	2590.202819
588.612352	2596.632811
588.964884	2596.108531
589.317362	2595.382605
589.669786	2594.097111
590.022155	2596.325301
590.374470	2596.577358
590.726731	2596.242122
591.078937	2592.720876
591.431090	2594.155084
591.783188	2594.535691
592.135232	2592.327666
592.487222	2595.090218
592.839157	2594.271031
593.191038	2594.076946
593.542866	2593.978644
593.894639	2592.052923
594.246358	2593.368664
594.598022	2593.172059
594.949633	2591.737851
595.301190	2591.339600
595.652692	2590.822881
596.004141	2592.708273
596.355535	2593.439240
596.706876	2592.985536
597.058162	2588.796337
597.409395	2590.895978
597.760573	2592.509147
598.111698	2592.917481
598.462768	2591.815989
598.813785	2590.714497
599.164748	2589.849939
599.515657	2587.289032
599.866511	2589.963365
600.217312	2590.540577
600.568060	2592.400762
600.918753	2594.873448
601.269392	2589.708786
601.619978	2588.103179
601.970510	2590.671647
602.320988	2589.676019
602.671412	2592.909919
603.021783	2590.192737
603.372100	2590.659044
603.722363	2590.318766
604.072572	2589.441605
604.422728	2592.806575
604.772830	2586.610997
605.122878	2584.037488
605.472872	2583.654361
605.822813	2582.953640
606.172701	2585.610328
606.522534	2589.882706
606.872314	2590.550659
607.222041	2590.618715
607.571714	2588.440936
607.921333	2588.309866
608.270899	2587.805751
608.620411	2589.247521
608.969870	2592.917481
609.319276	2592.007552
609.668627	2592.834302
610.017926	2593.943356
610.367171	2598.203131
610.716362	2596.053078
611.065500	2597.172215
611.414585	2592.887234
611.763616	2594.828078
612.112594	2592.584765
612.461518	2593.529981
612.810389	2591.722727
613.159207	2591.044692
613.507971	2587.934300
613.856682	2591.248859
614.205340	2589.224836
614.553945	2591.410176
614.902496	2589.809609
615.250994	2593.189703
615.599439	2590.969075
615.947830	2589.202150
616.296169	2590.275916
616.644454	2593.104003
616.992686	2591.543766
617.340864	2589.456729
617.688990	2588.453539
618.037063	2590.774990
618.385082	2590.923704
618.733048	2591.090062
619.080961	2593.943356
619.428821	2591.531163
619.776628	2590.124682
620.124382	2591.634507
620.472083	2590.144846
620.819731	2592.995619
621.167326	2590.215422
621.514868	2589.701225
621.862357	2589.494537
622.209793	2587.309197
622.557176	2588.922366
622.904506	2586.608477
623.251783	2583.493044
623.599007	2582.086562
623.946179	2583.046902
624.293297	2584.370204
624.640363	2585.852304
624.987376	2583.009093
625.334336	2584.541604
625.681243	2583.644278
626.028097	2585.259968
626.374899	2586.847932
626.721647	2583.049422
627.068343	2583.271233
627.414987	2586.532859
627.761577	2580.969946
628.108115	2584.004721
628.454600	2584.960019
628.801032	2584.324834
629.147412	2583.097313
629.493739	2583.427509
629.840014	2581.955492
630.186236	2582.353743
630.532405	2584.939855
630.878521	2584.730647
631.224585	2581.519432
631.570597	2581.965574
631.916556	2580.748135
632.262462	2582.205029
632.608316	2582.096644
632.954117	2577.239492
633.299866	2581.307703
633.645562	2580.362487
633.991206	2578.688824
634.336797	2578.741756
634.682336	2579.076993
635.027823	2576.677404
635.373257	2577.297466
635.718639	2576.889132
636.063968	2578.378793
636.409245	2577.136149
636.754470	2576.901735
637.099642	2575.757393
637.444762	2576.180850
637.789829	2577.030284
638.134845	2578.343505
638.479808	2574.963411
638.824719	2573.940057
639.169577	2575.676735
639.514383	2577.577250
639.859137	2574.310582
640.203839	2573.045252
640.548489	2577.617579
640.893086	2571.578277
641.237632	2570.277659
641.582125	2568.767833
641.926566	2568.059551
642.270955	2576.009451
642.615292	2573.347722
642.959576	2571.056517
643.303809	2571.991651
643.647990	2572.226065
643.992118	2574.139183
644.336195	2571.646332
644.680219	2574.164388
645.024192	2575.442321
645.368112	2572.246229
645.711981	2572.994841
646.055797	2572.417629
646.399562	2576.488360
646.743274	2576.029615
647.086935	2578.104050
647.430544	2576.606827
647.774101	2577.420974
648.117606	2577.657908
648.461059	2578.343505
648.804460	2577.148752
649.147810	2576.591704
649.491108	2573.806467
649.834354	2573.660273
650.177548	2577.584811
650.520690	2572.604151
650.863781	2574.325705
651.206820	2573.929975
651.549807	2573.950139
651.892742	2572.740262
652.235626	2572.150447
652.578458	2573.289748
652.921238	2567.938563
653.263967	2570.595252
653.606644	2571.774882
653.949269	2571.132134
654.291843	2570.721280
654.634365	2572.677248
654.976836	2570.078533
655.319255	2571.941240
655.661622	2569.836558
656.003938	2569.680282
656.346203	2570.126424
656.688416	2571.842937
657.030577	2568.382185
657.372687	2569.259346
657.714746	2567.021073
658.056753	2569.892011
658.398708	2565.080229
658.740612	2564.959242
659.082465	2565.523851
659.424266	2566.030487
659.766016	2565.730538
660.107715	2570.358317
660.449362	2566.297668
660.790958	2570.058369
661.132503	2567.436969
661.473996	2572.321847
661.815438	2568.472926
662.156829	2569.148440
662.498168	2569.314798
662.839456	2569.244222
663.180693	2570.476784
663.521879	2569.556774
663.863013	2567.399160
664.204097	2570.186918
664.545129	2571.666497
664.886110	2571.754717
665.227040	2568.490570
665.567918	2568.178018
665.908746	2569.813873
666.249522	2572.208421
666.590248	2572.795715
666.930922	2569.161043
667.271545	2569.072823
667.612118	2568.457802
667.952639	2571.008626
668.293109	2571.147258
668.633528	2571.212793
668.973896	2568.735066
669.314213	2571.454768
669.654480	2569.024932
669.994695	2570.678431
670.334859	2570.444017
670.674973	2571.384192
671.015035	2569.763461
671.355047	2568.185580
671.695008	2571.530386
672.034918	2570.612896
672.374777	2570.035683
672.714585	2569.418142
673.054342	2567.923440
673.394049	2567.016032
673.733705	2566.615261
674.073310	2570.927968
674.412864	2571.127093
674.752368	2569.350087
675.091820	2567.578121
675.431223	2569.584500
675.770574	2568.485529
676.109875	2561.594271
676.449125	2566.945456
676.788324	2564.132492
677.127473	2566.244736
677.466571	2564.215671
677.805619	2567.174829
678.144616	2566.763975
678.483562	2568.238512
678.822458	2567.847823
679.161303	2570.010478
679.500098	2567.583162
679.838842	2567.424366
680.177535	2569.017370
680.516179	2567.663821
680.854771	2567.303378
681.193314	2568.977041
681.531805	2567.605847
681.870247	2568.480487
682.208638	2570.980900
682.546978	2570.940571
682.885268	2570.917885
683.223508	2569.529047
683.561697	2567.762123
683.899836	2572.815880
684.237925	2568.208265
684.575963	2570.028122
684.913951	2566.065775
685.251889	2567.840261
685.589776	2569.612227
685.927614	2567.767164
686.265401	2567.764644
686.603137	2568.145251
686.940824	2569.546692
687.278460	2571.537947
687.616046	2566.945456
687.953582	2572.465520
688.291068	2571.537947
688.628504	2570.484346
688.965889	2571.127093
689.303224	2570.668348
689.640510	2568.132648
689.977745	2568.016701
690.314930	2566.252298
690.652065	2567.479818
690.989150	2566.166598
691.326185	2564.810527
691.663170	2566.602658
692.000105	2566.610219
692.336990	2565.317163
692.673825	2566.658110
693.010610	2563.903120
693.347345	2562.168963
693.684030	2560.210475
694.020665	2558.476318
694.357251	2555.592778
694.693786	2560.671740
695.030272	2559.171997
695.366707	2559.625701
695.703093	2561.556463
696.039429	2559.040927
696.375716	2563.671227
696.711952	2560.439847
697.048139	2559.663509
697.384276	2557.150494
697.720363	2559.237532
698.056400	2557.016904
698.392388	2559.625701
698.728326	2559.797100
699.064214	2561.959755
699.400053	2561.279199
699.735842	2557.188303
700.071581	2559.555125
700.407270	2559.570248
700.742910	2559.038406
701.078501	2555.875082
701.414042	2560.026473
701.749533	2556.890875
702.084974	2557.546225
702.420366	2554.438353
702.755709	2556.031358
703.091002	2557.374826
703.426246	2555.597819
703.761440	2553.664536
704.096584	2558.186451
704.431679	2555.645710
704.766725	2556.285936
705.101721	2555.227294
705.436668	2556.318704
705.771565	2553.772921
706.106413	2555.779300
706.441212	2556.185113
706.775961	2558.430947
707.110661	2558.004970
707.445311	2557.795762
707.779913	2556.192675
708.114465	2559.519837
708.448967	2556.217881
708.783421	2559.764333
709.117825	2558.239383
709.452180	2557.435319
709.786485	2556.749722
710.120742	2560.666699
710.454949	2562.373130
710.789107	2558.617470
711.123216	2556.059084
711.457275	2561.783315
711.791286	2558.176369
712.125247	2559.595454
712.459159	2562.993192
712.793023	2566.312791
713.126837	2561.241391
713.460602	2560.974209
713.794318	2559.371122
714.127985	2560.044117
714.461602	2561.417831
714.795171	2561.251473
715.128691	2558.264589
715.462162	2558.483879
715.795584	2559.958417
716.128957	2556.139743
716.462281	2555.088662
716.795556	2556.744681
717.128782	2556.424568
717.461960	2554.965154
717.795088	2556.336348
718.128167	2556.578323
718.461198	2554.856769
718.794180	2556.545556
719.127113	2556.578323
719.459997	2557.324414
719.792833	2555.507078
720.125619	2555.083621
720.458357	2554.466080
720.791046	2553.377191
721.123686	2552.719320
721.456278	2551.113712
721.788821	2555.350802
722.121315	2554.745864
722.453761	2550.964998
722.786158	2548.736808
723.118506	2552.565565
723.450805	2552.862993
723.783056	2551.375853
724.115259	2554.521533
724.447412	2548.930893
724.779518	2553.372149
725.111574	2553.389793
725.443582	2554.380380
725.775542	2552.031202
726.107453	2555.005483
726.439315	2553.455328
726.771129	2556.391801
727.102895	2553.314176
727.434612	2552.232849
727.766281	2554.191337
728.097901	2551.738816
728.429473	2553.510781
728.760996	2551.665719
729.092471	2550.342416
729.423897	2556.238045
729.755276	2555.968344
730.086606	2556.863148
730.417887	2555.509599
730.749120	2556.573282
731.080305	2557.773077
731.411442	2555.633107
731.742530	2557.508416
732.073570	2558.098231
732.404562	2558.257028
732.735506	2557.669733
733.066401	2556.091852
733.397249	2557.863818
733.728048	2557.984805
734.058798	2556.893395
734.389501	2553.140256
734.720156	2553.992211
735.050762	2552.605894
735.381320	2552.137067
735.711831	2552.822664
736.042293	2552.815102
736.372707	2552.900802
736.703073	2549.397200
737.033391	2555.449105
737.363661	2551.824515
737.693883	2550.942313
738.024056	2553.656975
738.354182	2553.190668
738.684260	2551.471634
739.014290	2552.056408
739.344272	2552.222766
739.674207	2554.365257
740.004093	2556.026317
740.333931	2553.062118
740.663722	2554.962633
740.993464	2554.042623
741.323159	2556.066646
741.652806	2552.331151
741.982405	2553.203271
742.311956	2551.335523
742.641460	2554.216543
742.970915	2548.469627
743.300323	2553.014228
743.629683	2551.224618
743.958996	2552.404248
744.288260	2550.276881
744.617477	2550.050029
744.946647	2544.948381
745.275768	2546.369987
745.604842	2544.708927
745.933869	2544.713968
746.262847	2543.975439
746.591778	2550.370142
746.920662	2552.074052
747.249498	2549.480379
747.578286	2548.729247
747.907027	2551.446429
748.235720	2549.092210
748.564365	2548.691438
748.892963	2548.666232
749.221514	2550.382745
749.550017	2549.858465
749.878473	2552.048847
750.206881	2546.191026
750.535242	2549.003990
750.863555	2549.762683
751.191821	2550.297046
751.520039	2550.970040
751.848210	2549.568599
752.176334	2547.642878
752.504411	2549.009031
752.832440	2544.862682
753.160421	2546.874102
753.488356	2547.390820
753.816243	2550.259237
754.144082	2549.513146
754.471875	2547.300080
754.799620	2547.166489
755.127318	2545.175233
755.454969	2549.326623
755.782572	2549.203115
756.110129	2549.228321
756.437638	2548.026006
756.765100	2547.342929
757.092515	2552.381563
757.419882	2546.077600
757.747203	2547.993238
758.074477	2549.550955
758.401703	2548.472148
758.728882	2547.123639
759.056014	2549.974412
759.383099	2546.753114
759.710138	2550.198743
760.037129	2550.886861
760.364073	2549.460214
760.690970	2549.412323
761.017820	2548.996428
761.344623	2549.848383
761.671379	2551.121274
761.998088	2545.049204
762.324751	2550.110523
762.651366	2552.689073
762.977935	2563.416648
763.304456	2567.101732
763.630931	2572.016857
763.957359	2566.920250
764.283740	2561.639642
764.610074	2559.219888
764.936362	2558.647717
765.262602	2555.938097
765.588796	2551.721172
765.914943	2551.537169
766.241044	2548.721685
766.567097	2547.345450
766.893104	2550.072714
767.219064	2548.388969
767.544978	2546.155738
767.870845	2543.393185
768.196665	2545.767569
768.522438	2542.480737
768.848165	2545.364277
769.173846	2543.151210
769.499479	2547.955430
769.825066	2542.067362
770.150607	2544.686241
770.476101	2544.600542
770.801548	2545.228165
771.126949	2543.887218
771.452303	2542.221117
771.777611	2542.720191
772.102872	2541.820345
772.428087	2541.875798
772.753256	2542.639533
773.078378	2542.407640
773.403453	2543.577187
773.728482	2542.546272
774.053465	2545.296221
774.378401	2539.965201
774.703291	2541.603576
775.028135	2540.469316
775.352932	2540.494522
775.677683	2544.774462
776.002388	2541.134748
776.327046	2542.329502
776.651658	2542.158103
776.976224	2541.447300
777.300743	2541.948895
777.625216	2541.142310
777.949643	2545.218083
778.274024	2542.987373
778.598359	2538.599048
778.922647	2534.256094
779.246889	2540.318082
779.571086	2535.551671
779.895236	2539.899666
780.219339	2541.202804
780.543397	2542.468134
780.867409	2540.219779
781.191374	2545.016437
781.515294	2540.799512
781.839167	2542.813453
782.162995	2542.387475
782.486776	2541.709440
782.810511	2541.780016
783.134201	2539.824048
783.457844	2541.427135
783.781441	2540.676003
784.104993	2541.089378
784.428498	2542.427804
784.751958	2537.800025
785.075372	2541.880839
785.398739	2540.973432
785.722061	2540.038297
786.045337	2538.717515
786.368568	2541.081816
786.691752	2541.192722
787.014891	2540.991076
787.337983	2537.689120
787.661030	2541.946374
787.984031	2541.898483
788.306987	2544.726571
788.629897	2544.764379
788.952760	2543.037784
789.275579	2542.584080
789.598351	2543.133566
789.921078	2542.596683
790.243759	2546.551468
790.566395	2540.726415
790.888984	2541.230530
791.211529	2537.948739
791.534027	2543.567105
791.856480	2541.137269
792.178888	2540.459234
792.501249	2541.041487
792.823566	2542.752959
793.145836	2542.473175
793.468062	2539.050231
793.790241	2541.270860
794.112375	2539.909748
794.434464	2541.412012
794.756507	2542.634492
795.078505	2541.573329
795.400457	2537.842875
795.722364	2536.164171
796.044226	2538.841023
796.366042	2538.573842
796.687812	2538.016795
797.009538	2543.637681
797.331218	2541.250695
797.652852	2541.485109
797.974442	2544.577857
798.295986	2543.022661
798.617484	2539.725746
798.938938	2539.720705
799.260346	2544.078782
799.581709	2543.262115
799.903026	2542.442928
800.224299	2539.750952
800.545526	2538.543595
800.866708	2538.735159
801.187845	2538.450334
801.508936	2538.823379
801.829983	2539.438400
802.150984	2540.600386
802.471940	2538.599048
802.792851	2539.705581
803.113717	2539.748431
803.434538	2539.133410
803.755314	2538.888914
804.076045	2539.776158
804.396731	2539.924872
804.717372	2539.622402
805.037967	2539.458565
805.358518	2540.421425
805.679024	2541.311189
805.999485	2539.196425
806.319901	2539.841692
806.640272	2539.100643
806.960598	2539.309851
807.280879	2538.379758
807.601115	2540.534851
807.921306	2541.263298
808.241453	2539.748431
808.561554	2540.098791
808.881611	2540.229861
809.201623	2541.374203
809.521590	2539.246836
809.841513	2540.423946
810.161390	2539.617361
810.481223	2540.192053
810.801011	2540.590304
811.120755	2537.779861
811.440453	2537.928575
811.760107	2540.905376
812.079716	2537.782381
812.399281	2532.905065
812.718801	2537.580735
813.038276	2534.666948
813.357707	2541.462423
813.677093	2539.942516
813.996434	2538.833462
814.315731	2538.039480
814.634983	2537.447144
814.954191	2534.306506
815.273354	2537.941178
815.592473	2538.798174
815.911547	2541.845551
816.230577	2540.507125
816.549562	2539.405633
816.868502	2539.176260
817.187399	2541.616179
817.506250	2540.552495
817.825058	2540.802032
818.143821	2541.187681
818.462539	2538.946888
818.781213	2541.792619
819.099843	2545.003834
819.418429	2542.972249
819.736970	2545.034081
820.055466	2548.494833
820.373919	2550.901984
820.692327	2554.133364
821.010691	2560.873386
821.329011	2575.041549
821.647286	2604.184460
821.965517	2636.367186
822.283704	2656.438540
822.601847	2664.209478
822.919945	2649.900163
823.237999	2626.804117
823.556010	2610.024636
823.873976	2595.929570
824.191897	2584.947417
824.509775	2574.933164
824.827609	2570.340673
825.145398	2566.617781
825.463144	2564.402194
825.780845	2564.462688
826.098502	2567.626012
826.416116	2575.674214
826.733685	2584.826429
827.051210	2590.873293
827.368692	2586.721903
827.686129	2575.979204
828.003522	2567.583162
828.320872	2557.536142
828.638177	2551.401058
828.955439	2550.100441
829.272656	2546.430481
829.589830	2541.845551
829.906960	2543.219266
830.224046	2543.909904
830.541088	2542.296734
830.858086	2545.293700
831.175041	2544.330840
831.491952	2541.220448
831.808819	2540.549975
832.125642	2542.702547
832.442421	2546.463248
832.759157	2546.367466
833.075849	2555.713765
833.392497	2560.356668
833.709101	2562.128634
834.025662	2565.123079
834.342179	2563.661144
834.658653	2556.258210
834.975083	2551.388455
835.291469	2553.140256
835.607811	2544.671118
835.924110	2544.219935
836.240366	2542.818494
836.556578	2540.769265
836.872746	2540.549975
837.188871	2538.664583
837.504952	2540.996117
837.820990	2537.951260
838.136984	2538.677186
838.452935	2537.663914
838.768842	2538.019315
839.084706	2539.909748
839.400526	2539.939995
839.716303	2542.843700
840.032037	2548.968702
840.347727	2545.465100
840.663373	2548.119267
840.978977	2543.496529
841.294537	2538.727597
841.610054	2539.619882
841.925527	2536.368338
842.240957	2534.712318
842.556344	2535.768440
842.871687	2536.496887
843.186987	2536.025539
843.502244	2535.221475
843.817458	2534.959335
844.132629	2533.290713
844.447756	2535.695343
844.762840	2529.512368
845.077881	2533.550332
845.392879	2531.238963
845.707833	2531.987575
846.022745	2528.882224
846.337613	2534.104859
846.652438	2535.332380
846.967221	2534.908923
847.281960	2533.492359
847.596656	2533.575538
847.911309	2532.239633
848.225919	2536.055786
848.540485	2535.498738
848.855009	2534.208203
849.169490	2533.031094
849.483928	2531.617050
849.798323	2533.883049
850.112675	2533.147040
850.426984	2533.278110
850.741251	2533.714170
851.055474	2533.212575
851.369654	2534.752648
851.683792	2532.078316
851.997887	2532.849612
852.311938	2531.909437
852.625947	2533.013450
852.939914	2533.305837
853.253837	2534.387164
853.567718	2531.548994
853.881555	2533.051258
854.195350	2537.174922
854.509103	2534.417411
854.822812	2533.383974
855.136479	2534.982020
855.450103	2532.537061
855.763685	2534.049407
856.077224	2533.396577
856.390720	2535.932278
856.704173	2534.825744
857.017584	2535.655014
857.330953	2532.844571
857.644278	2535.405477
857.957561	2532.665610
858.270802	2534.634181
858.584000	2534.926567
858.897155	2534.606454
859.210268	2532.201824
859.523339	2535.229037
859.836367	2533.706608
860.149352	2534.881197
860.462295	2531.715352
860.775195	2530.586134
861.088054	2529.343490
861.400869	2532.252235
861.713642	2529.288037
862.026373	2530.755013
862.339062	2530.800383
862.651708	2532.559746
862.964312	2533.459592
863.276873	2531.594365
863.589392	2536.204500
863.901869	2535.443286
864.214303	2535.692823
864.526696	2533.411701
864.839045	2535.599562
865.151353	2534.253573
865.463619	2533.532688
865.775842	2534.142668
866.088023	2531.715352
866.400162	2536.401105
866.712258	2533.434386
867.024313	2535.793646
867.336325	2534.752648
867.648296	2535.458409
867.960224	2536.338091
868.272110	2537.411856
868.583954	2534.951773
868.895755	2537.142155
869.207515	2537.051414
869.519233	2532.211906
869.830909	2533.429345
870.142542	2532.501773
870.454134	2533.487318
870.765684	2537.371527
871.077191	2533.608306
871.388657	2535.917154
871.700081	2532.811803
872.011463	2535.723070
872.322803	2533.578059
872.634101	2535.024870
872.945357	2535.047555
873.256571	2536.648122
873.567744	2535.586959
873.878874	2536.648122
874.189963	2538.825900
874.501010	2537.522762
874.812015	2534.520755
875.122979	2535.566794
875.433900	2535.133255
875.744780	2537.865560
876.055618	2535.405477
876.366415	2534.518234
876.677169	2539.115766
876.987882	2533.721732
877.298554	2531.909437
877.609183	2536.169212
877.919771	2533.958666
878.230317	2536.955632
878.540822	2539.710622
878.851285	2541.999306
879.161707	2539.551826
879.472087	2544.880326
879.782425	2547.935265
880.092722	2552.502550
880.402977	2560.580999
880.713191	2577.015161
881.023363	2590.759867
881.333494	2607.597321
881.643583	2608.691251
881.953631	2603.622371
882.263637	2600.867380
882.573602	2596.463932
882.883526	2587.987232
883.193408	2577.748649
883.503248	2571.038873
883.813048	2565.831361
884.122806	2562.673078
884.432522	2557.793241
884.742197	2552.406768
885.051831	2547.496685
885.361424	2545.351674
885.670975	2544.628268
885.980485	2544.356046
886.289954	2542.659698
886.599382	2542.085006
886.908768	2540.973432
887.218113	2538.762886
887.527417	2539.559388
887.836680	2540.262629
888.145901	2538.601569
888.455082	2536.267514
888.764221	2537.800025
889.073319	2537.968904
889.382376	2539.735828
889.691392	2534.931609
890.000366	2538.977135
890.309300	2539.619882
890.618193	2536.577545
890.927044	2537.043852
891.235855	2535.486136
891.544625	2538.543595
891.853353	2536.519572
892.162041	2537.757175
892.470687	2537.973945
892.779293	2538.251208
893.087858	2537.661393
893.396381	2537.936136
893.704864	2541.840510
894.013306	2542.455531
894.321707	2554.166131
894.630068	2556.313663
894.938387	2562.257183
895.246665	2558.728375
895.554903	2557.778118
895.863100	2551.698486
896.171256	2550.707900
896.479371	2548.162117
896.787446	2546.901828
897.095480	2542.541230
897.403473	2541.943854
897.711425	2540.739018
898.019336	2539.531662
898.327207	2539.062834
898.635038	2541.694317
898.942827	2535.602082
899.250576	2540.040818
899.558284	2536.317926
899.865952	2539.536703
900.173579	2534.019160
900.481165	2541.412012
900.788711	2535.428162
901.096216	2535.561753
901.403681	2537.903369
901.711105	2538.155427
902.018489	2535.639891
902.325832	2539.428318
902.633135	2534.956814
902.940397	2536.839685
903.247619	2539.508976
903.554800	2545.719678
903.861941	2552.260575
904.169041	2565.768347
904.476101	2567.744479
904.783121	2570.060889
905.090100	2564.029149
905.397039	2558.226781
905.703938	2552.217725
906.010796	2546.836293
906.317614	2544.464431
906.624391	2541.086858
906.931129	2540.814635
907.237826	2537.482433
907.544483	2538.135262
907.851099	2540.610468
908.157675	2533.739376
908.464211	2534.162833
908.770707	2529.346010
909.077163	2534.311547
909.383578	2530.444982
909.689954	2532.655528
909.996289	2526.490197
910.302584	2534.767771
910.608839	2533.830117
910.915054	2535.402957
911.221229	2533.583100
911.527363	2532.973120
911.833458	2534.303985
912.139513	2534.898841
912.445527	2530.807945
912.751502	2533.283151
913.057436	2534.147709
913.363331	2536.017977
913.669186	2532.653007
913.975000	2536.960673
914.280775	2538.631816
914.586510	2539.635005
914.892205	2545.210521
915.197859	2548.288146
915.503475	2553.805689
915.809050	2557.011863
916.114585	2562.174004
916.420081	2567.971331
916.725536	2566.776577
917.030952	2560.853222
917.336328	2558.037737
917.641665	2557.291647
917.946961	2550.667570
918.252218	2549.523228
918.557435	2547.133722
918.862612	2543.811601
919.167750	2541.651467
919.472848	2542.019471
919.777906	2539.788760
920.082925	2538.525951
920.387904	2536.945550
920.692843	2537.192566
920.997743	2534.099818
921.302603	2535.201310
921.607423	2535.551671
921.912204	2535.269366
922.216946	2535.685261
922.521647	2534.288862
922.826310	2531.977492
923.130932	2535.115611
923.435516	2532.539581
923.740059	2534.147709
924.044564	2532.451361
924.349028	2532.673172
924.653454	2528.705784
924.957840	2530.487832
925.262186	2526.369209
925.566493	2528.315094
925.870761	2528.055475
926.174989	2531.987575
926.479178	2530.533202
926.783328	2530.855836
927.087438	2528.645290
927.391509	2529.797193
927.695541	2531.133099
927.999533	2529.126720
928.303486	2531.685106
928.607400	2532.589993
928.911275	2533.003367
929.215110	2530.177801
929.518906	2530.119827
929.822663	2527.851308
930.126381	2529.842564
930.430060	2529.325846
930.733699	2531.564118
931.037299	2530.903727
931.340861	2530.576052
931.644383	2530.369364
931.947866	2528.998171
932.251309	2531.901875
932.554714	2529.693850
932.858080	2532.799201
933.161407	2530.195445
933.464694	2530.727286
933.767943	2530.840712
934.071153	2532.615198
934.374323	2530.356762
934.677455	2531.785929
934.980548	2530.318953
935.283602	2531.178470
935.586617	2529.570342
935.889593	2529.923222
936.192530	2527.468180
936.495428	2532.332894
936.798287	2530.812986
937.101108	2531.584282
937.403890	2529.209899
937.706632	2530.802904
938.009336	2529.509848
938.312002	2530.941535
938.614628	2532.126207
938.917216	2533.618388
939.219765	2533.512524
939.522275	2531.808614
939.824747	2533.762061
940.127179	2529.323325
940.429573	2526.603623
940.731929	2530.407173
941.034246	2523.316790
941.336524	2533.772143
941.638763	2531.478418
941.940964	2531.102852
942.243126	2533.141999
942.545250	2532.708460
942.847335	2532.353058
943.149381	2531.541433
943.451389	2529.744261
943.753359	2528.231915
944.055290	2530.717204
944.357182	2527.579086
944.659036	2528.660413
944.960851	2530.888603
945.262628	2530.082019
945.564367	2528.758716
945.866067	2529.111597
946.167729	2532.963038
946.469352	2529.835002
946.770937	2530.659231
947.072484	2529.593027
947.373992	2529.855167
947.675462	2531.937163
947.976893	2530.281144
948.278286	2530.666792
948.579641	2529.280475
948.880958	2527.987419
949.182236	2529.761905
949.483476	2530.760054
949.784678	2530.520599
950.085841	2531.158305
950.386967	2530.137471
950.688054	2529.532533
950.989103	2528.534384
951.290114	2527.810979
951.591087	2526.878365
951.892021	2529.547656
952.192917	2530.611340
952.493776	2530.218130
952.794596	2531.140661
953.095378	2530.722245
953.396122	2530.724766
953.696828	2529.915661
953.997496	2528.526823
954.298126	2529.703932
954.598718	2530.621422
954.899272	2530.588655
955.199788	2526.953983
955.500266	2529.272913
955.800706	2526.089425
956.101108	2525.484486
956.401472	2526.986750
956.701798	2527.498427
957.002087	2525.630680
957.302337	2527.987419
957.602550	2527.067409
957.902724	2528.095804
958.202861	2528.574714
958.502960	2527.957172
958.803022	2527.354754
959.103045	2527.768129
959.403031	2527.836185
959.702979	2528.214271
960.002889	2529.532533
960.302762	2527.740403
960.602596	2528.604961
960.902393	2527.016997
961.202153	2530.124868
961.501875	2526.938859
961.801559	2530.490352
962.101205	2527.672347
962.400814	2528.685619
962.700385	2529.346010
962.999918	2528.206709
963.299414	2528.650331
963.598873	2529.222502
963.898293	2526.190248
964.197677	2528.070598
964.497022	2526.540608
964.796331	2529.673685
965.095601	2526.064219
965.394835	2525.607995
965.694030	2525.648324
965.993189	2530.129910
966.292309	2524.607326
966.591393	2525.638242
966.890439	2526.127233
967.189447	2528.362985
967.488419	2525.935670
967.787353	2528.153777
968.086249	2529.366175
968.385108	2527.332069
968.683930	2528.988088
968.982714	2529.411545
969.281462	2526.495238
969.580172	2526.686802
969.878844	2527.634538
970.177480	2527.894158
970.476078	2531.879190
970.774639	2529.792152
971.073162	2525.532377
971.371649	2523.757891
971.670098	2524.040196
971.968510	2524.377953
972.266885	2523.614218
972.565223	2527.586647
972.863524	2525.978519
973.161788	2526.429703
973.460014	2528.259642
973.758204	2527.851308
974.056356	2528.864580
974.354471	2527.286699
974.652550	2528.158818
974.950591	2527.518592
975.248595	2528.983047
975.546563	2527.548839
975.844493	2528.204189
976.142386	2527.611853
976.440243	2526.401976
976.738062	2527.763088
977.035845	2525.073632
977.333590	2528.209230
977.631299	2526.467511
977.928971	2527.851308
978.226606	2529.262831
978.524204	2524.735875
978.821765	2526.114631
979.119290	2524.224198
979.416777	2529.078829
979.714228	2526.890968
980.011642	2524.254445
980.309020	2528.499096
980.606360	2524.791328
980.903664	2528.370547
981.200931	2527.301822
981.498162	2527.705115
981.795356	2528.821730
982.092513	2527.468180
982.389633	2527.952131
982.686717	2527.211082
982.983764	2527.117820
983.280775	2528.846936
983.577749	2526.860721
983.874686	2526.835516
984.171587	2526.817872
984.468451	2527.463139
984.765279	2526.273427
985.062070	2527.747964
985.358824	2526.079343
985.655543	2526.391894
985.952224	2527.319466
986.248869	2528.133613
986.545478	2523.924249
986.842050	2521.539783
987.138586	2525.902902
987.435086	2524.214116
987.731549	2521.713703
988.027975	2526.223015
988.324366	2528.035310
988.620719	2525.103879
988.917037	2523.122706
989.213318	2528.095804
989.509563	2524.975330
989.805772	2527.662265
990.101944	2526.210412
990.398080	2523.415093
990.694180	2524.496420
990.990244	2526.074301
991.286271	2526.512882
991.582262	2528.357944
991.878217	2524.400638
992.174136	2525.555063
992.470019	2526.459950
992.765865	2527.808458
993.061676	2525.071112
993.357450	2525.938190
993.653188	2526.296112
993.948890	2526.936339
994.244556	2527.455578
994.540186	2526.210412
994.835780	2524.262007
995.131337	2525.711338
995.426859	2526.802748
995.722345	2526.701925
996.017795	2523.987264
996.313208	2529.930784
996.608586	2525.754188
996.903928	2526.976668
997.199234	2523.773015
997.494504	2527.937008
997.789738	2527.697553
998.084936	2526.737213
998.380099	2526.293592
998.675225	2526.792666
998.970316	2526.951462
999.265371	2528.909950
999.560390	2525.376102
999.855373	2525.237470
1000.150320	2524.539270
1000.445232	2529.277955
1000.740108	2523.344517
1001.034948	2525.481966
1001.329752	2527.102697
1001.624521	2524.902233
1001.919254	2521.875020
1002.213951	2523.863755
1002.508613	2520.899557
1002.803239	2526.729651
1003.097829	2522.013652
1003.392384	2523.334434
1003.686903	2524.345186
1003.981386	2526.374250
1004.275834	2524.786287
1004.570246	2527.871473
1004.864623	2526.832995
1005.158964	2526.769981
1005.453270	2527.208561
1005.747540	2525.698735
1006.041775	2522.185051
1006.335974	2529.419107
1006.630138	2523.289064
1006.924266	2525.003056
1007.218359	2527.122861
1007.512416	2526.575896
1007.806438	2525.892820
1008.100425	2527.558921
1008.394376	2524.451050
1008.688292	2525.091276
1008.982172	2527.110258
1009.276017	2525.179497
1009.569827	2525.466842
1009.863602	2524.413241
1010.157341	2525.371060
1010.451045	2526.636390
1010.744714	2525.784435
1011.038347	2525.096318
1011.331945	2525.799558
1011.625508	2524.798889
1011.919036	2524.602284
1012.212528	2527.644621
1012.505986	2525.247552
1012.799408	2525.272758
1013.092795	2525.179497
1013.386147	2526.207892
1013.679464	2526.739734
1013.972745	2526.243180
1014.265992	2524.980371
1014.559204	2526.144878
1014.852380	2525.055988
1015.145521	2525.557583
1015.438628	2525.965917
1015.731699	2527.561442
1016.024736	2524.758560
1016.317737	2526.515402
1016.610703	2525.945752
1016.903635	2521.554907
1017.196531	2524.836698
1017.489393	2522.212777
1017.782219	2518.867972
1018.075011	2523.372243
1018.367768	2525.134126
1018.660490	2526.540608
1018.953177	2526.540608
1019.245829	2526.540608
