Dividing Wavelength (nm)	Counts (n)	Blue Motor Position (mm): 0.000000	Red Motor Position (mm): 8.900000	
326.493990	2107.202308
326.888308	2107.202308
327.282561	2107.202308
327.676750	2107.202308
328.070874	2071.914231
328.464933	2041.667308
328.858929	1998.817500
329.252859	2089.558269
329.646726	2137.449231
330.040528	2114.764038
330.434265	2054.270192
330.827938	2097.120000
331.221547	2202.984231
331.615091	2157.613846
332.008571	2215.587115
332.401986	2235.751731
332.795338	2202.984231
333.188625	2271.039808
333.581847	2278.601538
333.975006	2260.957500
334.368100	2356.739423
334.761129	2311.369038
335.154095	2308.848462
335.546996	2339.095385
335.939833	2339.095385
336.332606	2366.821731
336.725315	2364.301154
337.117960	2334.054231
337.510540	2384.465769
337.903056	2450.000769
338.295508	2402.109808
338.687896	2513.015192
339.080220	2452.521346
339.472480	2528.138654
339.864676	2404.630385
340.256807	2460.083077
340.648875	2530.659231
341.040879	2444.959615
341.432818	2452.521346
341.824694	2502.932885
342.216506	2540.741538
342.608253	2470.165385
342.999937	2502.932885
343.391557	2485.288846
343.783113	2465.124231
344.174605	2520.576923
344.566033	2475.206538
344.957397	2540.741538
345.348697	2462.603654
345.739934	2523.097500
346.131106	2444.959615
346.522215	2472.685962
346.913260	2490.330000
347.304241	2399.589231
347.695159	2455.041923
348.086012	2422.274423
348.476802	2470.165385
348.867528	2424.795000
349.258191	2530.659231
349.648789	2548.303269
350.039324	2465.124231
350.429796	2404.630385
350.820203	2513.015192
351.210548	2414.712692
351.600828	2427.315577
351.991045	2442.439038
352.381198	2442.439038
352.771288	2364.301154
353.161314	2437.397885
353.551276	2482.768269
353.941175	2434.877308
354.331010	2560.906154
354.720782	2432.356731
355.110490	2507.974038
355.500135	2495.371154
355.889717	2472.685962
356.279235	2409.671538
356.668689	2525.618077
357.058080	2477.727115
357.447408	2386.986346
357.836672	2475.206538
358.225873	2460.083077
358.615010	2427.315577
359.004084	2402.109808
359.393095	2482.768269
359.782043	2427.315577
360.170927	2485.288846
360.559748	2457.562500
360.948505	2419.753846
361.337199	2434.877308
361.725830	2442.439038
362.114398	2497.891731
362.502903	2467.644808
362.891344	2450.000769
363.279722	2447.480192
363.668037	2475.206538
364.056289	2351.698269
364.444478	2467.644808
364.832603	2389.506923
365.220665	2407.150962
365.608665	2502.932885
365.996601	2399.589231
366.384474	2427.315577
366.772284	2470.165385
367.160031	2457.562500
367.547715	2460.083077
367.935336	2384.465769
368.322893	2447.480192
368.710388	2540.741538
369.097820	2543.262115
369.485189	2369.342308
369.872495	2497.891731
370.259738	2381.945192
370.646918	2480.247692
371.034035	2404.630385
371.421090	2424.795000
371.808081	2437.397885
372.195010	2434.877308
372.581875	2485.288846
372.968678	2487.809423
373.355418	2482.768269
373.742096	2442.439038
374.128710	2392.027500
374.515262	2467.644808
374.901751	2427.315577
375.288177	2424.795000
375.674540	2419.753846
376.060841	2500.412308
376.447079	2553.344423
376.833254	2447.480192
377.219367	2497.891731
377.605417	2429.836154
377.991404	2520.576923
378.377329	2419.753846
378.763191	2437.397885
379.148991	2376.904038
379.534727	2465.124231
379.920402	2520.576923
380.306013	2450.000769
380.691563	2477.727115
381.077049	2477.727115
381.462474	2457.562500
381.847835	2490.330000
382.233134	2500.412308
382.618371	2452.521346
383.003545	2543.262115
383.388657	2392.027500
383.773706	2450.000769
384.158693	2510.494615
384.543618	2419.753846
384.928480	2500.412308
385.313280	2470.165385
385.698017	2399.589231
386.082692	2525.618077
386.467305	2520.576923
386.851856	2439.918462
387.236344	2399.589231
387.620770	2460.083077
388.005133	2432.356731
388.389435	2399.589231
388.773674	2510.494615
389.157851	2444.959615
389.541965	2450.000769
389.926018	2450.000769
390.310008	2460.083077
390.693936	2490.330000
391.077802	2543.262115
391.461606	2444.959615
391.845348	2495.371154
392.229027	2465.124231
392.612645	2475.206538
392.996200	2354.218846
393.379694	2477.727115
393.763125	2558.385577
394.146494	2427.315577
394.529801	2472.685962
394.913047	2417.233269
395.296230	2497.891731
395.679351	2513.015192
396.062410	2538.220962
396.445408	2414.712692
396.828343	2528.138654
397.211217	2507.974038
397.594028	2500.412308
397.976778	2457.562500
398.359466	2538.220962
398.742092	2472.685962
399.124656	2437.397885
399.507158	2475.206538
399.889598	2502.932885
400.271977	2513.015192
400.654294	2439.918462
401.036549	2477.727115
401.418742	2427.315577
401.800874	2535.700385
402.182944	2414.712692
402.564952	2545.782692
402.946898	2442.439038
403.328783	2487.809423
403.710606	2437.397885
404.092367	2457.562500
404.474067	2518.056346
404.855705	2465.124231
405.237282	2462.603654
405.618797	2487.809423
406.000250	2462.603654
406.381642	2477.727115
406.762972	2497.891731
407.144240	2444.959615
407.525447	2497.891731
407.906593	2394.548077
408.287677	2548.303269
408.668700	2442.439038
409.049661	2472.685962
409.430560	2442.439038
409.811399	2392.027500
410.192176	2523.097500
410.572891	2505.453462
410.953545	2424.795000
411.334138	2480.247692
411.714669	2515.535769
412.095139	2374.383462
412.475547	2482.768269
412.855894	2477.727115
413.236180	2545.782692
413.616405	2482.768269
413.996568	2437.397885
414.376670	2500.412308
414.756711	2442.439038
415.136691	2427.315577
415.516609	2530.659231
415.896466	2538.220962
416.276262	2455.041923
416.655997	2475.206538
417.035670	2442.439038
417.415283	2490.330000
417.794834	2543.262115
418.174324	2437.397885
418.553753	2497.891731
418.933121	2510.494615
419.312428	2470.165385
419.691674	2505.453462
420.070859	2558.385577
420.449983	2528.138654
420.829045	2565.947308
421.208047	2424.795000
421.586988	2497.891731
421.965867	2467.644808
422.344686	2507.974038
422.723444	2472.685962
423.102141	2507.974038
423.480777	2417.233269
423.859352	2568.467885
424.237866	2432.356731
424.616319	2495.371154
424.994712	2492.850577
425.373044	2432.356731
425.751314	2472.685962
426.129524	2450.000769
426.507673	2502.932885
426.885762	2460.083077
427.263789	2515.535769
427.641756	2439.918462
428.019662	2424.795000
428.397508	2490.330000
428.775292	2419.753846
429.153016	2326.492500
429.530679	2545.782692
429.908282	2457.562500
430.285824	2374.383462
430.663305	2505.453462
431.040726	2543.262115
431.418086	2407.150962
431.795385	2528.138654
432.172624	2492.850577
432.549802	2351.698269
432.926920	2535.700385
433.303977	2492.850577
433.680974	2497.891731
434.057910	2470.165385
434.434786	2424.795000
434.811601	2507.974038
435.188355	2455.041923
435.565050	2573.509038
435.941683	2404.630385
436.318257	2462.603654
436.694770	2513.015192
437.071222	2417.233269
437.447614	2535.700385
437.823946	2432.356731
438.200218	2530.659231
438.576429	2414.712692
438.952580	2407.150962
439.328670	2573.509038
439.704700	2525.618077
440.080670	2535.700385
440.456580	2528.138654
440.832429	2482.768269
441.208218	2515.535769
441.583947	2497.891731
441.959616	2462.603654
442.335224	2492.850577
442.710773	2439.918462
443.086261	2386.986346
443.461689	2523.097500
443.837057	2450.000769
444.212365	2586.111923
444.587612	2409.671538
444.962800	2507.974038
445.337927	2495.371154
445.712995	2500.412308
446.088002	2437.397885
446.462949	2419.753846
446.837837	2417.233269
447.212664	2381.945192
447.587431	2465.124231
447.962139	2548.303269
448.336786	2485.288846
448.711374	2462.603654
449.085901	2419.753846
449.460369	2518.056346
449.834776	2477.727115
450.209124	2477.727115
450.583412	2419.753846
450.957640	2540.741538
451.331808	2402.109808
451.705917	2497.891731
452.079965	2437.397885
452.453954	2555.865000
452.827883	2495.371154
453.201752	2460.083077
453.575562	2397.068654
453.949311	2548.303269
454.323001	2457.562500
454.696632	2553.344423
455.070202	2480.247692
455.443713	2502.932885
455.817164	2543.262115
456.190556	2548.303269
456.563888	2480.247692
456.937160	2439.918462
457.310373	2510.494615
457.683526	2475.206538
458.056619	2482.768269
458.429653	2450.000769
458.802628	2560.906154
459.175542	2450.000769
459.548398	2492.850577
459.921194	2439.918462
460.293930	2550.823846
460.666607	2540.741538
461.039224	2465.124231
461.411782	2480.247692
461.784280	2485.288846
462.156719	2586.111923
462.529099	2460.083077
462.901419	2523.097500
463.273680	2460.083077
463.645882	2482.768269
464.018024	2497.891731
464.390106	2530.659231
464.762130	2444.959615
465.134094	2596.194231
465.505999	2490.330000
465.877845	2482.768269
466.249631	2434.877308
466.621358	2467.644808
466.993026	2442.439038
467.364634	2424.795000
467.736184	2485.288846
468.107674	2447.480192
468.479105	2497.891731
468.850477	2424.795000
469.221790	2472.685962
469.593043	2487.809423
469.964238	2492.850577
470.335373	2477.727115
470.706449	2518.056346
471.077467	2510.494615
471.448425	2432.356731
471.819324	2545.782692
472.190164	2452.521346
472.560945	2477.727115
472.931667	2490.330000
473.302330	2495.371154
473.672934	2477.727115
474.043479	2409.671538
474.413965	2477.727115
474.784393	2490.330000
475.154761	2477.727115
475.525070	2507.974038
475.895321	2495.371154
476.265513	2462.603654
476.635645	2565.947308
477.005719	2487.809423
477.375734	2462.603654
477.745691	2487.809423
478.115588	2510.494615
478.485427	2472.685962
478.855207	2457.562500
479.224928	2525.618077
479.594591	2482.768269
479.964194	2475.206538
480.333739	2555.865000
480.703226	2482.768269
481.072653	2472.685962
481.442022	2581.070769
481.811333	2558.385577
482.180584	2528.138654
482.549777	2465.124231
482.918912	2540.741538
483.287988	2490.330000
483.657005	2518.056346
484.025964	2513.015192
484.394864	2371.862885
484.763706	2384.465769
485.132489	2394.548077
485.501213	2487.809423
485.869879	2424.795000
486.238487	2540.741538
486.607036	2487.809423
486.975527	2366.821731
487.343959	2492.850577
487.712333	2528.138654
488.080648	2424.795000
488.448905	2477.727115
488.817104	2568.467885
489.185244	2500.412308
489.553326	2492.850577
489.921350	2432.356731
490.289315	2533.179808
490.657222	2482.768269
491.025070	2591.153077
491.392861	2570.988462
491.760593	2505.453462
492.128267	2485.288846
492.495883	2485.288846
492.863440	2505.453462
493.230939	2530.659231
493.598380	2472.685962
493.965763	2528.138654
494.333088	2412.192115
494.700354	2477.727115
495.067563	2505.453462
495.434713	2495.371154
495.801805	2487.809423
496.168839	2465.124231
496.535815	2502.932885
496.902733	2467.644808
497.269593	2442.439038
497.636395	2553.344423
498.003139	2482.768269
498.369825	2515.535769
498.736453	2507.974038
499.103023	2545.782692
499.469535	2404.630385
499.835989	2460.083077
500.202385	2553.344423
500.568723	2432.356731
500.935003	2528.138654
501.301226	2502.932885
501.667390	2520.576923
502.033497	2495.371154
502.399546	2475.206538
502.765537	2563.426731
503.131470	2515.535769
503.497345	2550.823846
503.863163	2497.891731
504.228923	2477.727115
504.594625	2490.330000
504.960269	2507.974038
505.325856	2621.400000
505.691385	2548.303269
506.056856	2442.439038
506.422270	2540.741538
506.787625	2422.274423
507.152924	2500.412308
507.518164	2437.397885
507.883347	2500.412308
508.248472	2460.083077
508.613540	2530.659231
508.978550	2540.741538
509.343503	2417.233269
509.708398	2545.782692
510.073236	2505.453462
510.438016	2480.247692
510.802738	2495.371154
511.167403	2507.974038
511.532010	2482.768269
511.896561	2533.179808
512.261053	2515.535769
512.625488	2487.809423
512.989866	2507.974038
513.354186	2460.083077
513.718449	2460.083077
514.082655	2573.509038
514.446803	2578.550192
514.810894	2482.768269
515.174927	2495.371154
515.538904	2439.918462
515.902822	2485.288846
516.266684	2386.986346
516.630488	2500.412308
516.994235	2457.562500
517.357925	2460.083077
517.721558	2583.591346
518.085133	2513.015192
518.448651	2419.753846
518.812112	2548.303269
519.175516	2485.288846
519.538863	2555.865000
519.902152	2510.494615
520.265385	2505.453462
520.628560	2442.439038
520.991678	2533.179808
521.354739	2492.850577
521.717743	2510.494615
522.080690	2442.439038
522.443580	2581.070769
522.806413	2434.877308
523.169189	2520.576923
523.531908	2510.494615
523.894569	2490.330000
524.257174	2495.371154
524.619722	2538.220962
524.982213	2434.877308
525.344647	2591.153077
525.707025	2596.194231
526.069345	2523.097500
526.431608	2497.891731
526.793815	2492.850577
527.155964	2550.823846
527.518057	2563.426731
527.880093	2470.165385
528.242072	2457.562500
528.603995	2581.070769
528.965860	2505.453462
529.327669	2490.330000
529.689421	2535.700385
530.051117	2568.467885
530.412755	2576.029615
530.774337	2422.274423
531.135862	2535.700385
531.497331	2427.315577
531.858743	2513.015192
532.220098	2533.179808
532.581396	2570.988462
532.942638	2502.932885
533.303824	2523.097500
533.664953	2455.041923
534.026025	2631.482308
534.387040	2480.247692
534.747999	2419.753846
535.108902	2505.453462
535.469748	2513.015192
535.830537	2485.288846
536.191270	2480.247692
536.551947	2465.124231
536.912567	2482.768269
537.273131	2560.906154
537.633638	2472.685962
537.994089	2444.959615
538.354483	2462.603654
538.714821	2419.753846
539.075103	2525.618077
539.435328	2535.700385
539.795497	2467.644808
540.155609	2429.836154
540.515665	2560.906154
540.875665	2457.562500
541.235609	2497.891731
541.595496	2402.109808
541.955328	2424.795000
542.315102	2485.288846
542.674821	2523.097500
543.034483	2583.591346
543.394090	2525.618077
543.753640	2462.603654
544.113134	2533.179808
544.472571	2510.494615
544.831953	2500.412308
545.191278	2518.056346
545.550548	2560.906154
545.909761	2510.494615
546.268918	2475.206538
546.628019	2465.124231
546.987064	2467.644808
547.346053	2470.165385
547.704986	2409.671538
548.063863	2492.850577
548.422684	2472.685962
548.781449	2558.385577
549.140158	2520.576923
549.498811	2505.453462
549.857408	2495.371154
550.215949	2535.700385
550.574434	2507.974038
550.932864	2409.671538
551.291237	2467.644808
551.649555	2528.138654
552.007817	2497.891731
552.366022	2523.097500
552.724173	2485.288846
553.082267	2573.509038
553.440305	2608.797115
553.798288	2518.056346
554.156215	2404.630385
554.514086	2492.850577
554.871902	2470.165385
555.229661	2492.850577
555.587365	2472.685962
555.945014	2593.673654
556.302606	2485.288846
556.660143	2500.412308
557.017625	2535.700385
557.375050	2550.823846
557.732421	2525.618077
558.089735	2462.603654
558.446994	2515.535769
558.804197	2462.603654
559.161345	2545.782692
559.518437	2477.727115
559.875474	2470.165385
560.232455	2533.179808
560.589381	2586.111923
560.946251	2432.356731
561.303065	2442.439038
561.659825	2424.795000
562.016528	2570.988462
562.373177	2492.850577
562.729770	2480.247692
563.086307	2429.836154
563.442789	2548.303269
563.799216	2424.795000
564.155587	2470.165385
564.511904	2455.041923
564.868164	2550.823846
565.224370	2432.356731
565.580520	2371.862885
565.936615	2409.671538
566.292654	2482.768269
566.648638	2480.247692
567.004567	2500.412308
567.360441	2495.371154
567.716260	2565.947308
568.072023	2500.412308
568.427732	2495.371154
568.783385	2485.288846
569.138982	2598.714808
569.494525	2548.303269
569.850013	2576.029615
570.205445	2437.397885
570.560823	2452.521346
570.916145	2467.644808
571.271412	2513.015192
571.626625	2442.439038
571.981782	2538.220962
572.336884	2505.453462
572.691931	2553.344423
573.046923	2495.371154
573.401860	2460.083077
573.756743	2507.974038
574.111570	2528.138654
574.466342	2545.782692
574.821059	2467.644808
575.175722	2520.576923
575.530330	2492.850577
575.884882	2477.727115
576.239380	2477.727115
576.593823	2417.233269
576.948211	2419.753846
577.302544	2465.124231
577.656823	2457.562500
578.011047	2507.974038
578.365216	2462.603654
578.719330	2485.288846
579.073389	2523.097500
579.427394	2487.809423
579.781344	2538.220962
580.135239	2560.906154
580.489080	2447.480192
580.842866	2485.288846
581.196597	2452.521346
581.550273	2462.603654
581.903895	2334.054231
582.257463	2502.932885
582.610975	2417.233269
582.964434	2500.412308
583.317837	2591.153077
583.671186	2467.644808
584.024481	2480.247692
584.377721	2543.262115
584.730906	2510.494615
585.084037	2495.371154
585.437113	2548.303269
585.790135	2460.083077
586.143103	2560.906154
586.496016	2495.371154
586.848874	2543.262115
587.201679	2432.356731
587.554428	2565.947308
587.907124	2505.453462
588.259765	2507.974038
588.612352	2434.877308
588.964884	2434.877308
589.317362	2482.768269
589.669786	2518.056346
590.022155	2497.891731
590.374470	2492.850577
590.726731	2442.439038
591.078937	2535.700385
591.431090	2618.879423
591.783188	2518.056346
592.135232	2525.618077
592.487222	2500.412308
592.839157	2543.262115
593.191038	2573.509038
593.542866	2457.562500
593.894639	2523.097500
594.246358	2434.877308
594.598022	2495.371154
594.949633	2505.453462
595.301190	2507.974038
595.652692	2560.906154
596.004141	2482.768269
596.355535	2457.562500
596.706876	2568.467885
597.058162	2422.274423
597.409395	2535.700385
597.760573	2525.618077
598.111698	2447.480192
598.462768	2523.097500
598.813785	2555.865000
599.164748	2543.262115
599.515657	2452.521346
599.866511	2497.891731
600.217312	2450.000769
600.568060	2533.179808
600.918753	2500.412308
601.269392	2500.412308
601.619978	2568.467885
601.970510	2480.247692
602.320988	2485.288846
602.671412	2470.165385
603.021783	2485.288846
603.372100	2492.850577
603.722363	2530.659231
604.072572	2457.562500
604.422728	2460.083077
604.772830	2457.562500
605.122878	2535.700385
605.472872	2495.371154
605.822813	2502.932885
606.172701	2490.330000
606.522534	2538.220962
606.872314	2492.850577
607.222041	2528.138654
607.571714	2586.111923
607.921333	2586.111923
608.270899	2467.644808
608.620411	2550.823846
608.969870	2467.644808
609.319276	2492.850577
609.668627	2467.644808
610.017926	2502.932885
610.367171	2490.330000
610.716362	2462.603654
611.065500	2480.247692
611.414585	2467.644808
611.763616	2465.124231
612.112594	2565.947308
612.461518	2450.000769
612.810389	2495.371154
613.159207	2513.015192
613.507971	2502.932885
613.856682	2513.015192
614.205340	2475.206538
614.553945	2497.891731
614.902496	2540.741538
615.250994	2515.535769
615.599439	2510.494615
615.947830	2558.385577
616.296169	2462.603654
616.644454	2555.865000
616.992686	2513.015192
617.340864	2490.330000
617.688990	2573.509038
618.037063	2565.947308
618.385082	2523.097500
618.733048	2404.630385
619.080961	2470.165385
619.428821	2470.165385
619.776628	2502.932885
620.124382	2540.741538
620.472083	2507.974038
620.819731	2490.330000
621.167326	2465.124231
621.514868	2520.576923
621.862357	2460.083077
622.209793	2502.932885
622.557176	2485.288846
622.904506	2528.138654
623.251783	2480.247692
623.599007	2450.000769
623.946179	2530.659231
624.293297	2482.768269
624.640363	2502.932885
624.987376	2465.124231
625.334336	2490.330000
625.681243	2460.083077
626.028097	2535.700385
626.374899	2550.823846
626.721647	2442.439038
627.068343	2485.288846
627.414987	2470.165385
627.761577	2477.727115
628.108115	2550.823846
628.454600	2515.535769
628.801032	2523.097500
629.147412	2530.659231
629.493739	2548.303269
629.840014	2500.412308
630.186236	2523.097500
630.532405	2439.918462
630.878521	2485.288846
631.224585	2412.192115
631.570597	2550.823846
631.916556	2505.453462
632.262462	2505.453462
632.608316	2472.685962
632.954117	2455.041923
633.299866	2565.947308
633.645562	2538.220962
633.991206	2528.138654
634.336797	2495.371154
634.682336	2487.809423
635.027823	2558.385577
635.373257	2533.179808
635.718639	2412.192115
636.063968	2533.179808
636.409245	2533.179808
636.754470	2487.809423
637.099642	2465.124231
637.444762	2485.288846
637.789829	2444.959615
638.134845	2399.589231
638.479808	2553.344423
638.824719	2558.385577
639.169577	2447.480192
639.514383	2518.056346
639.859137	2490.330000
640.203839	2465.124231
640.548489	2568.467885
640.893086	2497.891731
641.237632	2593.673654
641.582125	2434.877308
641.926566	2538.220962
642.270955	2568.467885
642.615292	2437.397885
642.959576	2480.247692
643.303809	2533.179808
643.647990	2432.356731
643.992118	2427.315577
644.336195	2482.768269
644.680219	2480.247692
645.024192	2429.836154
645.368112	2525.618077
645.711981	2583.591346
646.055797	2429.836154
646.399562	2495.371154
646.743274	2601.235385
647.086935	2553.344423
647.430544	2470.165385
647.774101	2485.288846
648.117606	2477.727115
648.461059	2480.247692
648.804460	2601.235385
649.147810	2495.371154
649.491108	2447.480192
649.834354	2533.179808
650.177548	2495.371154
650.520690	2510.494615
650.863781	2523.097500
651.206820	2442.439038
651.549807	2520.576923
651.892742	2538.220962
652.235626	2465.124231
652.578458	2520.576923
652.921238	2560.906154
653.263967	2565.947308
653.606644	2487.809423
653.949269	2457.562500
654.291843	2515.535769
654.634365	2455.041923
654.976836	2442.439038
655.319255	2553.344423
655.661622	2533.179808
656.003938	2497.891731
656.346203	2523.097500
656.688416	2525.618077
657.030577	2419.753846
657.372687	2505.453462
657.714746	2507.974038
658.056753	2520.576923
658.398708	2518.056346
658.740612	2530.659231
659.082465	2507.974038
659.424266	2553.344423
659.766016	2450.000769
660.107715	2477.727115
660.449362	2490.330000
660.790958	2467.644808
661.132503	2500.412308
661.473996	2460.083077
661.815438	2528.138654
662.156829	2495.371154
662.498168	2513.015192
662.839456	2540.741538
663.180693	2550.823846
663.521879	2502.932885
663.863013	2457.562500
664.204097	2359.260000
664.545129	2439.918462
664.886110	2439.918462
665.227040	2565.947308
665.567918	2528.138654
665.908746	2505.453462
666.249522	2450.000769
666.590248	2510.494615
666.930922	2492.850577
667.271545	2507.974038
667.612118	2497.891731
667.952639	2485.288846
668.293109	2490.330000
668.633528	2500.412308
668.973896	2487.809423
669.314213	2477.727115
669.654480	2533.179808
669.994695	2444.959615
670.334859	2510.494615
670.674973	2513.015192
671.015035	2588.632500
671.355047	2460.083077
671.695008	2477.727115
672.034918	2505.453462
672.374777	2470.165385
672.714585	2492.850577
673.054342	2530.659231
673.394049	2492.850577
673.733705	2523.097500
674.073310	2460.083077
674.412864	2500.412308
674.752368	2439.918462
675.091820	2460.083077
675.431223	2510.494615
675.770574	2510.494615
676.109875	2450.000769
676.449125	2505.453462
676.788324	2389.506923
677.127473	2455.041923
677.466571	2485.288846
677.805619	2621.400000
678.144616	2558.385577
678.483562	2505.453462
678.822458	2407.150962
679.161303	2492.850577
679.500098	2455.041923
679.838842	2477.727115
680.177535	2543.262115
680.516179	2533.179808
680.854771	2495.371154
681.193314	2477.727115
681.531805	2437.397885
681.870247	2555.865000
682.208638	2485.288846
682.546978	2538.220962
682.885268	2507.974038
683.223508	2477.727115
683.561697	2608.797115
683.899836	2482.768269
684.237925	2507.974038
684.575963	2502.932885
684.913951	2447.480192
685.251889	2457.562500
685.589776	2525.618077
685.927614	2427.315577
686.265401	2460.083077
686.603137	2613.838269
686.940824	2407.150962
687.278460	2487.809423
687.616046	2467.644808
687.953582	2520.576923
688.291068	2505.453462
688.628504	2543.262115
688.965889	2513.015192
689.303224	2528.138654
689.640510	2525.618077
689.977745	2558.385577
690.314930	2495.371154
690.652065	2555.865000
690.989150	2437.397885
691.326185	2462.603654
691.663170	2477.727115
692.000105	2543.262115
692.336990	2482.768269
692.673825	2497.891731
693.010610	2429.836154
693.347345	2588.632500
693.684030	2500.412308
694.020665	2450.000769
694.357251	2487.809423
694.693786	2460.083077
695.030272	2523.097500
695.366707	2439.918462
695.703093	2505.453462
696.039429	2533.179808
696.375716	2485.288846
696.711952	2576.029615
697.048139	2490.330000
697.384276	2462.603654
697.720363	2485.288846
698.056400	2447.480192
698.392388	2507.974038
698.728326	2480.247692
699.064214	2535.700385
699.400053	2492.850577
699.735842	2497.891731
700.071581	2538.220962
700.407270	2545.782692
700.742910	2533.179808
701.078501	2510.494615
701.414042	2386.986346
701.749533	2497.891731
702.084974	2497.891731
702.420366	2535.700385
702.755709	2530.659231
703.091002	2462.603654
703.426246	2477.727115
703.761440	2472.685962
704.096584	2487.809423
704.431679	2465.124231
704.766725	2490.330000
705.101721	2427.315577
705.436668	2581.070769
705.771565	2492.850577
706.106413	2603.755962
706.441212	2434.877308
706.775961	2462.603654
707.110661	2460.083077
707.445311	2505.453462
707.779913	2490.330000
708.114465	2523.097500
708.448967	2510.494615
708.783421	2465.124231
709.117825	2563.426731
709.452180	2460.083077
709.786485	2576.029615
710.120742	2510.494615
710.454949	2472.685962
710.789107	2515.535769
711.123216	2475.206538
711.457275	2502.932885
711.791286	2505.453462
712.125247	2485.288846
712.459159	2477.727115
712.793023	2482.768269
713.126837	2535.700385
713.460602	2502.932885
713.794318	2462.603654
714.127985	2497.891731
714.461602	2535.700385
714.795171	2558.385577
715.128691	2465.124231
715.462162	2555.865000
715.795584	2412.192115
716.128957	2462.603654
716.462281	2467.644808
716.795556	2548.303269
717.128782	2457.562500
717.461960	2505.453462
717.795088	2525.618077
718.128167	2497.891731
718.461198	2442.439038
718.794180	2507.974038
719.127113	2518.056346
719.459997	2548.303269
719.792833	2543.262115
720.125619	2470.165385
720.458357	2548.303269
720.791046	2502.932885
721.123686	2548.303269
721.456278	2525.618077
721.788821	2550.823846
722.121315	2492.850577
722.453761	2455.041923
722.786158	2487.809423
723.118506	2472.685962
723.450805	2520.576923
723.783056	2465.124231
724.115259	2533.179808
724.447412	2472.685962
724.779518	2515.535769
725.111574	2495.371154
725.443582	2467.644808
725.775542	2540.741538
726.107453	2455.041923
726.439315	2487.809423
726.771129	2502.932885
727.102895	2442.439038
727.434612	2500.412308
727.766281	2467.644808
728.097901	2558.385577
728.429473	2550.823846
728.760996	2475.206538
729.092471	2485.288846
729.423897	2533.179808
729.755276	2447.480192
730.086606	2419.753846
730.417887	2447.480192
730.749120	2523.097500
731.080305	2515.535769
731.411442	2457.562500
731.742530	2455.041923
732.073570	2507.974038
732.404562	2550.823846
732.735506	2523.097500
733.066401	2543.262115
733.397249	2538.220962
733.728048	2497.891731
734.058798	2485.288846
734.389501	2470.165385
734.720156	2480.247692
735.050762	2492.850577
735.381320	2452.521346
735.711831	2477.727115
736.042293	2626.441154
736.372707	2444.959615
736.703073	2475.206538
737.033391	2535.700385
737.363661	2442.439038
737.693883	2452.521346
738.024056	2502.932885
738.354182	2533.179808
738.684260	2437.397885
739.014290	2480.247692
739.344272	2444.959615
739.674207	2530.659231
740.004093	2570.988462
740.333931	2492.850577
740.663722	2530.659231
740.993464	2543.262115
741.323159	2490.330000
741.652806	2560.906154
741.982405	2560.906154
742.311956	2550.823846
742.641460	2545.782692
742.970915	2510.494615
743.300323	2429.836154
743.629683	2470.165385
743.958996	2465.124231
744.288260	2507.974038
744.617477	2540.741538
744.946647	2450.000769
745.275768	2450.000769
745.604842	2558.385577
745.933869	2422.274423
746.262847	2374.383462
746.591778	2470.165385
746.920662	2470.165385
747.249498	2548.303269
747.578286	2439.918462
747.907027	2618.879423
748.235720	2414.712692
748.564365	2545.782692
748.892963	2477.727115
749.221514	2444.959615
749.550017	2487.809423
749.878473	2502.932885
750.206881	2477.727115
750.535242	2558.385577
750.863555	2482.768269
751.191821	2492.850577
751.520039	2460.083077
751.848210	2528.138654
752.176334	2533.179808
752.504411	2450.000769
752.832440	2500.412308
753.160421	2505.453462
753.488356	2482.768269
753.816243	2560.906154
754.144082	2515.535769
754.471875	2545.782692
754.799620	2558.385577
755.127318	2510.494615
755.454969	2485.288846
755.782572	2402.109808
756.110129	2568.467885
756.437638	2518.056346
756.765100	2505.453462
757.092515	2462.603654
757.419882	2515.535769
757.747203	2528.138654
758.074477	2497.891731
758.401703	2472.685962
758.728882	2500.412308
759.056014	2452.521346
759.383099	2487.809423
759.710138	2487.809423
760.037129	2439.918462
760.364073	2460.083077
760.690970	2505.453462
761.017820	2447.480192
761.344623	2497.891731
761.671379	2490.330000
761.998088	2439.918462
762.324751	2472.685962
762.651366	2437.397885
762.977935	2422.274423
763.304456	2490.330000
763.630931	2505.453462
763.957359	2500.412308
764.283740	2462.603654
764.610074	2444.959615
764.936362	2555.865000
765.262602	2442.439038
765.588796	2520.576923
765.914943	2540.741538
766.241044	2452.521346
766.567097	2573.509038
766.893104	2490.330000
767.219064	2495.371154
767.544978	2510.494615
767.870845	2424.795000
768.196665	2550.823846
768.522438	2450.000769
768.848165	2482.768269
769.173846	2450.000769
769.499479	2543.262115
769.825066	2601.235385
770.150607	2465.124231
770.476101	2515.535769
770.801548	2465.124231
771.126949	2565.947308
771.452303	2505.453462
771.777611	2507.974038
772.102872	2492.850577
772.428087	2558.385577
772.753256	2593.673654
773.078378	2482.768269
773.403453	2528.138654
773.728482	2515.535769
774.053465	2538.220962
774.378401	2490.330000
774.703291	2565.947308
775.028135	2402.109808
775.352932	2533.179808
775.677683	2397.068654
776.002388	2470.165385
776.327046	2467.644808
776.651658	2545.782692
776.976224	2444.959615
777.300743	2492.850577
777.625216	2490.330000
777.949643	2442.439038
778.274024	2538.220962
778.598359	2457.562500
778.922647	2475.206538
779.246889	2550.823846
779.571086	2424.795000
779.895236	2513.015192
780.219339	2487.809423
780.543397	2487.809423
780.867409	2570.988462
781.191374	2482.768269
781.515294	2550.823846
781.839167	2457.562500
782.162995	2513.015192
782.486776	2434.877308
782.810511	2596.194231
783.134201	2515.535769
783.457844	2523.097500
783.781441	2495.371154
784.104993	2472.685962
784.428498	2482.768269
784.751958	2392.027500
785.075372	2490.330000
785.398739	2533.179808
785.722061	2530.659231
786.045337	2450.000769
786.368568	2439.918462
786.691752	2434.877308
787.014891	2450.000769
787.337983	2470.165385
787.661030	2455.041923
787.984031	2545.782692
788.306987	2502.932885
788.629897	2500.412308
788.952760	2490.330000
789.275579	2528.138654
789.598351	2492.850577
789.921078	2515.535769
790.243759	2530.659231
790.566395	2611.317692
790.888984	2457.562500
791.211529	2490.330000
791.534027	2427.315577
791.856480	2480.247692
792.178888	2545.782692
792.501249	2477.727115
792.823566	2485.288846
793.145836	2427.315577
793.468062	2535.700385
793.790241	2442.439038
794.112375	2417.233269
794.434464	2528.138654
794.756507	2487.809423
795.078505	2492.850577
795.400457	2586.111923
795.722364	2472.685962
796.044226	2553.344423
796.366042	2513.015192
796.687812	2565.947308
797.009538	2472.685962
797.331218	2480.247692
797.652852	2475.206538
797.974442	2535.700385
798.295986	2548.303269
798.617484	2399.589231
798.938938	2560.906154
799.260346	2502.932885
799.581709	2477.727115
799.903026	2472.685962
800.224299	2424.795000
800.545526	2525.618077
800.866708	2490.330000
801.187845	2457.562500
801.508936	2475.206538
801.829983	2553.344423
802.150984	2492.850577
802.471940	2555.865000
802.792851	2482.768269
803.113717	2507.974038
803.434538	2550.823846
803.755314	2510.494615
804.076045	2558.385577
804.396731	2485.288846
804.717372	2548.303269
805.037967	2450.000769
805.358518	2520.576923
805.679024	2472.685962
805.999485	2563.426731
806.319901	2452.521346
806.640272	2500.412308
806.960598	2414.712692
807.280879	2581.070769
807.601115	2465.124231
807.921306	2465.124231
808.241453	2465.124231
808.561554	2457.562500
808.881611	2495.371154
809.201623	2482.768269
809.521590	2397.068654
809.841513	2457.562500
810.161390	2533.179808
810.481223	2462.603654
810.801011	2555.865000
811.120755	2528.138654
811.440453	2502.932885
811.760107	2550.823846
812.079716	2450.000769
812.399281	2513.015192
812.718801	2462.603654
813.038276	2485.288846
813.357707	2495.371154
813.677093	2444.959615
813.996434	2581.070769
814.315731	2485.288846
814.634983	2573.509038
814.954191	2457.562500
815.273354	2412.192115
815.592473	2576.029615
815.911547	2497.891731
816.230577	2530.659231
816.549562	2447.480192
816.868502	2525.618077
817.187399	2457.562500
817.506250	2502.932885
817.825058	2394.548077
818.143821	2513.015192
818.462539	2548.303269
818.781213	2462.603654
819.099843	2550.823846
819.418429	2497.891731
819.736970	2475.206538
820.055466	2422.274423
820.373919	2500.412308
820.692327	2500.412308
821.010691	2492.850577
821.329011	2598.714808
821.647286	2540.741538
821.965517	2621.400000
822.283704	2550.823846
822.601847	2520.576923
822.919945	2497.891731
823.237999	2505.453462
823.556010	2515.535769
823.873976	2545.782692
824.191897	2480.247692
824.509775	2523.097500
824.827609	2487.809423
825.145398	2513.015192
825.463144	2492.850577
825.780845	2500.412308
826.098502	2475.206538
826.416116	2467.644808
826.733685	2500.412308
827.051210	2485.288846
827.368692	2480.247692
827.686129	2492.850577
828.003522	2407.150962
828.320872	2429.836154
828.638177	2538.220962
828.955439	2475.206538
829.272656	2480.247692
829.589830	2487.809423
829.906960	2530.659231
830.224046	2442.439038
830.541088	2462.603654
830.858086	2515.535769
831.175041	2462.603654
831.491952	2480.247692
831.808819	2434.877308
832.125642	2545.782692
832.442421	2437.397885
832.759157	2530.659231
833.075849	2500.412308
833.392497	2513.015192
833.709101	2507.974038
834.025662	2507.974038
834.342179	2450.000769
834.658653	2465.124231
834.975083	2485.288846
835.291469	2467.644808
835.607811	2492.850577
835.924110	2525.618077
836.240366	2467.644808
836.556578	2518.056346
836.872746	2513.015192
837.188871	2505.453462
837.504952	2482.768269
837.820990	2543.262115
838.136984	2487.809423
838.452935	2465.124231
838.768842	2558.385577
839.084706	2540.741538
839.400526	2450.000769
839.716303	2533.179808
840.032037	2472.685962
840.347727	2553.344423
840.663373	2460.083077
840.978977	2429.836154
841.294537	2505.453462
841.610054	2525.618077
841.925527	2495.371154
842.240957	2460.083077
842.556344	2439.918462
842.871687	2457.562500
843.186987	2447.480192
843.502244	2432.356731
843.817458	2500.412308
844.132629	2555.865000
844.447756	2472.685962
844.762840	2538.220962
845.077881	2475.206538
845.392879	2450.000769
845.707833	2452.521346
846.022745	2530.659231
846.337613	2472.685962
846.652438	2502.932885
846.967221	2364.301154
847.281960	2485.288846
847.596656	2455.041923
847.911309	2485.288846
848.225919	2460.083077
848.540485	2513.015192
848.855009	2482.768269
849.169490	2452.521346
849.483928	2492.850577
849.798323	2495.371154
850.112675	2429.836154
850.426984	2434.877308
850.741251	2460.083077
851.055474	2545.782692
851.369654	2518.056346
851.683792	2450.000769
851.997887	2397.068654
852.311938	2434.877308
852.625947	2502.932885
852.939914	2462.603654
853.253837	2505.453462
853.567718	2518.056346
853.881555	2502.932885
854.195350	2591.153077
854.509103	2510.494615
854.822812	2507.974038
855.136479	2553.344423
855.450103	2510.494615
855.763685	2450.000769
856.077224	2525.618077
856.390720	2447.480192
856.704173	2490.330000
857.017584	2515.535769
857.330953	2530.659231
857.644278	2533.179808
857.957561	2482.768269
858.270802	2505.453462
858.584000	2518.056346
858.897155	2545.782692
859.210268	2505.453462
859.523339	2515.535769
859.836367	2482.768269
860.149352	2487.809423
860.462295	2482.768269
860.775195	2467.644808
861.088054	2462.603654
861.400869	2520.576923
861.713642	2462.603654
862.026373	2535.700385
862.339062	2497.891731
862.651708	2419.753846
862.964312	2500.412308
863.276873	2480.247692
863.589392	2538.220962
863.901869	2477.727115
864.214303	2601.235385
864.526696	2424.795000
864.839045	2460.083077
865.151353	2432.356731
865.463619	2492.850577
865.775842	2490.330000
866.088023	2507.974038
866.400162	2545.782692
866.712258	2490.330000
867.024313	2444.959615
867.336325	2450.000769
867.648296	2442.439038
867.960224	2563.426731
868.272110	2475.206538
868.583954	2402.109808
868.895755	2490.330000
869.207515	2560.906154
869.519233	2465.124231
869.830909	2513.015192
870.142542	2500.412308
870.454134	2520.576923
870.765684	2470.165385
871.077191	2437.397885
871.388657	2555.865000
871.700081	2540.741538
872.011463	2485.288846
872.322803	2480.247692
872.634101	2528.138654
872.945357	2402.109808
873.256571	2480.247692
873.567744	2528.138654
873.878874	2495.371154
874.189963	2553.344423
874.501010	2505.453462
874.812015	2510.494615
875.122979	2492.850577
875.433900	2497.891731
875.744780	2485.288846
876.055618	2533.179808
876.366415	2480.247692
876.677169	2515.535769
876.987882	2548.303269
877.298554	2533.179808
877.609183	2505.453462
877.919771	2429.836154
878.230317	2543.262115
878.540822	2538.220962
878.851285	2384.465769
879.161707	2613.838269
879.472087	2470.165385
879.782425	2409.671538
880.092722	2578.550192
880.402977	2487.809423
880.713191	2450.000769
881.023363	2545.782692
881.333494	2515.535769
881.643583	2482.768269
881.953631	2507.974038
882.263637	2465.124231
882.573602	2502.932885
882.883526	2518.056346
883.193408	2520.576923
883.503248	2507.974038
883.813048	2543.262115
884.122806	2505.453462
884.432522	2518.056346
884.742197	2480.247692
885.051831	2528.138654
885.361424	2455.041923
885.670975	2513.015192
885.980485	2467.644808
886.289954	2450.000769
886.599382	2432.356731
886.908768	2513.015192
887.218113	2550.823846
887.527417	2487.809423
887.836680	2485.288846
888.145901	2455.041923
888.455082	2515.535769
888.764221	2455.041923
889.073319	2467.644808
889.382376	2477.727115
889.691392	2497.891731
890.000366	2513.015192
890.309300	2442.439038
890.618193	2412.192115
890.927044	2402.109808
891.235855	2497.891731
891.544625	2515.535769
891.853353	2424.795000
892.162041	2455.041923
892.470687	2495.371154
892.779293	2578.550192
893.087858	2523.097500
893.396381	2477.727115
893.704864	2513.015192
894.013306	2437.397885
894.321707	2442.439038
894.630068	2550.823846
894.938387	2513.015192
895.246665	2465.124231
895.554903	2507.974038
895.863100	2525.618077
896.171256	2535.700385
896.479371	2485.288846
896.787446	2533.179808
897.095480	2543.262115
897.403473	2442.439038
897.711425	2467.644808
898.019336	2513.015192
898.327207	2439.918462
898.635038	2470.165385
898.942827	2495.371154
899.250576	2578.550192
899.558284	2505.453462
899.865952	2480.247692
900.173579	2495.371154
900.481165	2502.932885
900.788711	2472.685962
901.096216	2472.685962
901.403681	2495.371154
901.711105	2472.685962
902.018489	2450.000769
902.325832	2550.823846
902.633135	2480.247692
902.940397	2518.056346
903.247619	2465.124231
903.554800	2500.412308
903.861941	2520.576923
904.169041	2530.659231
904.476101	2543.262115
904.783121	2487.809423
905.090100	2455.041923
905.397039	2389.506923
905.703938	2591.153077
906.010796	2510.494615
906.317614	2553.344423
906.624391	2513.015192
906.931129	2475.206538
907.237826	2460.083077
907.544483	2525.618077
907.851099	2480.247692
908.157675	2510.494615
908.464211	2427.315577
908.770707	2394.548077
909.077163	2432.356731
909.383578	2495.371154
909.689954	2490.330000
909.996289	2523.097500
910.302584	2467.644808
910.608839	2490.330000
910.915054	2502.932885
911.221229	2565.947308
911.527363	2480.247692
911.833458	2452.521346
912.139513	2495.371154
912.445527	2500.412308
912.751502	2482.768269
913.057436	2505.453462
913.363331	2465.124231
913.669186	2502.932885
913.975000	2515.535769
914.280775	2460.083077
914.586510	2442.439038
914.892205	2528.138654
915.197859	2535.700385
915.503475	2523.097500
915.809050	2475.206538
916.114585	2505.453462
916.420081	2472.685962
916.725536	2538.220962
917.030952	2465.124231
917.336328	2437.397885
917.641665	2457.562500
917.946961	2525.618077
918.252218	2477.727115
918.557435	2487.809423
918.862612	2497.891731
919.167750	2528.138654
919.472848	2477.727115
919.777906	2528.138654
920.082925	2462.603654
920.387904	2558.385577
920.692843	2487.809423
920.997743	2513.015192
921.302603	2457.562500
921.607423	2545.782692
921.912204	2492.850577
922.216946	2467.644808
922.521647	2465.124231
922.826310	2578.550192
923.130932	2437.397885
923.435516	2495.371154
923.740059	2477.727115
924.044564	2573.509038
924.349028	2457.562500
924.653454	2477.727115
924.957840	2518.056346
925.262186	2578.550192
925.566493	2535.700385
925.870761	2477.727115
926.174989	2528.138654
926.479178	2487.809423
926.783328	2513.015192
927.087438	2447.480192
927.391509	2437.397885
927.695541	2548.303269
927.999533	2467.644808
928.303486	2455.041923
928.607400	2467.644808
928.911275	2477.727115
929.215110	2447.480192
929.518906	2553.344423
929.822663	2407.150962
930.126381	2477.727115
930.430060	2487.809423
930.733699	2432.356731
931.037299	2515.535769
931.340861	2477.727115
931.644383	2442.439038
931.947866	2497.891731
932.251309	2495.371154
932.554714	2497.891731
932.858080	2507.974038
933.161407	2455.041923
933.464694	2502.932885
933.767943	2417.233269
934.071153	2437.397885
934.374323	2553.344423
934.677455	2497.891731
934.980548	2495.371154
935.283602	2467.644808
935.586617	2447.480192
935.889593	2505.453462
936.192530	2442.439038
936.495428	2528.138654
936.798287	2457.562500
937.101108	2472.685962
937.403890	2543.262115
937.706632	2434.877308
938.009336	2477.727115
938.312002	2548.303269
938.614628	2444.959615
938.917216	2465.124231
939.219765	2442.439038
939.522275	2497.891731
939.824747	2477.727115
940.127179	2502.932885
940.429573	2487.809423
940.731929	2535.700385
941.034246	2518.056346
941.336524	2518.056346
941.638763	2515.535769
941.940964	2402.109808
942.243126	2457.562500
942.545250	2528.138654
942.847335	2432.356731
943.149381	2528.138654
943.451389	2444.959615
943.753359	2487.809423
944.055290	2523.097500
944.357182	2555.865000
944.659036	2482.768269
944.960851	2533.179808
945.262628	2507.974038
945.564367	2525.618077
945.866067	2412.192115
946.167729	2525.618077
946.469352	2545.782692
946.770937	2528.138654
947.072484	2528.138654
947.373992	2414.712692
947.675462	2523.097500
947.976893	2457.562500
948.278286	2497.891731
948.579641	2442.439038
948.880958	2417.233269
949.182236	2535.700385
949.483476	2467.644808
949.784678	2477.727115
950.085841	2455.041923
950.386967	2533.179808
950.688054	2502.932885
950.989103	2427.315577
951.290114	2462.603654
951.591087	2467.644808
951.892021	2475.206538
952.192917	2480.247692
952.493776	2568.467885
952.794596	2535.700385
953.095378	2437.397885
953.396122	2502.932885
953.696828	2475.206538
953.997496	2417.233269
954.298126	2482.768269
954.598718	2528.138654
954.899272	2565.947308
955.199788	2457.562500
955.500266	2558.385577
955.800706	2535.700385
956.101108	2472.685962
956.401472	2538.220962
956.701798	2467.644808
957.002087	2513.015192
957.302337	2472.685962
957.602550	2475.206538
957.902724	2487.809423
958.202861	2502.932885
958.502960	2495.371154
958.803022	2495.371154
959.103045	2447.480192
959.403031	2477.727115
959.702979	2450.000769
960.002889	2533.179808
960.302762	2528.138654
960.602596	2518.056346
960.902393	2507.974038
961.202153	2475.206538
961.501875	2455.041923
961.801559	2502.932885
962.101205	2507.974038
962.400814	2497.891731
962.700385	2553.344423
962.999918	2528.138654
963.299414	2525.618077
963.598873	2507.974038
963.898293	2482.768269
964.197677	2485.288846
964.497022	2462.603654
964.796331	2477.727115
965.095601	2427.315577
965.394835	2596.194231
965.694030	2523.097500
965.993189	2525.618077
966.292309	2472.685962
966.591393	2523.097500
966.890439	2457.562500
967.189447	2480.247692
967.488419	2583.591346
967.787353	2545.782692
968.086249	2545.782692
968.385108	2502.932885
968.683930	2495.371154
968.982714	2424.795000
969.281462	2487.809423
969.580172	2528.138654
969.878844	2444.959615
970.177480	2502.932885
970.476078	2563.426731
970.774639	2538.220962
971.073162	2452.521346
971.371649	2563.426731
971.670098	2515.535769
971.968510	2439.918462
972.266885	2533.179808
972.565223	2414.712692
972.863524	2570.988462
973.161788	2507.974038
973.460014	2565.947308
973.758204	2424.795000
974.056356	2487.809423
974.354471	2444.959615
974.652550	2502.932885
974.950591	2437.397885
975.248595	2427.315577
975.546563	2366.821731
975.844493	2533.179808
976.142386	2475.206538
976.440243	2497.891731
976.738062	2533.179808
977.035845	2513.015192
977.333590	2485.288846
977.631299	2427.315577
977.928971	2467.644808
978.226606	2505.453462
978.524204	2424.795000
978.821765	2518.056346
979.119290	2568.467885
979.416777	2507.974038
979.714228	2422.274423
980.011642	2548.303269
980.309020	2533.179808
980.606360	2538.220962
980.903664	2487.809423
981.200931	2520.576923
981.498162	2467.644808
981.795356	2485.288846
982.092513	2492.850577
982.389633	2462.603654
982.686717	2515.535769
982.983764	2497.891731
983.280775	2427.315577
983.577749	2450.000769
983.874686	2525.618077
984.171587	2422.274423
984.468451	2543.262115
984.765279	2507.974038
985.062070	2576.029615
985.358824	2457.562500
985.655543	2414.712692
985.952224	2414.712692
986.248869	2472.685962
986.545478	2528.138654
986.842050	2452.521346
987.138586	2502.932885
987.435086	2548.303269
987.731549	2475.206538
988.027975	2437.397885
988.324366	2404.630385
988.620719	2515.535769
988.917037	2513.015192
989.213318	2497.891731
989.509563	2523.097500
989.805772	2412.192115
990.101944	2523.097500
990.398080	2495.371154
990.694180	2502.932885
990.990244	2555.865000
991.286271	2525.618077
991.582262	2439.918462
991.878217	2513.015192
992.174136	2545.782692
992.470019	2548.303269
992.765865	2432.356731
993.061676	2485.288846
993.357450	2510.494615
993.653188	2497.891731
993.948890	2497.891731
994.244556	2480.247692
994.540186	2563.426731
994.835780	2444.959615
995.131337	2457.562500
995.426859	2523.097500
995.722345	2434.877308
996.017795	2530.659231
996.313208	2497.891731
996.608586	2502.932885
996.903928	2490.330000
997.199234	2497.891731
997.494504	2500.412308
997.789738	2487.809423
998.084936	2495.371154
998.380099	2490.330000
998.675225	2507.974038
998.970316	2470.165385
999.265371	2497.891731
999.560390	2518.056346
999.855373	2520.576923
1000.150320	2432.356731
1000.445232	2515.535769
1000.740108	2518.056346
1001.034948	2482.768269
1001.329752	2535.700385
1001.624521	2520.576923
1001.919254	2457.562500
1002.213951	2417.233269
1002.508613	2480.247692
1002.803239	2432.356731
1003.097829	2510.494615
1003.392384	2528.138654
1003.686903	2467.644808
1003.981386	2434.877308
1004.275834	2429.836154
1004.570246	2515.535769
1004.864623	2447.480192
1005.158964	2497.891731
1005.453270	2543.262115
1005.747540	2570.988462
1006.041775	2528.138654
1006.335974	2477.727115
1006.630138	2502.932885
1006.924266	2434.877308
1007.218359	2510.494615
1007.512416	2497.891731
1007.806438	2568.467885
1008.100425	2439.918462
1008.394376	2513.015192
1008.688292	2515.535769
1008.982172	2548.303269
1009.276017	2533.179808
1009.569827	2500.412308
1009.863602	2450.000769
1010.157341	2502.932885
1010.451045	2462.603654
1010.744714	2389.506923
1011.038347	2485.288846
1011.331945	2586.111923
1011.625508	2560.906154
1011.919036	2470.165385
1012.212528	2500.412308
1012.505986	2397.068654
1012.799408	2513.015192
1013.092795	2535.700385
1013.386147	2505.453462
1013.679464	2500.412308
1013.972745	2462.603654
1014.265992	2515.535769
1014.559204	2518.056346
1014.852380	2482.768269
1015.145521	2555.865000
1015.438628	2480.247692
1015.731699	2518.056346
1016.024736	2543.262115
1016.317737	2510.494615
1016.610703	2528.138654
1016.903635	2525.618077
1017.196531	2477.727115
1017.489393	2490.330000
1017.782219	2470.165385
1018.075011	2588.632500
1018.367768	2513.015192
1018.660490	2553.344423
1018.953177	2553.344423
1019.245829	2553.344423
