Dividing Wavelength (nm)	Counts (n)	Blue Motor Position (mm): 0.000000	Red Motor Position (mm): 6.600000	
326.493990	2092.078846
326.888308	2092.078846
327.282561	2092.078846
327.676750	2097.120000
328.070874	2137.449231
328.464933	2089.558269
328.858929	2071.914231
329.252859	2059.311346
329.646726	2071.914231
330.040528	2071.914231
330.434265	2107.202308
330.827938	2124.846346
331.221547	2223.148846
331.615091	2220.628269
332.008571	2265.998654
332.401986	2323.971923
332.795338	2175.257885
333.188625	2250.875192
333.581847	2288.683846
333.975006	2235.751731
334.368100	2286.163269
334.761129	2306.327885
335.154095	2318.930769
335.546996	2323.971923
335.939833	2341.615962
336.332606	2351.698269
336.725315	2457.562500
337.117960	2409.671538
337.510540	2381.945192
337.903056	2354.218846
338.295508	2490.330000
338.687896	2427.315577
339.080220	2495.371154
339.472480	2465.124231
339.864676	2427.315577
340.256807	2465.124231
340.648875	2417.233269
341.040879	2467.644808
341.432818	2502.932885
341.824694	2523.097500
342.216506	2563.426731
342.608253	2477.727115
342.999937	2543.262115
343.391557	2510.494615
343.783113	2490.330000
344.174605	2505.453462
344.566033	2422.274423
344.957397	2465.124231
345.348697	2444.959615
345.739934	2455.041923
346.131106	2457.562500
346.522215	2475.206538
346.913260	2467.644808
347.304241	2472.685962
347.695159	2477.727115
348.086012	2472.685962
348.476802	2457.562500
348.867528	2467.644808
349.258191	2465.124231
349.648789	2497.891731
350.039324	2510.494615
350.429796	2462.603654
350.820203	2442.439038
351.210548	2442.439038
351.600828	2457.562500
351.991045	2434.877308
352.381198	2439.918462
352.771288	2460.083077
353.161314	2364.301154
353.551276	2502.932885
353.941175	2427.315577
354.331010	2490.330000
354.720782	2505.453462
355.110490	2366.821731
355.500135	2414.712692
355.889717	2492.850577
356.279235	2384.465769
356.668689	2502.932885
357.058080	2422.274423
357.447408	2366.821731
357.836672	2439.918462
358.225873	2467.644808
358.615010	2540.741538
359.004084	2409.671538
359.393095	2392.027500
359.782043	2475.206538
360.170927	2442.439038
360.559748	2520.576923
360.948505	2394.548077
361.337199	2470.165385
361.725830	2417.233269
362.114398	2414.712692
362.502903	2429.836154
362.891344	2351.698269
363.279722	2500.412308
363.668037	2507.974038
364.056289	2472.685962
364.444478	2389.506923
364.832603	2475.206538
365.220665	2460.083077
365.608665	2397.068654
365.996601	2485.288846
366.384474	2384.465769
366.772284	2392.027500
367.160031	2550.823846
367.547715	2407.150962
367.935336	2492.850577
368.322893	2523.097500
368.710388	2455.041923
369.097820	2475.206538
369.485189	2417.233269
369.872495	2505.453462
370.259738	2510.494615
370.646918	2417.233269
371.034035	2447.480192
371.421090	2402.109808
371.808081	2452.521346
372.195010	2470.165385
372.581875	2397.068654
372.968678	2437.397885
373.355418	2535.700385
373.742096	2414.712692
374.128710	2409.671538
374.515262	2457.562500
374.901751	2452.521346
375.288177	2432.356731
375.674540	2462.603654
376.060841	2485.288846
376.447079	2447.480192
376.833254	2414.712692
377.219367	2455.041923
377.605417	2419.753846
377.991404	2452.521346
378.377329	2437.397885
378.763191	2381.945192
379.148991	2518.056346
379.534727	2455.041923
379.920402	2455.041923
380.306013	2502.932885
380.691563	2450.000769
381.077049	2402.109808
381.462474	2432.356731
381.847835	2462.603654
382.233134	2434.877308
382.618371	2389.506923
383.003545	2485.288846
383.388657	2510.494615
383.773706	2444.959615
384.158693	2492.850577
384.543618	2530.659231
384.928480	2442.439038
385.313280	2419.753846
385.698017	2467.644808
386.082692	2429.836154
386.467305	2540.741538
386.851856	2555.865000
387.236344	2525.618077
387.620770	2462.603654
388.005133	2515.535769
388.389435	2409.671538
388.773674	2422.274423
389.157851	2392.027500
389.541965	2540.741538
389.926018	2467.644808
390.310008	2434.877308
390.693936	2389.506923
391.077802	2505.453462
391.461606	2439.918462
391.845348	2482.768269
392.229027	2432.356731
392.612645	2480.247692
392.996200	2407.150962
393.379694	2409.671538
393.763125	2404.630385
394.146494	2520.576923
394.529801	2475.206538
394.913047	2447.480192
395.296230	2505.453462
395.679351	2462.603654
396.062410	2475.206538
396.445408	2427.315577
396.828343	2482.768269
397.211217	2477.727115
397.594028	2470.165385
397.976778	2356.739423
398.359466	2422.274423
398.742092	2510.494615
399.124656	2407.150962
399.507158	2404.630385
399.889598	2482.768269
400.271977	2485.288846
400.654294	2460.083077
401.036549	2497.891731
401.418742	2462.603654
401.800874	2434.877308
402.182944	2553.344423
402.564952	2540.741538
402.946898	2462.603654
403.328783	2414.712692
403.710606	2452.521346
404.092367	2460.083077
404.474067	2535.700385
404.855705	2465.124231
405.237282	2437.397885
405.618797	2444.959615
406.000250	2540.741538
406.381642	2432.356731
406.762972	2472.685962
407.144240	2467.644808
407.525447	2497.891731
407.906593	2520.576923
408.287677	2424.795000
408.668700	2505.453462
409.049661	2392.027500
409.430560	2513.015192
409.811399	2429.836154
410.192176	2523.097500
410.572891	2523.097500
410.953545	2434.877308
411.334138	2480.247692
411.714669	2450.000769
412.095139	2444.959615
412.475547	2495.371154
412.855894	2447.480192
413.236180	2450.000769
413.616405	2510.494615
413.996568	2528.138654
414.376670	2502.932885
414.756711	2442.439038
415.136691	2450.000769
415.516609	2460.083077
415.896466	2462.603654
416.276262	2434.877308
416.655997	2515.535769
417.035670	2485.288846
417.415283	2535.700385
417.794834	2500.412308
418.174324	2533.179808
418.553753	2437.397885
418.933121	2487.809423
419.312428	2452.521346
419.691674	2525.618077
420.070859	2475.206538
420.449983	2518.056346
420.829045	2482.768269
421.208047	2480.247692
421.586988	2452.521346
421.965867	2513.015192
422.344686	2477.727115
422.723444	2495.371154
423.102141	2455.041923
423.480777	2540.741538
423.859352	2434.877308
424.237866	2386.986346
424.616319	2472.685962
424.994712	2442.439038
425.373044	2460.083077
425.751314	2507.974038
426.129524	2462.603654
426.507673	2399.589231
426.885762	2404.630385
427.263789	2500.412308
427.641756	2427.315577
428.019662	2475.206538
428.397508	2505.453462
428.775292	2452.521346
429.153016	2560.906154
429.530679	2583.591346
429.908282	2412.192115
430.285824	2356.739423
430.663305	2490.330000
431.040726	2480.247692
431.418086	2560.906154
431.795385	2500.412308
432.172624	2528.138654
432.549802	2485.288846
432.926920	2475.206538
433.303977	2530.659231
433.680974	2439.918462
434.057910	2492.850577
434.434786	2497.891731
434.811601	2487.809423
435.188355	2485.288846
435.565050	2475.206538
435.941683	2460.083077
436.318257	2528.138654
436.694770	2543.262115
437.071222	2462.603654
437.447614	2442.439038
437.823946	2500.412308
438.200218	2417.233269
438.576429	2490.330000
438.952580	2444.959615
439.328670	2525.618077
439.704700	2480.247692
440.080670	2518.056346
440.456580	2480.247692
440.832429	2472.685962
441.208218	2472.685962
441.583947	2490.330000
441.959616	2492.850577
442.335224	2500.412308
442.710773	2520.576923
443.086261	2480.247692
443.461689	2530.659231
443.837057	2414.712692
444.212365	2480.247692
444.587612	2424.795000
444.962800	2470.165385
445.337927	2485.288846
445.712995	2513.015192
446.088002	2495.371154
446.462949	2462.603654
446.837837	2414.712692
447.212664	2502.932885
447.587431	2495.371154
447.962139	2487.809423
448.336786	2525.618077
448.711374	2492.850577
449.085901	2465.124231
449.460369	2573.509038
449.834776	2437.397885
450.209124	2507.974038
450.583412	2374.383462
450.957640	2507.974038
451.331808	2465.124231
451.705917	2427.315577
452.079965	2502.932885
452.453954	2518.056346
452.827883	2432.356731
453.201752	2492.850577
453.575562	2492.850577
453.949311	2419.753846
454.323001	2543.262115
454.696632	2490.330000
455.070202	2500.412308
455.443713	2450.000769
455.817164	2399.589231
456.190556	2576.029615
456.563888	2520.576923
456.937160	2520.576923
457.310373	2424.795000
457.683526	2510.494615
458.056619	2452.521346
458.429653	2515.535769
458.802628	2480.247692
459.175542	2497.891731
459.548398	2475.206538
459.921194	2515.535769
460.293930	2513.015192
460.666607	2545.782692
461.039224	2502.932885
461.411782	2427.315577
461.784280	2452.521346
462.156719	2485.288846
462.529099	2538.220962
462.901419	2505.453462
463.273680	2578.550192
463.645882	2515.535769
464.018024	2397.068654
464.390106	2472.685962
464.762130	2548.303269
465.134094	2497.891731
465.505999	2507.974038
465.877845	2477.727115
466.249631	2475.206538
466.621358	2497.891731
466.993026	2497.891731
467.364634	2492.850577
467.736184	2437.397885
468.107674	2492.850577
468.479105	2452.521346
468.850477	2528.138654
469.221790	2560.906154
469.593043	2543.262115
469.964238	2530.659231
470.335373	2530.659231
470.706449	2528.138654
471.077467	2460.083077
471.448425	2495.371154
471.819324	2525.618077
472.190164	2596.194231
472.560945	2543.262115
472.931667	2465.124231
473.302330	2447.480192
473.672934	2502.932885
474.043479	2548.303269
474.413965	2505.453462
474.784393	2548.303269
475.154761	2417.233269
475.525070	2530.659231
475.895321	2477.727115
476.265513	2472.685962
476.635645	2467.644808
477.005719	2518.056346
477.375734	2505.453462
477.745691	2548.303269
478.115588	2409.671538
478.485427	2487.809423
478.855207	2482.768269
479.224928	2507.974038
479.594591	2553.344423
479.964194	2555.865000
480.333739	2523.097500
480.703226	2520.576923
481.072653	2477.727115
481.442022	2485.288846
481.811333	2487.809423
482.180584	2535.700385
482.549777	2414.712692
482.918912	2402.109808
483.287988	2548.303269
483.657005	2533.179808
484.025964	2457.562500
484.394864	2543.262115
484.763706	2490.330000
485.132489	2578.550192
485.501213	2530.659231
485.869879	2487.809423
486.238487	2480.247692
486.607036	2535.700385
486.975527	2381.945192
487.343959	2510.494615
487.712333	2442.439038
488.080648	2450.000769
488.448905	2533.179808
488.817104	2465.124231
489.185244	2475.206538
489.553326	2520.576923
489.921350	2560.906154
490.289315	2505.453462
490.657222	2548.303269
491.025070	2422.274423
491.392861	2485.288846
491.760593	2470.165385
492.128267	2482.768269
492.495883	2502.932885
492.863440	2414.712692
493.230939	2538.220962
493.598380	2394.548077
493.965763	2490.330000
494.333088	2470.165385
494.700354	2553.344423
495.067563	2533.179808
495.434713	2487.809423
495.801805	2439.918462
496.168839	2485.288846
496.535815	2525.618077
496.902733	2429.836154
497.269593	2462.603654
497.636395	2485.288846
498.003139	2452.521346
498.369825	2497.891731
498.736453	2540.741538
499.103023	2555.865000
499.469535	2467.644808
499.835989	2460.083077
500.202385	2558.385577
500.568723	2419.753846
500.935003	2492.850577
501.301226	2492.850577
501.667390	2520.576923
502.033497	2432.356731
502.399546	2480.247692
502.765537	2510.494615
503.131470	2505.453462
503.497345	2480.247692
503.863163	2475.206538
504.228923	2460.083077
504.594625	2414.712692
504.960269	2558.385577
505.325856	2560.906154
505.691385	2487.809423
506.056856	2515.535769
506.422270	2492.850577
506.787625	2472.685962
507.152924	2500.412308
507.518164	2346.657115
507.883347	2477.727115
508.248472	2535.700385
508.613540	2450.000769
508.978550	2434.877308
509.343503	2543.262115
509.708398	2427.315577
510.073236	2467.644808
510.438016	2545.782692
510.802738	2568.467885
511.167403	2409.671538
511.532010	2457.562500
511.896561	2462.603654
512.261053	2402.109808
512.625488	2533.179808
512.989866	2485.288846
513.354186	2507.974038
513.718449	2495.371154
514.082655	2485.288846
514.446803	2485.288846
514.810894	2573.509038
515.174927	2533.179808
515.538904	2492.850577
515.902822	2492.850577
516.266684	2462.603654
516.630488	2450.000769
516.994235	2495.371154
517.357925	2550.823846
517.721558	2470.165385
518.085133	2515.535769
518.448651	2470.165385
518.812112	2497.891731
519.175516	2480.247692
519.538863	2495.371154
519.902152	2472.685962
520.265385	2495.371154
520.628560	2422.274423
520.991678	2540.741538
521.354739	2543.262115
521.717743	2470.165385
522.080690	2507.974038
522.443580	2495.371154
522.806413	2601.235385
523.169189	2480.247692
523.531908	2550.823846
523.894569	2528.138654
524.257174	2578.550192
524.619722	2505.453462
524.982213	2530.659231
525.344647	2444.959615
525.707025	2457.562500
526.069345	2467.644808
526.431608	2497.891731
526.793815	2540.741538
527.155964	2442.439038
527.518057	2513.015192
527.880093	2502.932885
528.242072	2432.356731
528.603995	2570.988462
528.965860	2475.206538
529.327669	2500.412308
529.689421	2636.523462
530.051117	2520.576923
530.412755	2530.659231
530.774337	2528.138654
531.135862	2540.741538
531.497331	2523.097500
531.858743	2480.247692
532.220098	2510.494615
532.581396	2482.768269
532.942638	2460.083077
533.303824	2444.959615
533.664953	2515.535769
534.026025	2550.823846
534.387040	2515.535769
534.747999	2530.659231
535.108902	2462.603654
535.469748	2442.439038
535.830537	2475.206538
536.191270	2538.220962
536.551947	2505.453462
536.912567	2500.412308
537.273131	2455.041923
537.633638	2533.179808
537.994089	2492.850577
538.354483	2518.056346
538.714821	2455.041923
539.075103	2528.138654
539.435328	2465.124231
539.795497	2409.671538
540.155609	2538.220962
540.515665	2568.467885
540.875665	2457.562500
541.235609	2523.097500
541.595496	2419.753846
541.955328	2507.974038
542.315102	2487.809423
542.674821	2462.603654
543.034483	2525.618077
543.394090	2530.659231
543.753640	2513.015192
544.113134	2452.521346
544.472571	2450.000769
544.831953	2502.932885
545.191278	2475.206538
545.550548	2550.823846
545.909761	2555.865000
546.268918	2495.371154
546.628019	2510.494615
546.987064	2573.509038
547.346053	2565.947308
547.704986	2523.097500
548.063863	2467.644808
548.422684	2485.288846
548.781449	2510.494615
549.140158	2492.850577
549.498811	2550.823846
549.857408	2497.891731
550.215949	2412.192115
550.574434	2384.465769
550.932864	2505.453462
551.291237	2439.918462
551.649555	2467.644808
552.007817	2530.659231
552.366022	2548.303269
552.724173	2497.891731
553.082267	2439.918462
553.440305	2518.056346
553.798288	2520.576923
554.156215	2497.891731
554.514086	2487.809423
554.871902	2439.918462
555.229661	2518.056346
555.587365	2515.535769
555.945014	2462.603654
556.302606	2497.891731
556.660143	2555.865000
557.017625	2513.015192
557.375050	2563.426731
557.732421	2510.494615
558.089735	2518.056346
558.446994	2492.850577
558.804197	2545.782692
559.161345	2495.371154
559.518437	2555.865000
559.875474	2432.356731
560.232455	2520.576923
560.589381	2507.974038
560.946251	2538.220962
561.303065	2568.467885
561.659825	2611.317692
562.016528	2581.070769
562.373177	2417.233269
562.729770	2528.138654
563.086307	2467.644808
563.442789	2515.535769
563.799216	2626.441154
564.155587	2487.809423
564.511904	2588.632500
564.868164	2538.220962
565.224370	2513.015192
565.580520	2492.850577
565.936615	2482.768269
566.292654	2538.220962
566.648638	2593.673654
567.004567	2465.124231
567.360441	2490.330000
567.716260	2500.412308
568.072023	2472.685962
568.427732	2505.453462
568.783385	2502.932885
569.138982	2490.330000
569.494525	2530.659231
569.850013	2570.988462
570.205445	2518.056346
570.560823	2510.494615
570.916145	2439.918462
571.271412	2515.535769
571.626625	2475.206538
571.981782	2477.727115
572.336884	2525.618077
572.691931	2555.865000
573.046923	2573.509038
573.401860	2603.755962
573.756743	2502.932885
574.111570	2523.097500
574.466342	2457.562500
574.821059	2460.083077
575.175722	2490.330000
575.530330	2505.453462
575.884882	2490.330000
576.239380	2523.097500
576.593823	2455.041923
576.948211	2555.865000
577.302544	2452.521346
577.656823	2475.206538
578.011047	2470.165385
578.365216	2497.891731
578.719330	2427.315577
579.073389	2475.206538
579.427394	2533.179808
579.781344	2510.494615
580.135239	2518.056346
580.489080	2497.891731
580.842866	2502.932885
581.196597	2530.659231
581.550273	2500.412308
581.903895	2528.138654
582.257463	2462.603654
582.610975	2495.371154
582.964434	2414.712692
583.317837	2475.206538
583.671186	2427.315577
584.024481	2545.782692
584.377721	2568.467885
584.730906	2523.097500
585.084037	2497.891731
585.437113	2538.220962
585.790135	2523.097500
586.143103	2472.685962
586.496016	2485.288846
586.848874	2482.768269
587.201679	2472.685962
587.554428	2500.412308
587.907124	2495.371154
588.259765	2442.439038
588.612352	2535.700385
588.964884	2570.988462
589.317362	2510.494615
589.669786	2523.097500
590.022155	2535.700385
590.374470	2513.015192
590.726731	2525.618077
591.078937	2450.000769
591.431090	2515.535769
591.783188	2477.727115
592.135232	2515.535769
592.487222	2523.097500
592.839157	2555.865000
593.191038	2477.727115
593.542866	2518.056346
593.894639	2462.603654
594.246358	2455.041923
594.598022	2477.727115
594.949633	2487.809423
595.301190	2553.344423
595.652692	2490.330000
596.004141	2528.138654
596.355535	2452.521346
596.706876	2553.344423
597.058162	2505.453462
597.409395	2601.235385
597.760573	2462.603654
598.111698	2374.383462
598.462768	2560.906154
598.813785	2492.850577
599.164748	2460.083077
599.515657	2505.453462
599.866511	2573.509038
600.217312	2530.659231
600.568060	2505.453462
600.918753	2545.782692
601.269392	2432.356731
601.619978	2591.153077
601.970510	2555.865000
602.320988	2518.056346
602.671412	2543.262115
603.021783	2510.494615
603.372100	2500.412308
603.722363	2507.974038
604.072572	2447.480192
604.422728	2455.041923
604.772830	2586.111923
605.122878	2495.371154
605.472872	2558.385577
605.822813	2477.727115
606.172701	2518.056346
606.522534	2477.727115
606.872314	2442.439038
607.222041	2482.768269
607.571714	2477.727115
607.921333	2548.303269
608.270899	2538.220962
608.620411	2500.412308
608.969870	2515.535769
609.319276	2422.274423
609.668627	2558.385577
610.017926	2543.262115
610.367171	2555.865000
610.716362	2492.850577
611.065500	2480.247692
611.414585	2593.673654
611.763616	2480.247692
612.112594	2492.850577
612.461518	2475.206538
612.810389	2455.041923
613.159207	2424.795000
613.507971	2455.041923
613.856682	2465.124231
614.205340	2487.809423
614.553945	2523.097500
614.902496	2502.932885
615.250994	2477.727115
615.599439	2492.850577
615.947830	2553.344423
616.296169	2389.506923
616.644454	2515.535769
616.992686	2533.179808
617.340864	2530.659231
617.688990	2520.576923
618.037063	2429.836154
618.385082	2513.015192
618.733048	2485.288846
619.080961	2540.741538
619.428821	2515.535769
619.776628	2475.206538
620.124382	2560.906154
620.472083	2513.015192
620.819731	2530.659231
621.167326	2598.714808
621.514868	2507.974038
621.862357	2485.288846
622.209793	2500.412308
622.557176	2550.823846
622.904506	2588.632500
623.251783	2497.891731
623.599007	2558.385577
623.946179	2480.247692
624.293297	2500.412308
624.640363	2477.727115
624.987376	2487.809423
625.334336	2523.097500
625.681243	2586.111923
626.028097	2444.959615
626.374899	2513.015192
626.721647	2487.809423
627.068343	2480.247692
627.414987	2437.397885
627.761577	2548.303269
628.108115	2540.741538
628.454600	2502.932885
628.801032	2530.659231
629.147412	2452.521346
629.493739	2573.509038
629.840014	2450.000769
630.186236	2490.330000
630.532405	2525.618077
630.878521	2510.494615
631.224585	2439.918462
631.570597	2530.659231
631.916556	2550.823846
632.262462	2528.138654
632.608316	2439.918462
632.954117	2515.535769
633.299866	2555.865000
633.645562	2545.782692
633.991206	2518.056346
634.336797	2555.865000
634.682336	2563.426731
635.027823	2452.521346
635.373257	2386.986346
635.718639	2487.809423
636.063968	2553.344423
636.409245	2520.576923
636.754470	2465.124231
637.099642	2437.397885
637.444762	2507.974038
637.789829	2515.535769
638.134845	2560.906154
638.479808	2447.480192
638.824719	2407.150962
639.169577	2472.685962
639.514383	2538.220962
639.859137	2460.083077
640.203839	2487.809423
640.548489	2583.591346
640.893086	2505.453462
641.237632	2513.015192
641.582125	2475.206538
641.926566	2487.809423
642.270955	2429.836154
642.615292	2513.015192
642.959576	2505.453462
643.303809	2452.521346
643.647990	2417.233269
643.992118	2530.659231
644.336195	2475.206538
644.680219	2513.015192
645.024192	2460.083077
645.368112	2487.809423
645.711981	2490.330000
646.055797	2497.891731
646.399562	2434.877308
646.743274	2545.782692
647.086935	2598.714808
647.430544	2480.247692
647.774101	2513.015192
648.117606	2492.850577
648.461059	2533.179808
648.804460	2482.768269
649.147810	2480.247692
649.491108	2525.618077
649.834354	2485.288846
650.177548	2510.494615
650.520690	2485.288846
650.863781	2505.453462
651.206820	2452.521346
651.549807	2412.192115
651.892742	2500.412308
652.235626	2482.768269
652.578458	2568.467885
652.921238	2475.206538
653.263967	2545.782692
653.606644	2500.412308
653.949269	2535.700385
654.291843	2462.603654
654.634365	2397.068654
654.976836	2432.356731
655.319255	2490.330000
655.661622	2523.097500
656.003938	2565.947308
656.346203	2467.644808
656.688416	2444.959615
657.030577	2530.659231
657.372687	2460.083077
657.714746	2568.467885
658.056753	2467.644808
658.398708	2487.809423
658.740612	2505.453462
659.082465	2560.906154
659.424266	2412.192115
659.766016	2457.562500
660.107715	2462.603654
660.449362	2482.768269
660.790958	2510.494615
661.132503	2540.741538
661.473996	2467.644808
661.815438	2510.494615
662.156829	2470.165385
662.498168	2520.576923
662.839456	2475.206538
663.180693	2482.768269
663.521879	2490.330000
663.863013	2550.823846
664.204097	2490.330000
664.545129	2442.439038
664.886110	2429.836154
665.227040	2505.453462
665.567918	2369.342308
665.908746	2500.412308
666.249522	2505.453462
666.590248	2520.576923
666.930922	2452.521346
667.271545	2475.206538
667.612118	2525.618077
667.952639	2457.562500
668.293109	2460.083077
668.633528	2465.124231
668.973896	2513.015192
669.314213	2427.315577
669.654480	2497.891731
669.994695	2520.576923
670.334859	2502.932885
670.674973	2535.700385
671.015035	2467.644808
671.355047	2583.591346
671.695008	2485.288846
672.034918	2555.865000
672.374777	2467.644808
672.714585	2462.603654
673.054342	2555.865000
673.394049	2417.233269
673.733705	2507.974038
674.073310	2528.138654
674.412864	2485.288846
674.752368	2507.974038
675.091820	2513.015192
675.431223	2573.509038
675.770574	2533.179808
676.109875	2457.562500
676.449125	2513.015192
676.788324	2460.083077
677.127473	2495.371154
677.466571	2444.959615
677.805619	2543.262115
678.144616	2424.795000
678.483562	2510.494615
678.822458	2437.397885
679.161303	2487.809423
679.500098	2545.782692
679.838842	2492.850577
680.177535	2510.494615
680.516179	2558.385577
680.854771	2427.315577
681.193314	2533.179808
681.531805	2434.877308
681.870247	2394.548077
682.208638	2407.150962
682.546978	2583.591346
682.885268	2460.083077
683.223508	2502.932885
683.561697	2563.426731
683.899836	2507.974038
684.237925	2545.782692
684.575963	2555.865000
684.913951	2480.247692
685.251889	2555.865000
685.589776	2447.480192
685.927614	2553.344423
686.265401	2492.850577
686.603137	2606.276538
686.940824	2482.768269
687.278460	2513.015192
687.616046	2540.741538
687.953582	2485.288846
688.291068	2513.015192
688.628504	2485.288846
688.965889	2515.535769
689.303224	2485.288846
689.640510	2553.344423
689.977745	2470.165385
690.314930	2523.097500
690.652065	2381.945192
690.989150	2497.891731
691.326185	2570.988462
691.663170	2500.412308
692.000105	2550.823846
692.336990	2540.741538
692.673825	2487.809423
693.010610	2525.618077
693.347345	2444.959615
693.684030	2429.836154
694.020665	2455.041923
694.357251	2477.727115
694.693786	2467.644808
695.030272	2502.932885
695.366707	2409.671538
695.703093	2528.138654
696.039429	2533.179808
696.375716	2518.056346
696.711952	2480.247692
697.048139	2581.070769
697.384276	2472.685962
697.720363	2520.576923
698.056400	2518.056346
698.392388	2520.576923
698.728326	2414.712692
699.064214	2444.959615
699.400053	2530.659231
699.735842	2417.233269
700.071581	2510.494615
700.407270	2523.097500
700.742910	2452.521346
701.078501	2540.741538
701.414042	2578.550192
701.749533	2485.288846
702.084974	2510.494615
702.420366	2490.330000
702.755709	2510.494615
703.091002	2467.644808
703.426246	2417.233269
703.761440	2530.659231
704.096584	2450.000769
704.431679	2465.124231
704.766725	2523.097500
705.101721	2487.809423
705.436668	2460.083077
705.771565	2475.206538
706.106413	2482.768269
706.441212	2475.206538
706.775961	2487.809423
707.110661	2434.877308
707.445311	2553.344423
707.779913	2444.959615
708.114465	2553.344423
708.448967	2437.397885
708.783421	2462.603654
709.117825	2480.247692
709.452180	2457.562500
709.786485	2500.412308
710.120742	2492.850577
710.454949	2500.412308
710.789107	2450.000769
711.123216	2558.385577
711.457275	2429.836154
711.791286	2535.700385
712.125247	2535.700385
712.459159	2540.741538
712.793023	2513.015192
713.126837	2439.918462
713.460602	2462.603654
713.794318	2492.850577
714.127985	2515.535769
714.461602	2611.317692
714.795171	2500.412308
715.128691	2465.124231
715.462162	2470.165385
715.795584	2543.262115
716.128957	2480.247692
716.462281	2424.795000
716.795556	2608.797115
717.128782	2515.535769
717.461960	2505.453462
717.795088	2460.083077
718.128167	2538.220962
718.461198	2452.521346
718.794180	2518.056346
719.127113	2533.179808
719.459997	2475.206538
719.792833	2518.056346
720.125619	2540.741538
720.458357	2502.932885
720.791046	2475.206538
721.123686	2487.809423
721.456278	2472.685962
721.788821	2495.371154
722.121315	2555.865000
722.453761	2518.056346
722.786158	2487.809423
723.118506	2545.782692
723.450805	2412.192115
723.783056	2492.850577
724.115259	2432.356731
724.447412	2452.521346
724.779518	2447.480192
725.111574	2450.000769
725.443582	2485.288846
725.775542	2450.000769
726.107453	2480.247692
726.439315	2442.439038
726.771129	2500.412308
727.102895	2467.644808
727.434612	2414.712692
727.766281	2500.412308
728.097901	2485.288846
728.429473	2510.494615
728.760996	2427.315577
729.092471	2528.138654
729.423897	2555.865000
729.755276	2402.109808
730.086606	2545.782692
730.417887	2437.397885
730.749120	2492.850577
731.080305	2583.591346
731.411442	2480.247692
731.742530	2417.233269
732.073570	2472.685962
732.404562	2434.877308
732.735506	2540.741538
733.066401	2470.165385
733.397249	2548.303269
733.728048	2490.330000
734.058798	2518.056346
734.389501	2439.918462
734.720156	2530.659231
735.050762	2427.315577
735.381320	2485.288846
735.711831	2543.262115
736.042293	2520.576923
736.372707	2545.782692
736.703073	2513.015192
737.033391	2543.262115
737.363661	2535.700385
737.693883	2525.618077
738.024056	2548.303269
738.354182	2520.576923
738.684260	2490.330000
739.014290	2462.603654
739.344272	2487.809423
739.674207	2442.439038
740.004093	2500.412308
740.333931	2475.206538
740.663722	2535.700385
740.993464	2538.220962
741.323159	2490.330000
741.652806	2460.083077
741.982405	2497.891731
742.311956	2417.233269
742.641460	2603.755962
742.970915	2535.700385
743.300323	2500.412308
743.629683	2568.467885
743.958996	2447.480192
744.288260	2515.535769
744.617477	2528.138654
744.946647	2399.589231
745.275768	2543.262115
745.604842	2523.097500
745.933869	2452.521346
746.262847	2502.932885
746.591778	2490.330000
746.920662	2535.700385
747.249498	2434.877308
747.578286	2495.371154
747.907027	2510.494615
748.235720	2540.741538
748.564365	2392.027500
748.892963	2513.015192
749.221514	2507.974038
749.550017	2570.988462
749.878473	2505.453462
750.206881	2515.535769
750.535242	2530.659231
750.863555	2533.179808
751.191821	2505.453462
751.520039	2452.521346
751.848210	2487.809423
752.176334	2530.659231
752.504411	2540.741538
752.832440	2432.356731
753.160421	2444.959615
753.488356	2477.727115
753.816243	2444.959615
754.144082	2490.330000
754.471875	2490.330000
754.799620	2492.850577
755.127318	2472.685962
755.454969	2452.521346
755.782572	2470.165385
756.110129	2545.782692
756.437638	2470.165385
756.765100	2475.206538
757.092515	2450.000769
757.419882	2505.453462
757.747203	2467.644808
758.074477	2470.165385
758.401703	2578.550192
758.728882	2485.288846
759.056014	2492.850577
759.383099	2452.521346
759.710138	2455.041923
760.037129	2432.356731
760.364073	2492.850577
760.690970	2530.659231
761.017820	2581.070769
761.344623	2533.179808
761.671379	2550.823846
761.998088	2490.330000
762.324751	2485.288846
762.651366	2495.371154
762.977935	2424.795000
763.304456	2530.659231
763.630931	2465.124231
763.957359	2432.356731
764.283740	2472.685962
764.610074	2442.439038
764.936362	2505.453462
765.262602	2598.714808
765.588796	2485.288846
765.914943	2555.865000
766.241044	2545.782692
766.567097	2422.274423
766.893104	2518.056346
767.219064	2467.644808
767.544978	2457.562500
767.870845	2442.439038
768.196665	2505.453462
768.522438	2447.480192
768.848165	2467.644808
769.173846	2477.727115
769.499479	2550.823846
769.825066	2523.097500
770.150607	2513.015192
770.476101	2553.344423
770.801548	2487.809423
771.126949	2470.165385
771.452303	2505.453462
771.777611	2460.083077
772.102872	2369.342308
772.428087	2502.932885
772.753256	2429.836154
773.078378	2568.467885
773.403453	2545.782692
773.728482	2540.741538
774.053465	2505.453462
774.378401	2495.371154
774.703291	2563.426731
775.028135	2482.768269
775.352932	2505.453462
775.677683	2528.138654
776.002388	2543.262115
776.327046	2495.371154
776.651658	2500.412308
776.976224	2482.768269
777.300743	2472.685962
777.625216	2475.206538
777.949643	2412.192115
778.274024	2495.371154
778.598359	2480.247692
778.922647	2520.576923
779.246889	2477.727115
779.571086	2530.659231
779.895236	2467.644808
780.219339	2510.494615
780.543397	2581.070769
780.867409	2558.385577
781.191374	2475.206538
781.515294	2487.809423
781.839167	2545.782692
782.162995	2530.659231
782.486776	2497.891731
782.810511	2422.274423
783.134201	2497.891731
783.457844	2437.397885
783.781441	2560.906154
784.104993	2467.644808
784.428498	2530.659231
784.751958	2502.932885
785.075372	2528.138654
785.398739	2439.918462
785.722061	2533.179808
786.045337	2455.041923
786.368568	2515.535769
786.691752	2386.986346
787.014891	2470.165385
787.337983	2520.576923
787.661030	2518.056346
787.984031	2518.056346
788.306987	2513.015192
788.629897	2520.576923
788.952760	2485.288846
789.275579	2533.179808
789.598351	2558.385577
789.921078	2510.494615
790.243759	2480.247692
790.566395	2507.974038
790.888984	2485.288846
791.211529	2467.644808
791.534027	2560.906154
791.856480	2465.124231
792.178888	2507.974038
792.501249	2497.891731
792.823566	2588.632500
793.145836	2465.124231
793.468062	2462.603654
793.790241	2573.509038
794.112375	2502.932885
794.434464	2462.603654
794.756507	2457.562500
795.078505	2520.576923
795.400457	2444.959615
795.722364	2450.000769
796.044226	2404.630385
796.366042	2487.809423
796.687812	2480.247692
797.009538	2523.097500
797.331218	2485.288846
797.652852	2518.056346
797.974442	2502.932885
798.295986	2530.659231
798.617484	2530.659231
798.938938	2497.891731
799.260346	2518.056346
799.581709	2439.918462
799.903026	2525.618077
800.224299	2444.959615
800.545526	2523.097500
800.866708	2563.426731
801.187845	2530.659231
801.508936	2467.644808
801.829983	2573.509038
802.150984	2475.206538
802.471940	2470.165385
802.792851	2550.823846
803.113717	2523.097500
803.434538	2535.700385
803.755314	2548.303269
804.076045	2530.659231
804.396731	2424.795000
804.717372	2510.494615
805.037967	2538.220962
805.358518	2502.932885
805.679024	2460.083077
805.999485	2442.439038
806.319901	2530.659231
806.640272	2457.562500
806.960598	2565.947308
807.280879	2515.535769
807.601115	2495.371154
807.921306	2500.412308
808.241453	2462.603654
808.561554	2553.344423
808.881611	2497.891731
809.201623	2442.439038
809.521590	2540.741538
809.841513	2545.782692
810.161390	2450.000769
810.481223	2392.027500
810.801011	2460.083077
811.120755	2455.041923
811.440453	2497.891731
811.760107	2409.671538
812.079716	2510.494615
812.399281	2550.823846
812.718801	2518.056346
813.038276	2472.685962
813.357707	2505.453462
813.677093	2480.247692
813.996434	2540.741538
814.315731	2472.685962
814.634983	2465.124231
814.954191	2523.097500
815.273354	2530.659231
815.592473	2470.165385
815.911547	2460.083077
816.230577	2528.138654
816.549562	2535.700385
816.868502	2505.453462
817.187399	2515.535769
817.506250	2505.453462
817.825058	2492.850577
818.143821	2422.274423
818.462539	2492.850577
818.781213	2467.644808
819.099843	2462.603654
819.418429	2621.400000
819.736970	2500.412308
820.055466	2535.700385
820.373919	2442.439038
820.692327	2500.412308
821.010691	2545.782692
821.329011	2540.741538
821.647286	2583.591346
821.965517	2505.453462
822.283704	2485.288846
822.601847	2432.356731
822.919945	2495.371154
823.237999	2500.412308
823.556010	2563.426731
823.873976	2482.768269
824.191897	2545.782692
824.509775	2407.150962
824.827609	2480.247692
825.145398	2500.412308
825.463144	2530.659231
825.780845	2563.426731
826.098502	2518.056346
826.416116	2515.535769
826.733685	2480.247692
827.051210	2560.906154
827.368692	2444.959615
827.686129	2437.397885
828.003522	2477.727115
828.320872	2475.206538
828.638177	2505.453462
828.955439	2427.315577
829.272656	2482.768269
829.589830	2427.315577
829.906960	2558.385577
830.224046	2513.015192
830.541088	2487.809423
830.858086	2460.083077
831.175041	2442.439038
831.491952	2442.439038
831.808819	2465.124231
832.125642	2543.262115
832.442421	2450.000769
832.759157	2475.206538
833.075849	2490.330000
833.392497	2432.356731
833.709101	2475.206538
834.025662	2480.247692
834.342179	2518.056346
834.658653	2490.330000
834.975083	2510.494615
835.291469	2548.303269
835.607811	2475.206538
835.924110	2487.809423
836.240366	2540.741538
836.556578	2414.712692
836.872746	2437.397885
837.188871	2457.562500
837.504952	2467.644808
837.820990	2570.988462
838.136984	2528.138654
838.452935	2432.356731
838.768842	2563.426731
839.084706	2477.727115
839.400526	2596.194231
839.716303	2467.644808
840.032037	2444.959615
840.347727	2545.782692
840.663373	2487.809423
840.978977	2518.056346
841.294537	2533.179808
841.610054	2513.015192
841.925527	2507.974038
842.240957	2518.056346
842.556344	2502.932885
842.871687	2611.317692
843.186987	2530.659231
843.502244	2487.809423
843.817458	2497.891731
844.132629	2510.494615
844.447756	2535.700385
844.762840	2500.412308
845.077881	2467.644808
845.392879	2472.685962
845.707833	2455.041923
846.022745	2477.727115
846.337613	2540.741538
846.652438	2482.768269
846.967221	2495.371154
847.281960	2477.727115
847.596656	2558.385577
847.911309	2485.288846
848.225919	2601.235385
848.540485	2492.850577
848.855009	2497.891731
849.169490	2462.603654
849.483928	2538.220962
849.798323	2470.165385
850.112675	2460.083077
850.426984	2492.850577
850.741251	2460.083077
851.055474	2507.974038
851.369654	2555.865000
851.683792	2480.247692
851.997887	2399.589231
852.311938	2530.659231
852.625947	2462.603654
852.939914	2427.315577
853.253837	2515.535769
853.567718	2500.412308
853.881555	2606.276538
854.195350	2439.918462
854.509103	2523.097500
854.822812	2437.397885
855.136479	2500.412308
855.450103	2462.603654
855.763685	2455.041923
856.077224	2444.959615
856.390720	2371.862885
856.704173	2510.494615
857.017584	2515.535769
857.330953	2492.850577
857.644278	2437.397885
857.957561	2480.247692
858.270802	2460.083077
858.584000	2447.480192
858.897155	2460.083077
859.210268	2543.262115
859.523339	2515.535769
859.836367	2500.412308
860.149352	2482.768269
860.462295	2424.795000
860.775195	2525.618077
861.088054	2492.850577
861.400869	2565.947308
861.713642	2515.535769
862.026373	2538.220962
862.339062	2538.220962
862.651708	2465.124231
862.964312	2472.685962
863.276873	2417.233269
863.589392	2523.097500
863.901869	2467.644808
864.214303	2608.797115
864.526696	2550.823846
864.839045	2492.850577
865.151353	2444.959615
865.463619	2588.632500
865.775842	2487.809423
866.088023	2515.535769
866.400162	2525.618077
866.712258	2507.974038
867.024313	2497.891731
867.336325	2497.891731
867.648296	2523.097500
867.960224	2417.233269
868.272110	2497.891731
868.583954	2417.233269
868.895755	2523.097500
869.207515	2404.630385
869.519233	2497.891731
869.830909	2513.015192
870.142542	2437.397885
870.454134	2450.000769
870.765684	2392.027500
871.077191	2487.809423
871.388657	2495.371154
871.700081	2432.356731
872.011463	2485.288846
872.322803	2520.576923
872.634101	2492.850577
872.945357	2447.480192
873.256571	2515.535769
873.567744	2538.220962
873.878874	2444.959615
874.189963	2424.795000
874.501010	2442.439038
874.812015	2528.138654
875.122979	2487.809423
875.433900	2462.603654
875.744780	2492.850577
876.055618	2444.959615
876.366415	2417.233269
876.677169	2477.727115
876.987882	2565.947308
877.298554	2550.823846
877.609183	2477.727115
877.919771	2457.562500
878.230317	2543.262115
878.540822	2477.727115
878.851285	2434.877308
879.161707	2513.015192
879.472087	2558.385577
879.782425	2535.700385
880.092722	2543.262115
880.402977	2523.097500
880.713191	2444.959615
881.023363	2477.727115
881.333494	2462.603654
881.643583	2515.535769
881.953631	2444.959615
882.263637	2477.727115
882.573602	2513.015192
882.883526	2444.959615
883.193408	2452.521346
883.503248	2563.426731
883.813048	2578.550192
884.122806	2560.906154
884.432522	2528.138654
884.742197	2505.453462
885.051831	2555.865000
885.361424	2477.727115
885.670975	2465.124231
885.980485	2467.644808
886.289954	2528.138654
886.599382	2457.562500
886.908768	2457.562500
887.218113	2452.521346
887.527417	2427.315577
887.836680	2523.097500
888.145901	2548.303269
888.455082	2528.138654
888.764221	2485.288846
889.073319	2502.932885
889.382376	2439.918462
889.691392	2507.974038
890.000366	2492.850577
890.309300	2497.891731
890.618193	2444.959615
890.927044	2535.700385
891.235855	2462.603654
891.544625	2485.288846
891.853353	2442.439038
892.162041	2437.397885
892.470687	2497.891731
892.779293	2495.371154
893.087858	2598.714808
893.396381	2485.288846
893.704864	2518.056346
894.013306	2472.685962
894.321707	2598.714808
894.630068	2412.192115
894.938387	2492.850577
895.246665	2497.891731
895.554903	2500.412308
895.863100	2533.179808
896.171256	2530.659231
896.479371	2565.947308
896.787446	2538.220962
897.095480	2490.330000
897.403473	2485.288846
897.711425	2480.247692
898.019336	2412.192115
898.327207	2548.303269
898.635038	2429.836154
898.942827	2543.262115
899.250576	2555.865000
899.558284	2520.576923
899.865952	2568.467885
900.173579	2525.618077
900.481165	2555.865000
900.788711	2442.439038
901.096216	2485.288846
901.403681	2482.768269
901.711105	2538.220962
902.018489	2538.220962
902.325832	2525.618077
902.633135	2487.809423
902.940397	2490.330000
903.247619	2533.179808
903.554800	2523.097500
903.861941	2497.891731
904.169041	2497.891731
904.476101	2530.659231
904.783121	2495.371154
905.090100	2485.288846
905.397039	2507.974038
905.703938	2507.974038
906.010796	2434.877308
906.317614	2437.397885
906.624391	2492.850577
906.931129	2538.220962
907.237826	2462.603654
907.544483	2553.344423
907.851099	2477.727115
908.157675	2470.165385
908.464211	2452.521346
908.770707	2455.041923
909.077163	2460.083077
909.383578	2538.220962
909.689954	2510.494615
909.996289	2510.494615
910.302584	2392.027500
910.608839	2530.659231
910.915054	2462.603654
911.221229	2455.041923
911.527363	2495.371154
911.833458	2525.618077
912.139513	2460.083077
912.445527	2465.124231
912.751502	2467.644808
913.057436	2467.644808
913.363331	2412.192115
913.669186	2414.712692
913.975000	2563.426731
914.280775	2467.644808
914.586510	2518.056346
914.892205	2545.782692
915.197859	2497.891731
915.503475	2565.947308
915.809050	2477.727115
916.114585	2543.262115
916.420081	2452.521346
916.725536	2487.809423
917.030952	2533.179808
917.336328	2467.644808
917.641665	2515.535769
917.946961	2470.165385
918.252218	2523.097500
918.557435	2429.836154
918.862612	2492.850577
919.167750	2487.809423
919.472848	2434.877308
919.777906	2500.412308
920.082925	2560.906154
920.387904	2465.124231
920.692843	2553.344423
920.997743	2452.521346
921.302603	2576.029615
921.607423	2570.988462
921.912204	2528.138654
922.216946	2485.288846
922.521647	2535.700385
922.826310	2432.356731
923.130932	2530.659231
923.435516	2487.809423
923.740059	2427.315577
924.044564	2513.015192
924.349028	2495.371154
924.653454	2545.782692
924.957840	2533.179808
925.262186	2543.262115
925.566493	2455.041923
925.870761	2442.439038
926.174989	2412.192115
926.479178	2475.206538
926.783328	2460.083077
927.087438	2518.056346
927.391509	2505.453462
927.695541	2485.288846
927.999533	2507.974038
928.303486	2485.288846
928.607400	2432.356731
928.911275	2437.397885
929.215110	2462.603654
929.518906	2533.179808
929.822663	2442.439038
930.126381	2495.371154
930.430060	2543.262115
930.733699	2505.453462
931.037299	2475.206538
931.340861	2525.618077
931.644383	2497.891731
931.947866	2389.506923
932.251309	2487.809423
932.554714	2528.138654
932.858080	2588.632500
933.161407	2477.727115
933.464694	2495.371154
933.767943	2502.932885
934.071153	2447.480192
934.374323	2472.685962
934.677455	2417.233269
934.980548	2467.644808
935.283602	2460.083077
935.586617	2447.480192
935.889593	2470.165385
936.192530	2457.562500
936.495428	2422.274423
936.798287	2490.330000
937.101108	2598.714808
937.403890	2490.330000
937.706632	2497.891731
938.009336	2550.823846
938.312002	2495.371154
938.614628	2472.685962
938.917216	2525.618077
939.219765	2437.397885
939.522275	2560.906154
939.824747	2548.303269
940.127179	2424.795000
940.429573	2492.850577
940.731929	2507.974038
941.034246	2490.330000
941.336524	2533.179808
941.638763	2447.480192
941.940964	2616.358846
942.243126	2376.904038
942.545250	2520.576923
942.847335	2409.671538
943.149381	2492.850577
943.451389	2427.315577
943.753359	2437.397885
944.055290	2485.288846
944.357182	2510.494615
944.659036	2510.494615
944.960851	2533.179808
945.262628	2502.932885
945.564367	2482.768269
945.866067	2424.795000
946.167729	2465.124231
946.469352	2535.700385
946.770937	2465.124231
947.072484	2434.877308
947.373992	2528.138654
947.675462	2502.932885
947.976893	2528.138654
948.278286	2528.138654
948.579641	2402.109808
948.880958	2603.755962
949.182236	2409.671538
949.483476	2523.097500
949.784678	2533.179808
950.085841	2581.070769
950.386967	2490.330000
950.688054	2560.906154
950.989103	2530.659231
951.290114	2480.247692
951.591087	2450.000769
951.892021	2465.124231
952.192917	2505.453462
952.493776	2510.494615
952.794596	2470.165385
953.095378	2450.000769
953.396122	2407.150962
953.696828	2528.138654
953.997496	2565.947308
954.298126	2460.083077
954.598718	2475.206538
954.899272	2467.644808
955.199788	2467.644808
955.500266	2563.426731
955.800706	2480.247692
956.101108	2457.562500
956.401472	2437.397885
956.701798	2507.974038
957.002087	2444.959615
957.302337	2485.288846
957.602550	2467.644808
957.902724	2457.562500
958.202861	2477.727115
958.502960	2482.768269
958.803022	2513.015192
959.103045	2487.809423
959.403031	2513.015192
959.702979	2442.439038
960.002889	2490.330000
960.302762	2470.165385
960.602596	2513.015192
960.902393	2490.330000
961.202153	2576.029615
961.501875	2525.618077
961.801559	2439.918462
962.101205	2490.330000
962.400814	2520.576923
962.700385	2477.727115
962.999918	2533.179808
963.299414	2591.153077
963.598873	2596.194231
963.898293	2485.288846
964.197677	2507.974038
964.497022	2444.959615
964.796331	2444.959615
965.095601	2492.850577
965.394835	2462.603654
965.694030	2497.891731
965.993189	2507.974038
966.292309	2487.809423
966.591393	2530.659231
966.890439	2465.124231
967.189447	2507.974038
967.488419	2528.138654
967.787353	2553.344423
968.086249	2550.823846
968.385108	2548.303269
968.683930	2422.274423
968.982714	2513.015192
969.281462	2470.165385
969.580172	2535.700385
969.878844	2588.632500
970.177480	2414.712692
970.476078	2490.330000
970.774639	2419.753846
971.073162	2538.220962
971.371649	2477.727115
971.670098	2502.932885
971.968510	2399.589231
972.266885	2444.959615
972.565223	2492.850577
972.863524	2472.685962
973.161788	2429.836154
973.460014	2455.041923
973.758204	2477.727115
974.056356	2530.659231
974.354471	2470.165385
974.652550	2510.494615
974.950591	2507.974038
975.248595	2538.220962
975.546563	2495.371154
975.844493	2490.330000
976.142386	2439.918462
976.440243	2422.274423
976.738062	2462.603654
977.035845	2422.274423
977.333590	2450.000769
977.631299	2565.947308
977.928971	2510.494615
978.226606	2485.288846
978.524204	2480.247692
978.821765	2565.947308
979.119290	2497.891731
979.416777	2485.288846
979.714228	2452.521346
980.011642	2419.753846
980.309020	2371.862885
980.606360	2507.974038
980.903664	2482.768269
981.200931	2550.823846
981.498162	2500.412308
981.795356	2550.823846
982.092513	2442.439038
982.389633	2450.000769
982.686717	2490.330000
982.983764	2419.753846
983.280775	2555.865000
983.577749	2475.206538
983.874686	2475.206538
984.171587	2550.823846
984.468451	2424.795000
984.765279	2523.097500
985.062070	2482.768269
985.358824	2513.015192
985.655543	2535.700385
985.952224	2533.179808
986.248869	2460.083077
986.545478	2480.247692
986.842050	2500.412308
987.138586	2492.850577
987.435086	2444.959615
987.731549	2465.124231
988.027975	2470.165385
988.324366	2444.959615
988.620719	2444.959615
988.917037	2538.220962
989.213318	2507.974038
989.509563	2475.206538
989.805772	2513.015192
990.101944	2442.439038
990.398080	2482.768269
990.694180	2513.015192
990.990244	2528.138654
991.286271	2429.836154
991.582262	2515.535769
991.878217	2550.823846
992.174136	2480.247692
992.470019	2588.632500
992.765865	2535.700385
993.061676	2472.685962
993.357450	2485.288846
993.653188	2485.288846
993.948890	2442.439038
994.244556	2472.685962
994.540186	2586.111923
994.835780	2457.562500
995.131337	2497.891731
995.426859	2460.083077
995.722345	2596.194231
996.017795	2427.315577
996.313208	2472.685962
996.608586	2583.591346
996.903928	2470.165385
997.199234	2487.809423
997.494504	2442.439038
997.789738	2394.548077
998.084936	2520.576923
998.380099	2470.165385
998.675225	2437.397885
998.970316	2495.371154
999.265371	2482.768269
999.560390	2485.288846
999.855373	2465.124231
1000.150320	2457.562500
1000.445232	2608.797115
1000.740108	2520.576923
1001.034948	2518.056346
1001.329752	2472.685962
1001.624521	2482.768269
1001.919254	2472.685962
1002.213951	2495.371154
1002.508613	2497.891731
1002.803239	2495.371154
1003.097829	2560.906154
1003.392384	2429.836154
1003.686903	2432.356731
1003.981386	2497.891731
1004.275834	2492.850577
1004.570246	2429.836154
1004.864623	2475.206538
1005.158964	2424.795000
1005.453270	2593.673654
1005.747540	2485.288846
1006.041775	2535.700385
1006.335974	2437.397885
1006.630138	2492.850577
1006.924266	2465.124231
1007.218359	2502.932885
1007.512416	2507.974038
1007.806438	2492.850577
1008.100425	2424.795000
1008.394376	2513.015192
1008.688292	2450.000769
1008.982172	2442.439038
1009.276017	2429.836154
1009.569827	2533.179808
1009.863602	2510.494615
1010.157341	2510.494615
1010.451045	2490.330000
1010.744714	2455.041923
1011.038347	2444.959615
1011.331945	2465.124231
1011.625508	2409.671538
1011.919036	2455.041923
1012.212528	2437.397885
1012.505986	2467.644808
1012.799408	2452.521346
1013.092795	2439.918462
1013.386147	2437.397885
1013.679464	2452.521346
1013.972745	2422.274423
1014.265992	2399.589231
1014.559204	2470.165385
1014.852380	2412.192115
1015.145521	2455.041923
1015.438628	2429.836154
1015.731699	2515.535769
1016.024736	2515.535769
1016.317737	2545.782692
1016.610703	2578.550192
1016.903635	2505.453462
1017.196531	2482.768269
1017.489393	2452.521346
1017.782219	2442.439038
1018.075011	2472.685962
1018.367768	2487.809423
1018.660490	2485.288846
1018.953177	2485.288846
1019.245829	2485.288846
