Dividing Wavelength (nm)	Counts (n)	Blue Motor Position (mm): 0.000000	Red Motor Position (mm): 47.500000	
326.493990	2124.700153
326.888308	2124.700153
327.282561	2124.700153
327.676750	2095.085894
328.070874	2093.041707
328.464933	2096.079002
328.858929	2102.466144
329.252859	2113.120622
329.646726	2125.249638
330.040528	2137.547533
330.434265	2156.320790
330.827938	2169.828562
331.221547	2188.269103
331.615091	2207.755683
332.008571	2227.925339
332.401986	2248.647002
332.795338	2266.283479
333.188625	2285.124792
333.581847	2304.568522
333.975006	2325.292705
334.368100	2340.564881
334.761129	2358.909640
335.154095	2376.271374
335.546996	2397.308109
335.939833	2420.840215
336.332606	2438.398554
336.725315	2449.980605
337.117960	2461.807152
337.510540	2468.653038
337.903056	2479.143680
338.295508	2488.184989
338.687896	2498.980620
339.080220	2505.178719
339.472480	2506.355828
339.864676	2514.908146
340.256807	2518.701614
340.648875	2521.280164
341.040879	2525.849970
341.432818	2528.189065
341.824694	2528.776360
342.216506	2529.656041
342.608253	2529.678726
342.999937	2526.931298
343.391557	2527.889117
343.783113	2528.035310
344.174605	2525.653365
344.566033	2523.803262
344.957397	2520.274454
345.348697	2522.026255
345.739934	2520.060205
346.131106	2513.960409
346.522215	2518.212622
346.913260	2513.325223
347.304241	2511.190295
347.695159	2512.185922
348.086012	2511.727178
348.476802	2505.652587
348.867528	2506.015550
349.258191	2504.634274
349.648789	2504.109994
350.039324	2500.845847
350.429796	2504.924140
350.820203	2498.128665
351.210548	2501.418018
351.600828	2496.147492
351.991045	2498.282420
352.381198	2499.681340
352.771288	2497.576659
353.161314	2496.593634
353.551276	2498.116062
353.941175	2497.974910
354.331010	2497.672441
354.720782	2498.206803
355.110490	2496.644045
355.500135	2498.632780
355.889717	2498.816783
356.279235	2497.127996
356.668689	2498.965497
357.058080	2498.998264
357.447408	2495.547594
357.836672	2496.646566
358.225873	2497.397698
358.615010	2497.526247
359.004084	2499.693943
359.393095	2498.161432
359.782043	2502.441372
360.170927	2501.506238
360.559748	2505.612258
360.948505	2504.583862
361.337199	2506.504542
361.725830	2502.292658
362.114398	2506.877588
362.502903	2506.542351
362.891344	2506.108812
363.279722	2504.848523
363.668037	2508.795747
364.056289	2508.067300
364.444478	2507.500170
364.832603	2506.960767
365.220665	2508.911693
365.608665	2512.339678
365.996601	2511.107116
366.384474	2512.304390
366.772284	2512.861437
367.160031	2517.630369
367.547715	2519.293949
367.935336	2519.586336
368.322893	2523.289064
368.710388	2525.575227
369.097820	2531.813655
369.485189	2536.335570
369.872495	2543.718340
370.259738	2549.041798
370.646918	2559.177038
371.034035	2563.721638
371.421090	2571.447207
371.808081	2583.866089
372.195010	2590.013776
372.581875	2606.556322
372.968678	2619.741460
373.355418	2627.530043
373.742096	2648.307159
374.128710	2663.428100
374.515262	2674.511076
374.901751	2691.799713
375.288177	2703.795139
375.674540	2729.376474
376.060841	2744.189905
376.447079	2767.028852
376.833254	2787.327058
377.219367	2797.931125
377.605417	2838.141889
377.991404	2843.230934
378.377329	2867.640201
378.763191	2883.517315
379.148991	2922.906370
379.534727	2948.349074
379.920402	2977.106336
380.306013	2987.717965
380.691563	3036.198741
381.077049	3060.865107
381.462474	3079.537541
381.847835	3120.307873
382.233134	3138.672796
382.618371	3139.993578
383.003545	3205.929350
383.388657	3217.171123
383.773706	3248.118767
384.158693	3263.756426
384.543618	3290.499747
384.928480	3323.025272
385.313280	3368.188969
385.698017	3368.945142
386.082692	3421.347936
386.467305	3429.882610
386.851856	3457.823205
387.236344	3483.301197
387.620770	3515.937627
388.005133	3539.343704
388.389435	3568.330338
388.773674	3578.697471
389.157851	3620.024851
389.541965	3633.008342
389.926018	3601.017180
390.310008	3673.330011
390.693936	3690.474976
391.077802	3733.637335
391.461606	3721.099985
391.845348	3784.744552
392.229027	3784.114408
392.612645	3796.331645
392.996200	3875.437431
393.379694	3913.039397
393.763125	3977.238492
394.146494	3945.322947
394.529801	4007.298892
394.913047	4057.120615
395.296230	4020.952857
395.679351	4076.410591
396.062410	4100.184672
396.445408	4082.250767
396.828343	4114.010037
397.211217	4134.575424
397.594028	4061.014907
397.976778	4125.251810
398.359466	4149.351046
398.742092	4182.337836
399.124656	4102.337245
399.507158	4186.141386
399.889598	4206.832802
400.271977	4269.448974
400.654294	4240.089294
401.036549	4250.012806
401.418742	4219.896953
401.800874	4321.082993
402.182944	4341.759285
402.564952	4406.260848
402.946898	4393.274836
403.328783	4389.952716
403.710606	4300.807472
404.092367	4495.128829
404.474067	4459.608859
404.855705	4467.377277
405.237282	4397.895054
405.618797	4506.695757
406.000250	4539.611971
406.381642	4620.020895
406.762972	4583.412036
407.144240	4593.829580
407.525447	4593.723716
407.906593	4657.814425
408.287677	4700.215570
408.668700	4626.249241
409.049661	4676.564997
409.430560	4719.848344
409.811399	4645.556860
410.192176	4803.607115
410.572891	4744.746603
410.953545	4850.560422
411.334138	4728.917380
411.714669	4797.666115
412.095139	4690.317265
412.475547	4834.005273
412.855894	4815.196728
413.236180	4822.307275
413.616405	4777.143578
413.996568	4861.388821
414.376670	4803.029903
414.756711	4760.580867
415.136691	4794.202843
415.516609	4872.794431
415.896466	4906.098814
416.276262	4943.234474
416.655997	4921.791926
417.035670	5102.928145
417.415283	5194.588925
417.794834	5137.109689
418.174324	5094.358184
418.553753	4998.233462
418.933121	5181.499569
419.312428	5249.373665
419.691674	5188.370662
420.070859	5314.694416
420.449983	5229.829111
420.829045	5344.570814
421.208047	5254.034211
421.586988	5321.822607
421.965867	5331.178989
422.344686	5466.632272
422.723444	5322.288914
423.102141	5139.085821
423.480777	5438.888282
423.859352	5205.586202
424.237866	5467.191840
424.616319	5458.490808
424.994712	5567.205812
425.373044	5442.875834
425.751314	5585.232978
426.129524	5392.476899
426.507673	5582.664510
426.885762	5664.172406
427.263789	5598.627324
427.641756	5481.745651
428.019662	5603.086224
428.397508	5609.707780
428.775292	5556.677362
429.153016	5654.475747
429.530679	5580.174180
429.908282	5666.511501
430.285824	5540.442326
430.663305	5813.319984
431.040726	5549.748296
431.418086	5546.126227
431.795385	5653.091950
432.172624	5667.890257
432.549802	5658.007075
432.926920	5670.836811
433.303977	5677.188665
433.680974	5718.405139
434.057910	5734.138580
434.434786	5742.859776
434.811601	5711.705446
435.188355	5945.899809
435.565050	5818.769471
435.941683	5797.730215
436.318257	6014.477146
436.694770	6000.934086
437.071222	6035.965064
437.447614	5967.788499
437.823946	5875.260641
438.200218	6031.677562
438.576429	5895.087499
438.952580	5995.345967
439.328670	6040.683584
439.704700	5950.535150
440.080670	5932.611328
440.456580	6206.076280
440.832429	6086.101859
441.208218	5938.857317
441.583947	6093.356080
441.959616	6093.101502
442.335224	6021.789339
442.710773	6157.829917
443.086261	6183.373443
443.461689	5977.288554
443.837057	6130.925279
444.212365	6280.458505
444.587612	6176.010838
444.962800	6331.348953
445.337927	6310.738195
445.712995	5922.037508
446.088002	6496.623182
446.462949	6330.401216
446.837837	6259.366317
447.212664	6429.351504
447.587431	6572.059008
447.962139	7109.584640
448.336786	8040.053090
448.711374	7784.174203
449.085901	6861.549788
449.460369	6778.920235
449.834776	6712.518157
450.209124	7101.828824
450.583412	7253.716269
450.957640	7400.739001
451.331808	7164.679410
451.705917	6718.565021
452.079965	6643.419061
452.453954	6851.384301
452.827883	6733.277628
453.201752	6820.648386
453.575562	6625.076823
453.949311	6827.370765
454.323001	6713.375153
454.696632	6791.490353
455.070202	6927.220899
455.443713	7082.566576
455.817164	7187.178080
456.190556	7262.974348
456.563888	7340.804723
456.937160	7383.067236
457.310373	7037.954885
457.683526	7062.976652
458.056619	6953.155115
458.429653	6943.990297
458.802628	6881.134671
459.175542	6985.605023
459.548398	7343.501740
459.921194	7505.680700
460.293930	7508.392841
460.666607	8037.623254
461.039224	8343.182712
461.411782	8465.334911
461.784280	8490.381884
462.156719	8382.082776
462.529099	8263.396370
462.901419	7850.296498
463.273680	7743.010662
463.645882	7758.650841
464.018024	7617.730427
464.390106	7791.493959
464.762130	8174.422525
465.134094	8631.670303
465.505999	9656.090737
465.877845	10880.423169
466.249631	11539.233921
466.621358	11156.252423
466.993026	10527.050887
467.364634	10270.801476
467.736184	9911.205890
468.107674	9575.916227
468.479105	9605.822872
468.850477	9373.284527
469.221790	9145.358838
469.593043	8817.552768
469.964238	8675.566150
470.335373	8682.845576
470.706449	8746.986697
471.077467	8726.655723
471.448425	10043.773112
471.819324	11108.636204
472.190164	11135.765173
472.560945	9887.257888
472.931667	9095.746323
473.302330	8959.398235
473.672934	8604.947146
474.043479	8963.181621
474.413965	8905.926716
474.784393	8784.775186
475.154761	8942.071789
475.525070	9035.070995
475.895321	8858.761681
476.265513	9032.845326
476.635645	9203.085091
477.005719	9198.336324
477.375734	9314.713881
477.745691	9554.907218
478.115588	9687.547537
478.485427	9929.432181
478.855207	10471.565428
479.224928	11275.884044
479.594591	11911.881055
479.964194	11719.387116
480.333739	11661.290338
480.703226	11582.794532
481.072653	11676.025631
481.442022	11903.011145
481.811333	12095.631113
482.180584	11905.050291
482.549777	11614.420210
482.918912	11436.104517
483.287988	11456.881632
483.657005	11473.998870
484.025964	11157.195118
484.394864	11286.949377
484.763706	11257.927454
485.132489	11020.166474
485.501213	10977.236008
485.869879	11051.293079
486.238487	10892.443801
486.607036	10996.969605
486.975527	10776.681264
487.343959	10970.564041
487.712333	11021.242761
488.080648	10944.697881
488.448905	10990.421146
488.817104	10930.658267
489.185244	11198.870337
489.553326	11348.194355
489.921350	11890.181408
490.289315	12950.235239
490.657222	13293.588227
491.025070	13199.260677
491.392861	13077.060587
491.760593	12701.242568
492.128267	12351.676358
492.495883	12028.394723
492.863440	11681.243225
493.230939	11339.107675
493.598380	11272.297263
493.965763	11151.347380
494.333088	11052.674355
494.700354	10968.051026
495.067563	11026.198215
495.434713	10857.559016
495.801805	10988.530713
496.168839	10912.096739
496.535815	10849.173057
496.902733	10848.588283
497.269593	10781.845926
497.636395	10873.715914
498.003139	10864.770387
498.369825	10736.712476
498.736453	10889.756866
499.103023	10821.146762
499.469535	10850.892090
499.835989	10834.901550
500.202385	10792.460076
500.568723	10647.012705
500.935003	10870.464370
501.301226	10679.848261
501.667390	10937.473907
502.033497	11030.563854
502.399546	10884.526668
502.765537	10801.571961
503.131470	10868.836077
503.497345	11047.141689
503.863163	10657.001751
504.228923	10969.470111
504.594625	11033.520491
504.960269	10782.801225
505.325856	11002.184679
505.691385	10795.260437
506.056856	10949.098808
506.422270	10978.634928
506.787625	10864.936745
507.152924	10984.212965
507.518164	10963.685387
507.883347	10882.578262
508.248472	10802.413834
508.613540	11037.868486
508.978550	10917.694940
509.343503	10900.454194
509.708398	11017.880311
510.073236	11123.963832
510.438016	11133.945317
510.802738	11078.694271
511.167403	11132.997580
511.532010	11031.947651
511.896561	11261.786458
512.261053	11341.439209
512.625488	11201.832015
512.989866	11179.285454
513.354186	11176.754795
513.718449	11075.435165
514.082655	11267.477920
514.446803	11168.124340
514.810894	11290.120263
515.174927	11152.244705
515.538904	11176.926194
515.902822	11331.835811
516.266684	11213.819879
516.630488	11160.416416
516.994235	11211.611853
517.357925	11275.800865
517.721558	11364.061387
518.085133	11377.536391
518.448651	11388.319419
518.812112	11277.759354
519.175516	11290.742845
519.538863	11408.705845
519.902152	11322.459265
520.265385	11486.198462
520.628560	11398.666387
520.991678	11374.781401
521.354739	11435.313055
521.717743	11372.969106
522.080690	11347.730569
522.443580	11486.637043
522.806413	11439.615680
523.169189	11471.385032
523.531908	11520.427897
523.894569	11344.809220
524.257174	11352.318019
524.619722	11471.916873
524.982213	11415.191290
525.344647	11468.625000
525.707025	11420.676065
526.069345	11516.924295
526.431608	11434.753487
526.793815	11540.549663
527.155964	11327.684421
527.518057	11382.234747
527.880093	11336.203971
528.242072	11395.689586
528.603995	11311.242697
528.965860	11231.842004
529.327669	11277.908068
529.689421	11227.055428
530.051117	11201.983250
530.412755	11305.009311
530.774337	11197.625172
531.135862	11177.659682
531.497331	11202.920904
531.858743	11049.944570
532.220098	11216.199303
532.581396	11096.159348
532.942638	11077.549929
533.303824	11037.492920
533.664953	11049.581607
534.026025	10960.534666
534.387040	11064.909235
534.747999	11058.053266
535.108902	11116.878490
535.469748	10874.721624
535.830537	10978.370268
536.191270	10958.692124
536.551947	10979.721297
536.912567	10981.543674
537.273131	10904.348485
537.633638	10886.079344
537.994089	10869.050326
538.354483	10822.293624
538.714821	10966.037085
539.075103	10975.111162
539.435328	10938.779566
539.795497	10770.258834
540.155609	10925.864130
540.515665	11012.128355
540.875665	10753.164282
541.235609	10815.273818
541.595496	10812.622171
541.955328	10970.695111
542.315102	10855.532472
542.674821	10799.595829
543.034483	10806.502210
543.394090	10806.928187
543.753640	10742.842519
544.113134	10963.703031
544.472571	10816.937398
544.831953	10960.902670
545.191278	10765.948648
545.550548	10796.687083
545.909761	10932.916704
546.268918	10901.742209
546.628019	10985.122893
546.987064	10853.090033
547.346053	10770.399987
547.704986	10878.799918
548.063863	10856.593635
548.422684	10851.703716
548.781449	10771.463670
549.140158	10866.955727
549.498811	10752.506411
549.857408	10606.340676
550.215949	10825.267905
550.574434	10680.632160
550.932864	10779.385843
551.291237	10838.332055
551.649555	10784.217789
552.007817	10802.413834
552.366022	10759.916907
552.724173	10753.557492
553.082267	10742.361089
553.440305	10877.474094
553.798288	10679.767602
554.156215	10834.271406
554.514086	10809.027828
554.871902	10652.542851
555.229661	10694.575992
555.587365	10669.113123
555.945014	10566.944058
556.302606	10692.373007
556.660143	10581.800339
557.017625	10743.331511
557.375050	10642.256376
557.732421	10772.466860
558.089735	10687.253716
558.446994	10687.077275
558.804197	10720.984076
559.161345	10729.831301
559.518437	10567.191075
559.875474	10661.778245
560.232455	10693.920642
560.589381	10641.895934
560.946251	10634.699687
561.303065	10748.871739
561.659825	10678.764412
562.016528	10610.237488
562.373177	10488.385238
562.729770	10604.977044
563.086307	10520.378920
563.442789	10617.504311
563.799216	10492.718109
564.155587	10537.493638
564.511904	10495.016875
564.868164	10484.569084
565.224370	10495.765487
565.580520	10421.249671
565.936615	10434.276013
566.292654	10294.878027
566.648638	10432.151166
567.004567	10383.904803
567.360441	10368.940138
567.716260	10274.877249
568.072023	10376.501869
568.427732	10328.865486
568.783385	10236.438451
569.138982	10306.399584
569.494525	10316.542385
569.850013	10197.344302
570.205445	10280.485532
570.560823	10178.341673
570.916145	10092.284136
571.271412	10165.370784
571.626625	10109.144275
571.981782	10078.229399
572.336884	10055.294669
572.691931	10064.303211
573.046923	10004.590744
573.401860	9966.643458
573.756743	9901.836905
574.111570	9945.553791
574.466342	9926.175596
574.821059	9958.910328
575.175722	9847.221044
575.530330	9856.983239
575.884882	9853.905614
576.239380	9775.334191
576.593823	9758.816850
576.948211	9763.394218
577.302544	9651.170571
577.656823	9666.982150
578.011047	9664.827057
578.365216	9642.091453
578.719330	9566.912726
579.073389	9576.579138
579.427394	9526.971664
579.781344	9499.726748
580.135239	9445.783881
580.489080	9463.879103
580.842866	9363.426551
581.196597	9367.046099
581.550273	9401.646059
581.903895	9374.323005
582.257463	9438.912789
582.610975	9319.865941
582.964434	9343.410650
583.317837	9260.783617
583.671186	9244.707378
584.024481	9239.774609
584.377721	9162.791148
584.730906	9141.378848
585.084037	9174.158950
585.437113	9102.599772
585.790135	9127.424934
586.143103	9032.316005
586.496016	8995.629008
586.848874	9057.761229
587.201679	9047.212614
587.554428	8925.032689
587.907124	8975.676121
588.259765	8951.851628
588.612352	8956.393707
588.964884	8827.756064
589.317362	8838.518927
589.669786	8845.392541
590.022155	8892.272751
590.374470	8910.625071
590.726731	8845.914300
591.078937	8693.968882
591.431090	8809.915420
591.783188	8680.589660
592.135232	8673.156478
592.487222	8672.806118
592.839157	8724.271258
593.191038	8663.273296
593.542866	8605.405891
593.894639	8499.929829
594.246358	8554.538128
594.598022	8569.084378
594.949633	8467.893297
595.301190	8444.971170
595.652692	8467.681568
596.004141	8582.027540
596.355535	8354.265689
596.706876	8338.348246
597.058162	8271.028677
597.409395	8350.091613
597.760573	8409.622599
598.111698	8311.620048
598.462768	8305.747104
598.813785	8273.128318
599.164748	8238.553564
599.515657	8230.076864
599.866511	8139.958677
600.217312	8266.252184
600.568060	8124.404197
600.918753	8230.366730
601.269392	8194.133437
601.619978	8108.418698
601.970510	8174.394799
602.320988	8168.927668
602.671412	8230.404539
603.021783	8164.226792
603.372100	8136.901217
603.722363	8139.968759
604.072572	8115.244420
604.422728	8124.109289
604.772830	8058.168477
605.122878	8063.617964
605.472872	8057.651758
605.822813	8080.541117
606.172701	8028.513889
606.522534	8110.520859
606.872314	8104.884849
607.222041	8075.149603
607.571714	8129.634394
607.921333	8090.227694
608.270899	8094.182480
608.620411	8189.798045
608.969870	8092.907068
609.319276	8086.076304
609.668627	8104.400898
610.017926	8132.787636
610.367171	8185.240842
610.716362	8158.900813
611.065500	8151.318917
611.414585	8175.846651
611.763616	8165.426586
612.112594	8145.438411
612.461518	8167.387595
612.810389	8226.003612
613.159207	8162.631267
613.507971	8110.374666
613.856682	8229.444199
614.205340	8184.154473
614.553945	8261.160618
614.902496	8162.288468
615.250994	8211.669091
615.599439	8190.324845
615.947830	8203.688944
616.296169	8181.538114
616.644454	8193.662089
616.992686	8187.786624
617.340864	8249.036643
617.688990	8154.696490
618.037063	8250.937158
618.385082	8190.801234
618.733048	8274.312989
619.080961	8213.584729
619.428821	8232.756237
619.776628	8238.508194
620.124382	8196.936318
620.472083	8168.370620
620.819731	8202.302627
621.167326	8098.414528
621.514868	8100.259591
621.862357	7992.751944
622.209793	8007.484716
622.557176	7941.785878
622.904506	7913.794872
623.251783	7843.800971
623.599007	7805.735218
623.946179	7812.286198
624.293297	7762.046058
624.640363	7680.114706
624.987376	7667.572315
625.334336	7615.033409
625.681243	7558.907723
626.028097	7544.379118
626.374899	7523.997733
626.721647	7517.698811
627.068343	7446.512678
627.414987	7420.742299
627.761577	7376.556586
628.108115	7414.473624
628.454600	7311.266082
628.801032	7353.624377
629.147412	7319.589027
629.493739	7300.563712
629.840014	7241.105823
630.186236	7300.084802
630.532405	7182.295722
630.878521	7228.210551
631.224585	7187.299067
631.570597	7113.441122
631.916556	7142.450442
632.262462	7142.901625
632.608316	7099.172136
632.954117	7076.693631
633.299866	7068.975625
633.645562	7057.824592
633.991206	6981.551935
634.336797	6919.959117
634.682336	6875.516305
635.027823	6846.423806
635.373257	6837.795871
635.718639	6776.785307
636.063968	6780.369567
636.409245	6680.027920
636.754470	6676.599936
637.099642	6634.324820
637.444762	6580.001346
637.789829	6592.024498
638.134845	6529.758686
638.479808	6514.728486
638.824719	6521.745772
639.169577	6449.069977
639.514383	6468.491023
639.859137	6399.386886
640.203839	6403.906280
640.548489	6389.728035
640.893086	6368.562751
641.237632	6340.143246
641.582125	6357.515062
641.926566	6330.751576
642.270955	6343.838412
642.615292	6336.821125
642.959576	6357.552871
643.303809	6341.499316
643.647990	6352.872159
643.992118	6338.409089
644.336195	6286.185256
644.680219	6310.745757
645.024192	6301.865765
645.368112	6394.920423
645.711981	6416.473877
646.055797	6497.588563
646.399562	6451.315812
646.743274	6581.392704
647.086935	6632.036136
647.430544	6627.337780
647.774101	6650.592623
648.117606	6651.333673
648.461059	6645.206150
648.804460	6605.678463
649.147810	6513.977354
649.491108	6487.428117
649.834354	6462.607996
650.177548	6376.787393
650.520690	6292.138858
650.863781	6269.985508
651.206820	6290.135000
651.549807	6213.769081
651.892742	6155.034597
652.235626	6161.699002
652.578458	6145.080839
652.921238	6055.123969
653.263967	6088.388023
653.606644	6029.739239
653.949269	6028.786461
654.291843	5975.433409
654.634365	6024.143558
654.976836	5976.867617
655.319255	5979.095807
655.661622	5952.579338
656.003938	5952.193690
656.346203	5911.430920
656.688416	5943.853101
657.030577	5896.209156
657.372687	5865.027099
657.714746	5850.984965
658.056753	5896.849382
658.398708	5836.617676
658.740612	5821.307692
659.082465	5874.144025
659.424266	5868.213108
659.766016	5867.043560
660.107715	5840.501885
660.449362	5857.044432
660.790958	5852.348597
661.132503	5836.935269
661.473996	5874.045723
661.815438	5862.980390
662.156829	5862.372931
662.498168	5848.918092
662.839456	5829.653322
663.180693	5864.631368
663.521879	5863.655905
663.863013	5853.815573
664.204097	5874.133943
664.545129	5911.965282
664.886110	5909.275827
665.227040	5944.548780
665.567918	5909.311115
665.908746	5935.608294
666.249522	5940.919149
666.590248	5926.526655
666.930922	5952.778464
667.271545	5968.325382
667.612118	5967.801102
667.952639	5948.241425
668.293109	5966.376976
668.633528	5924.311068
668.973896	5922.823928
669.314213	5917.634060
669.654480	5895.241254
669.994695	5894.538013
670.334859	5880.873966
670.674973	5874.859869
671.015035	5876.001691
671.355047	5875.248038
671.695008	5859.867478
672.034918	5832.483930
672.374777	5843.314849
672.714585	5829.413867
673.054342	5834.059291
673.394049	5823.709802
673.733705	5860.306058
674.073310	5849.835582
674.412864	5809.501310
674.752368	5795.565040
675.091820	5806.887471
675.431223	5739.257872
675.770574	5741.791052
676.109875	5692.969997
676.449125	5694.724319
676.788324	5664.674001
677.127473	5608.326504
677.466571	5597.692190
677.805619	5584.010498
678.144616	5572.788890
678.483562	5549.135796
678.822458	5522.034553
679.161303	5511.977451
679.500098	5503.551162
679.838842	5486.587679
680.177535	5491.439790
680.516179	5509.202296
680.854771	5517.653790
681.193314	5598.886943
681.531805	5710.631680
681.870247	5859.113825
682.208638	5967.276822
682.546978	5977.303677
682.885268	5954.132013
683.223508	5864.827973
683.561697	5814.434079
683.899836	5783.574655
684.237925	5741.927163
684.575963	5704.667995
684.913951	5662.960008
685.251889	5723.776488
685.589776	5692.659966
685.927614	5661.452703
686.265401	5735.663529
686.603137	5718.337083
686.940824	5793.296521
687.278460	5814.061033
687.616046	5826.343805
687.953582	5895.205966
688.291068	5877.443461
688.628504	5945.148677
688.965889	5905.994035
689.303224	5848.981106
689.640510	5797.712571
689.977745	5725.218258
690.314930	5624.669924
690.652065	5567.609104
690.989150	5476.543180
691.326185	5403.577520
691.663170	5348.535681
692.000105	5270.637252
692.336990	5192.464079
692.673825	5166.202188
693.010610	5098.078555
693.347345	5028.072052
693.684030	5016.517727
694.020665	4973.882169
694.357251	4879.753744
694.693786	4889.624323
695.030272	4857.348336
695.366707	4827.537472
695.703093	4788.965084
696.039429	4810.011901
696.375716	4795.085045
696.711952	4768.336682
697.048139	4752.484774
697.384276	4734.470211
697.720363	4744.451695
698.056400	4755.441411
698.392388	4706.426272
698.728326	4685.876008
699.064214	4664.045292
699.400053	4658.424405
699.735842	4622.581801
700.071581	4599.916773
700.407270	4573.612033
700.742910	4554.465730
701.078501	4502.861959
701.414042	4500.180065
701.749533	4470.694356
702.084974	4405.552566
702.420366	4462.220177
702.755709	4407.470725
703.091002	4346.424873
703.426246	4397.867327
703.761440	4354.117674
704.096584	4315.242816
704.431679	4334.885672
704.766725	4319.865554
705.101721	4308.039007
705.436668	4338.540508
705.771565	4285.827683
706.106413	4312.089574
706.441212	4350.793033
706.775961	4358.087582
707.110661	4338.913554
707.445311	4364.167214
707.779913	4385.203949
708.114465	4396.581833
708.448967	4418.266356
708.783421	4483.539216
709.117825	4526.510012
709.452180	4525.882388
709.786485	4572.714707
710.120742	4663.084952
710.454949	4641.491169
710.789107	4707.300912
711.123216	4786.744456
711.457275	4771.661323
711.791286	4850.701574
712.125247	4862.331516
712.459159	4767.832567
712.793023	4842.421479
713.126837	4798.689470
713.460602	4796.635199
713.794318	4712.301737
714.127985	4720.314651
714.461602	4640.024193
714.795171	4609.716777
715.128691	4545.270666
715.462162	4485.943847
715.795584	4433.848563
716.128957	4420.595369
716.462281	4367.522102
716.795556	4340.859439
717.128782	4301.286381
717.461960	4234.665013
717.795088	4245.437958
718.128167	4203.866083
718.461198	4145.270232
718.794180	4138.043738
719.127113	4118.572281
719.459997	4097.202830
719.792833	4053.246489
720.125619	4045.921692
720.458357	4005.093387
720.791046	4014.127135
721.123686	3986.486488
721.456278	3943.402267
721.788821	3963.161069
722.121315	3935.364147
722.453761	3912.086619
722.786158	3927.384001
723.118506	3945.824541
723.450805	3897.777304
723.783056	3918.761107
724.115259	3935.240639
724.447412	3937.967903
724.779518	3934.355916
725.111574	3940.228861
725.443582	3968.476966
725.775542	3956.252168
726.107453	4004.090197
726.439315	4001.695649
726.771129	4013.444058
727.102895	4052.336560
727.434612	4099.625104
727.766281	4111.562556
728.097901	4110.405612
728.429473	4118.642857
728.760996	4127.301039
729.092471	4118.274853
729.423897	4104.547791
729.755276	4112.467443
730.086606	4112.522896
730.417887	4149.706447
730.749120	4212.118452
731.080305	4274.805200
731.411442	4305.268893
731.742530	4274.769912
732.073570	4278.097074
732.404562	4333.519519
732.735506	4323.681707
733.066401	4288.401192
733.397249	4228.655957
733.728048	4144.879542
734.058798	4064.647058
734.389501	3994.572499
734.720156	3928.137653
735.050762	3885.567629
735.381320	3880.786095
735.711831	3828.204340
736.042293	3798.106131
736.372707	3821.542455
736.703073	3792.964154
737.033391	3784.608441
737.363661	3799.210143
737.693883	3826.160152
738.024056	3834.576358
738.354182	3830.961851
738.684260	3891.460738
739.014290	3913.488060
739.344272	3909.021598
739.674207	3947.057103
740.004093	3957.257878
740.333931	3953.096406
740.663722	3953.063638
740.993464	3949.741518
741.323159	3926.254782
741.652806	3894.288826
741.982405	3865.559290
742.311956	3841.175229
742.641460	3827.906912
742.970915	3804.828509
743.300323	3761.519957
743.629683	3727.877817
743.958996	3717.949264
744.288260	3691.866334
744.617477	3662.408352
744.946647	3646.165754
745.275768	3622.169862
745.604842	3616.148203
745.933869	3569.835123
746.262847	3560.907239
746.591778	3599.608177
746.920662	3567.284299
747.249498	3537.082746
747.578286	3583.912545
747.907027	3601.790997
748.235720	3603.426852
748.564365	3624.042650
748.892963	3627.473155
749.221514	3610.665948
749.550017	3584.381372
749.878473	3585.087134
750.206881	3553.625293
750.535242	3550.913152
750.863555	3551.384500
751.191821	3544.193294
751.520039	3525.314173
751.848210	3505.270545
752.176334	3540.994682
752.504411	3546.665980
752.832440	3504.350534
753.160421	3487.104747
753.488356	3497.101355
753.816243	3507.387830
754.144082	3465.757981
754.471875	3452.701393
754.799620	3473.332315
755.127318	3462.022486
755.454969	3464.152374
755.782572	3468.371819
756.110129	3444.683438
756.437638	3433.403856
756.765100	3445.429528
757.092515	3456.517546
757.419882	3462.950058
757.747203	3441.449537
758.074477	3436.572221
758.401703	3451.642750
758.728882	3475.467243
759.056014	3484.105261
759.383099	3486.439315
759.710138	3480.500836
760.037129	3498.679236
760.364073	3528.863145
760.690970	3515.988038
761.017820	3492.750839
761.344623	3512.335722
761.671379	3551.429870
761.998088	3606.630505
762.324751	3736.125144
762.651366	3976.777226
762.977935	4452.276501
763.304456	4891.227410
763.630931	4993.784644
763.957359	4635.068739
764.283740	4292.101399
764.610074	4097.550669
764.936362	3899.818971
765.262602	3740.271493
765.588796	3633.124289
765.914943	3541.692882
766.241044	3457.258596
766.567097	3425.048143
766.893104	3380.333109
767.219064	3345.077799
767.544978	3319.839263
767.870845	3263.126282
768.196665	3244.889908
768.522438	3251.002307
768.848165	3249.888212
769.173846	3213.307079
769.499479	3197.137578
769.825066	3180.710978
770.150607	3163.855880
770.476101	3179.932120
770.801548	3172.292251
771.126949	3127.259624
771.452303	3109.610544
771.777611	3118.833335
772.102872	3123.118316
772.428087	3098.338524
772.753256	3088.422575
773.078378	3081.397727
773.403453	3045.111501
773.728482	3032.579193
774.053465	3054.059549
774.378401	3044.433466
774.703291	3010.869464
775.028135	3013.385000
775.352932	3008.469875
775.677683	2994.475632
776.002388	2989.368943
776.327046	2993.482524
776.651658	2980.819146
776.976224	2972.725573
777.300743	2972.115594
777.625216	2962.479428
777.949643	2957.372739
778.274024	2958.408696
778.598359	2948.714558
778.922647	2954.229580
779.246889	2954.325362
779.571086	2939.920265
779.895236	2933.248298
780.219339	2944.079217
780.543397	2954.768983
780.867409	2959.795014
781.191374	2952.412244
781.515294	2945.644495
781.839167	2948.598611
782.162995	2939.554781
782.486776	2948.454938
782.810511	2946.589711
783.134201	2935.015222
783.457844	2940.590738
783.781441	2933.880962
784.104993	2911.157961
784.428498	2909.580080
784.751958	2925.462235
785.075372	2919.249013
785.398739	2905.615213
785.722061	2919.798499
786.045337	2932.421548
786.368568	2915.702562
786.691752	2906.252919
787.014891	2955.194961
787.337983	2986.719816
787.661030	3012.207890
787.984031	3078.799012
788.306987	3124.063532
788.629897	3120.459107
788.952760	3103.132662
789.275579	3089.236721
789.598351	3027.205323
789.921078	2985.605721
790.243759	2976.057776
790.566395	2957.433233
790.888984	2933.336518
791.211529	2916.864548
791.534027	2909.922879
791.856480	2899.666651
792.178888	2884.155021
792.501249	2876.651263
792.823566	2870.012064
793.145836	2866.470653
793.468062	2863.440920
793.790241	2862.014273
794.112375	2868.383771
794.434464	2882.141080
794.756507	2885.732902
795.078505	2891.484858
795.400457	2904.281828
795.722364	2944.303548
796.044226	2968.584265
796.366042	2969.605099
796.687812	2955.051288
797.009538	2976.365286
797.331218	2966.986220
797.652852	2949.511060
797.974442	2930.707556
798.295986	2931.022628
798.617484	2926.488110
798.938938	2910.817683
799.260346	2892.339334
799.581709	2885.904301
799.903026	2880.280894
800.224299	2876.265615
800.545526	2864.809593
800.866708	2849.197139
801.187845	2838.913186
801.508936	2838.444358
801.829983	2848.418281
802.150984	2838.005778
802.471940	2822.612615
802.792851	2824.767708
803.113717	2822.370639
803.434538	2829.312308
803.755314	2821.014569
804.076045	2816.863179
804.396731	2813.737663
804.717372	2814.980308
805.037967	2812.439566
805.358518	2814.198929
805.679024	2826.958089
805.999485	2825.876762
806.319901	2827.434478
806.640272	2819.449291
806.960598	2826.733758
807.280879	2835.747341
807.601115	2843.858557
807.921306	2827.139571
808.241453	2823.089004
808.561554	2829.841629
808.881611	2833.463698
809.201623	2827.240394
809.521590	2828.190651
809.841513	2821.990032
810.161390	2827.268120
810.481223	2820.394507
810.801011	2811.544761
811.120755	2809.276242
811.440453	2809.271201
811.760107	2811.234730
812.079716	2808.469657
812.399281	2797.782411
812.718801	2792.637914
813.038276	2788.904939
813.357707	2792.348047
813.677093	2799.037659
813.996434	2793.101700
814.315731	2790.177831
814.634983	2786.684311
814.954191	2787.039712
815.273354	2801.787608
815.592473	2805.596200
815.911547	2808.535192
816.230577	2818.748570
816.549562	2827.031186
816.868502	2824.356854
817.187399	2834.577793
817.506250	2853.351050
817.825058	2844.597087
818.143821	2858.193078
818.462539	2876.605893
818.781213	2902.880387
819.099843	2939.007816
819.418429	2994.984788
819.736970	3054.919066
820.055466	3126.745426
820.373919	3231.556056
820.692327	3374.187942
821.010691	3540.339332
821.329011	3979.872494
821.647286	4876.925657
821.965517	6259.915803
822.283704	7021.077102
822.601847	7004.650502
822.919945	6361.744590
823.237999	5853.205593
823.556010	5272.431902
823.873976	4718.366245
824.191897	4305.589006
824.509775	4007.742513
824.827609	3741.539343
825.145398	3617.887401
825.463144	3605.463478
825.780845	3690.948844
826.098502	3801.171152
826.416116	4078.734562
826.733685	4397.658119
827.051210	4463.074652
827.368692	4348.020398
827.686129	4081.875201
828.003522	3755.016868
828.320872	3499.269051
828.638177	3301.285296
828.955439	3165.254800
829.272656	3081.085175
829.589830	3012.462468
829.906960	2964.533698
830.224046	2921.638520
830.541088	2887.651061
830.858086	2868.963504
831.175041	2851.924404
831.491952	2854.971781
831.808819	2868.716487
832.125642	2889.793551
832.442421	2937.379523
832.759157	3019.804909
833.075849	3191.567103
833.392497	3475.384064
833.709101	3676.931916
834.025662	3629.358547
834.342179	3470.927684
834.658653	3296.395377
834.975083	3145.939619
835.291469	3051.060063
835.607811	2961.745940
835.924110	2903.898700
836.240366	2854.271061
836.556578	2809.913948
836.872746	2788.128602
837.188871	2766.398708
837.504952	2751.605442
837.820990	2741.813001
838.136984	2728.771536
838.452935	2721.923128
838.768842	2719.208467
839.084706	2736.005592
839.400526	2816.134732
839.716303	2947.088785
840.032037	3028.211033
840.347727	3013.090092
840.663373	2952.651699
840.978977	2878.461038
841.294537	2805.961683
841.610054	2757.430495
841.925527	2733.260683
842.240957	2714.232848
842.556344	2692.054292
842.871687	2677.780265
843.186987	2663.758295
843.502244	2664.403563
843.817458	2657.116575
844.132629	2647.503095
844.447756	2637.745941
844.762840	2632.573717
845.077881	2632.742596
845.392879	2632.253604
845.707833	2629.032307
846.022745	2619.212139
846.337613	2624.618777
846.652438	2622.861935
846.967221	2622.075515
847.281960	2619.239866
847.596656	2619.703652
847.911309	2616.507560
848.225919	2614.667539
848.540485	2611.385748
848.855009	2612.940944
849.169490	2613.056890
849.483928	2610.044801
849.798323	2612.167127
850.112675	2610.977414
850.426984	2609.533124
850.741251	2608.555140
851.055474	2610.881632
851.369654	2613.697117
851.683792	2614.249123
851.997887	2609.326437
852.311938	2608.330809
852.625947	2610.080089
852.939914	2614.402878
853.253837	2613.603856
853.567718	2609.457507
853.881555	2609.276025
854.195350	2612.053701
854.509103	2613.926489
854.822812	2608.875253
855.136479	2605.888370
855.450103	2608.877774
855.763685	2612.131839
856.077224	2608.976076
856.390720	2605.197732
856.704173	2611.022785
857.017584	2612.817436
857.330953	2615.554782
857.644278	2619.128960
857.957561	2617.316665
858.270802	2613.061932
858.584000	2614.052518
858.897155	2615.569906
859.210268	2616.195009
859.523339	2612.033536
859.836367	2609.492795
860.149352	2608.585387
860.462295	2606.384923
860.775195	2607.758638
861.088054	2605.270828
861.400869	2604.817124
861.713642	2603.753441
862.026373	2604.612958
862.339062	2606.223606
862.651708	2609.805346
862.964312	2612.761983
863.276873	2611.468927
863.589392	2612.209977
863.901869	2618.682818
864.214303	2622.904784
864.526696	2626.824282
864.839045	2626.610032
865.151353	2628.838222
865.463619	2628.346710
865.775842	2629.181021
866.088023	2629.917029
866.400162	2629.720424
866.712258	2629.407873
867.024313	2627.688839
867.336325	2625.425361
867.648296	2628.286216
867.960224	2633.702936
868.272110	2632.949283
868.583954	2623.998715
868.895755	2625.319497
869.207515	2630.378295
869.519233	2636.621764
869.830909	2633.133286
870.142542	2627.204889
870.454134	2629.985085
870.765684	2636.531023
871.077191	2636.334418
871.388657	2641.252064
871.700081	2639.762403
872.011463	2642.905562
872.322803	2642.935809
872.634101	2644.004534
872.945357	2651.490647
873.256571	2656.882161
873.567744	2654.681698
873.878874	2653.592808
874.189963	2655.049702
874.501010	2658.560866
874.812015	2662.172852
875.122979	2663.496155
875.433900	2653.998621
875.744780	2654.858138
876.055618	2660.675630
876.366415	2665.192503
876.677169	2664.748882
876.987882	2655.974754
877.298554	2658.308808
877.609183	2668.166784
877.919771	2673.122238
878.230317	2680.073990
878.540822	2693.397759
878.851285	2705.801518
879.161707	2729.144581
879.472087	2768.674789
879.782425	2816.734629
880.092722	2928.892741
880.402977	3120.499437
880.713191	3380.169271
881.023363	3680.296886
881.333494	3877.486660
881.643583	4045.994789
881.953631	4042.851629
882.263637	3866.922922
882.573602	3645.374293
882.883526	3512.219776
883.193408	3395.638052
883.503248	3294.091569
883.813048	3176.368024
884.122806	3059.463666
884.432522	2975.097436
884.742197	2911.283990
885.051831	2870.964842
885.361424	2838.451920
885.670975	2800.000519
885.980485	2771.177722
886.289954	2752.880854
886.599382	2737.591034
886.908768	2727.629714
887.218113	2706.839996
887.527417	2695.172245
887.836680	2687.953313
888.145901	2681.241017
888.455082	2672.300530
888.764221	2663.362565
889.073319	2654.800165
889.382376	2652.801347
889.691392	2655.538694
890.000366	2657.971051
890.309300	2649.716161
890.618193	2652.786224
890.927044	2659.430465
891.235855	2659.218736
891.544625	2655.644558
891.853353	2657.771925
892.162041	2665.862977
892.470687	2686.188909
892.779293	2697.508820
893.087858	2709.461396
893.396381	2729.356310
893.704864	2770.978596
894.013306	2842.096674
894.321707	2932.245108
894.630068	2990.687204
894.938387	3006.922240
895.246665	2998.221209
895.554903	2957.029941
895.863100	2908.690317
896.171256	2852.768797
896.479371	2794.225877
896.787446	2754.773807
897.095480	2734.468040
897.403473	2725.903119
897.711425	2711.750080
898.019336	2692.389528
898.327207	2681.349402
898.635038	2679.131294
898.942827	2675.783968
899.250576	2667.728204
899.558284	2657.366112
899.865952	2650.918476
900.173579	2648.445790
900.481165	2647.760193
900.788711	2639.601086
901.096216	2630.804272
901.403681	2628.371916
901.711105	2631.053810
902.018489	2627.013325
902.325832	2630.900054
902.633135	2634.103708
902.940397	2646.010913
903.247619	2682.987777
903.554800	2753.775659
903.861941	2883.867675
904.169041	3014.115967
904.476101	3077.712643
904.783121	3071.237281
905.090100	3009.261336
905.397039	2936.414142
905.703938	2861.847915
906.010796	2796.131433
906.317614	2744.018506
906.624391	2706.945860
906.931129	2680.593228
907.237826	2656.458704
907.544483	2638.393730
907.851099	2625.591719
908.157675	2614.811212
908.464211	2607.942640
908.770707	2595.019642
909.077163	2595.611978
909.383578	2590.961513
909.689954	2587.621749
909.996289	2588.761049
910.302584	2587.392376
910.608839	2583.349371
910.915054	2585.239803
911.221229	2586.613518
911.527363	2589.605443
911.833458	2584.670153
912.139513	2586.711820
912.445527	2589.338262
912.751502	2596.663058
913.057436	2602.178080
913.363331	2607.504059
913.669186	2616.681480
913.975000	2632.142699
914.280775	2651.135246
914.586510	2668.633091
914.892205	2707.938967
915.197859	2773.247116
915.503475	2856.148891
915.809050	2927.163625
916.114585	2942.982766
916.420081	2954.164045
916.725536	2963.830457
917.030952	2936.336004
917.336328	2888.624004
917.641665	2840.672548
917.946961	2788.168931
918.252218	2754.541914
918.557435	2729.860425
918.862612	2707.162630
919.167750	2688.230577
919.472848	2671.650222
919.777906	2654.767397
920.082925	2642.005716
920.387904	2629.687657
920.692843	2631.754530
920.997743	2622.020062
921.302603	2616.305914
921.607423	2608.633278
921.912204	2604.446600
922.216946	2600.615323
922.521647	2598.719849
922.826310	2593.477049
923.130932	2588.698035
923.435516	2585.973291
923.740059	2580.246541
924.044564	2578.923238
924.349028	2578.159503
924.653454	2570.053328
924.957840	2568.848492
925.262186	2566.464026
925.566493	2568.311609
925.870761	2563.088973
926.174989	2565.866649
926.479178	2562.148798
926.783328	2558.372974
927.087438	2558.562017
927.391509	2558.405742
927.695541	2554.607232
927.999533	2557.889023
928.303486	2555.217212
928.607400	2555.461708
928.911275	2553.639331
929.215110	2550.216387
929.518906	2550.899463
929.822663	2554.478683
930.126381	2554.592109
930.430060	2553.926676
930.733699	2551.988353
931.037299	2554.256872
931.340861	2553.848538
931.644383	2555.323076
931.947866	2552.189999
932.251309	2553.820812
932.554714	2554.203940
932.858080	2552.202602
933.161407	2553.019269
933.464694	2552.691594
933.767943	2551.363250
934.071153	2551.753939
934.374323	2551.176727
934.677455	2550.594474
934.980548	2552.565565
935.283602	2550.367622
935.586617	2549.210677
935.889593	2552.623538
936.192530	2550.581871
936.495428	2548.618341
936.798287	2551.529608
937.101108	2552.338713
937.403890	2553.399876
937.706632	2558.473797
938.009336	2565.138203
938.312002	2566.126269
938.614628	2569.092988
938.917216	2572.130283
939.219765	2573.206569
939.522275	2575.255798
939.824747	2574.048442
940.127179	2571.270766
940.429573	2565.571742
940.731929	2566.637946
941.034246	2564.573593
941.336524	2565.657441
941.638763	2564.288768
941.940964	2564.442523
942.243126	2560.540670
942.545250	2564.034190
942.847335	2558.509085
943.149381	2561.437996
943.451389	2557.160577
943.753359	2554.955072
944.055290	2555.670916
944.357182	2555.433981
944.659036	2555.799465
944.960851	2556.114537
945.262628	2553.185627
945.564367	2556.928683
945.866067	2553.508261
946.167729	2555.010524
946.469352	2557.687377
946.770937	2555.043292
947.072484	2554.766028
947.373992	2554.690411
947.675462	2554.042623
947.976893	2553.505740
948.278286	2552.552962
948.579641	2551.469114
948.880958	2550.884340
949.182236	2550.458363
949.483476	2551.670760
949.784678	2551.786707
950.085841	2546.823691
950.386967	2552.074052
950.688054	2550.576830
950.989103	2553.094886
951.290114	2553.825853
951.591087	2553.722510
951.892021	2554.140925
952.192917	2557.180741
952.493776	2558.551935
952.794596	2557.926832
953.095378	2560.913716
953.396122	2560.223077
953.696828	2556.739640
953.997496	2556.850546
954.298126	2550.735626
954.598718	2555.043292
954.899272	2550.067673
955.199788	2550.231511
955.500266	2548.167158
955.800706	2545.366797
956.101108	2539.672814
956.401472	2541.845551
956.701798	2540.282793
957.002087	2541.517876
957.302337	2542.546272
957.602550	2543.534338
957.902724	2539.821528
958.202861	2537.570653
958.502960	2540.638195
958.803022	2539.645088
959.103045	2540.993596
959.403031	2538.649460
959.702979	2539.932433
960.002889	2536.070909
960.302762	2537.991589
960.602596	2537.883204
960.902393	2536.653163
961.202153	2537.527803
961.501875	2535.324819
961.801559	2534.576207
962.101205	2534.470343
962.400814	2537.255581
962.700385	2535.380271
962.999918	2534.798018
963.299414	2534.346835
963.598873	2538.301620
963.898293	2535.740714
964.197677	2534.505631
964.497022	2535.833975
964.796331	2533.956145
965.095601	2534.588810
965.394835	2535.120652
965.694030	2535.579397
965.993189	2536.136444
966.292309	2535.997813
966.591393	2535.965045
966.890439	2534.780374
967.189447	2533.247863
967.488419	2532.960517
967.787353	2535.896990
968.086249	2535.324819
968.385108	2532.363141
968.683930	2535.390354
968.982714	2537.827752
969.281462	2535.007226
969.580172	2532.267359
969.878844	2534.495549
970.177480	2537.074099
970.476078	2536.446475
970.774639	2537.200128
971.073162	2537.643749
971.371649	2534.369520
971.670098	2536.106198
971.968510	2535.592000
972.266885	2530.790301
972.565223	2536.829603
972.863524	2537.550488
973.161788	2534.281300
973.460014	2534.999664
973.758204	2535.314736
974.056356	2534.994623
974.354471	2535.541588
974.652550	2534.742565
974.950591	2535.632329
975.248595	2535.541588
975.546563	2535.818852
975.844493	2536.121321
976.142386	2535.425642
976.440243	2534.495549
976.738062	2536.648122
977.035845	2535.231557
977.333590	2533.212575
977.631299	2534.046886
977.928971	2534.223327
978.226606	2533.855322
978.524204	2535.458409
978.821765	2533.114273
979.119290	2533.172246
979.416777	2533.262987
979.714228	2535.052596
980.011642	2533.941022
980.309020	2535.123173
980.606360	2532.506814
980.903664	2534.699716
981.200931	2536.464119
981.498162	2535.602082
981.795356	2538.775488
982.092513	2542.079965
982.389633	2545.208001
982.686717	2547.380738
982.983764	2548.094061
983.280775	2552.394166
983.577749	2550.201264
983.874686	2548.930893
984.171587	2546.881664
984.468451	2540.807073
984.765279	2541.964018
985.062070	2539.723225
985.358824	2537.857998
985.655543	2536.600231
985.952224	2537.684079
986.248869	2534.951773
986.545478	2527.632018
986.842050	2533.739376
987.138586	2527.412728
987.435086	2532.012781
987.731549	2527.710156
988.027975	2532.494211
988.324366	2531.468336
988.620719	2532.237112
988.917037	2530.006401
989.213318	2531.450692
989.509563	2530.175280
989.805772	2531.543953
990.101944	2529.824920
990.398080	2530.684437
990.694180	2530.540764
990.990244	2532.058151
991.286271	2532.857174
991.582262	2529.424148
991.878217	2532.201824
992.174136	2531.264169
992.470019	2530.117307
992.765865	2531.387678
993.061676	2531.561597
993.357450	2530.379447
993.653188	2533.096629
993.948890	2527.755526
994.244556	2534.258615
994.540186	2535.029911
994.835780	2532.826927
995.131337	2532.267359
995.426859	2530.379447
995.722345	2535.445806
996.017795	2532.685775
996.313208	2538.447813
996.608586	2535.047555
996.903928	2535.513862
997.199234	2534.682072
997.494504	2533.522606
997.789738	2534.157792
998.084936	2531.599406
998.380099	2534.099818
998.675225	2532.237112
998.970316	2532.138809
999.265371	2530.576052
999.560390	2530.069416
999.855373	2532.005219
1000.150320	2531.974972
1000.445232	2532.731145
1000.740108	2529.512368
1001.034948	2531.846422
1001.329752	2530.835671
1001.624521	2531.138140
1001.919254	2526.049096
1002.213951	2529.361134
1002.508613	2527.316946
1002.803239	2528.690660
1003.097829	2526.283509
1003.392384	2533.013450
1003.686903	2528.138654
1003.981386	2531.690147
1004.275834	2529.257790
1004.570246	2530.359282
1004.864623	2528.993129
1005.158964	2528.325177
1005.453270	2528.557070
1005.747540	2530.901206
1006.041775	2527.589168
1006.335974	2530.243336
1006.630138	2530.666793
1006.924266	2530.941535
1007.218359	2532.683254
1007.512416	2526.548170
1007.806438	2527.644621
1008.100425	2528.887265
1008.394376	2531.002029
1008.688292	2525.388704
1008.982172	2528.431041
1009.276017	2529.293078
1009.569827	2527.677388
1009.863602	2528.995650
1010.157341	2528.151257
1010.451045	2528.529343
1010.744714	2528.057995
1011.038347	2531.175949
1011.331945	2526.202851
1011.625508	2526.777542
1011.919036	2531.165867
1012.212528	2528.438602
1012.505986	2528.607481
1012.799408	2527.753006
1013.092795	2526.704446
1013.386147	2527.488345
1013.679464	2529.827440
1013.972745	2528.395753
1014.265992	2528.249559
1014.559204	2529.101514
1014.852380	2527.082532
1015.145521	2528.690660
1015.438628	2527.253931
1015.731699	2529.827440
1016.024736	2528.582275
1016.317737	2529.343490
1016.610703	2530.742410
1016.903635	2526.328880
1017.196531	2525.718900
1017.489393	2527.639580
1017.782219	2523.387366
1018.075011	2526.606143
1018.367768	2527.931967
1018.660490	2527.591689
1018.953177	2527.591689
1019.245829	2527.591689
