Dividing Wavelength (nm)	Counts (n)	Blue Motor Position (mm): 0.000000	Red Motor Position (mm): 45.900000	
326.493990	2129.582510
326.888308	2129.582510
327.282561	2129.582510
327.676750	2093.142530
328.070874	2093.873497
328.464933	2097.240988
328.858929	2102.587131
329.252859	2111.265478
329.646726	2123.981788
330.040528	2137.875208
330.434265	2154.531181
330.827938	2168.026349
331.221547	2188.884123
331.615091	2210.026723
332.008571	2228.772253
332.401986	2248.130284
332.795338	2265.481936
333.188625	2284.562703
333.581847	2305.153296
333.975006	2324.982674
334.368100	2340.801815
334.761129	2359.887624
335.154095	2376.694831
335.546996	2397.391288
335.939833	2422.899526
336.332606	2437.476023
336.725315	2448.732919
337.117960	2458.981585
337.510540	2467.531382
337.903056	2477.903556
338.295508	2485.205667
338.687896	2492.548108
339.080220	2503.500014
339.472480	2511.482682
339.864676	2513.189112
340.256807	2516.118022
340.648875	2519.220853
341.040879	2522.076666
341.432818	2525.035824
341.824694	2527.226205
342.216506	2527.279137
342.608253	2527.790814
342.999937	2527.291740
343.391557	2525.534898
343.783113	2527.019518
344.174605	2523.765453
344.566033	2523.911646
344.957397	2522.038858
345.348697	2521.456604
345.739934	2517.000224
346.131106	2516.533918
346.522215	2518.593229
346.913260	2510.827332
347.304241	2512.412774
347.695159	2507.507732
348.086012	2509.342712
348.476802	2505.007319
348.867528	2507.474964
349.258191	2504.702330
349.648789	2503.678975
350.039324	2503.346259
350.429796	2501.173522
350.820203	2501.138234
351.210548	2499.154540
351.600828	2497.064982
351.991045	2496.666730
352.381198	2496.581031
352.771288	2495.287975
353.161314	2500.059427
353.551276	2499.177225
353.941175	2495.154384
354.331010	2493.939466
354.720782	2495.703870
355.110490	2494.201606
355.500135	2496.008860
355.889717	2497.027173
356.279235	2496.223109
356.668689	2500.127483
357.058080	2497.987513
357.447408	2494.123468
357.836672	2492.026348
358.225873	2495.161946
358.615010	2494.584734
359.004084	2496.616319
359.393095	2501.223933
359.782043	2501.549088
360.170927	2501.400374
360.559748	2501.894407
360.948505	2503.414315
361.337199	2503.741990
361.725830	2502.867350
362.114398	2506.118894
362.502903	2504.392299
362.891344	2504.510766
363.279722	2505.564367
363.668037	2507.646363
364.056289	2506.892711
364.444478	2507.875736
364.832603	2507.207783
365.220665	2510.101405
365.608665	2509.186436
365.996601	2512.206087
366.384474	2512.425377
366.772284	2513.864627
367.160031	2514.570388
367.547715	2517.549710
367.935336	2517.474093
368.322893	2521.360823
368.710388	2529.192255
369.097820	2533.895652
369.485189	2535.796167
369.872495	2541.243133
370.259738	2547.410985
370.646918	2553.407437
371.034035	2563.724159
371.421090	2572.364697
371.808081	2581.116140
372.195010	2591.821030
372.581875	2607.246961
372.968678	2619.018055
373.355418	2629.571710
373.742096	2646.260450
374.128710	2661.315856
374.515262	2674.425377
374.901751	2689.778211
375.288177	2703.076775
375.674540	2726.160218
376.060841	2747.063362
376.447079	2764.815786
376.833254	2784.430915
377.219367	2797.122020
377.605417	2837.526868
377.991404	2844.665142
378.377329	2866.644573
378.763191	2884.018910
379.148991	2922.934097
379.534727	2948.583488
379.920402	2974.532827
380.306013	2987.924652
380.691563	3039.178063
381.077049	3060.119016
381.462474	3076.825400
381.847835	3114.603807
382.233134	3137.972076
382.618371	3136.074081
383.003545	3203.287786
383.388657	3208.545709
383.773706	3245.661204
384.158693	3262.632249
384.543618	3288.700055
384.928480	3325.447546
385.313280	3368.922457
385.698017	3366.376674
386.082692	3420.954726
386.467305	3425.365736
386.851856	3456.487299
387.236344	3482.199704
387.620770	3511.597193
388.005133	3537.856563
388.389435	3568.360585
388.773674	3576.194538
389.157851	3621.837145
389.541965	3636.146461
389.926018	3600.639093
390.310008	3670.232222
390.693936	3687.838452
391.077802	3728.916294
391.461606	3718.365159
391.845348	3785.127680
392.229027	3781.487967
392.612645	3794.688228
392.996200	3874.338459
393.379694	3911.128800
393.763125	3979.887618
394.146494	3944.039973
394.529801	4007.750075
394.913047	4053.780851
395.296230	4024.469062
395.679351	4077.320519
396.062410	4096.706276
396.445408	4080.314964
396.828343	4117.254019
397.211217	4137.244715
397.594028	4057.730595
397.976778	4124.866161
398.359466	4152.564781
398.742092	4179.524872
399.124656	4102.329683
399.507158	4180.523020
399.889598	4206.379098
400.271977	4267.573665
400.654294	4242.960231
401.036549	4247.499790
401.418742	4219.044998
401.800874	4321.072910
402.182944	4343.415304
402.564952	4407.861415
402.946898	4397.360691
403.328783	4391.616297
403.710606	4304.910971
404.092367	4496.061442
404.474067	4459.843273
404.855705	4469.350889
405.237282	4398.560486
405.618797	4503.592926
406.000250	4540.486611
406.381642	4623.141369
406.762972	4582.323147
407.144240	4589.516873
407.525447	4591.530814
407.906593	4653.751255
408.287677	4693.107543
408.668700	4622.617089
409.049661	4675.687836
409.430560	4717.592428
409.811399	4643.716839
410.192176	4802.142660
410.572891	4744.287858
410.953545	4846.827448
411.334138	4729.076176
411.714669	4792.536741
412.095139	4691.111247
412.475547	4833.549048
412.855894	4810.954597
413.236180	4825.707534
413.616405	4777.607364
413.996568	4862.432339
414.376670	4801.779697
414.756711	4754.506277
415.136691	4791.684786
415.516609	4867.738154
415.896466	4905.796345
416.276262	4939.493938
416.655997	4922.046504
417.035670	5103.258341
417.415283	5197.724523
417.794834	5140.938445
418.174324	5093.912042
418.553753	4998.241024
418.933121	5185.338408
419.312428	5251.377523
419.691674	5192.907700
420.070859	5314.520496
420.449983	5229.299790
420.829045	5337.518240
421.208047	5252.083285
421.586988	5321.716743
421.965867	5329.820398
422.344686	5464.588084
422.723444	5317.567873
423.102141	5136.318228
423.480777	5437.786790
423.859352	5207.970668
424.237866	5464.812415
424.616319	5459.345284
424.994712	5570.963992
425.373044	5444.975475
425.751314	5586.120221
426.129524	5391.261981
426.507673	5583.329942
426.885762	5664.195091
427.263789	5598.334937
427.641756	5480.913861
428.019662	5602.725782
428.397508	5609.717862
428.775292	5554.416404
429.153016	5655.594883
429.530679	5577.751906
429.908282	5665.906563
430.285824	5533.851017
430.663305	5809.612215
431.040726	5541.296802
431.418086	5546.421134
431.795385	5653.278472
432.172624	5663.874978
432.549802	5660.391541
432.926920	5671.789589
433.303977	5677.891906
433.680974	5714.989757
434.057910	5734.191512
434.434786	5743.381536
434.811601	5709.479776
435.188355	5948.251508
435.565050	5816.072454
435.941683	5799.570237
436.318257	6015.324059
436.694770	5997.788406
437.071222	6031.178488
437.447614	5963.420339
437.823946	5870.937852
438.200218	6031.821235
438.576429	5896.259567
438.952580	5992.941336
439.328670	6040.670981
439.704700	5947.218071
440.080670	5933.047388
440.456580	6207.175251
440.832429	6087.097487
441.208218	5932.202994
441.583947	6084.710501
441.959616	6090.301141
442.335224	6017.809348
442.710773	6155.727756
443.086261	6182.702970
443.461689	5978.488348
443.837057	6126.945288
444.212365	6287.211130
444.587612	6174.228790
444.962800	6329.251833
445.337927	6309.485469
445.712995	5918.087763
446.088002	6496.035887
446.462949	6326.322922
446.837837	6257.879177
447.212664	6427.498880
447.587431	6571.670839
447.962139	7117.012780
448.336786	8032.498921
448.711374	7784.005325
449.085901	6854.812286
449.460369	6777.601974
449.834776	6711.822478
450.209124	7099.847651
450.583412	7255.115189
450.957640	7400.703713
451.331808	7163.966087
451.705917	6718.335648
452.079965	6637.946889
452.453954	6860.007195
452.827883	6730.346198
453.201752	6821.296175
453.575562	6620.388550
453.949311	6823.383212
454.323001	6714.486728
454.696632	6789.622605
455.070202	6926.074037
455.443713	7077.197747
455.817164	7179.071904
456.190556	7263.390243
456.563888	7339.030236
456.937160	7380.105558
457.310373	7041.513939
457.683526	7063.974800
458.056619	6949.679240
458.429653	6943.080369
458.802628	6878.578806
459.175542	6979.868189
459.548398	7340.867737
459.921194	7501.844382
460.293930	7507.447625
460.666607	8034.583438
461.039224	8341.418308
461.411782	8471.757341
461.784280	8488.751071
462.156719	8376.540027
462.529099	8259.267665
462.901419	7847.027309
463.273680	7738.309786
463.645882	7749.831343
464.018024	7616.563400
464.390106	7786.357023
464.762130	8171.730549
465.134094	8638.322105
465.505999	9656.541921
465.877845	10882.046421
466.249631	11535.357274
466.621358	11153.971300
466.993026	10520.850268
467.364634	10271.383729
467.736184	9902.262883
468.107674	9569.287109
468.479105	9604.428993
468.850477	9367.076346
469.221790	9140.136203
469.593043	8816.047984
469.964238	8673.970625
470.335373	8686.442439
470.706449	8743.220955
471.077467	8721.211277
471.448425	10027.908601
471.819324	11103.002714
472.190164	11136.143260
472.560945	9887.552796
472.931667	9093.777752
473.302330	8957.376732
473.672934	8609.476623
474.043479	8964.900654
474.413965	8902.430676
474.784393	8782.965412
475.154761	8936.486191
475.525070	9028.610757
475.895321	8849.906894
476.265513	9032.668885
476.635645	9200.539308
477.005719	9202.870842
477.375734	9314.597935
477.745691	9552.159789
478.115588	9684.356487
478.485427	9925.245503
478.855207	10464.011259
479.224928	11277.716504
479.594591	11909.993143
479.964194	11724.345091
480.333739	11661.829742
480.703226	11583.033987
481.072653	11667.284270
481.442022	11907.583471
481.811333	12097.652615
482.180584	11900.132646
482.549777	11613.202772
482.918912	11432.810123
483.287988	11455.429780
483.657005	11470.691873
484.025964	11150.165229
484.394864	11280.436206
484.763706	11251.124417
485.132489	11000.884061
485.501213	10972.421706
485.869879	11049.599251
486.238487	10888.186546
486.607036	10999.573361
486.975527	10779.320308
487.343959	10972.023455
487.712333	11012.577017
488.080648	10946.537902
488.448905	10989.385189
488.817104	10928.672053
489.185244	11199.134998
489.553326	11352.917916
489.921350	11889.231151
490.289315	12953.741361
490.657222	13291.917085
491.025070	13200.861243
491.392861	13079.200557
491.760593	12702.858258
492.128267	12347.950945
492.495883	12019.492045
492.863440	11684.885459
493.230939	11344.201761
493.598380	11280.902513
493.965763	11143.883952
494.333088	11045.810824
494.700354	10968.305604
495.067563	11028.398679
495.434713	10859.404078
495.801805	10989.188584
496.168839	10910.057592
496.535815	10845.840854
496.902733	10844.131903
497.269593	10778.485997
497.636395	10884.461133
498.003139	10863.507578
498.369825	10732.014121
498.736453	10889.023378
499.103023	10817.265073
499.469535	10842.301964
499.835989	10837.860707
500.202385	10798.733792
500.568723	10645.941460
500.935003	10866.043278
501.301226	10675.883393
501.667390	10933.491396
502.033497	11031.798937
502.399546	10890.465148
502.765537	10797.057608
503.131470	10869.405728
503.497345	11050.441124
503.863163	10661.795889
504.228923	10972.595626
504.594625	11044.253107
504.960269	10781.815679
505.325856	11005.486634
505.691385	10797.294542
506.056856	10946.288365
506.422270	10980.754734
506.787625	10865.597136
507.152924	10986.196659
507.518164	10958.533328
507.883347	10883.125228
508.248472	10801.624893
508.613540	11037.341686
508.978550	10918.264591
509.343503	10893.673842
509.708398	11009.448981
510.073236	11126.252516
510.438016	11130.222425
510.802738	11075.581358
511.167403	11121.735642
511.532010	11024.912721
511.896561	11263.618917
512.261053	11325.131076
512.625488	11198.194822
512.989866	11178.960300
513.354186	11176.124651
513.718449	11076.844167
514.082655	11268.133270
514.446803	11169.442602
514.810894	11284.547267
515.174927	11153.409212
515.538904	11179.106493
515.902822	11326.938330
516.266684	11210.588499
516.630488	11150.124900
516.994235	11212.864580
517.357925	11271.609146
517.721558	11363.940399
518.085133	11384.896476
518.448651	11391.170192
518.812112	11273.020669
519.175516	11291.463730
519.538863	11407.929508
519.902152	11324.198463
520.265385	11479.912143
520.628560	11393.267312
520.991678	11379.318439
521.354739	11432.293404
521.717743	11370.246883
522.080690	11347.178563
522.443580	11475.347379
522.806413	11437.967223
523.169189	11469.222377
523.531908	11529.648167
523.894569	11348.479180
524.257174	11351.667710
524.619722	11468.272119
524.982213	11416.572566
525.344647	11471.072480
525.707025	11421.621282
526.069345	11506.239569
526.431608	11435.398755
526.793815	11544.355734
527.155964	11330.774648
527.518057	11384.566280
527.880093	11330.386479
528.242072	11394.182281
528.603995	11304.391769
528.965860	11226.896632
529.327669	11278.931422
529.689421	11222.604089
530.051117	11201.718589
530.412755	11307.794548
530.774337	11192.095026
531.135862	11173.346975
531.497331	11197.131139
531.858743	11053.286855
532.220098	11220.242309
532.581396	11088.118708
532.942638	11068.869062
533.303824	11035.852025
533.664953	11040.000894
534.026025	10965.079266
534.387040	11061.090561
534.747999	11060.062166
535.108902	11121.342432
535.469748	10877.234639
535.830537	10977.977058
536.191270	10958.868564
536.551947	10980.560649
536.912567	10982.123407
537.273131	10903.839329
537.633638	10883.145392
537.994089	10871.825481
538.354483	10826.293780
538.714821	10966.853752
539.075103	10976.386574
539.435328	10936.480800
539.795497	10765.429409
540.155609	10925.649881
540.515665	11013.940649
540.875665	10752.624878
541.235609	10812.085288
541.595496	10816.990330
541.955328	10964.396189
542.315102	10852.149858
542.674821	10802.817126
543.034483	10798.597681
543.394090	10810.648559
543.753640	10736.200799
544.113134	10961.779831
544.472571	10809.153857
544.831953	10955.443100
545.191278	10763.609552
545.550548	10785.014292
545.909761	10927.570561
546.268918	10898.205839
546.628019	10984.225568
546.987064	10848.056441
547.346053	10763.475962
547.704986	10866.207115
548.063863	10854.171361
548.422684	10849.699857
548.781449	10759.001938
549.140158	10861.864161
549.498811	10744.193548
549.857408	10598.615108
550.215949	10821.897894
550.574434	10681.537047
550.932864	10779.035483
551.291237	10833.522794
551.649555	10780.681420
552.007817	10793.034767
552.366022	10760.799109
552.724173	10743.457540
553.082267	10741.224309
553.440305	10870.766839
553.798288	10671.976499
554.156215	10824.252113
554.514086	10801.403083
554.871902	10650.612089
555.229661	10693.774448
555.587365	10666.254789
555.945014	10565.169572
556.302606	10685.123828
556.660143	10577.510317
557.017625	10735.878165
557.375050	10628.683070
557.732421	10762.911353
558.089735	10680.314567
558.446994	10687.467965
558.804197	10717.656914
559.161345	10718.128262
559.518437	10568.058153
559.875474	10657.770527
560.232455	10683.702223
560.589381	10639.945007
560.946251	10634.190530
561.303065	10740.435368
561.659825	10671.847949
562.016528	10606.159194
562.373177	10487.316513
562.729770	10592.638820
563.086307	10520.809939
563.442789	10607.777405
563.799216	10487.772737
564.155587	10534.378205
564.511904	10489.209466
564.868164	10476.374688
565.224370	10491.467903
565.580520	10412.626778
565.936615	10417.599876
566.292654	10287.104567
566.648638	10423.331668
567.004567	10376.524554
567.360441	10360.544097
567.716260	10275.179718
568.072023	10371.654800
568.427732	10318.016923
568.783385	10225.872192
569.138982	10295.926587
569.494525	10310.412342
569.850013	10188.562613
570.205445	10272.457495
570.560823	10171.891517
570.916145	10084.104864
571.271412	10160.775773
571.626625	10100.813768
571.981782	10076.492721
572.336884	10041.600375
572.691931	10054.420029
573.046923	10000.555300
573.401860	9956.437643
573.756743	9900.679960
574.111570	9939.738820
574.466342	9923.508826
574.821059	9960.105082
575.175722	9844.219037
575.530330	9851.122897
575.884882	9846.709367
576.239380	9771.596175
576.593823	9753.836190
576.948211	9771.379405
577.302544	9652.057814
577.656823	9660.746243
578.011047	9662.956789
578.365216	9635.117017
578.719330	9562.262262
579.073389	9567.762160
579.427394	9517.554789
579.781344	9494.307508
580.135239	9438.857336
580.489080	9452.027350
580.842866	9354.266774
581.196597	9363.083752
581.550273	9398.747395
581.903895	9369.715390
582.257463	9430.809134
582.610975	9308.414960
582.964434	9336.201800
583.317837	9255.896219
583.671186	9240.243436
584.024481	9240.949198
584.377721	9152.600456
584.730906	9135.468095
585.084037	9164.386674
585.437113	9098.460984
585.790135	9119.802709
586.143103	9015.420577
586.496016	8992.889140
586.848874	9050.088593
587.201679	9040.434783
587.554428	8931.235829
587.907124	8974.672931
588.259765	8943.584135
588.612352	8949.119322
588.964884	8823.148449
589.317362	8835.922733
589.669786	8842.438424
590.022155	8885.973829
590.374470	8902.405470
590.726731	8842.052776
591.078937	8690.162811
591.431090	8804.768402
591.783188	8678.069083
592.135232	8672.521293
592.487222	8671.999533
592.839157	8719.711534
593.191038	8656.631576
593.542866	8600.160571
593.894639	8496.416145
594.246358	8547.679638
594.598022	8571.443638
594.949633	8463.018501
595.301190	8439.758617
595.652692	8474.003175
596.004141	8576.232734
596.355535	8358.401956
596.706876	8330.700815
597.058162	8267.600693
597.409395	8343.044080
597.760573	8412.548989
598.111698	8311.768762
598.462768	8302.651835
598.813785	8265.236391
599.164748	8235.445693
599.515657	8226.401863
599.866511	8134.912482
600.217312	8262.012573
600.568060	8119.012683
600.918753	8225.691060
601.269392	8193.994805
601.619978	8103.062472
601.970510	8171.339860
602.320988	8166.913727
602.671412	8221.189310
603.021783	8156.486100
603.372100	8129.384857
603.722363	8137.299468
604.072572	8107.896939
604.422728	8125.914022
604.772830	8051.874596
605.122878	8056.683857
605.472872	8048.812095
605.822813	8082.146725
606.172701	8032.017491
606.522534	8102.051721
606.872314	8106.452648
607.222041	8075.820077
607.571714	8126.939897
607.921333	8086.499761
608.270899	8093.665761
608.620411	8179.380500
608.969870	8082.882733
609.319276	8083.878361
609.668627	8098.454857
610.017926	8127.943087
610.367171	8177.111981
610.716362	8151.946541
611.065500	8145.801374
611.414585	8167.657297
611.763616	8156.196234
612.112594	8137.841392
612.461518	8155.782859
612.810389	8212.352167
613.159207	8152.163311
613.507971	8102.938964
613.856682	8223.367088
614.205340	8178.647012
614.553945	8260.991740
614.902496	8153.209350
615.250994	8205.350004
615.599439	8188.588168
615.947830	8203.126855
616.296169	8176.915376
616.644454	8189.004063
616.992686	8185.838218
617.340864	8242.513390
617.688990	8149.678022
618.037063	8239.213955
618.385082	8184.449380
618.733048	8272.021784
619.080961	8214.567754
619.428821	8231.372440
619.776628	8236.761434
620.124382	8183.988115
620.472083	8172.504366
620.819731	8199.668624
621.167326	8087.298784
621.514868	8103.120445
621.862357	7987.216757
622.209793	8010.763986
622.557176	7936.641381
622.904506	7909.393944
623.251783	7837.807039
623.599007	7797.495452
623.946179	7804.026267
624.293297	7760.894155
624.640363	7676.177564
624.987376	7657.001015
625.334336	7607.479240
625.681243	7554.542084
626.028097	7543.103706
626.374899	7521.179728
626.721647	7513.365939
627.068343	7444.912111
627.414987	7418.766167
627.761577	7371.326388
628.108115	7410.412975
628.454600	7299.348794
628.801032	7351.736465
629.147412	7310.361194
629.493739	7303.807694
629.840014	7235.910914
630.186236	7292.976775
630.532405	7178.671132
630.878521	7227.719039
631.224585	7180.932090
631.570597	7107.409382
631.916556	7143.632593
632.262462	7139.713096
632.608316	7100.923937
632.954117	7073.709268
633.299866	7064.897331
633.645562	7053.963069
633.991206	6976.609083
634.336797	6916.064826
634.682336	6876.612756
635.027823	6841.922056
635.373257	6832.507701
635.718639	6767.590242
636.063968	6778.524505
636.409245	6670.056518
636.754470	6670.595922
637.099642	6627.269725
637.444762	6571.960705
637.789829	6584.621563
638.134845	6524.074785
638.479808	6506.269430
638.824719	6512.732189
639.169577	6440.094203
639.514383	6460.112625
639.859137	6390.395988
640.203839	6400.014509
640.548489	6390.612757
640.893086	6363.650146
641.237632	6333.294838
641.582125	6349.945769
641.926566	6322.002654
642.270955	6336.863975
642.615292	6330.300393
642.959576	6346.207754
643.303809	6337.826836
643.647990	6345.461663
643.992118	6337.174006
644.336195	6278.956241
644.680219	6305.253420
645.024192	6289.656090
645.368112	6394.665845
645.711981	6416.489000
646.055797	6490.218396
646.399562	6447.471932
646.743274	6572.943730
647.086935	6626.072451
647.430544	6623.418283
647.774101	6643.471993
648.117606	6652.566235
648.461059	6643.260265
648.804460	6602.005982
649.147810	6509.102558
649.491108	6483.506099
649.834354	6456.609023
650.177548	6373.414861
650.520690	6284.859432
650.863781	6267.323778
651.206820	6286.437313
651.549807	6207.828081
651.892742	6144.208719
652.235626	6148.231560
652.578458	6139.742257
652.921238	6049.712290
653.263967	6085.895172
653.606644	6025.771851
653.949269	6029.008272
654.291843	5967.614579
654.634365	6014.923288
654.976836	5975.385518
655.319255	5973.815199
655.661622	5954.139575
656.003938	5940.863697
656.346203	5902.311473
656.688416	5935.633499
657.030577	5888.919647
657.372687	5857.709864
657.714746	5844.320559
658.056753	5891.500718
658.398708	5830.129711
658.740612	5820.917003
659.082465	5864.265884
659.424266	5862.055338
659.766016	5859.678434
660.107715	5833.149362
660.449362	5848.978585
660.790958	5845.895920
661.132503	5832.408313
661.473996	5865.533735
661.815438	5856.883115
662.156829	5851.660479
662.498168	5843.750909
662.839456	5820.647301
663.180693	5858.886973
663.521879	5855.743814
663.863013	5846.125292
664.204097	5865.720257
664.545129	5905.525208
664.886110	5901.998921
665.227040	5929.836173
665.567918	5899.501029
665.908746	5927.479433
666.249522	5929.800884
666.590248	5915.373102
666.930922	5943.389315
667.271545	5956.667714
667.612118	5958.676614
667.952639	5935.434374
668.293109	5955.069668
668.633528	5907.264406
668.973896	5916.398977
669.314213	5901.696452
669.654480	5885.219440
669.994695	5878.988574
670.334859	5867.913159
670.674973	5859.552406
671.015035	5865.241348
671.355047	5861.238672
671.695008	5850.160736
672.034918	5821.685778
672.374777	5829.663404
672.714585	5814.741589
673.054342	5815.787628
673.394049	5815.462474
673.733705	5840.600188
674.073310	5826.789947
674.412864	5791.247292
674.752368	5781.495179
675.091820	5786.589265
675.431223	5724.225151
675.770574	5719.098298
676.109875	5674.597512
676.449125	5674.801679
676.788324	5643.538963
677.127473	5589.520479
677.466571	5576.957924
677.805619	5567.982149
678.144616	5554.895314
678.483562	5534.581985
678.822458	5499.520760
679.161303	5497.816850
679.500098	5484.770343
679.838842	5469.669567
680.177535	5473.100072
680.516179	5491.671683
680.854771	5500.458414
681.193314	5582.757771
681.531805	5686.131672
681.870247	5835.778324
682.208638	5935.946051
682.546978	5948.765705
682.885268	5924.787457
683.223508	5839.634807
683.561697	5783.819151
683.899836	5754.416622
684.237925	5707.092790
684.575963	5674.300084
684.913951	5632.687880
685.251889	5689.289955
685.589776	5661.213249
685.927614	5630.429443
686.265401	5698.583322
686.603137	5683.525396
686.940824	5757.305203
687.278460	5777.633656
687.616046	5788.540192
687.953582	5855.416139
688.291068	5827.939330
688.628504	5897.542541
688.965889	5855.181725
689.303224	5800.928828
689.640510	5753.867136
689.977745	5676.102297
690.314930	5577.711576
690.652065	5530.256675
690.989150	5434.192447
691.326185	5356.840982
691.663170	5305.244773
692.000105	5230.429008
692.336990	5150.834230
692.673825	5124.597545
693.010610	5059.412905
693.347345	4988.619982
693.684030	4972.873938
694.020665	4929.104120
694.357251	4846.751830
694.693786	4854.999158
695.030272	4816.129341
695.366707	4785.431235
695.703093	4749.754989
696.039429	4772.462867
696.375716	4752.096605
696.711952	4725.789344
697.048139	4715.195359
697.384276	4694.521587
697.720363	4703.089028
698.056400	4712.657138
698.392388	4660.652595
698.728326	4639.895644
699.064214	4620.126759
699.400053	4615.877067
699.735842	4579.928598
700.071581	4556.005803
700.407270	4528.196278
700.742910	4512.684647
701.078501	4460.987615
701.414042	4454.449238
701.749533	4426.995114
702.084974	4365.969426
702.420366	4420.212242
702.755709	4359.730998
703.091002	4306.143533
703.426246	4350.994679
703.761440	4306.952638
704.096584	4274.686733
704.431679	4288.509577
704.766725	4278.855767
705.101721	4261.236935
705.436668	4288.824649
705.771565	4241.639449
706.106413	4269.834622
706.441212	4295.330258
706.775961	4302.650013
707.110661	4285.149648
707.445311	4309.639573
707.779913	4328.410310
708.114465	4343.448072
708.448967	4366.029920
708.783421	4419.125873
709.117825	4458.421667
709.452180	4465.113799
709.786485	4505.095190
710.120742	4587.283642
710.454949	4573.821241
710.789107	4636.800376
711.123216	4705.481056
711.457275	4698.032751
711.791286	4760.830404
712.125247	4775.583341
712.459159	4683.937685
712.793023	4759.376031
713.126837	4713.168815
713.460602	4705.113051
713.794318	4633.498420
714.127985	4632.434736
714.461602	4555.947830
714.795171	4531.873799
715.128691	4462.878047
715.462162	4405.270262
715.795584	4361.066904
716.128957	4339.470601
716.462281	4294.947130
716.795556	4268.995270
717.128782	4227.539342
717.461960	4162.445443
717.795088	4169.603881
718.128167	4133.413438
718.461198	4078.134665
718.794180	4070.094025
719.127113	4049.319430
719.459997	4028.144063
719.792833	3991.363805
720.125619	3982.156137
720.458357	3941.622740
720.791046	3945.814459
721.123686	3920.041560
721.456278	3884.224162
721.788821	3893.830081
722.121315	3869.640104
722.453761	3844.749407
722.786158	3853.037064
723.118506	3875.928943
723.450805	3832.607788
723.783056	3854.362887
724.115259	3864.341851
724.447412	3863.936038
724.779518	3865.188765
725.111574	3867.321173
725.443582	3891.148187
725.775542	3876.448182
726.107453	3922.907456
726.439315	3921.006941
726.771129	3932.415072
727.102895	3971.005105
727.434612	4008.952390
727.766281	4019.800953
728.097901	4024.738764
728.429473	4023.352446
728.760996	4026.314124
729.092471	4024.544679
729.423897	4009.138913
729.755276	4011.626722
730.086606	4011.714943
730.417887	4053.377559
730.749120	4111.814614
731.080305	4167.068181
731.411442	4190.527190
731.742530	4165.825536
732.073570	4165.916277
732.404562	4211.364800
732.735506	4204.433213
733.066401	4169.016587
733.397249	4109.213379
733.728048	4040.832647
734.058798	3956.201757
734.389501	3889.920666
734.720156	3833.825226
735.050762	3793.642189
735.381320	3784.006023
735.711831	3741.178901
736.042293	3707.319991
736.372707	3725.117785
736.703073	3697.305739
737.033391	3693.237528
737.363661	3707.708160
737.693883	3729.821181
738.024056	3735.152202
738.354182	3735.636152
738.684260	3789.495840
739.014290	3806.585352
739.344272	3804.566369
739.674207	3836.597861
740.004093	3845.011547
740.333931	3842.256556
740.663722	3837.273376
740.993464	3832.466635
741.323159	3812.107936
741.652806	3780.076444
741.982405	3759.931993
742.311956	3729.816140
742.641460	3718.728122
742.970915	3697.162066
743.300323	3662.446160
743.629683	3632.088332
743.958996	3619.881178
744.288260	3593.336982
744.617477	3564.395718
744.946647	3551.971794
745.275768	3524.313504
745.604842	3518.856455
745.933869	3478.343222
746.262847	3473.475988
746.591778	3500.710821
746.920662	3477.062769
747.249498	3452.638378
747.578286	3488.707834
747.907027	3501.131758
748.235720	3506.805576
748.564365	3527.736447
748.892963	3520.056249
749.221514	3507.365144
749.550017	3485.584839
749.878473	3483.097030
750.206881	3455.264819
750.535242	3455.272381
750.863555	3452.845066
751.191821	3446.168057
751.520039	3433.892848
751.848210	3414.978438
752.176334	3439.760751
752.504411	3440.789146
752.832440	3409.188673
753.160421	3396.822723
753.488356	3399.570152
753.816243	3404.873446
754.144082	3374.699619
754.471875	3361.227136
754.799620	3371.987478
755.127318	3367.296685
755.454969	3364.077908
755.782572	3368.499000
756.110129	3349.892101
756.437638	3342.194259
756.765100	3348.815815
757.092515	3356.392669
757.419882	3359.253524
757.747203	3338.620081
758.074477	3344.629137
758.401703	3354.109026
758.728882	3369.542519
759.056014	3376.819424
759.383099	3383.370404
759.710138	3385.487688
760.037129	3396.313566
760.364073	3420.127977
760.690970	3406.491656
761.017820	3390.251579
761.344623	3404.576018
761.671379	3441.449537
761.998088	3484.679952
762.324751	3596.638938
762.651366	3819.573884
762.977935	4243.693719
763.304456	4627.938027
763.630931	4702.731106
763.957359	4385.524062
764.283740	4087.400306
764.610074	3907.620157
764.936362	3728.081983
765.262602	3592.515274
765.588796	3491.455263
765.914943	3417.534303
766.241044	3344.944209
766.567097	3311.874239
766.893104	3270.544340
767.219064	3246.553488
767.544978	3217.372769
767.870845	3174.936336
768.196665	3158.305570
768.522438	3162.562824
768.848165	3157.766166
769.173846	3126.475724
769.499479	3111.097685
769.825066	3098.855242
770.150607	3081.755649
770.476101	3090.827205
770.801548	3083.489806
771.126949	3053.252965
771.452303	3034.905685
771.777611	3036.281920
772.102872	3038.575645
772.428087	3016.747449
772.753256	3009.465503
773.078378	3001.097187
773.403453	2977.471820
773.728482	2967.727269
774.053465	2978.354022
774.378401	2969.005202
774.703291	2942.960080
775.028135	2946.269598
775.352932	2942.226593
775.677683	2932.023297
776.002388	2928.829726
776.327046	2928.431475
776.651658	2918.969229
776.976224	2910.021181
777.300743	2909.441448
777.625216	2899.641445
777.949643	2894.171793
778.274024	2894.912843
778.598359	2889.246586
778.922647	2888.492934
779.246889	2888.820609
779.571086	2875.539689
779.895236	2872.366282
780.219339	2879.539844
780.543397	2890.814385
780.867409	2891.663819
781.191374	2885.937069
781.515294	2881.994886
781.839167	2887.204919
782.162995	2880.684186
782.486776	2882.718292
782.810511	2881.339536
783.134201	2869.850747
783.457844	2874.786036
783.781441	2868.479553
784.104993	2852.103365
784.428498	2851.810978
784.751958	2859.085363
785.075372	2859.115610
785.398739	2844.778568
785.722061	2859.004704
786.045337	2862.717514
786.368568	2857.101669
786.691752	2847.793178
787.014891	2885.415309
787.337983	2911.336922
787.661030	2940.983948
787.984031	2995.453615
788.306987	3028.432844
788.629897	3027.406969
788.952760	3007.514576
789.275579	2992.781804
789.598351	2944.923610
789.921078	2909.585121
790.243759	2899.893503
790.566395	2882.443549
790.888984	2864.348327
791.211529	2852.196626
791.534027	2841.554750
791.856480	2833.398163
792.178888	2822.778973
792.501249	2818.050370
792.823566	2810.387817
793.145836	2811.625420
793.468062	2807.506797
793.790241	2802.397588
794.112375	2808.096612
794.434464	2820.301246
794.756507	2824.644200
795.078505	2830.607885
795.400457	2842.343691
795.722364	2870.758154
796.044226	2891.326062
796.366042	2892.987122
796.687812	2887.396483
797.009538	2899.913668
797.331218	2886.771380
797.652852	2875.453989
797.974442	2861.910929
798.295986	2856.864734
798.617484	2852.194105
798.938938	2840.440655
799.260346	2828.437668
799.581709	2823.119251
799.903026	2815.537355
800.224299	2815.275215
800.545526	2804.940850
800.866708	2793.928449
801.187845	2785.202212
801.508936	2785.761780
801.829983	2787.269085
802.150984	2777.501849
802.471940	2767.651435
802.792851	2770.151847
803.113717	2770.161929
803.434538	2772.246447
803.755314	2764.651948
804.076045	2762.428799
804.396731	2758.242121
804.717372	2763.863008
805.037967	2759.615836
805.358518	2761.450816
805.679024	2773.698299
805.999485	2767.507762
806.319901	2771.833072
806.640272	2767.540529
806.960598	2770.850047
807.280879	2777.040584
807.601115	2782.888322
807.921306	2769.355345
808.241453	2767.530447
808.561554	2771.830551
808.881611	2772.836262
809.201623	2768.548760
809.521590	2769.073040
809.841513	2763.341248
810.161390	2769.156219
810.481223	2764.455343
810.801011	2757.203643
811.120755	2752.253230
811.440453	2754.743560
811.760107	2753.485792
812.079716	2749.415061
812.399281	2739.224368
812.718801	2739.610017
813.038276	2732.746486
813.357707	2738.518607
813.677093	2742.017167
813.996434	2737.961559
814.315731	2734.266393
814.634983	2730.891341
814.954191	2730.049468
815.273354	2741.558422
815.592473	2746.791140
815.911547	2747.748959
816.230577	2753.810947
816.549562	2763.419386
816.868502	2760.659354
817.187399	2769.804007
817.506250	2779.001593
817.825058	2774.527569
818.143821	2785.822274
818.462539	2795.529016
818.781213	2814.912252
819.099843	2845.338136
819.418429	2895.162380
819.736970	2943.209618
820.055466	3001.833196
820.373919	3077.654670
820.692327	3182.790454
821.010691	3321.638954
821.329011	3690.953885
821.647286	4464.350064
821.965517	5631.596470
822.283704	6279.898937
822.601847	6248.429534
822.919945	5665.047046
823.237999	5174.615874
823.556010	4684.383827
823.873976	4230.601843
824.191897	3892.892426
824.509775	3660.412055
824.827609	3453.558389
825.145398	3352.571474
825.463144	3347.580732
825.780845	3414.746545
826.098502	3508.113756
826.416116	3734.093559
826.733685	4001.002491
827.051210	4053.266653
827.368692	3945.743883
827.686129	3711.584807
828.003522	3457.203143
828.320872	3252.766711
828.638177	3107.954525
828.955439	3007.179339
829.272656	2943.842282
829.589830	2889.145763
829.906960	2854.298787
830.224046	2820.656647
830.541088	2797.706794
830.858086	2784.118364
831.175041	2772.009512
831.491952	2771.649070
831.808819	2778.870523
832.125642	2798.505817
832.442421	2830.222236
832.759157	2898.320663
833.075849	3033.652959
833.392497	3253.306114
833.709101	3404.850760
834.025662	3365.280223
834.342179	3234.129565
834.658653	3095.530602
834.975083	2984.189157
835.291469	2909.748959
835.607811	2846.227900
835.924110	2802.745427
836.240366	2764.036928
836.556578	2734.520972
836.872746	2718.500185
837.188871	2704.337063
837.504952	2691.177131
837.820990	2683.796882
838.136984	2676.797240
838.452935	2669.527896
838.768842	2672.366065
839.084706	2681.898887
839.400526	2738.299317
839.716303	2845.988445
840.032037	2910.205183
840.347727	2892.367060
840.663373	2840.871674
840.978977	2781.532252
841.294537	2733.288410
841.610054	2697.385312
841.925527	2678.198680
842.240957	2659.876607
842.556344	2646.225162
842.871687	2633.738224
843.186987	2628.364354
843.502244	2625.861421
843.817458	2622.567027
844.132629	2615.645523
844.447756	2604.769233
844.762840	2604.839810
845.077881	2605.303596
845.392879	2602.074737
845.707833	2598.485435
846.022745	2591.526122
846.337613	2598.135075
846.652438	2598.205651
846.967221	2598.989551
847.281960	2596.542070
847.596656	2595.014601
847.911309	2593.071236
848.225919	2589.136615
848.540485	2589.807089
848.855009	2588.380442
849.169490	2588.962696
849.483928	2588.866914
849.798323	2588.110741
850.112675	2587.841039
850.426984	2586.880699
850.741251	2586.989084
851.055474	2584.508836
851.369654	2590.865731
851.683792	2588.892119
851.997887	2586.981522
852.311938	2585.943044
852.625947	2585.877509
852.939914	2589.812130
853.253837	2587.163004
853.567718	2584.844073
853.881555	2585.020513
854.195350	2587.296594
854.509103	2586.716862
854.822812	2584.604618
855.136479	2584.589495
855.450103	2585.960688
855.763685	2587.576378
856.077224	2585.534711
856.390720	2584.450863
856.704173	2583.135122
857.017584	2586.905905
857.330953	2589.418920
857.644278	2590.036461
857.957561	2591.284147
858.270802	2589.003025
858.584000	2586.477407
858.897155	2592.284816
859.210268	2589.935638
859.523339	2587.231059
859.836367	2584.844073
860.149352	2584.443301
860.462295	2584.322313
860.775195	2580.937179
861.088054	2580.669998
861.400869	2579.802919
861.713642	2578.744277
862.026373	2580.506160
862.339062	2584.150914
862.651708	2585.237283
862.964312	2587.268868
863.276873	2586.386666
863.589392	2589.686101
863.901869	2590.280957
864.214303	2594.437389
864.526696	2598.049375
864.839045	2595.884200
865.151353	2597.048706
865.463619	2599.864191
865.775842	2596.196751
866.088023	2596.411000
866.400162	2598.334201
866.712258	2600.222113
867.024313	2597.744386
867.336325	2594.853284
867.648296	2596.839498
867.960224	2595.727924
868.272110	2594.432347
868.583954	2596.511823
868.895755	2592.940166
869.207515	2598.067019
869.519233	2602.329315
869.830909	2596.952924
870.142542	2596.126175
870.454134	2596.907554
870.765684	2601.268152
871.077191	2601.638677
871.388657	2605.842999
871.700081	2601.111876
872.011463	2604.824686
872.322803	2604.340735
872.634101	2606.180757
872.945357	2611.224431
873.256571	2614.828856
873.567744	2615.242231
873.878874	2613.906325
874.189963	2612.182250
874.501010	2618.420678
874.812015	2618.551748
875.122979	2615.942951
875.433900	2614.186109
875.744780	2613.036726
876.055618	2613.061932
876.366415	2618.531583
876.677169	2617.906480
876.987882	2613.687035
877.298554	2612.792230
877.609183	2615.784155
877.919771	2620.061574
878.230317	2624.739764
878.540822	2632.707308
878.851285	2640.677372
879.161707	2653.970895
879.472087	2679.930317
879.782425	2711.739997
880.092722	2785.602984
880.402977	2922.334199
880.713191	3132.658700
881.023363	3382.755383
881.333494	3554.242834
881.643583	3667.920853
881.953631	3643.413284
882.263637	3494.169924
882.573602	3322.725323
882.883526	3210.269784
883.193408	3119.158490
883.503248	3036.705377
883.813048	2951.928293
884.122806	2878.007334
884.432522	2821.019610
884.742197	2777.078392
885.051831	2746.440780
885.361424	2725.393963
885.670975	2703.240612
885.980485	2683.469207
886.289954	2671.370437
886.599382	2661.429282
886.908768	2657.426606
887.218113	2642.441776
887.527417	2636.949439
887.836680	2630.254787
888.145901	2623.456791
888.455082	2620.283384
888.764221	2611.337857
889.073319	2611.360542
889.382376	2606.425252
889.691392	2609.591097
890.000366	2605.893411
890.309300	2607.219234
890.618193	2610.382558
890.927044	2609.817949
891.235855	2610.667383
891.544625	2610.064966
891.853353	2610.518669
892.162041	2617.508229
892.470687	2628.109776
892.779293	2636.904069
893.087858	2646.623413
893.396381	2662.460198
893.704864	2687.292922
894.013306	2735.403174
894.321707	2802.493370
894.630068	2837.166426
894.938387	2848.014989
895.246665	2836.637105
895.554903	2803.468833
895.863100	2768.805859
896.171256	2731.408059
896.479371	2693.949766
896.787446	2671.894717
897.095480	2660.441216
897.403473	2653.335710
897.711425	2641.294914
898.019336	2633.861732
898.327207	2624.137347
898.635038	2621.037037
898.942827	2621.924280
899.250576	2617.732561
899.558284	2608.655963
899.865952	2607.004985
900.173579	2603.660180
900.481165	2603.329984
900.788711	2598.165322
901.096216	2593.996288
901.403681	2592.393201
901.711105	2590.989239
902.018489	2589.857500
902.325832	2592.380598
902.633135	2591.987388
902.940397	2604.648246
903.247619	2625.080042
903.554800	2673.207938
903.861941	2762.549787
904.169041	2855.700228
904.476101	2899.434758
904.783121	2887.116699
905.090100	2844.924762
905.397039	2788.042902
905.703938	2735.758575
906.010796	2696.515713
906.317614	2662.520692
906.624391	2639.439769
906.931129	2622.430916
907.237826	2608.900459
907.544483	2597.658686
907.851099	2590.457398
908.157675	2584.072776
908.464211	2578.542631
908.770707	2571.810170
909.077163	2571.873184
909.383578	2567.404201
909.689954	2567.454613
909.996289	2565.254149
910.302584	2565.354972
910.608839	2564.649211
910.915054	2565.864129
911.221229	2564.823130
911.527363	2566.834551
911.833458	2566.257339
912.139513	2565.929664
912.445527	2567.860426
912.751502	2570.214644
913.057436	2573.758576
913.363331	2578.547672
913.669186	2585.270050
913.975000	2591.135433
914.280775	2605.308637
914.586510	2617.349433
914.892205	2642.996303
915.197859	2689.410207
915.503475	2742.438104
915.809050	2789.477110
916.114585	2805.016467
916.420081	2813.306645
916.725536	2810.851603
917.030952	2789.338479
917.336328	2755.149373
917.641665	2725.741802
917.946961	2695.749457
918.252218	2671.834224
918.557435	2656.158756
918.862612	2639.792650
919.167750	2629.735548
919.472848	2617.881275
919.777906	2605.888370
920.082925	2598.649273
920.387904	2595.279261
920.692843	2591.687439
920.997743	2587.203333
921.302603	2581.038002
921.607423	2578.875347
921.912204	2575.293607
922.216946	2574.328226
922.521647	2573.655232
922.826310	2568.051989
923.130932	2570.973338
923.435516	2563.215002
923.740059	2563.280537
924.044564	2560.722152
924.349028	2558.814075
924.653454	2553.273847
924.957840	2552.225287
925.262186	2548.832590
925.566493	2552.154711
925.870761	2548.721685
926.174989	2548.247817
926.479178	2550.977601
926.783328	2548.835111
927.087438	2548.845193
927.391509	2549.840821
927.695541	2547.105995
927.999533	2546.352343
928.303486	2546.183464
928.607400	2548.441901
928.911275	2544.477033
929.215110	2548.578012
929.518906	2545.331509
929.822663	2547.020296
930.126381	2542.606765
930.430060	2545.381921
930.733699	2547.312683
931.037299	2546.891746
931.340861	2548.091541
931.644383	2547.070707
931.947866	2545.318906
932.251309	2547.244627
932.554714	2546.085162
932.858080	2548.520039
933.161407	2544.474513
933.464694	2546.848896
933.767943	2544.136756
934.071153	2545.946530
934.374323	2542.485778
934.677455	2543.350336
934.980548	2541.979142
935.283602	2547.375697
935.586617	2543.156251
935.889593	2541.558205
936.192530	2540.807073
936.495428	2544.681200
936.798287	2543.662887
937.101108	2544.824873
937.403890	2546.680018
937.706632	2549.770245
938.009336	2549.666901
938.312002	2552.552962
938.614628	2554.130843
938.917216	2558.657799
939.219765	2558.579661
939.522275	2556.233004
939.824747	2557.707542
940.127179	2554.602191
940.429573	2549.137580
940.731929	2549.855945
941.034246	2549.697148
941.336524	2550.344937
941.638763	2552.840308
941.940964	2550.536500
942.243126	2551.723692
942.545250	2552.021120
942.847335	2549.341747
943.149381	2550.004659
943.451389	2548.835111
943.753359	2547.022816
944.055290	2546.823691
944.357182	2546.995090
944.659036	2547.151366
944.960851	2547.350491
945.262628	2543.927548
945.564367	2546.672456
945.866067	2545.639019
946.167729	2545.984338
946.469352	2546.682538
946.770937	2545.283618
947.072484	2543.007537
947.373992	2545.649102
947.675462	2544.945861
947.976893	2544.116591
948.278286	2541.845551
948.579641	2544.116591
948.880958	2543.683052
949.182236	2544.494677
949.483476	2543.761190
949.784678	2542.732794
950.085841	2542.959646
950.386967	2543.282280
950.688054	2544.623227
950.989103	2540.081147
951.290114	2542.614327
951.591087	2545.734801
951.892021	2546.944678
952.192917	2547.905018
952.493776	2547.741181
952.794596	2547.562220
953.095378	2550.632282
953.396122	2549.273691
953.696828	2546.259081
953.997496	2547.274874
954.298126	2545.959133
954.598718	2545.702034
954.899272	2545.896118
955.199788	2545.195398
955.500266	2544.179605
955.800706	2537.800025
956.101108	2537.936136
956.401472	2539.241795
956.701798	2534.896321
957.002087	2535.433203
957.302337	2538.145344
957.602550	2540.217258
957.902724	2536.701054
958.202861	2534.351876
958.502960	2537.608461
958.803022	2538.364634
959.103045	2533.749458
959.403031	2536.827082
959.702979	2535.342463
960.002889	2534.581248
960.302762	2535.667617
960.602596	2534.792977
960.902393	2534.961856
961.202153	2535.042514
961.501875	2532.910106
961.801559	2535.425642
962.101205	2534.913965
962.400814	2537.162319
962.700385	2535.821372
962.999918	2536.912782
963.299414	2535.362627
963.598873	2532.224509
963.898293	2532.602596
964.197677	2535.193749
964.497022	2533.414221
964.796331	2535.188708
965.095601	2533.837678
965.394835	2532.655528
965.694030	2533.126876
965.993189	2535.029911
966.292309	2533.696526
966.591393	2532.050589
966.890439	2532.499252
967.189447	2532.322812
967.488419	2534.780374
967.787353	2533.633512
968.086249	2531.286854
968.385108	2532.635363
968.683930	2532.249715
968.982714	2533.000847
969.281462	2530.792821
969.580172	2533.257946
969.878844	2532.065713
970.177480	2536.131403
970.476078	2535.281969
970.774639	2533.903213
971.073162	2533.694005
971.371649	2531.859025
971.670098	2531.042358
971.968510	2532.577390
972.266885	2530.230733
972.565223	2534.044366
972.863524	2532.143851
973.161788	2534.150230
973.460014	2533.361289
973.758204	2534.850950
974.056356	2532.340456
974.354471	2535.367668
974.652550	2532.007739
974.950591	2533.585621
975.248595	2531.952287
975.546563	2531.491021
975.844493	2532.491690
976.142386	2533.653676
976.440243	2533.010929
976.738062	2530.008922
977.035845	2532.350538
977.333590	2531.927081
977.631299	2532.859694
977.928971	2533.699047
978.226606	2535.284489
978.524204	2531.337266
978.821765	2532.151412
979.119290	2533.792308
979.416777	2532.957997
979.714228	2531.856505
980.011642	2534.296423
980.309020	2536.486805
980.606360	2531.395239
980.903664	2531.475898
981.200931	2532.983203
981.498162	2531.037317
981.795356	2536.136444
982.092513	2537.129552
982.389633	2539.894625
982.686717	2540.476878
982.983764	2538.964532
983.280775	2540.219779
983.577749	2542.679862
983.874686	2542.626930
984.171587	2538.112577
984.468451	2539.448482
984.765279	2535.902031
985.062070	2534.626619
985.358824	2533.961187
985.655543	2533.769623
985.952224	2532.627801
986.248869	2534.190559
986.545478	2526.621267
986.842050	2531.516227
987.138586	2528.327697
987.435086	2528.413397
987.731549	2525.355937
988.027975	2532.322812
988.324366	2528.126051
988.620719	2529.124199
988.917037	2531.072605
989.213318	2529.842564
989.509563	2534.354397
989.805772	2529.905578
990.101944	2531.173428
990.398080	2532.239632
990.694180	2532.353058
990.990244	2531.823737
991.286271	2530.623943
991.582262	2531.397760
991.878217	2529.073788
992.174136	2531.183511
992.470019	2529.562780
992.765865	2530.893644
993.061676	2530.659231
993.357450	2531.115455
993.653188	2527.841226
993.948890	2530.419776
994.244556	2529.918181
994.540186	2531.644776
994.835780	2530.780218
995.131337	2532.481608
995.426859	2531.768285
995.722345	2532.985723
996.017795	2532.073274
996.313208	2534.079654
996.608586	2533.749458
996.903928	2533.106711
997.199234	2531.659900
997.494504	2534.772812
997.789738	2533.888090
998.084936	2527.566483
998.380099	2529.799714
998.675225	2530.180321
998.970316	2531.102852
999.265371	2532.418593
999.560390	2529.030938
999.855373	2532.978162
1000.150320	2528.877183
1000.445232	2530.455064
1000.740108	2529.073788
1001.034948	2529.799714
1001.329752	2531.417924
1001.624521	2529.179652
1001.919254	2525.484486
1002.213951	2527.208561
1002.508613	2524.715710
1002.803239	2528.589837
1003.097829	2529.174611
1003.392384	2529.645959
1003.686903	2528.385670
1003.981386	2530.069416
1004.275834	2528.728469
1004.570246	2529.812317
1004.864623	2526.845598
1005.158964	2529.335928
1005.453270	2528.857018
1005.747540	2529.174611
1006.041775	2529.671165
1006.335974	2526.313756
1006.630138	2527.632018
1006.924266	2528.630166
1007.218359	2525.701256
1007.512416	2530.245856
1007.806438	2525.476925
1008.100425	2530.129910
1008.394376	2527.286699
1008.688292	2530.588655
1008.982172	2528.252080
1009.276017	2528.889786
1009.569827	2524.942562
1009.863602	2528.017666
1010.157341	2528.262162
1010.451045	2526.250742
1010.744714	2529.403983
1011.038347	2528.597399
1011.331945	2527.385001
1011.625508	2529.905578
1011.919036	2527.274096
1012.212528	2524.503982
1012.505986	2526.245701
1012.799408	2529.275434
1013.092795	2527.947090
1013.386147	2529.335928
1013.679464	2526.114631
1013.972745	2529.351051
1014.265992	2527.455577
1014.559204	2529.149405
1014.852380	2528.884745
1015.145521	2526.953983
1015.438628	2526.875845
1015.731699	2529.706453
1016.024736	2527.644621
1016.317737	2528.962882
1016.610703	2529.532533
1016.903635	2524.793848
1017.196531	2525.582789
1017.489393	2527.198479
1017.782219	2525.295443
1018.075011	2524.874507
1018.367768	2527.253931
1018.660490	2526.321318
1018.953177	2526.321318
1019.245829	2526.321318
