Dividing Wavelength (nm)	Counts (n)	Blue Motor Position (mm): 0.000000	Red Motor Position (mm): 5.500000	
326.493990	2149.018679
326.888308	2149.018679
327.282561	2149.018679
327.676750	2124.238887
328.070874	2125.244597
328.464933	2131.485546
328.858929	2139.523666
329.252859	2153.283495
329.646726	2167.393685
330.040528	2179.396672
330.434265	2199.679754
330.827938	2218.049719
331.221547	2237.458161
331.615091	2259.482963
332.008571	2278.588936
332.401986	2295.935546
332.795338	2317.362970
333.188625	2339.612103
333.581847	2358.140864
333.975006	2373.294572
334.368100	2398.016391
334.761129	2410.271436
335.154095	2428.510330
335.546996	2444.011878
335.939833	2456.347582
336.332606	2472.738894
336.725315	2482.029740
337.117960	2492.480052
337.510540	2500.684530
337.903056	2509.985459
338.295508	2518.021058
338.687896	2522.353930
339.080220	2531.629653
339.472480	2538.117618
339.864676	2541.192722
340.256807	2544.250182
340.648875	2546.140614
341.040879	2548.585574
341.432818	2547.312682
341.824694	2551.156562
342.216506	2550.014741
342.608253	2550.365101
342.999937	2548.719164
343.391557	2547.179092
343.783113	2547.768907
344.174605	2544.124153
344.566033	2542.389996
344.957397	2541.661549
345.348697	2539.493853
345.739934	2539.191384
346.131106	2536.141486
346.522215	2535.672658
346.913260	2534.246012
347.304241	2530.434899
347.695159	2530.444982
348.086012	2526.901051
348.476802	2526.928777
348.867528	2525.111441
349.258191	2523.014321
349.648789	2525.066071
350.039324	2520.886954
350.429796	2521.191944
350.820203	2518.124402
351.210548	2519.828312
351.600828	2520.150946
351.991045	2516.702796
352.381198	2516.488547
352.771288	2517.746315
353.161314	2517.612725
353.551276	2515.245903
353.941175	2516.032323
354.331010	2516.233969
354.720782	2518.434433
355.110490	2520.259330
355.500135	2518.716737
355.889717	2514.895543
356.279235	2517.411078
356.668689	2520.879392
357.058080	2521.355781
357.447408	2516.029802
357.836672	2516.831346
358.225873	2518.174813
358.615010	2515.520646
359.004084	2521.431399
359.393095	2521.776718
359.782043	2522.981553
360.170927	2521.552386
360.559748	2524.292253
360.948505	2524.224198
361.337199	2523.601615
361.725830	2524.239321
362.114398	2525.413910
362.502903	2524.942562
362.891344	2526.850639
363.279722	2526.901051
363.668037	2527.148067
364.056289	2526.654034
364.444478	2526.767460
364.832603	2525.703777
365.220665	2527.634538
365.608665	2527.899199
365.996601	2527.019518
366.384474	2529.983716
366.772284	2531.879190
367.160031	2526.928777
367.547715	2532.058151
367.935336	2530.828109
368.322893	2530.452543
368.710388	2529.076308
369.097820	2533.149561
369.485189	2530.016484
369.872495	2533.510003
370.259738	2532.814324
370.646918	2531.526309
371.034035	2532.559746
371.421090	2532.700898
371.808081	2532.564787
372.195010	2536.464119
372.581875	2535.670138
372.968678	2534.382123
373.355418	2536.706095
373.742096	2535.178625
374.128710	2538.031918
374.515262	2539.627443
374.901751	2539.642567
375.288177	2540.860006
375.674540	2541.719522
376.060841	2541.011240
376.447079	2545.901159
376.833254	2547.249668
377.219367	2544.943340
377.605417	2547.620193
377.991404	2551.895091
378.377329	2554.123281
378.763191	2552.232849
379.148991	2558.030176
379.534727	2561.075032
379.920402	2563.182235
380.306013	2566.884962
380.691563	2571.298493
381.077049	2570.857392
381.462474	2575.976683
381.847835	2578.585480
382.233134	2583.891295
382.618371	2582.507498
383.003545	2590.283478
383.388657	2594.709611
383.773706	2594.833119
384.158693	2598.740013
384.543618	2602.241095
384.928480	2603.201435
385.313280	2609.815428
385.698017	2613.858434
386.082692	2617.230966
386.467305	2614.254164
386.851856	2621.420165
387.236344	2626.148767
387.620770	2627.141874
388.005133	2629.516258
388.389435	2634.411218
388.773674	2632.724952
389.157851	2633.282000
389.541965	2638.597896
389.926018	2634.534726
390.310008	2638.139151
390.693936	2638.774337
391.077802	2638.366003
391.461606	2639.646456
391.845348	2639.215438
392.229027	2638.812145
392.612645	2639.933802
392.996200	2639.759882
393.379694	2638.907927
393.763125	2640.621920
394.146494	2638.466826
394.529801	2635.691671
394.913047	2634.716208
395.296230	2633.786115
395.679351	2628.578603
396.062410	2628.187914
396.445408	2622.635083
396.828343	2621.087448
397.211217	2613.119905
397.594028	2605.490118
397.976778	2604.237392
398.359466	2603.932402
398.742092	2595.939652
399.124656	2597.988882
399.507158	2594.238263
399.889598	2593.633325
400.271977	2590.843046
400.654294	2585.575040
401.036549	2581.821901
401.418742	2580.622107
401.800874	2578.711509
402.182944	2574.802094
402.564952	2573.758576
402.946898	2572.662125
403.328783	2567.825137
403.710606	2566.751372
404.092367	2562.927657
404.474067	2565.231464
404.855705	2561.511092
405.237282	2561.435475
405.618797	2561.405228
406.000250	2560.765002
406.381642	2559.224929
406.762972	2555.610422
407.144240	2558.509085
407.525447	2556.981616
407.906593	2556.056564
408.287677	2559.164435
408.668700	2554.783673
409.049661	2555.711245
409.430560	2554.529094
409.811399	2556.558159
410.192176	2552.338713
410.572891	2555.035730
410.953545	2552.510112
411.334138	2555.018086
411.714669	2554.680329
412.095139	2554.700493
412.475547	2550.062632
412.855894	2555.842315
413.236180	2554.455997
413.616405	2555.880123
413.996568	2556.696790
414.376670	2556.853066
414.756711	2554.889537
415.136691	2557.667213
415.516609	2555.222253
415.896466	2556.933725
416.276262	2557.712583
416.655997	2549.689587
417.035670	2550.289484
417.415283	2551.471634
417.794834	2554.032541
418.174324	2553.999773
418.553753	2557.281564
418.933121	2556.462377
419.312428	2557.251317
419.691674	2557.415155
420.070859	2555.807027
420.449983	2555.121430
420.829045	2554.871893
421.208047	2557.400031
421.586988	2558.846842
421.965867	2560.200392
422.344686	2558.690567
422.723444	2558.650237
423.102141	2557.702501
423.480777	2557.354661
423.859352	2559.461863
424.237866	2561.155691
424.616319	2558.370453
424.994712	2557.606719
425.373044	2559.514795
425.751314	2561.001936
426.129524	2556.603529
426.507673	2560.064281
426.885762	2556.361554
427.263789	2561.354817
427.641756	2558.834240
428.019662	2559.502192
428.397508	2557.977243
428.775292	2560.727193
429.153016	2559.174518
429.530679	2562.731052
429.908282	2560.442368
430.285824	2562.252142
430.663305	2560.386915
431.040726	2561.102759
431.418086	2563.494786
431.795385	2560.588561
432.172624	2561.697615
432.549802	2564.162739
432.926920	2562.088304
433.303977	2563.109138
433.680974	2563.157029
434.057910	2562.937739
434.434786	2561.420352
434.811601	2563.215002
435.188355	2563.509910
435.565050	2564.376988
435.941683	2564.132492
436.318257	2560.694425
436.694770	2560.160063
437.071222	2559.134188
437.447614	2561.652245
437.823946	2561.964796
438.200218	2562.622667
438.576429	2564.785322
438.952580	2562.857080
439.328670	2565.458316
439.704700	2563.973696
440.080670	2564.192986
440.456580	2565.160888
440.832429	2564.124931
441.208218	2565.400342
441.583947	2564.737431
441.959616	2563.802297
442.335224	2564.472770
442.710773	2561.616957
443.086261	2565.334808
443.461689	2565.360013
443.837057	2565.506207
444.212365	2564.147616
444.587612	2567.346228
444.962800	2566.050651
445.337927	2566.585014
445.712995	2563.749365
446.088002	2565.654921
446.462949	2563.905640
446.837837	2567.462174
447.212664	2566.501835
447.587431	2563.701474
447.962139	2564.777760
448.336786	2567.273131
448.711374	2567.641135
449.085901	2567.817576
449.460369	2565.254149
449.834776	2565.851526
450.209124	2566.380847
450.583412	2567.535271
450.957640	2570.791857
451.331808	2569.108111
451.705917	2564.379509
452.079965	2569.125755
452.453954	2565.118038
452.827883	2568.074675
453.201752	2565.745662
453.575562	2566.363203
453.949311	2567.346228
454.323001	2567.845302
454.696632	2567.184911
455.070202	2568.903944
455.443713	2570.413770
455.817164	2563.484704
456.190556	2566.549726
456.563888	2563.225085
456.937160	2564.140054
457.310373	2567.686506
457.683526	2567.663821
458.056619	2569.340004
458.429653	2570.217165
458.802628	2571.716908
459.175542	2569.158523
459.548398	2568.714901
459.921194	2567.661300
460.293930	2568.041907
460.666607	2569.387895
461.039224	2570.660787
461.411782	2572.518452
461.784280	2571.033832
462.156719	2569.060220
462.529099	2568.823286
462.901419	2568.427555
463.273680	2571.517783
463.645882	2569.549212
464.018024	2572.223544
464.390106	2570.403688
464.762130	2572.188256
465.134094	2571.270766
465.505999	2573.249419
465.877845	2571.863102
466.249631	2571.666497
466.621358	2571.321178
466.993026	2573.040211
467.364634	2574.345870
467.736184	2570.449058
468.107674	2572.231106
468.479105	2569.952504
468.850477	2571.752196
469.221790	2572.374779
469.593043	2569.859243
469.964238	2573.476271
470.335373	2572.321847
470.706449	2574.522310
471.077467	2573.710685
471.448425	2570.824624
471.819324	2571.351425
472.190164	2572.349573
472.560945	2569.884449
472.931667	2572.710016
473.302330	2573.156158
473.672934	2569.574418
474.043479	2572.941909
474.413965	2573.602300
474.784393	2567.285734
475.154761	2568.611557
475.525070	2565.879252
475.895321	2569.254305
476.265513	2566.645508
476.635645	2571.545509
477.005719	2573.693041
477.375734	2574.580284
477.745691	2570.617937
478.115588	2572.566343
478.485427	2571.711867
478.855207	2571.815211
479.224928	2573.335119
479.594591	2573.347722
479.964194	2573.589697
480.333739	2573.635067
480.703226	2574.756724
481.072653	2572.730180
481.442022	2574.870150
481.811333	2574.968452
482.180584	2573.710685
482.549777	2573.496436
482.918912	2574.401323
483.287988	2573.231775
483.657005	2574.986097
484.025964	2571.681620
484.394864	2574.275294
484.763706	2574.582804
485.132489	2575.054152
485.501213	2573.549368
485.869879	2573.478792
486.238487	2572.674727
486.607036	2574.492063
486.975527	2575.583473
487.343959	2574.494584
487.712333	2574.958370
488.080648	2570.706157
488.448905	2573.244378
488.817104	2573.561971
489.185244	2573.289748
489.553326	2574.839903
489.921350	2578.983732
490.289315	2573.667835
490.657222	2574.378637
491.025070	2575.321333
491.392861	2576.962229
491.760593	2575.245716
492.128267	2573.042732
492.495883	2573.806467
492.863440	2575.480130
493.230939	2573.206569
493.598380	2576.266550
493.965763	2569.970148
494.333088	2571.386713
494.700354	2570.796898
495.067563	2571.994172
495.434713	2568.820765
495.801805	2575.215469
496.168839	2574.514749
496.535815	2577.027764
496.902733	2572.556260
497.269593	2577.529359
497.636395	2574.484502
498.003139	2573.219172
498.369825	2572.314285
498.736453	2574.439131
499.103023	2575.699420
499.469535	2575.286045
499.835989	2576.816035
500.202385	2577.778896
500.568723	2574.628175
500.935003	2575.210428
501.301226	2575.628844
501.667390	2574.240006
502.033497	2577.355439
502.399546	2575.192784
502.765537	2574.103895
503.131470	2574.862588
503.497345	2577.088258
503.863163	2577.065573
504.228923	2574.759245
504.594625	2576.543813
504.960269	2572.916703
505.325856	2575.283525
505.691385	2575.845613
506.056856	2573.188925
506.422270	2574.000551
506.787625	2575.248237
507.152924	2575.278483
507.518164	2573.672876
507.883347	2575.543144
508.248472	2575.512897
508.613540	2576.243864
508.978550	2574.035839
509.343503	2575.376786
509.708398	2577.758731
510.073236	2575.931313
510.438016	2575.437280
510.802738	2572.415108
511.167403	2578.416602
511.532010	2576.528690
511.896561	2574.262691
512.261053	2577.584811
512.625488	2572.278997
512.989866	2573.720767
513.354186	2573.166240
513.718449	2574.751683
514.082655	2571.774882
514.446803	2576.032136
514.810894	2575.931313
515.174927	2579.092116
515.538904	2576.327043
515.902822	2576.284194
516.266684	2571.626167
516.630488	2577.693196
516.994235	2576.468196
517.357925	2575.011302
517.721558	2576.490881
518.085133	2576.150603
518.448651	2578.177147
518.812112	2576.871488
519.175516	2575.465006
519.538863	2576.495922
519.902152	2575.583473
520.265385	2578.711509
520.628560	2577.068093
520.991678	2580.135635
521.354739	2577.166396
521.717743	2579.737384
522.080690	2578.414081
522.443580	2576.662280
522.806413	2576.322002
523.169189	2575.548185
523.531908	2576.274111
523.894569	2576.483319
524.257174	2577.632702
524.619722	2575.565829
524.982213	2577.998186
525.344647	2580.352405
525.707025	2576.586663
526.069345	2575.510377
526.431608	2575.863257
526.793815	2577.453741
527.155964	2579.215625
527.518057	2574.121539
527.880093	2576.924420
528.242072	2577.229410
528.603995	2578.043556
528.965860	2578.247723
529.327669	2575.497774
529.689421	2576.672363
530.051117	2576.632033
530.412755	2575.338977
530.774337	2576.470716
531.135862	2578.376273
531.497331	2571.301013
531.858743	2573.095664
532.220098	2574.106415
532.581396	2572.407546
532.942638	2571.323698
533.303824	2576.455593
533.664953	2576.843762
534.026025	2575.568350
534.387040	2579.460121
534.747999	2576.286714
535.108902	2577.299986
535.469748	2576.485840
535.830537	2580.722930
536.191270	2578.046077
536.551947	2579.119843
536.912567	2576.344687
537.273131	2578.537589
537.633638	2580.274267
537.994089	2577.342836
538.354483	2578.502301
538.714821	2580.894329
539.075103	2576.160685
539.435328	2577.909966
539.795497	2577.539441
540.155609	2578.852662
540.515665	2578.467013
540.875665	2578.214956
541.235609	2578.454410
541.595496	2580.082703
541.955328	2576.629513
542.315102	2578.464493
542.674821	2575.084399
543.034483	2577.978021
543.394090	2576.997517
543.753640	2577.562126
544.113134	2578.237641
544.472571	2574.827300
544.831953	2577.242013
545.191278	2576.571539
545.550548	2577.133628
545.909761	2578.822415
546.268918	2576.130438
546.628019	2580.032292
546.987064	2578.567836
547.346053	2579.928948
547.704986	2579.243351
548.063863	2576.609348
548.422684	2576.939544
548.781449	2579.291242
549.140158	2574.976014
549.498811	2580.191088
549.857408	2578.648495
550.215949	2573.816549
550.574434	2574.353432
550.932864	2574.625654
551.291237	2574.396282
551.649555	2579.838207
552.007817	2578.265367
552.366022	2581.779051
552.724173	2573.531724
553.082267	2577.504153
553.440305	2576.747980
553.798288	2577.363001
554.156215	2578.683783
554.514086	2578.635892
554.871902	2579.293762
555.229661	2577.030284
555.587365	2577.816704
555.945014	2575.301169
556.302606	2575.686817
556.660143	2577.363001
557.017625	2578.862744
557.375050	2575.848134
557.732421	2579.197981
558.089735	2578.277970
558.446994	2580.687642
558.804197	2577.869637
559.161345	2579.361818
559.518437	2579.608835
559.875474	2578.620768
560.232455	2577.373083
560.589381	2577.506673
560.946251	2581.821901
561.303065	2579.765110
561.659825	2578.555233
562.016528	2577.698237
562.373177	2578.477096
562.729770	2575.666652
563.086307	2577.315110
563.442789	2577.030284
563.799216	2579.886098
564.155587	2577.403330
564.511904	2576.730336
564.868164	2577.312589
565.224370	2577.098340
565.580520	2576.730336
565.936615	2579.195460
566.292654	2580.007086
566.648638	2578.401478
567.004567	2580.531366
567.360441	2581.025399
567.716260	2577.557085
568.072023	2576.737898
568.427732	2575.979204
568.783385	2577.874678
569.138982	2573.309913
569.494525	2575.701940
569.850013	2573.826631
570.205445	2578.915676
570.560823	2577.536920
570.916145	2575.102043
571.271412	2574.683627
571.626625	2582.280646
571.981782	2577.252095
572.336884	2579.510532
572.691931	2579.656726
573.046923	2580.584298
573.401860	2577.042887
573.756743	2577.589852
574.111570	2577.345357
574.466342	2577.862075
574.821059	2580.173444
575.175722	2574.945767
575.530330	2577.403330
575.884882	2577.040367
576.239380	2577.657908
576.593823	2580.657395
576.948211	2577.194122
577.302544	2577.395768
577.656823	2577.703278
578.011047	2578.993814
578.365216	2579.250913
578.719330	2578.015830
579.073389	2576.455593
579.427394	2574.577763
579.781344	2578.351067
580.135239	2580.095306
580.489080	2579.571026
580.842866	2579.064390
581.196597	2581.688311
581.550273	2580.773341
581.903895	2579.127404
582.257463	2577.705799
582.610975	2578.567836
582.964434	2578.071283
583.317837	2579.296283
583.671186	2578.945923
584.024481	2578.227558
584.377721	2577.932651
584.730906	2575.921231
585.084037	2578.726633
585.437113	2579.054308
585.790135	2580.158320
586.143103	2576.977352
586.496016	2579.210583
586.848874	2574.081209
587.201679	2574.648339
587.554428	2578.028433
587.907124	2578.262847
588.259765	2574.076168
588.612352	2578.335943
588.964884	2575.923751
589.317362	2578.265367
589.669786	2580.155800
590.022155	2575.530541
590.374470	2578.663618
590.726731	2581.259812
591.078937	2578.270408
591.431090	2579.533217
591.783188	2576.432908
592.135232	2579.893660
592.487222	2577.652867
592.839157	2579.145048
593.191038	2576.576581
593.542866	2579.752507
593.894639	2577.098340
594.246358	2579.533217
594.598022	2578.371231
594.949633	2578.993814
595.301190	2576.768144
595.652692	2576.339646
596.004141	2581.617734
596.355535	2579.215625
596.706876	2578.792168
597.058162	2576.846282
597.409395	2576.856365
597.760573	2577.874678
598.111698	2578.388875
598.462768	2576.599266
598.813785	2578.356108
599.164748	2579.066911
599.515657	2579.172775
599.866511	2579.064390
600.217312	2578.499781
600.568060	2580.269226
600.918753	2581.348033
601.269392	2577.231931
601.619978	2580.460790
601.970510	2580.428022
602.320988	2581.433732
602.671412	2578.691345
603.021783	2577.927610
603.372100	2577.128587
603.722363	2577.695717
604.072572	2578.290573
604.422728	2577.932651
604.772830	2575.553226
605.122878	2574.154306
605.472872	2577.536920
605.822813	2574.315623
606.172701	2572.964594
606.522534	2575.764955
606.872314	2579.041705
607.222041	2575.457444
607.571714	2575.447362
607.921333	2579.429874
608.270899	2577.862075
608.620411	2580.107909
608.969870	2581.441294
609.319276	2578.288052
609.668627	2578.371231
610.017926	2579.329051
610.367171	2577.335274
610.716362	2580.995152
611.065500	2578.993814
611.414585	2576.369893
611.763616	2578.056159
612.112594	2578.245202
612.461518	2579.870975
612.810389	2578.557754
613.159207	2578.436766
613.507971	2578.487178
613.856682	2577.209245
614.205340	2578.446849
614.553945	2578.023392
614.902496	2576.868968
615.250994	2581.106057
615.599439	2576.160685
615.947830	2577.173957
616.296169	2579.455079
616.644454	2577.698237
616.992686	2576.198494
617.340864	2579.394586
617.688990	2576.432908
618.037063	2576.861406
618.385082	2577.403330
618.733048	2579.384503
619.080961	2576.939544
619.428821	2577.562126
619.776628	2578.895511
620.124382	2580.433063
620.472083	2577.211766
620.819731	2578.862744
621.167326	2577.186560
621.514868	2577.236972
621.862357	2578.000707
622.209793	2578.575398
622.557176	2577.725964
622.904506	2575.492732
623.251783	2573.234296
623.599007	2574.207238
623.946179	2576.127918
624.293297	2574.930644
624.640363	2576.334605
624.987376	2577.249575
625.334336	2577.652867
625.681243	2579.172775
626.028097	2580.531366
626.374899	2577.932651
626.721647	2577.539441
627.068343	2578.860223
627.414987	2576.377455
627.761577	2580.864082
628.108115	2580.029771
628.454600	2579.419791
628.801032	2578.177147
629.147412	2577.773855
629.493739	2577.622620
629.840014	2578.280491
630.186236	2576.589183
630.532405	2578.517425
630.878521	2578.472054
631.224585	2577.264698
631.570597	2576.201015
631.916556	2578.194791
632.262462	2577.461303
632.608316	2579.127404
632.954117	2576.589183
633.299866	2575.016343
633.645562	2577.753690
633.991206	2580.417940
634.336797	2578.570357
634.682336	2579.838207
635.027823	2580.044894
635.373257	2577.635223
635.718639	2578.111612
636.063968	2578.749318
636.409245	2576.891653
636.754470	2577.962898
637.099642	2576.904256
637.444762	2579.571026
637.789829	2577.481468
638.134845	2577.085737
638.479808	2575.787640
638.824719	2577.713361
639.169577	2576.359811
639.514383	2574.920562
639.859137	2576.044739
640.203839	2575.018864
640.548489	2577.262177
640.893086	2574.870150
641.237632	2574.514749
641.582125	2574.403843
641.926566	2574.713874
642.270955	2574.721436
642.615292	2576.634554
642.959576	2579.011458
643.303809	2575.714543
643.647990	2574.955850
643.992118	2575.170099
644.336195	2577.872157
644.680219	2576.518607
645.024192	2577.720923
645.368112	2576.742939
645.711981	2577.451221
646.055797	2575.739749
646.399562	2576.735377
646.743274	2577.562126
647.086935	2577.829307
647.430544	2576.135480
647.774101	2580.662436
648.117606	2576.284194
648.461059	2573.826631
648.804460	2577.945254
649.147810	2577.168916
649.491108	2578.857703
649.834354	2575.253278
650.177548	2576.904256
650.520690	2576.228741
650.863781	2575.238154
651.206820	2577.224369
651.549807	2576.261508
651.892742	2573.695561
652.235626	2576.629513
652.578458	2576.387537
652.921238	2577.153793
653.263967	2577.279822
653.606644	2573.529203
653.949269	2577.705799
654.291843	2574.602969
654.634365	2576.637074
654.976836	2574.108936
655.319255	2575.016343
655.661622	2577.201684
656.003938	2577.874678
656.346203	2574.154306
656.688416	2574.741601
657.030577	2574.602969
657.372687	2578.323340
657.714746	2577.589852
658.056753	2577.539441
658.398708	2573.030129
658.740612	2574.887794
659.082465	2574.247568
659.424266	2572.838565
659.766016	2570.983420
660.107715	2577.960377
660.449362	2576.896694
660.790958	2578.167065
661.132503	2574.355952
661.473996	2576.959708
661.815438	2575.853175
662.156829	2576.904256
662.498168	2576.006930
662.839456	2575.177660
663.180693	2575.923751
663.521879	2576.266550
663.863013	2574.799574
664.204097	2578.792168
664.545129	2575.202866
664.886110	2575.742270
665.227040	2578.202353
665.567918	2574.837382
665.908746	2574.280335
666.249522	2575.903587
666.590248	2574.618092
666.930922	2578.217476
667.271545	2575.890984
667.612118	2576.914338
667.952639	2575.439800
668.293109	2577.032805
668.633528	2575.742270
668.973896	2574.827300
669.314213	2576.785788
669.654480	2577.650346
669.994695	2575.359142
670.334859	2575.984245
670.674973	2576.390058
671.015035	2573.894687
671.355047	2575.288566
671.695008	2575.812846
672.034918	2576.816035
672.374777	2575.737228
672.714585	2576.770665
673.054342	2575.840572
673.394049	2575.248237
673.733705	2577.632702
674.073310	2576.632033
674.412864	2578.217476
674.752368	2574.434090
675.091820	2576.884091
675.431223	2577.042887
675.770574	2576.722774
676.109875	2567.260528
676.449125	2570.854871
676.788324	2572.505849
677.127473	2574.504666
677.466571	2572.200859
677.805619	2573.267063
678.144616	2576.387537
678.483562	2576.682445
678.822458	2573.488874
679.161303	2575.477609
679.500098	2574.827300
679.838842	2575.263360
680.177535	2575.641447
680.516179	2574.983576
680.854771	2578.217476
681.193314	2575.591035
681.531805	2577.456262
681.870247	2578.000707
682.208638	2576.526169
682.546978	2577.552044
682.885268	2574.839903
683.223508	2576.316961
683.561697	2576.795871
683.899836	2577.342836
684.237925	2574.852506
684.575963	2574.668504
684.913951	2575.666652
685.251889	2577.713361
685.589776	2575.049111
685.927614	2575.611200
686.265401	2576.548854
686.603137	2575.926272
686.940824	2574.592887
687.278460	2576.518607
687.616046	2574.998699
687.953582	2575.414595
688.291068	2574.386199
688.628504	2573.882084
688.965889	2576.475758
689.303224	2578.247723
689.640510	2573.471230
689.977745	2574.542475
690.314930	2576.120356
690.652065	2577.040367
690.989150	2576.483319
691.326185	2577.867116
691.663170	2574.993658
692.000105	2574.053483
692.336990	2575.759914
692.673825	2574.797053
693.010610	2578.472054
693.347345	2571.981569
693.684030	2572.435273
694.020665	2574.018195
694.357251	2571.018708
694.693786	2571.215313
695.030272	2572.309244
695.366707	2575.444842
695.703093	2574.018195
696.039429	2575.956519
696.375716	2575.704461
696.711952	2572.999882
697.048139	2576.874009
697.384276	2575.936354
697.720363	2575.212948
698.056400	2573.705643
698.392388	2576.987435
698.728326	2574.993658
699.064214	2575.248237
699.400053	2575.243195
699.735842	2576.286714
700.071581	2572.712536
700.407270	2574.918041
700.742910	2575.507856
701.078501	2575.104564
701.414042	2576.097671
701.749533	2573.473750
702.084974	2578.328382
702.420366	2574.018195
702.755709	2576.594225
703.091002	2571.386713
703.426246	2575.144893
703.761440	2574.338308
704.096584	2577.340315
704.431679	2574.381158
704.766725	2576.226220
705.101721	2574.194635
705.436668	2576.511046
705.771565	2573.929975
706.106413	2572.689851
706.441212	2574.098853
706.775961	2573.624985
707.110661	2572.810839
707.445311	2575.671693
707.779913	2576.153124
708.114465	2574.615572
708.448967	2574.494584
708.783421	2573.176322
709.117825	2576.289235
709.452180	2574.444172
709.786485	2573.748493
710.120742	2573.912331
710.454949	2574.613051
710.789107	2570.738924
711.123216	2570.224727
711.457275	2573.080540
711.791286	2571.495097
712.125247	2572.316806
712.459159	2575.243195
712.793023	2576.511046
713.126837	2572.861250
713.460602	2574.287897
713.794318	2574.776889
714.127985	2576.203535
714.461602	2575.107084
714.795171	2576.069945
715.128691	2574.464337
715.462162	2574.159347
715.795584	2576.082547
716.128957	2576.324523
716.462281	2573.317475
716.795556	2573.015005
717.128782	2573.808987
717.461960	2572.029460
717.795088	2572.800756
718.128167	2574.265212
718.461198	2572.533575
718.794180	2576.982393
719.127113	2574.895356
719.459997	2576.412743
719.792833	2573.786302
720.125619	2572.500808
720.458357	2574.920562
720.791046	2574.590366
721.123686	2573.514080
721.456278	2576.281673
721.788821	2573.617423
722.121315	2574.439131
722.453761	2573.267063
722.786158	2574.345870
723.118506	2574.277814
723.450805	2574.431570
723.783056	2571.301013
724.115259	2571.898390
724.447412	2572.536096
724.779518	2572.820921
725.111574	2572.906621
725.443582	2572.881415
725.775542	2573.186405
726.107453	2574.676066
726.439315	2573.967783
726.771129	2578.547672
727.102895	2575.354101
727.434612	2575.747311
727.766281	2572.793195
728.097901	2571.081723
728.429473	2570.388564
728.760996	2572.445355
729.092471	2569.965107
729.423897	2573.945098
729.755276	2572.717577
730.086606	2575.633885
730.417887	2572.097515
730.749120	2574.764286
731.080305	2574.003072
731.411442	2573.735890
731.742530	2575.187743
732.073570	2575.860737
732.404562	2574.391240
732.735506	2574.655901
733.066401	2574.393761
733.397249	2573.972825
733.728048	2574.676066
734.058798	2573.088102
734.389501	2570.068451
734.720156	2574.290417
735.050762	2573.466189
735.381320	2572.397464
735.711831	2575.434759
736.042293	2573.695561
736.372707	2574.413926
736.703073	2576.843762
737.033391	2572.515931
737.363661	2573.541806
737.693883	2575.275963
738.024056	2575.172619
738.354182	2571.338822
738.684260	2571.628688
739.014290	2573.912331
739.344272	2572.694892
739.674207	2574.658422
740.004093	2574.635736
740.333931	2573.811508
740.663722	2575.465006
740.993464	2574.522310
741.323159	2574.920562
741.652806	2571.913513
741.982405	2575.618761
742.311956	2574.154306
742.641460	2575.359142
742.970915	2572.631878
743.300323	2575.432239
743.629683	2575.525500
743.958996	2575.356621
744.288260	2571.568194
744.617477	2572.657083
744.946647	2570.539799
745.275768	2571.855540
745.604842	2571.013667
745.933869	2569.014850
746.262847	2568.790518
746.591778	2570.922927
746.920662	2572.087433
747.249498	2572.190777
747.578286	2574.862588
747.907027	2573.685479
748.235720	2571.469892
748.564365	2577.516756
748.892963	2570.950653
749.221514	2572.982238
749.550017	2572.294120
749.878473	2573.950139
750.206881	2573.173802
750.535242	2573.824111
750.863555	2574.028277
751.191821	2573.209090
751.520039	2574.106415
751.848210	2575.701940
752.176334	2572.861250
752.504411	2573.060376
752.832440	2573.080540
753.160421	2572.659604
753.488356	2571.462330
753.816243	2572.329408
754.144082	2573.980386
754.471875	2574.282856
754.799620	2573.531724
755.127318	2571.729511
755.454969	2573.342680
755.782572	2573.183884
756.110129	2573.672876
756.437638	2574.542475
756.765100	2570.610375
757.092515	2571.865622
757.419882	2573.009964
757.747203	2575.265881
758.074477	2572.881415
758.401703	2573.786302
758.728882	2572.994841
759.056014	2572.894018
759.383099	2572.208421
759.710138	2573.375448
760.037129	2571.119532
760.364073	2575.666652
760.690970	2571.790005
761.017820	2572.722618
761.344623	2572.107598
761.671379	2573.783781
761.998088	2568.646846
762.324751	2568.505693
762.651366	2569.876887
762.977935	2571.653894
763.304456	2570.522155
763.630931	2574.915520
763.957359	2575.971642
764.283740	2573.672876
764.610074	2572.238668
764.936362	2575.805284
765.262602	2573.325036
765.588796	2572.455437
765.914943	2573.199007
766.241044	2574.459296
766.567097	2573.614903
766.893104	2573.188925
767.219064	2573.060376
767.544978	2572.641960
767.870845	2571.278328
768.196665	2572.883935
768.522438	2571.482495
768.848165	2574.156827
769.173846	2570.552402
769.499479	2570.249932
769.825066	2572.566343
770.150607	2572.296641
770.476101	2572.304203
770.801548	2572.069789
771.126949	2570.794377
771.452303	2570.081054
771.777611	2572.631878
772.102872	2572.213462
772.428087	2570.736404
772.753256	2573.715726
773.078378	2571.870663
773.403453	2569.526527
773.728482	2573.393092
774.053465	2572.006775
774.378401	2572.982238
774.703291	2571.280848
775.028135	2572.163050
775.352932	2572.868812
775.677683	2570.237330
776.002388	2571.593400
776.327046	2573.652711
776.651658	2573.057855
776.976224	2570.552402
777.300743	2574.073648
777.625216	2572.795715
777.949643	2572.805797
778.274024	2572.011816
778.598359	2566.153995
778.922647	2569.967628
779.246889	2570.345714
779.571086	2566.738769
779.895236	2570.307906
780.219339	2572.440314
780.543397	2573.085582
780.867409	2571.840417
781.191374	2571.910993
781.515294	2571.449727
781.839167	2569.914696
782.162995	2569.435786
782.486776	2573.743452
782.810511	2571.769840
783.134201	2572.339491
783.457844	2570.678431
783.781441	2572.735221
784.104993	2571.666497
784.428498	2570.658266
784.751958	2573.640108
785.075372	2573.544327
785.398739	2573.786302
785.722061	2574.076168
786.045337	2572.142886
786.368568	2573.824111
786.691752	2570.549881
787.014891	2570.209603
787.337983	2572.911662
787.661030	2570.620457
787.984031	2571.951322
788.306987	2571.079202
788.629897	2572.342011
788.952760	2571.885787
789.275579	2569.949984
789.598351	2573.302351
789.921078	2569.234140
790.243759	2570.645663
790.566395	2566.280024
790.888984	2570.638101
791.211529	2568.989644
791.534027	2573.942578
791.856480	2569.579459
792.178888	2572.493246
792.501249	2569.513924
792.823566	2570.133986
793.145836	2571.381672
793.468062	2572.195818
793.790241	2572.009295
794.112375	2573.279666
794.434464	2571.653894
794.756507	2570.781774
795.078505	2573.440983
795.400457	2572.684810
795.722364	2567.200034
796.044226	2566.955538
796.366042	2567.726835
796.687812	2569.710529
797.009538	2570.887638
797.331218	2571.588359
797.652852	2570.771692
797.974442	2570.491908
798.295986	2570.375961
798.617484	2568.709860
798.938938	2570.922927
799.260346	2571.306054
799.581709	2571.323698
799.903026	2573.624985
800.224299	2571.888307
800.545526	2571.895869
800.866708	2571.931157
801.187845	2570.743966
801.508936	2572.735221
801.829983	2571.590879
802.150984	2573.433421
802.471940	2572.019377
802.792851	2571.051476
803.113717	2570.194480
803.434538	2571.212793
803.755314	2569.622309
804.076045	2570.166753
804.396731	2573.372927
804.717372	2569.408060
805.037967	2569.675241
805.358518	2568.319171
805.679024	2569.173646
805.999485	2571.132134
806.319901	2572.226065
806.640272	2570.315467
806.960598	2571.295972
807.280879	2571.631209
807.601115	2568.757751
807.921306	2570.227247
808.241453	2568.603996
808.561554	2574.383679
808.881611	2571.575756
809.201623	2570.335632
809.521590	2571.643812
809.841513	2570.756568
810.161390	2570.411249
810.481223	2570.333112
810.801011	2572.583987
811.120755	2570.381002
811.440453	2572.125242
811.760107	2573.289748
812.079716	2566.963100
812.399281	2568.515776
812.718801	2570.098698
813.038276	2568.639284
813.357707	2573.080540
813.677093	2570.224727
813.996434	2570.552402
814.315731	2571.316137
814.634983	2571.336301
814.954191	2568.407391
815.273354	2572.185736
815.592473	2572.047104
815.911547	2571.807649
816.230577	2572.291600
816.549562	2570.597772
816.868502	2571.061558
817.187399	2571.270766
817.506250	2570.136507
817.825058	2572.412588
818.143821	2571.064079
818.462539	2572.548699
818.781213	2570.660787
819.099843	2571.149778
819.418429	2572.410067
819.736970	2573.836713
820.055466	2572.100036
820.373919	2572.195818
820.692327	2572.561302
821.010691	2568.949315
821.329011	2571.321178
821.647286	2577.236972
821.965517	2572.407546
822.283704	2573.758576
822.601847	2574.608010
822.919945	2574.081209
823.237999	2574.517269
823.556010	2572.967114
823.873976	2574.965932
824.191897	2572.810839
824.509775	2573.259501
824.827609	2572.924265
825.145398	2571.643812
825.463144	2572.271435
825.780845	2573.405695
826.098502	2570.776733
826.416116	2571.479974
826.733685	2571.099367
827.051210	2572.452917
827.368692	2571.984089
827.686129	2572.652042
828.003522	2569.279510
828.320872	2567.068964
828.638177	2566.479149
828.955439	2566.829510
829.272656	2569.342525
829.589830	2566.600137
829.906960	2572.536096
830.224046	2570.078533
830.541088	2571.646332
830.858086	2571.379151
831.175041	2572.402505
831.491952	2569.980231
831.808819	2571.048955
832.125642	2570.960735
832.442421	2573.241857
832.759157	2569.569377
833.075849	2571.774882
833.392497	2570.559963
833.709101	2569.856722
834.025662	2567.810014
834.342179	2570.948132
834.658653	2570.277659
834.975083	2567.633574
835.291469	2574.113977
835.607811	2571.958884
835.924110	2572.989800
836.240366	2570.081054
836.556578	2568.730025
836.872746	2573.372927
837.188871	2568.881259
837.504952	2571.038873
837.820990	2570.406208
838.136984	2568.372103
838.452935	2569.529048
838.768842	2571.878225
839.084706	2567.610888
839.400526	2569.481157
839.716303	2568.687175
840.032037	2569.216496
840.347727	2569.052658
840.663373	2570.413770
840.978977	2570.582649
841.294537	2568.972000
841.610054	2569.619788
841.925527	2571.089285
842.240957	2570.575087
842.556344	2571.797567
842.871687	2569.851681
843.186987	2569.990313
843.502244	2570.461661
843.817458	2569.042576
844.132629	2570.897721
844.447756	2569.355128
844.762840	2567.336146
845.077881	2563.497307
845.392879	2566.121228
845.707833	2565.468398
846.022745	2566.476629
846.337613	2568.198183
846.652438	2569.748338
846.967221	2569.947463
847.281960	2568.619119
847.596656	2572.100036
847.911309	2567.328584
848.225919	2568.109963
848.540485	2568.777916
848.855009	2570.108780
849.169490	2573.035170
849.483928	2569.602144
849.798323	2570.718760
850.112675	2569.955025
850.426984	2569.415622
850.741251	2568.803121
851.055474	2569.067782
851.369654	2569.685323
851.683792	2570.345714
851.997887	2569.521486
852.311938	2569.392936
852.625947	2568.661969
852.939914	2566.713563
853.253837	2570.469223
853.567718	2570.126424
853.881555	2568.944274
854.195350	2569.019891
854.509103	2569.836558
854.822812	2568.813204
855.136479	2571.497618
855.450103	2569.763461
855.763685	2569.927299
856.077224	2568.982082
856.390720	2567.825137
856.704173	2568.876218
857.017584	2568.372103
857.330953	2567.681465
857.644278	2568.659448
857.957561	2571.810170
858.270802	2572.276476
858.584000	2569.768502
858.897155	2571.149778
859.210268	2566.920250
859.523339	2568.488049
859.836367	2568.235992
860.149352	2566.796742
860.462295	2570.375961
860.775195	2567.013512
861.088054	2566.025446
861.400869	2567.542833
861.713642	2566.718604
862.026373	2564.598799
862.339062	2568.969479
862.651708	2570.176836
862.964312	2569.743297
863.276873	2567.699109
863.589392	2570.633060
863.901869	2565.549057
864.214303	2567.890672
864.526696	2566.562328
864.839045	2569.531568
865.151353	2569.150961
865.463619	2569.985272
865.775842	2571.094326
866.088023	2569.559294
866.400162	2572.142886
866.712258	2569.203893
867.024313	2567.880590
867.336325	2567.804973
867.648296	2570.396126
867.960224	2569.813873
868.272110	2568.750189
868.583954	2568.193142
868.895755	2569.324881
869.207515	2568.064592
869.519233	2570.691033
869.830909	2569.468554
870.142542	2567.313460
870.454134	2569.392936
870.765684	2571.260684
871.077191	2567.338666
871.388657	2570.058369
871.700081	2567.131979
872.011463	2566.713563
872.322803	2568.160374
872.634101	2569.511403
872.945357	2568.926630
873.256571	2568.624160
873.567744	2568.296485
873.878874	2570.751527
874.189963	2569.307237
874.501010	2572.417629
874.812015	2568.505693
875.122979	2570.320509
875.433900	2567.469736
875.744780	2567.454613
876.055618	2569.249263
876.366415	2571.227916
876.677169	2569.483677
876.987882	2564.218192
877.298554	2565.072668
877.609183	2564.049313
877.919771	2564.717266
878.230317	2563.028480
878.540822	2571.905952
878.851285	2569.713050
879.161707	2569.745817
879.472087	2567.096691
879.782425	2567.414283
880.092722	2568.523337
880.402977	2570.212124
880.713191	2568.054510
881.023363	2568.863615
881.333494	2569.206414
881.643583	2571.051476
881.953631	2570.938050
882.263637	2569.392936
882.573602	2569.569377
882.883526	2569.730694
883.193408	2569.539130
883.503248	2570.002916
883.813048	2570.635581
884.122806	2568.477967
884.432522	2571.311095
884.742197	2571.416960
885.051831	2568.757751
885.361424	2567.951166
885.670975	2568.800601
885.980485	2570.557443
886.289954	2567.888152
886.599382	2570.917885
886.908768	2568.540981
887.218113	2569.007288
887.527417	2572.873853
887.836680	2569.609706
888.145901	2570.759089
888.455082	2569.997875
888.764221	2568.798080
889.073319	2566.441341
889.382376	2567.096691
889.691392	2569.957546
890.000366	2569.672720
890.309300	2569.697926
890.618193	2567.467216
890.927044	2568.707339
891.235855	2569.029973
891.544625	2568.044428
891.853353	2569.670200
892.162041	2570.491908
892.470687	2571.205231
892.779293	2569.113152
893.087858	2564.795404
893.396381	2565.387740
893.704864	2565.155847
894.013306	2564.671896
894.321707	2567.933522
894.630068	2568.115004
894.938387	2566.595096
895.246665	2569.725652
895.554903	2570.983420
895.863100	2570.018039
896.171256	2570.446537
896.479371	2567.610888
896.787446	2568.871177
897.095480	2570.640622
897.403473	2568.629202
897.711425	2570.189439
898.019336	2569.730694
898.327207	2568.601475
898.635038	2566.375806
898.942827	2568.483008
899.250576	2571.674058
899.558284	2566.040569
899.865952	2567.343707
900.173579	2568.281362
900.481165	2568.810683
900.788711	2565.546536
901.096216	2569.859243
901.403681	2566.763975
901.711105	2568.682134
902.018489	2569.045097
902.325832	2570.368400
902.633135	2568.866136
902.940397	2566.859757
903.247619	2568.916547
903.554800	2566.494273
903.861941	2569.816393
904.169041	2567.706670
904.476101	2568.596434
904.783121	2567.658779
905.090100	2570.728842
905.397039	2565.153326
905.703938	2568.813204
906.010796	2569.771023
906.317614	2569.730694
906.624391	2568.044428
906.931129	2567.777247
907.237826	2566.635425
907.544483	2568.142730
907.851099	2566.406053
908.157675	2564.717266
908.464211	2567.797411
908.770707	2563.333469
909.077163	2562.715928
909.383578	2565.289437
909.689954	2564.382029
909.996289	2561.556463
910.302584	2563.630897
910.608839	2566.171639
910.915054	2568.805642
911.221229	2566.269942
911.527363	2569.455951
911.833458	2569.216496
912.139513	2566.774057
912.445527	2567.605847
912.751502	2566.895045
913.057436	2567.893193
913.363331	2566.050651
913.669186	2567.976372
913.975000	2566.411094
914.280775	2570.789336
914.586510	2567.268090
914.892205	2567.326063
915.197859	2571.036352
915.503475	2567.956207
915.809050	2566.905127
916.114585	2567.941084
916.420081	2568.724983
916.725536	2566.799263
917.030952	2568.533420
917.336328	2569.304716
917.641665	2570.872515
917.946961	2567.915878
918.252218	2569.221537
918.557435	2569.801270
918.862612	2569.118193
919.167750	2565.624674
919.472848	2569.856722
919.777906	2568.583831
920.082925	2567.341187
920.387904	2568.349418
920.692843	2566.481670
920.997743	2566.874880
921.302603	2567.840261
921.607423	2567.164746
921.912204	2566.390929
922.216946	2566.877401
922.521647	2568.082236
922.826310	2568.220868
923.130932	2569.362689
923.435516	2569.980231
923.740059	2568.057031
924.044564	2567.620971
924.349028	2568.276321
924.653454	2563.343552
924.957840	2564.250959
925.262186	2566.862277
925.566493	2566.227092
925.870761	2563.283058
926.174989	2566.406053
926.479178	2567.358831
926.783328	2567.804973
927.087438	2567.313460
927.391509	2568.825807
927.695541	2566.307750
927.999533	2565.604509
928.303486	2566.973182
928.607400	2563.396484
928.911275	2565.614592
929.215110	2567.847823
929.518906	2566.562328
929.822663	2566.572411
930.126381	2564.911351
930.430060	2565.385219
930.733699	2567.578121
931.037299	2566.708522
931.340861	2566.532082
931.644383	2568.742628
931.947866	2567.789849
932.251309	2566.693398
932.554714	2567.116855
932.858080	2568.667010
933.161407	2565.193655
933.464694	2566.274983
933.767943	2567.469736
934.071153	2566.441341
934.374323	2564.636608
934.677455	2566.179201
934.980548	2568.798080
935.283602	2565.032338
935.586617	2569.329922
935.889593	2565.753223
936.192530	2566.426217
936.495428	2567.454613
936.798287	2567.784808
937.101108	2565.828841
937.403890	2566.156516
937.706632	2569.120714
938.009336	2565.980075
938.312002	2568.467885
938.614628	2566.398491
938.917216	2567.419325
939.219765	2567.603327
939.522275	2568.039387
939.824747	2568.021742
940.127179	2562.670558
940.429573	2563.207441
940.731929	2562.350444
941.034246	2561.485887
941.336524	2562.000084
941.638763	2569.453430
941.940964	2565.576783
942.243126	2568.467885
942.545250	2564.853377
942.847335	2568.707339
943.149381	2566.254818
943.451389	2566.622822
943.753359	2569.009809
944.055290	2565.173491
944.357182	2567.676423
944.659036	2567.651218
944.960851	2564.351782
945.262628	2565.675085
945.564367	2568.132648
945.866067	2567.084088
946.167729	2566.978224
946.469352	2565.884293
946.770937	2568.485529
947.072484	2566.791701
947.373992	2567.797411
947.675462	2565.241546
947.976893	2568.359500
948.278286	2566.108625
948.579641	2566.292627
948.880958	2565.438151
949.182236	2566.277503
949.483476	2566.642987
949.784678	2568.392267
950.085841	2566.592575
950.386967	2569.002247
950.688054	2565.884293
950.989103	2568.115004
951.290114	2566.111145
951.591087	2566.048131
951.892021	2567.192473
952.192917	2567.573080
952.493776	2564.011505
952.794596	2565.854046
953.095378	2565.478480
953.396122	2565.498645
953.696828	2564.923953
953.997496	2567.709191
954.298126	2566.222051
954.598718	2565.609550
954.899272	2565.402863
955.199788	2567.326063
955.500266	2565.869170
955.800706	2564.215671
956.101108	2560.762481
956.401472	2562.181566
956.701798	2562.204251
957.002087	2562.836916
957.302337	2566.998388
957.602550	2567.696588
957.902724	2565.637277
958.202861	2564.981927
958.502960	2564.313974
958.803022	2567.474777
959.103045	2563.940928
959.403031	2568.248594
959.702979	2564.503017
960.002889	2568.019222
960.302762	2567.225240
960.602596	2565.501166
960.902393	2566.332956
961.202153	2567.782288
961.501875	2565.924622
961.801559	2566.441341
962.101205	2567.361351
962.400814	2567.719273
962.700385	2567.439489
962.999918	2568.490570
963.299414	2566.834551
963.598873	2567.865467
963.898293	2565.662482
964.197677	2567.406722
964.497022	2565.682647
964.796331	2567.303378
965.095601	2567.862946
965.394835	2566.695919
965.694030	2566.005281
965.993189	2565.990157
966.292309	2564.921433
966.591393	2565.029818
966.890439	2562.126113
967.189447	2568.372103
967.488419	2567.331104
967.787353	2564.820610
968.086249	2565.402863
968.385108	2563.404046
968.683930	2568.006619
968.982714	2564.278686
969.281462	2565.352452
969.580172	2565.423028
969.878844	2564.326577
970.177480	2567.013512
970.476078	2564.581155
970.774639	2564.543346
971.073162	2564.006463
971.371649	2562.995712
971.670098	2564.356824
971.968510	2562.922615
972.266885	2562.466391
972.565223	2566.292627
972.863524	2565.039900
973.161788	2564.593758
973.460014	2565.501166
973.758204	2565.415466
974.056356	2562.421021
974.354471	2566.267421
974.652550	2566.310271
974.950591	2565.296999
975.248595	2569.173646
975.546563	2565.251628
975.844493	2565.118038
976.142386	2566.358162
976.440243	2562.673078
976.738062	2565.934705
977.035845	2564.913871
977.333590	2567.641135
977.631299	2565.390260
977.928971	2566.242215
978.226606	2564.465208
978.524204	2565.730538
978.821765	2564.319015
979.119290	2564.757595
979.416777	2565.901937
979.714228	2566.552246
980.011642	2565.130641
980.309020	2568.757751
980.606360	2564.747513
980.903664	2566.663152
981.200931	2566.292627
981.498162	2563.066288
981.795356	2564.886145
982.092513	2568.840930
982.389633	2565.390260
982.686717	2566.474108
982.983764	2567.310940
983.280775	2565.619633
983.577749	2565.420507
983.874686	2566.958059
984.171587	2564.566032
984.468451	2566.988306
984.765279	2563.018397
985.062070	2568.334294
985.358824	2564.412276
985.655543	2569.108111
985.952224	2564.394632
986.248869	2568.009140
986.545478	2562.312636
986.842050	2563.696432
987.138586	2564.268603
987.435086	2561.122923
987.731549	2559.071174
988.027975	2566.912689
988.324366	2563.041082
988.620719	2563.489745
988.917037	2567.177349
989.213318	2564.424879
989.509563	2566.771536
989.805772	2566.332956
990.101944	2564.213151
990.398080	2564.606361
990.694180	2565.806155
990.990244	2565.115517
991.286271	2564.477811
991.582262	2565.178532
991.878217	2565.977555
992.174136	2568.649366
992.470019	2566.937894
992.765865	2565.516289
993.061676	2567.807493
993.357450	2562.158881
993.653188	2564.036710
993.948890	2567.313460
994.244556	2564.553429
994.540186	2567.431927
994.835780	2566.070816
995.131337	2562.602502
995.426859	2564.881104
995.722345	2564.825651
996.017795	2561.057388
996.313208	2563.565362
996.608586	2565.160888
996.903928	2563.479663
997.199234	2563.943449
997.494504	2566.153995
997.789738	2563.837585
998.084936	2566.655590
998.380099	2565.846485
998.675225	2566.000240
998.970316	2564.434962
999.265371	2567.850343
999.560390	2563.673747
999.855373	2567.066444
1000.150320	2565.470919
1000.445232	2562.700805
1000.740108	2566.763975
1001.034948	2566.151474
1001.329752	2566.700960
1001.624521	2568.215827
1001.919254	2560.039075
1002.213951	2559.696277
1002.508613	2562.975547
1002.803239	2562.625187
1003.097829	2558.609908
1003.392384	2563.419169
1003.686903	2565.377657
1003.981386	2566.068295
1004.275834	2565.725497
1004.570246	2565.039900
1004.864623	2567.399160
1005.158964	2565.302040
1005.453270	2563.903120
1005.747540	2568.772874
1006.041775	2565.395301
1006.335974	2565.221382
1006.630138	2565.745662
1006.924266	2567.192473
1007.218359	2562.020249
1007.512416	2564.535785
1007.806438	2563.756926
1008.100425	2566.365723
1008.394376	2564.568552
1008.688292	2566.227092
1008.982172	2566.040569
1009.276017	2564.434962
1009.569827	2564.049313
1009.863602	2563.341031
1010.157341	2563.744323
1010.451045	2565.803635
1010.744714	2565.007132
1011.038347	2565.468398
1011.331945	2565.675085
1011.625508	2566.572411
1011.919036	2565.516289
1012.212528	2566.806824
1012.505986	2564.296330
1012.799408	2564.336659
1013.092795	2564.376988
1013.386147	2565.556618
1013.679464	2564.283727
1013.972745	2563.658624
1014.265992	2564.548387
1014.559204	2563.330949
1014.852380	2566.564849
1015.145521	2564.636608
1015.438628	2564.865980
1015.731699	2567.396639
1016.024736	2563.361196
1016.317737	2564.603840
1016.610703	2564.732390
1016.903635	2562.368088
1017.196531	2560.530588
1017.489393	2560.916236
1017.782219	2563.938408
1018.075011	2563.434293
1018.367768	2563.484704
1018.660490	2564.160219
1018.953177	2564.160219
1019.245829	2564.160219
