Dividing Wavelength (nm)	Counts (n)	Blue Motor Position (mm): 0.000000	Red Motor Position (mm): 26.000000	
326.493990	2082.130129
326.888308	2082.130129
327.282561	2082.130129
327.676750	2055.759853
328.070874	2060.770760
328.464933	2068.335012
328.858929	2075.621999
329.252859	2089.364185
329.646726	2104.666607
330.040528	2116.737650
330.434265	2138.296145
330.827938	2157.843219
331.221547	2176.467762
331.615091	2196.962573
332.008571	2217.767414
332.401986	2239.401526
332.795338	2261.282654
333.188625	2275.576846
333.581847	2297.899075
333.975006	2315.684266
334.368100	2335.317040
334.761129	2349.102075
335.154095	2365.274097
335.546996	2386.635986
335.939833	2409.142217
336.332606	2427.018149
336.725315	2435.094077
337.117960	2445.282249
337.510540	2451.886161
337.903056	2465.623305
338.295508	2470.351907
338.687896	2477.384317
339.080220	2485.714824
339.472480	2489.485607
339.864676	2491.300422
340.256807	2492.485093
340.648875	2497.165805
341.040879	2498.158912
341.432818	2497.871566
341.824694	2500.838285
342.216506	2498.572287
342.608253	2499.472133
342.999937	2500.555981
343.391557	2497.891731
343.783113	2497.054899
344.174605	2496.727224
344.566033	2492.225474
344.957397	2490.002325
345.348697	2489.707418
345.739934	2489.442757
346.131106	2485.883702
346.522215	2486.599546
346.913260	2481.886067
347.304241	2482.329689
347.695159	2478.228710
348.086012	2477.442290
348.476802	2477.270891
348.867528	2474.833493
349.258191	2474.871302
349.648789	2476.857516
350.039324	2470.510704
350.429796	2475.249388
350.820203	2472.963225
351.210548	2472.708647
351.600828	2471.934830
351.991045	2472.499439
352.381198	2471.952474
352.771288	2473.056486
353.161314	2471.823924
353.551276	2469.928450
353.941175	2473.419449
354.331010	2472.222175
354.720782	2470.331743
355.110490	2473.500108
355.500135	2473.568163
355.889717	2472.081023
356.279235	2472.673359
356.668689	2475.360294
357.058080	2474.457927
357.447408	2471.271918
357.836672	2469.570528
358.225873	2474.687300
358.615010	2472.633029
359.004084	2478.170737
359.393095	2479.156283
359.782043	2479.930100
360.170927	2481.021509
360.559748	2484.018475
360.948505	2483.993270
361.337199	2482.659884
361.725830	2480.882878
362.114398	2484.358753
362.502903	2486.221460
362.891344	2487.194402
363.279722	2485.540904
363.668037	2488.953765
364.056289	2488.827736
364.444478	2488.106851
364.832603	2488.222798
365.220665	2490.382932
365.608665	2492.162459
365.996601	2492.159939
366.384474	2493.266472
366.772284	2490.801348
367.160031	2493.717655
367.547715	2495.083808
367.935336	2496.306288
368.322893	2494.894765
368.710388	2499.124293
369.097820	2501.886845
369.485189	2496.656648
369.872495	2501.985148
370.259738	2500.205620
370.646918	2506.081085
371.034035	2506.413801
371.421090	2508.931858
371.808081	2510.159379
372.195010	2513.181550
372.581875	2521.312932
372.968678	2525.411390
373.355418	2534.152750
373.742096	2542.382434
374.128710	2550.594474
374.515262	2557.589075
374.901751	2575.202866
375.288177	2589.423961
375.674540	2604.769233
376.060841	2625.006946
376.447079	2645.345481
376.833254	2668.219716
377.219367	2689.251410
377.605417	2721.991184
377.991404	2746.695358
378.377329	2784.438477
378.763191	2814.574495
379.148991	2858.538397
379.534727	2907.170409
379.920402	2949.805967
380.306013	2994.510920
380.691563	3055.082904
381.077049	3108.294803
381.462474	3160.972340
381.847835	3227.855849
382.233134	3295.364461
382.618371	3351.966536
383.003545	3433.136675
383.388657	3510.430166
383.773706	3596.447374
384.158693	3664.550842
384.543618	3754.497629
384.928480	3827.052436
385.313280	3924.928959
385.698017	4025.462169
386.082692	4138.454592
386.467305	4200.470866
386.851856	4317.773475
387.236344	4464.287050
387.620770	4525.872306
388.005133	4636.676867
388.389435	4775.583341
388.773674	4855.888922
389.157851	4986.865660
389.541965	5112.163539
389.926018	5138.743023
390.310008	5306.734434
390.693936	5422.328091
391.077802	5532.237848
391.461606	5663.494371
391.845348	5769.998828
392.229027	5886.157095
392.612645	6102.886381
392.996200	6215.611622
393.379694	6384.704525
393.763125	6598.711588
394.146494	6688.938160
394.529801	6819.864487
394.913047	7048.735392
395.296230	7054.651186
395.679351	7106.350739
396.062410	7355.078750
396.445408	7258.802793
396.828343	7406.614465
397.211217	7541.004065
397.594028	7427.978875
397.976778	7628.705019
398.359466	7791.491438
398.742092	7769.060824
399.124656	7915.607166
399.507158	8105.003316
399.889598	8129.029456
400.271977	8332.989499
400.654294	8360.990588
401.036549	8565.822751
401.418742	8594.723686
401.800874	8881.835042
402.182944	8969.006674
402.564952	9321.262340
402.946898	9162.576899
403.328783	9212.703613
403.710606	9404.401049
404.092367	9657.658536
404.474067	10015.439307
404.855705	9821.690121
405.237282	9770.787070
405.618797	10193.321462
406.000250	10437.245252
406.381642	10791.686259
406.762972	10738.749102
407.144240	10560.075486
407.525447	10811.223250
407.906593	10753.186967
408.287677	11011.115083
408.668700	11158.210911
409.049661	11148.650362
409.430560	11311.938377
409.811399	11282.059458
410.192176	11448.104983
410.572891	11518.585355
410.953545	11996.148983
411.334138	11495.141469
411.714669	12057.378837
412.095139	11414.830847
412.475547	11890.080585
412.855894	11755.564956
413.236180	12077.235942
413.616405	11772.777976
413.996568	12043.397197
414.376670	12021.306861
414.756711	11908.773183
415.136691	12183.632015
415.516609	12354.287675
415.896466	12438.328751
416.276262	12730.808935
416.655997	13181.818285
417.035670	13232.670924
417.415283	13842.721116
417.794834	13931.528603
418.174324	13683.231611
418.553753	13591.928753
418.933121	14075.637547
419.312428	13910.554882
419.691674	13813.696673
420.070859	14276.189770
420.449983	13940.446404
420.829045	14485.342202
421.208047	14250.555503
421.586988	14691.699314
421.965867	14939.308188
422.344686	14945.990238
422.723444	15514.042577
423.102141	14219.002921
423.480777	15395.593105
423.859352	14898.331169
424.237866	16003.427710
424.616319	15719.386417
424.994712	16360.510281
425.373044	16159.083417
425.751314	16844.773602
426.129524	15981.178577
426.507673	17053.691620
426.885762	16777.998478
427.263789	16956.694779
427.641756	17146.524468
428.019662	17206.055454
428.397508	17246.609016
428.775292	17539.205147
429.153016	17512.124068
429.530679	17591.156758
429.908282	17621.499463
430.285824	17363.770472
430.663305	18068.112926
431.040726	17681.937856
431.418086	17528.596038
431.795385	18155.823962
432.172624	18590.086598
432.549802	18150.883631
432.926920	18359.826855
433.303977	18235.297752
433.680974	18502.662908
434.057910	18807.405699
434.434786	18841.418364
434.811601	18767.777189
435.188355	19803.855292
435.565050	19471.484457
435.941683	19432.523900
436.318257	20331.273410
436.694770	20123.759353
437.071222	20723.366795
437.447614	19791.680905
437.823946	19822.381532
438.200218	20008.180819
438.576429	19781.933834
438.952580	20079.518187
439.328670	20037.820283
439.704700	20467.679472
440.080670	20032.814417
440.456580	20650.365846
440.832429	20803.805966
441.208218	19818.633434
441.583947	20263.782443
441.959616	20379.512211
442.335224	20617.870568
442.710773	20756.076321
443.086261	21299.691667
443.461689	20638.246912
443.837057	20796.723145
444.212365	21448.783792
444.587612	21442.671393
444.962800	21040.541071
445.337927	21456.607663
445.712995	20175.411016
446.088002	22052.545144
446.462949	22251.080906
446.837837	22434.962034
447.212664	22429.124378
447.587431	25364.179929
447.962139	28296.977043
448.336786	30569.791337
448.711374	28898.979032
449.085901	25178.831825
449.460369	25173.997359
449.834776	25157.754761
450.209124	27656.435432
450.583412	27119.575233
450.957640	27573.906703
451.331808	26219.683901
451.705917	24825.056251
452.079965	24838.667367
452.453954	25187.122003
452.827883	25072.292080
453.201752	24831.395502
453.575562	24947.420178
453.949311	26007.161458
454.323001	26023.512440
454.696632	25761.725321
455.070202	27245.571312
455.443713	27366.246452
455.817164	27859.951854
456.190556	28323.788420
456.563888	27689.182768
456.937160	28016.981276
457.310373	26324.789438
457.683526	26659.380901
458.056619	26562.331128
458.429653	26459.108462
458.802628	26939.643849
459.175542	26951.155324
459.548398	28127.185940
459.921194	29532.911690
460.293930	30060.173533
460.666607	31842.919617
461.039224	33340.853112
461.411782	33509.454502
461.784280	32205.184494
462.156719	31545.960368
462.529099	30890.421324
462.901419	29552.647807
463.273680	28450.356669
463.645882	28421.932123
464.018024	28251.576411
464.390106	28895.349402
464.762130	31220.858877
465.134094	34729.464145
465.505999	39247.772199
465.877845	43057.271338
466.249631	43742.666615
466.621358	41817.689416
466.993026	39602.135068
467.364634	37489.770618
467.736184	35568.123102
468.107674	34242.629836
468.479105	33334.133254
468.850477	32490.100427
469.221790	31063.952963
469.593043	29431.629868
469.964238	28452.869684
470.335373	28172.493310
470.706449	29350.734473
471.077467	31189.555832
471.448425	34507.648334
471.819324	36393.891828
472.190164	34551.045107
472.560945	31499.725425
472.931667	28867.973416
473.302330	27763.670857
473.672934	26901.991471
474.043479	26997.450760
474.413965	26181.063621
474.784393	25660.211606
475.154761	26018.806523
475.525070	25769.919717
475.895321	25181.770818
476.265513	25318.446581
476.635645	25694.899786
477.005719	25313.140767
477.375734	25339.861403
477.745691	25503.908110
478.115588	26058.301443
478.485427	27078.830107
478.855207	28936.959085
479.224928	30287.479160
479.594591	30931.292479
479.964194	29841.700007
480.333739	29546.391736
480.703226	29205.423213
481.072653	29217.922754
481.442022	29145.975406
481.811333	28883.290962
482.180584	27703.189614
482.549777	27015.576229
482.918912	26354.993511
483.287988	25805.147300
483.657005	24990.590099
484.025964	24278.685915
484.394864	23917.575462
484.763706	23330.971677
485.132489	22542.545298
485.501213	22120.613324
485.869879	21858.979960
486.238487	21343.113646
486.607036	21093.117785
486.975527	20516.145125
487.343959	20309.425049
487.712333	20002.307875
488.080648	19648.265120
488.448905	19514.309059
488.817104	19109.053222
489.185244	19200.056131
489.553326	19592.653631
489.921350	20392.946886
490.289315	21300.026904
490.657222	21178.772030
491.025070	20921.078328
491.392861	20151.934362
491.760593	19256.290202
492.128267	18250.960617
492.495883	17350.061054
492.863440	16536.996036
493.230939	15784.813032
493.598380	15161.212219
493.965763	14780.532007
494.333088	14263.763326
494.700354	13869.633316
495.067563	13525.065409
495.434713	13232.847365
495.801805	12994.572187
496.168839	12646.616625
496.535815	12316.158908
496.902733	12082.917323
497.269593	11755.073444
497.636395	11501.921821
498.003139	11369.326872
498.369825	11024.824501
498.736453	10876.198682
499.103023	10563.475745
499.469535	10328.321041
499.835989	10142.289861
500.202385	9873.558553
500.568723	9676.409108
500.935003	9514.457000
501.301226	9285.044170
501.667390	9201.517292
502.033497	9054.134118
502.399546	8775.028115
502.765537	8476.059966
503.131470	8355.588992
503.497345	8234.820590
503.863163	7872.722071
504.228923	7784.022969
504.594625	7676.764859
504.960269	7420.086949
505.325856	7351.010538
505.691385	7121.522092
506.056856	6984.987481
506.422270	6889.465177
506.787625	6699.406116
507.152924	6581.879176
507.518164	6454.458971
507.883347	6240.401496
508.248472	6140.074973
508.613540	6052.706736
508.978550	5954.371468
509.343503	5813.524150
509.708398	5716.008070
510.073236	5642.790352
510.438016	5533.883785
510.802738	5386.210745
511.167403	5323.602134
511.532010	5240.140791
511.896561	5156.195497
512.261053	5116.564467
512.625488	4992.224407
512.989866	4893.679932
513.354186	4801.540242
513.718449	4716.533785
514.082655	4675.627342
514.446803	4583.676696
514.810894	4533.328172
515.174927	4460.556596
515.538904	4385.884505
515.902822	4349.308413
516.266684	4265.569806
516.630488	4221.636151
516.994235	4159.708096
517.357925	4127.031337
517.721558	4078.016198
518.085133	4034.901730
518.448651	3992.702231
518.812112	3936.188376
519.175516	3894.253537
519.538863	3861.801110
519.902152	3825.255265
520.265385	3799.081594
520.628560	3758.863269
520.991678	3717.924058
521.354739	3691.064791
521.717743	3668.498065
522.080690	3634.745020
522.443580	3619.891260
522.806413	3591.585181
523.169189	3566.283630
523.531908	3545.118346
523.894569	3522.055067
524.257174	3498.908609
524.619722	3485.536948
524.982213	3463.577682
525.344647	3445.868109
525.707025	3426.913370
526.069345	3418.726536
526.431608	3398.198958
526.793815	3387.705796
527.155964	3362.368957
527.518057	3351.260774
527.880093	3336.807786
528.242072	3329.223370
528.603995	3311.954898
528.965860	3300.977785
529.327669	3289.700724
529.689421	3277.100360
530.051117	3265.604009
530.412755	3258.564037
530.774337	3247.818818
531.135862	3234.502610
531.497331	3229.622773
531.858743	3215.784806
532.220098	3211.053683
532.581396	3198.228988
532.942638	3184.093592
533.303824	3186.596525
533.664953	3177.298117
534.026025	3166.046262
534.387040	3165.567352
534.747999	3157.498985
535.108902	3152.246103
535.469748	3137.251191
535.830537	3131.935294
536.191270	3131.952938
536.551947	3119.939868
536.912567	3114.951647
537.273131	3112.720936
537.633638	3102.391612
537.994089	3099.361878
538.354483	3090.149170
538.714821	3090.370981
539.075103	3089.332503
539.435328	3081.410330
539.795497	3075.297931
540.155609	3072.036304
540.515665	3070.559246
540.875665	3058.586506
541.235609	3057.835374
541.595496	3054.430074
541.955328	3060.413924
542.315102	3048.499157
542.674821	3041.118908
543.034483	3040.075389
543.394090	3032.375026
543.753640	3029.451157
544.113134	3036.143289
544.472571	3022.640558
544.831953	3031.376878
545.191278	3021.460928
545.550548	3012.517921
545.909761	3015.736698
546.268918	3013.821059
546.628019	3014.546986
546.987064	3008.043897
547.346053	2995.713235
547.704986	3006.100532
548.063863	2996.396311
548.422684	2998.480828
548.781449	2993.396825
549.140158	2992.197030
549.498811	2991.292143
549.857408	2980.867037
550.215949	2985.482213
550.574434	2981.144300
550.932864	2976.445945
551.291237	2976.113229
551.649555	2978.139773
552.007817	2977.471820
552.366022	2974.966366
552.724173	2969.950418
553.082267	2976.582056
553.440305	2974.850420
553.798288	2966.303143
554.156215	2965.496559
554.514086	2969.504276
554.871902	2960.397432
555.229661	2962.207206
555.587365	2960.480611
555.945014	2960.193265
556.302606	2956.989612
556.660143	2957.478603
557.017625	2958.512040
557.375050	2954.166565
557.732421	2956.246041
558.089735	2953.783438
558.446994	2948.727160
558.804197	2955.648665
559.161345	2954.411061
559.518437	2944.658949
559.875474	2944.379165
560.232455	2947.847479
560.589381	2946.355298
560.946251	2944.631223
561.303065	2944.265739
561.659825	2946.814043
562.016528	2943.691048
562.373177	2937.119904
562.729770	2941.530913
563.086307	2939.610234
563.442789	2939.784153
563.799216	2938.506221
564.155587	2937.258535
564.511904	2938.627209
564.868164	2934.745520
565.224370	2939.713577
565.580520	2934.296858
565.936615	2934.969852
566.292654	2935.801642
566.648638	2934.982454
567.004567	2932.940787
567.360441	2930.357196
567.716260	2930.299223
568.072023	2932.676127
568.427732	2926.316711
568.783385	2925.769746
569.138982	2927.234201
569.494525	2925.694128
569.850013	2922.228335
570.205445	2924.643048
570.560823	2921.237748
570.916145	2923.332348
571.271412	2920.781524
571.626625	2921.787234
571.981782	2919.435536
572.336884	2919.909404
572.691931	2918.747418
573.046923	2913.323137
573.401860	2910.242992
573.756743	2910.547982
574.111570	2913.600400
574.466342	2909.290214
574.821059	2908.254257
575.175722	2904.853998
575.530330	2903.240829
575.884882	2903.011457
576.239380	2900.889131
576.593823	2902.401477
576.948211	2903.137486
577.302544	2896.866290
577.656823	2892.500651
578.011047	2898.295457
578.365216	2893.385373
578.719330	2892.230949
579.073389	2892.014180
579.427394	2887.769528
579.781344	2886.751215
580.135239	2886.529404
580.489080	2886.640310
580.842866	2884.364229
581.196597	2884.041595
581.550273	2884.071842
581.903895	2881.337016
582.257463	2884.175185
582.610975	2880.258209
582.964434	2880.797612
583.317837	2882.269629
583.671186	2875.232178
584.024481	2878.002293
584.377721	2873.465254
584.730906	2874.173536
585.084037	2874.178577
585.437113	2872.666231
585.790135	2871.322764
586.143103	2867.037783
586.496016	2868.595499
586.848874	2866.732793
587.201679	2867.458719
587.554428	2861.661392
587.907124	2863.007380
588.259765	2856.373222
588.612352	2867.204141
588.964884	2860.317925
589.317362	2858.583768
589.669786	2857.570496
590.022155	2856.955475
590.374470	2862.949407
590.726731	2856.272399
591.078937	2853.726616
591.431090	2854.145032
591.783188	2849.897860
592.135232	2848.773682
592.487222	2848.398117
592.839157	2849.575226
593.191038	2847.926769
593.542866	2845.073476
593.894639	2837.854543
594.246358	2843.777899
594.598022	2844.347549
594.949633	2839.820593
595.301190	2835.278514
595.652692	2835.296158
596.004141	2838.502332
596.355535	2829.299705
596.706876	2826.128819
597.058162	2827.147132
597.409395	2829.871876
597.760573	2828.283913
598.111698	2827.300888
598.462768	2825.407934
598.813785	2827.353820
599.164748	2824.213181
599.515657	2825.912050
599.866511	2820.775114
600.217312	2825.924653
600.568060	2816.764876
600.918753	2822.204281
601.269392	2819.489620
601.619978	2816.618683
601.970510	2819.557675
602.320988	2821.785865
602.671412	2823.837615
603.021783	2820.959116
603.372100	2816.026347
603.722363	2814.846717
604.072572	2815.917962
604.422728	2819.353509
604.772830	2811.201963
605.122878	2809.961839
605.472872	2813.430153
605.822813	2809.256077
606.172701	2811.978301
606.522534	2814.256902
606.872314	2816.459886
607.222041	2814.808908
607.571714	2817.148004
607.921333	2810.319761
608.270899	2811.237251
608.620411	2814.705565
608.969870	2811.711119
609.319276	2813.750266
609.668627	2808.915800
610.017926	2811.958136
610.367171	2813.604073
610.716362	2810.564257
611.065500	2812.855461
611.414585	2809.780357
611.763616	2812.651295
612.112594	2811.612817
612.461518	2811.688434
612.810389	2815.376038
613.159207	2812.973928
613.507971	2811.335553
613.856682	2814.627427
614.205340	2815.313024
614.553945	2816.870740
614.902496	2807.950419
615.250994	2815.426450
615.599439	2812.404278
615.947830	2814.503919
616.296169	2815.078610
616.644454	2814.355205
616.992686	2814.544248
617.340864	2818.320072
617.688990	2814.314875
618.037063	2817.526090
618.385082	2812.464772
618.733048	2821.337203
619.080961	2813.047025
619.428821	2814.637509
619.776628	2814.675318
620.124382	2812.285811
620.472083	2814.090544
620.819731	2812.207673
621.167326	2811.602735
621.514868	2809.356901
621.862357	2807.927733
622.209793	2804.429173
622.557176	2805.172743
622.904506	2797.469860
623.251783	2794.099848
623.599007	2794.009108
623.946179	2790.823098
624.293297	2787.405196
624.640363	2785.676080
624.987376	2787.092645
625.334336	2786.235648
625.681243	2780.188784
626.028097	2780.224072
626.374899	2778.522683
626.721647	2780.208949
627.068343	2776.198711
627.414987	2775.213166
627.761577	2774.535130
628.108115	2773.161416
628.454600	2766.839809
628.801032	2771.860798
629.147412	2771.328957
629.493739	2767.971548
629.840014	2768.415170
630.186236	2767.704367
630.532405	2765.685385
630.878521	2763.273193
631.224585	2764.369644
631.570597	2758.627769
631.916556	2762.476690
632.262462	2760.888727
632.608316	2759.704056
632.954117	2756.780187
633.299866	2756.364291
633.645562	2757.261617
633.991206	2754.859507
634.336797	2749.515884
634.682336	2752.089393
635.027823	2746.705441
635.373257	2745.445152
635.718639	2742.985069
636.063968	2742.009606
636.409245	2738.407701
636.754470	2737.243195
637.099642	2738.432907
637.444762	2736.764285
637.789829	2734.024418
638.134845	2731.037534
638.479808	2728.363202
638.824719	2731.314798
639.169577	2726.835733
639.514383	2727.526371
639.859137	2725.199878
640.203839	2727.276834
640.548489	2720.816595
640.893086	2720.143601
641.237632	2717.628065
641.582125	2718.457335
641.926566	2716.574464
642.270955	2718.785010
642.615292	2718.404403
642.959576	2718.288456
643.303809	2719.521018
643.647990	2719.594115
643.992118	2717.887685
644.336195	2716.607232
644.680219	2715.006665
645.024192	2718.069166
645.368112	2719.936914
645.711981	2718.381718
646.055797	2723.511092
646.399562	2721.706359
646.743274	2725.562841
647.086935	2729.583162
647.430544	2726.679457
647.774101	2724.413458
648.117606	2728.695918
648.461059	2728.947976
648.804460	2726.281206
649.147810	2724.632748
649.491108	2722.762480
649.834354	2716.619834
650.177548	2712.869216
650.520690	2712.201263
650.863781	2712.745708
651.206820	2712.942313
651.549807	2705.478884
651.892742	2705.088195
652.235626	2704.337063
652.578458	2703.873277
652.921238	2698.743903
653.263967	2701.778677
653.606644	2697.912112
653.949269	2700.793132
654.291843	2696.298943
654.634365	2694.978161
654.976836	2692.891123
655.319255	2695.162163
655.661622	2692.223170
656.003938	2693.296936
656.346203	2691.605629
656.688416	2692.475228
657.030577	2690.171421
657.372687	2690.657892
657.714746	2691.509847
658.056753	2690.408355
658.398708	2683.106244
658.740612	2686.428364
659.082465	2682.425688
659.424266	2682.458455
659.766016	2681.803105
660.107715	2686.861903
660.449362	2687.507171
660.790958	2686.181348
661.132503	2685.505833
661.473996	2683.499454
661.815438	2685.100020
662.156829	2686.466173
662.498168	2685.218487
662.839456	2686.660257
663.180693	2685.500792
663.521879	2687.986081
663.863013	2685.208405
664.204097	2685.221008
664.545129	2686.173786
664.886110	2686.279650
665.227040	2685.989784
665.567918	2687.877696
665.908746	2686.924918
666.249522	2685.720082
666.590248	2686.700586
666.930922	2687.305525
667.271545	2687.920546
667.612118	2684.006090
667.952639	2686.367870
668.293109	2685.868796
668.633528	2684.656398
668.973896	2684.681604
669.314213	2685.097499
669.654480	2681.714885
669.994695	2681.041891
670.334859	2681.674556
670.674973	2680.580626
671.015035	2682.327385
671.355047	2680.668846
671.695008	2680.056346
672.034918	2678.155831
672.374777	2680.545337
672.714585	2679.557271
673.054342	2680.880574
673.394049	2676.232630
673.733705	2680.036181
674.073310	2677.414781
674.412864	2678.256654
674.752368	2675.549554
675.091820	2676.945954
675.431223	2672.098884
675.770574	2673.974193
676.109875	2667.163595
676.449125	2668.350786
676.788324	2667.385405
677.127473	2665.184942
677.466571	2662.737462
677.805619	2664.234684
678.144616	2663.271824
678.483562	2665.036228
678.822458	2661.671257
679.161303	2662.122441
679.500098	2660.365599
679.838842	2660.587409
680.177535	2662.818120
680.516179	2664.680826
680.854771	2664.655621
681.193314	2665.918430
681.531805	2672.519821
681.870247	2673.099553
682.208638	2677.946623
682.546978	2677.084585
682.885268	2677.923937
683.223508	2675.146262
683.561697	2676.401509
683.899836	2674.576611
684.237925	2668.968328
684.575963	2671.168791
684.913951	2668.663338
685.251889	2672.739111
685.589776	2669.540499
685.927614	2671.272135
686.265401	2667.246774
686.603137	2667.904644
686.940824	2671.698112
687.278460	2674.075017
687.616046	2670.485715
687.953582	2672.971004
688.291068	2673.520490
688.628504	2677.261026
688.965889	2674.221210
689.303224	2673.923782
689.640510	2672.976045
689.977745	2668.446568
690.314930	2665.318532
690.652065	2663.107986
690.989150	2660.748726
691.326185	2654.081800
691.663170	2650.893271
692.000105	2648.319762
692.336990	2644.518732
692.673825	2642.532517
693.010610	2645.335398
693.347345	2639.091929
693.684030	2631.464664
694.020665	2631.575569
694.357251	2628.676906
694.693786	2630.753861
695.030272	2630.307719
695.366707	2630.416104
695.703093	2629.334776
696.039429	2628.089611
696.375716	2624.833026
696.711952	2624.006277
697.048139	2623.633231
697.384276	2625.017028
697.720363	2626.829323
698.056400	2623.277830
698.392388	2620.623662
698.728326	2623.219857
699.064214	2619.086110
699.400053	2620.943776
699.735842	2617.856069
700.071581	2615.872375
700.407270	2614.972529
700.742910	2615.010337
701.078501	2611.839452
701.414042	2611.930192
701.749533	2610.879112
702.084974	2608.262753
702.420366	2612.031016
702.755709	2608.565222
703.091002	2607.781323
703.426246	2606.039604
703.761440	2605.427104
704.096584	2605.157402
704.431679	2604.693616
704.766725	2605.593462
705.101721	2602.228492
705.436668	2602.694799
705.771565	2600.340580
706.106413	2604.991044
706.441212	2604.650766
706.775961	2603.914758
707.110661	2604.360900
707.445311	2605.890890
707.779913	2604.091198
708.114465	2606.667228
708.448967	2608.625716
708.783421	2610.322064
709.117825	2613.034205
709.452180	2612.434308
709.786485	2613.737446
710.120742	2619.091152
710.454949	2616.643671
710.789107	2618.806326
711.123216	2620.253137
711.457275	2623.792027
711.791286	2623.739095
712.125247	2625.125413
712.459159	2628.790332
712.793023	2631.202524
713.126837	2625.654734
713.460602	2626.405866
713.794318	2623.648355
714.127985	2622.035185
714.461602	2621.309259
714.795171	2617.780452
715.128691	2611.952878
715.462162	2610.180912
715.795584	2608.154368
716.128957	2607.834255
716.462281	2604.149172
716.795556	2603.390478
717.128782	2602.316712
717.461960	2598.727411
717.795088	2598.114910
718.128167	2594.825557
718.461198	2594.351689
718.794180	2594.787749
719.127113	2590.606112
719.459997	2593.383787
719.792833	2590.656523
720.125619	2591.992429
720.458357	2585.184351
720.791046	2590.064188
721.123686	2585.398600
721.456278	2586.903384
721.788821	2586.636203
722.121315	2584.700400
722.453761	2583.162848
722.786158	2584.687797
723.118506	2585.670822
723.450805	2584.009762
723.783056	2586.018662
724.115259	2583.939186
724.447412	2580.342322
724.779518	2586.426995
725.111574	2586.860534
725.443582	2587.352047
725.775542	2588.526636
726.107453	2588.269537
726.439315	2589.297932
726.771129	2594.933942
727.102895	2595.627101
727.434612	2594.792790
727.766281	2596.100969
728.097901	2592.723396
728.429473	2590.840525
728.760996	2592.488983
729.092471	2589.439085
729.423897	2597.270517
729.755276	2594.399580
730.086606	2596.226998
730.417887	2597.593151
730.749120	2603.836620
731.080305	2600.131372
731.411442	2606.606734
731.742530	2603.072885
732.073570	2603.100612
732.404562	2606.858792
732.735506	2605.699326
733.066401	2602.936774
733.397249	2600.814448
733.728048	2599.002153
734.058798	2593.093921
734.389501	2589.890268
734.720156	2588.945052
735.050762	2583.961871
735.381320	2584.624783
735.711831	2582.613362
736.042293	2578.956005
736.372707	2581.557241
736.703073	2582.353743
737.033391	2578.898032
737.363661	2582.419278
737.693883	2582.663774
738.024056	2585.648137
738.354182	2585.418764
738.684260	2587.825915
739.014290	2585.605287
739.344272	2588.884558
739.674207	2587.916656
740.004093	2589.595360
740.333931	2589.219794
740.663722	2591.339600
740.993464	2589.517222
741.323159	2590.122161
741.652806	2589.766760
741.982405	2585.380956
742.311956	2585.963209
742.641460	2584.592015
742.970915	2582.089082
743.300323	2582.285687
743.629683	2581.199319
743.958996	2581.632858
744.288260	2572.785633
744.617477	2573.317475
744.946647	2571.293451
745.275768	2572.188256
745.604842	2569.728173
745.933869	2569.420663
746.262847	2565.032338
746.591778	2572.962073
746.920662	2569.072823
747.249498	2573.309913
747.578286	2573.919892
747.907027	2576.886612
748.235720	2574.484502
748.564365	2572.092474
748.892963	2574.814697
749.221514	2573.824111
749.550017	2571.795046
749.878473	2572.871332
750.206881	2572.480643
750.535242	2572.538616
750.863555	2571.008626
751.191821	2568.314129
751.520039	2570.128945
751.848210	2571.212793
752.176334	2570.837227
752.504411	2571.842937
752.832440	2567.016032
753.160421	2568.994685
753.488356	2568.430076
753.816243	2571.575756
754.144082	2566.713563
754.471875	2567.666341
754.799620	2569.143399
755.127318	2564.384550
755.454969	2566.784139
755.782572	2566.620302
756.110129	2566.537123
756.437638	2564.797925
756.765100	2564.092163
757.092515	2566.368244
757.419882	2566.247256
757.747203	2568.268759
758.074477	2566.746331
758.401703	2566.060734
758.728882	2570.121383
759.056014	2568.288924
759.383099	2570.612896
759.710138	2570.590210
760.037129	2571.016188
760.364073	2570.779254
760.690970	2573.952660
761.017820	2573.128431
761.344623	2572.210941
761.671379	2574.655901
761.998088	2576.067424
762.324751	2586.737026
762.651366	2600.922833
762.977935	2624.069291
763.304456	2632.697226
763.630931	2641.050418
763.957359	2634.806949
764.283740	2624.432254
764.610074	2615.590070
764.936362	2604.489449
765.262602	2592.307501
765.588796	2585.154104
765.914943	2579.470203
766.241044	2574.386199
766.567097	2568.533420
766.893104	2566.753892
767.219064	2563.099056
767.544978	2559.207285
767.870845	2559.434137
768.196665	2558.854404
768.522438	2554.100596
768.848165	2554.319886
769.173846	2552.855431
769.499479	2552.782334
769.825066	2549.122457
770.150607	2552.613456
770.476101	2550.244113
770.801548	2550.808723
771.126949	2549.684545
771.452303	2547.554658
771.777611	2547.282436
772.102872	2544.754297
772.428087	2549.324103
772.753256	2544.953422
773.078378	2545.218083
773.403453	2542.596683
773.728482	2544.466951
774.053465	2543.355377
774.378401	2539.743390
774.703291	2541.507794
775.028135	2542.274049
775.352932	2538.795653
775.677683	2542.647095
776.002388	2539.171219
776.327046	2539.148534
776.651658	2538.687268
776.976224	2537.787422
777.300743	2539.148534
777.625216	2538.283976
777.949643	2537.673996
778.274024	2540.071065
778.598359	2533.797349
778.922647	2534.039324
779.246889	2538.084850
779.571086	2532.348017
779.895236	2536.184335
780.219339	2538.967052
780.543397	2539.186343
780.867409	2539.352701
781.191374	2536.564943
781.515294	2539.219110
781.839167	2542.168185
782.162995	2539.836651
782.486776	2537.621064
782.810511	2540.696168
783.134201	2535.334901
783.457844	2538.210879
783.781441	2538.883873
784.104993	2537.729449
784.428498	2536.270035
784.751958	2536.698533
785.075372	2536.635519
785.398739	2534.056968
785.722061	2537.832793
786.045337	2536.436393
786.368568	2537.812628
786.691752	2538.384799
787.014891	2541.162475
787.337983	2540.837320
787.661030	2545.704554
787.984031	2548.315872
788.306987	2549.818136
788.629897	2551.360729
788.952760	2549.273691
789.275579	2547.889895
789.598351	2547.663043
789.921078	2546.039791
790.243759	2542.430325
790.566395	2541.321271
790.888984	2540.698689
791.211529	2536.512010
791.534027	2539.284645
791.856480	2533.862884
792.178888	2537.298430
792.501249	2534.979500
792.823566	2534.969417
793.145836	2532.582431
793.468062	2534.858512
793.790241	2534.956814
794.112375	2535.108049
794.434464	2537.101825
794.756507	2537.565612
795.078505	2535.342463
795.400457	2535.854140
795.722364	2536.905220
796.044226	2540.625592
796.366042	2540.043339
796.687812	2540.592824
797.009538	2543.607434
797.331218	2541.306148
797.652852	2541.245654
797.974442	2542.170706
798.295986	2537.540406
798.617484	2540.171888
798.938938	2539.950077
799.260346	2540.469316
799.581709	2540.318082
799.903026	2537.673996
800.224299	2535.985210
800.545526	2535.256763
800.866708	2535.350024
801.187845	2537.560570
801.508936	2533.567977
801.829983	2534.523275
802.150984	2534.346835
802.471940	2533.474715
802.792851	2529.948428
803.113717	2531.843902
803.434538	2534.394726
803.755314	2533.797349
804.076045	2533.560415
804.396731	2531.301978
804.717372	2531.685106
805.037967	2531.763243
805.358518	2533.673841
805.679024	2534.641742
805.999485	2531.922040
806.319901	2532.675692
806.640272	2536.285158
806.960598	2533.283151
807.280879	2533.439427
807.601115	2533.275590
807.921306	2534.853471
808.241453	2534.719880
808.561554	2535.261804
808.881611	2534.127545
809.201623	2533.847761
809.521590	2534.654345
809.841513	2534.457740
810.161390	2533.520086
810.481223	2532.269879
810.801011	2531.826258
811.120755	2533.424304
811.440453	2532.532019
811.760107	2532.726104
812.079716	2530.470188
812.399281	2528.922553
812.718801	2531.145702
813.038276	2528.186545
813.357707	2531.264169
813.677093	2531.067564
813.996434	2530.104704
814.315731	2533.116793
814.634983	2533.744417
814.954191	2530.656710
815.273354	2533.885569
815.592473	2530.810465
815.911547	2534.772812
816.230577	2533.809952
816.549562	2536.489325
816.868502	2533.983872
817.187399	2538.457896
817.506250	2536.113759
817.825058	2538.518390
818.143821	2539.929913
818.462539	2544.996272
818.781213	2542.589121
819.099843	2548.152035
819.418429	2553.082283
819.736970	2562.184086
820.055466	2564.994530
820.373919	2578.104050
820.692327	2591.750454
821.010691	2618.942437
821.329011	2679.743794
821.647286	2768.616816
821.965517	2863.735827
822.283704	2920.322779
822.601847	2932.595468
822.919945	2889.944786
823.237999	2843.664473
823.556010	2795.902061
823.873976	2755.290526
824.191897	2715.326778
824.509775	2687.562624
824.827609	2658.707059
825.145398	2643.565953
825.463144	2637.193935
825.780845	2637.599748
826.098502	2649.201963
826.416116	2671.650222
826.733685	2694.254755
827.051210	2695.328521
827.368692	2687.461801
827.686129	2662.465239
828.003522	2639.046559
828.320872	2614.125615
828.638177	2599.488625
828.955439	2583.601428
829.272656	2571.079202
829.589830	2563.315825
829.906960	2559.812223
830.224046	2551.915256
830.541088	2550.972560
830.858086	2547.174051
831.175041	2543.645243
831.491952	2544.451828
831.808819	2544.754297
832.125642	2549.407282
832.442421	2555.252500
832.759157	2564.616443
833.075849	2583.717375
833.392497	2603.251846
833.709101	2613.462703
834.025662	2613.722323
834.342179	2602.639346
834.658653	2587.175607
834.975083	2575.598597
835.291469	2572.120201
835.607811	2560.505382
835.924110	2550.912066
836.240366	2549.261088
836.556578	2540.371014
836.872746	2537.701723
837.188871	2534.820703
837.504952	2533.736855
837.820990	2530.185362
838.136984	2527.687471
838.452935	2526.855680
838.768842	2528.688140
839.084706	2531.344828
839.400526	2540.547454
839.716303	2548.419216
840.032037	2560.341545
840.347727	2554.632438
840.663373	2549.354350
840.978977	2541.714481
841.294537	2536.075951
841.610054	2535.612164
841.925527	2531.312060
842.240957	2528.904909
842.556344	2526.664116
842.871687	2522.885772
843.186987	2520.977695
843.502244	2522.482479
843.817458	2519.903929
844.132629	2522.313601
844.447756	2517.874865
844.762840	2517.113650
845.077881	2515.898732
845.392879	2513.292456
845.707833	2515.359329
846.022745	2513.511746
846.337613	2514.058711
846.652438	2515.908815
846.967221	2516.206243
847.281960	2512.919410
847.596656	2517.287570
847.911309	2516.145749
848.225919	2516.165913
848.540485	2513.978053
848.855009	2513.657939
849.169490	2513.360511
849.483928	2517.607683
849.798323	2515.382014
850.112675	2515.124915
850.426984	2512.730367
850.741251	2516.173475
851.055474	2515.031654
851.369654	2513.307579
851.683792	2512.574091
851.997887	2514.630882
852.311938	2515.147600
852.625947	2516.881757
852.939914	2513.839421
853.253837	2514.799761
853.567718	2516.483506
853.881555	2515.533249
854.195350	2514.068793
854.509103	2512.246416
854.822812	2514.809843
855.136479	2513.559637
855.450103	2512.362363
855.763685	2513.673063
856.077224	2512.881602
856.390720	2513.070645
856.704173	2515.087107
857.017584	2513.857065
857.330953	2514.656088
857.644278	2514.819925
857.957561	2516.400327
858.270802	2515.129956
858.584000	2515.243382
858.897155	2516.798578
859.210268	2515.056860
859.523339	2514.822446
859.836367	2514.451921
860.149352	2514.441839
860.462295	2514.663650
860.775195	2511.568381
861.088054	2509.955212
861.400869	2510.895387
861.713642	2510.139214
862.026373	2511.296159
862.339062	2513.887312
862.651708	2511.903618
862.964312	2516.143228
863.276873	2514.449401
863.589392	2515.200533
863.901869	2514.787158
864.214303	2513.657939
864.526696	2513.685666
864.839045	2516.279339
865.151353	2517.053157
865.463619	2518.459638
865.775842	2516.569206
866.088023	2517.539628
866.400162	2519.601460
866.712258	2517.151459
867.024313	2516.770852
867.336325	2518.245389
867.648296	2516.554082
867.960224	2514.300687
868.272110	2516.959895
868.583954	2515.407220
868.895755	2516.538959
869.207515	2517.953003
869.519233	2516.513753
869.830909	2514.711541
870.142542	2519.344361
870.454134	2516.443177
870.765684	2520.334948
871.077191	2516.695235
871.388657	2519.460307
871.700081	2517.300173
872.011463	2517.695904
872.322803	2520.284536
872.634101	2520.327386
872.945357	2517.837056
873.256571	2521.617921
873.567744	2520.181192
873.878874	2520.972654
874.189963	2524.443488
874.501010	2522.530370
874.812015	2520.934845
875.122979	2525.940711
875.433900	2522.011131
875.744780	2522.890813
876.055618	2521.489372
876.366415	2525.534898
876.677169	2522.646317
876.987882	2523.954496
877.298554	2518.257992
877.609183	2524.607326
877.919771	2521.703621
878.230317	2526.049096
878.540822	2529.424148
878.851285	2533.741896
879.161707	2535.990251
879.472087	2545.442414
879.782425	2556.364074
880.092722	2575.331416
880.402977	2607.002465
880.713191	2645.451345
881.023363	2680.071469
881.333494	2701.418235
881.643583	2707.686910
881.953631	2705.118442
882.263637	2693.720393
882.573602	2679.539627
882.883526	2664.244767
883.193408	2649.948054
883.503248	2636.364665
883.813048	2622.020062
884.122806	2609.747373
884.432522	2599.042483
884.742197	2583.089751
885.051831	2575.926272
885.361424	2563.998902
885.670975	2558.098231
885.980485	2550.929710
886.289954	2546.833773
886.599382	2542.306817
886.908768	2539.995448
887.218113	2535.476053
887.527417	2534.964376
887.836680	2530.255938
888.145901	2530.926412
888.455082	2525.030783
888.764221	2527.798376
889.073319	2526.041534
889.382376	2525.585309
889.691392	2523.067253
890.000366	2523.006759
890.309300	2524.854342
890.618193	2525.159332
890.927044	2524.360309
891.235855	2524.183869
891.544625	2524.309898
891.853353	2526.021369
892.162041	2525.066071
892.470687	2529.678726
892.779293	2529.789632
893.087858	2530.079498
893.396381	2536.096115
893.704864	2543.801519
894.013306	2550.798640
894.321707	2567.704150
894.630068	2575.253278
894.938387	2577.630182
895.246665	2572.720098
895.554903	2568.566187
895.863100	2562.000084
896.171256	2557.130330
896.479371	2553.120092
896.787446	2548.983825
897.095480	2543.060469
897.403473	2541.427135
897.711425	2538.939326
898.019336	2536.007895
898.327207	2532.708460
898.635038	2527.626977
898.942827	2528.315094
899.250576	2526.495238
899.558284	2523.745288
899.865952	2522.379136
900.173579	2524.675381
900.481165	2524.405679
900.788711	2522.432068
901.096216	2519.795544
901.403681	2520.450894
901.711105	2520.962571
902.018489	2521.499454
902.325832	2523.357119
902.633135	2522.192613
902.940397	2526.417100
903.247619	2535.881866
903.554800	2548.918290
903.861941	2569.672720
904.169041	2586.265678
904.476101	2587.757860
904.783121	2585.138980
905.090100	2576.354770
905.397039	2569.738255
905.703938	2561.390105
906.010796	2555.872562
906.317614	2552.215205
906.624391	2546.944678
906.931129	2540.373534
907.237826	2536.466640
907.544483	2530.399611
907.851099	2527.448016
908.157675	2522.137160
908.464211	2522.631193
908.770707	2516.659947
909.077163	2516.254134
909.383578	2513.458814
909.689954	2514.777076
909.996289	2507.815242
910.302584	2515.397138
910.608839	2509.292300
910.915054	2512.649709
911.221229	2514.923269
911.527363	2513.786489
911.833458	2514.880419
912.139513	2513.778927
912.445527	2515.213135
912.751502	2516.730523
913.057436	2517.234638
913.363331	2518.184896
913.669186	2519.908970
913.975000	2522.825278
914.280775	2524.645134
914.586510	2534.581248
914.892205	2540.033256
915.197859	2553.193188
915.503475	2566.824468
915.809050	2576.730336
916.114585	2582.620924
916.420081	2586.689135
916.725536	2583.319124
917.030952	2577.443659
917.336328	2576.710171
917.641665	2572.137845
917.946961	2564.893707
918.252218	2561.337173
918.557435	2556.719476
918.862612	2552.547921
919.167750	2548.267981
919.472848	2543.635161
919.777906	2537.608461
920.082925	2537.628626
920.387904	2531.488501
920.692843	2529.998840
920.997743	2525.358458
921.302603	2523.563807
921.607423	2522.757222
921.912204	2519.820750
922.216946	2520.934845
922.521647	2520.241686
922.826310	2517.297653
923.130932	2517.161541
923.435516	2517.930317
923.740059	2515.692045
924.044564	2515.472755
924.349028	2511.069307
924.653454	2509.176354
924.957840	2508.263905
925.262186	2509.171312
925.566493	2509.824142
925.870761	2506.943123
926.174989	2509.846827
926.479178	2508.233658
926.783328	2510.774399
927.087438	2506.852382
927.391509	2508.515963
927.695541	2505.483708
927.999533	2509.098216
928.303486	2506.277690
928.607400	2508.324399
928.911275	2506.086126
929.215110	2507.404388
929.518906	2507.774913
929.822663	2506.650736
930.126381	2506.282731
930.430060	2507.391785
930.733699	2506.461692
931.037299	2506.149141
931.340861	2507.900942
931.644383	2503.537823
931.947866	2506.146620
932.251309	2506.076044
932.554714	2504.011692
932.858080	2506.391116
933.161407	2505.960097
933.464694	2506.839779
933.767943	2508.251302
934.071153	2505.287103
934.374323	2507.815242
934.677455	2506.328102
934.980548	2505.957577
935.283602	2504.462875
935.586617	2506.469254
935.889593	2505.138389
936.192530	2504.203255
936.495428	2506.073523
936.798287	2506.570077
937.101108	2508.568895
937.403890	2508.183246
937.706632	2511.399503
938.009336	2508.770541
938.312002	2510.746673
938.614628	2509.534276
938.917216	2509.602331
939.219765	2510.817249
939.522275	2511.409585
939.824747	2512.964781
940.127179	2508.437825
940.429573	2506.391116
940.731929	2510.114008
941.034246	2507.079234
941.336524	2511.001251
941.638763	2508.382372
941.940964	2511.185253
942.243126	2510.615603
942.545250	2510.718947
942.847335	2508.334481
943.149381	2509.574605
943.451389	2509.073010
943.753359	2506.834738
944.055290	2506.590242
944.357182	2506.925478
944.659036	2506.885149
944.960851	2509.488905
945.262628	2507.348935
945.564367	2509.320027
945.866067	2509.521673
946.167729	2510.282887
946.469352	2507.913545
946.770937	2507.081754
947.072484	2509.302383
947.373992	2508.652074
947.675462	2502.940446
947.976893	2506.741476
948.278286	2505.103101
948.579641	2507.361538
948.880958	2504.407422
949.182236	2506.887670
949.483476	2507.537979
949.784678	2506.514624
950.085841	2506.207114
950.386967	2507.215345
950.688054	2505.841630
950.989103	2508.926817
951.290114	2505.105622
951.591087	2508.785664
951.892021	2507.384223
952.192917	2509.073010
952.493776	2508.591580
952.794596	2505.700478
953.095378	2507.963956
953.396122	2510.378669
953.696828	2510.910511
953.997496	2511.601149
954.298126	2509.655263
954.598718	2508.604183
954.899272	2507.343894
955.199788	2508.513442
955.500266	2509.768689
955.800706	2503.467247
956.101108	2502.892555
956.401472	2501.602020
956.701798	2501.501197
957.002087	2503.331136
957.302337	2500.082112
957.602550	2502.637977
957.902724	2504.109994
958.202861	2506.018071
958.502960	2502.998420
958.803022	2502.700992
959.103045	2505.551764
959.403031	2502.902638
959.702979	2502.927843
960.002889	2501.715446
960.302762	2501.544047
960.602596	2501.493635
960.902393	2503.237874
961.202153	2501.528923
961.501875	2502.733759
961.801559	2500.767709
962.101205	2500.654283
962.400814	2501.168481
962.700385	2501.465909
962.999918	2499.998933
963.299414	2500.568583
963.598873	2502.206958
963.898293	2500.934067
964.197677	2504.483039
964.497022	2500.102277
964.796331	2500.041783
965.095601	2499.230157
965.394835	2503.177381
965.694030	2500.878614
965.993189	2500.850888
966.292309	2500.109838
966.591393	2500.210662
966.890439	2502.537154
967.189447	2499.134375
967.488419	2503.447082
967.787353	2500.271155
968.086249	2501.612102
968.385108	2500.533295
968.683930	2502.068327
968.982714	2500.671927
969.281462	2500.984479
969.580172	2500.422390
969.878844	2499.162102
970.177480	2502.973214
970.476078	2498.917606
970.774639	2503.726866
971.073162	2502.295179
971.371649	2498.264776
971.670098	2496.560866
971.968510	2500.094715
972.266885	2495.764364
972.565223	2499.799808
972.863524	2501.105466
973.161788	2500.757627
973.460014	2501.528923
973.758204	2499.885507
974.056356	2500.860970
974.354471	2504.649398
974.652550	2502.743841
974.950591	2501.269304
975.248595	2501.579335
975.546563	2500.999602
975.844493	2501.221413
976.142386	2499.330980
976.440243	2500.586227
976.738062	2503.308451
977.035845	2501.120590
977.333590	2501.236536
977.631299	2499.174704
977.928971	2502.461537
978.226606	2500.923985
978.524204	2501.544047
978.821765	2502.146465
979.119290	2499.774602
979.416777	2501.967504
979.714228	2500.712256
980.011642	2500.422390
980.309020	2503.764675
980.606360	2501.423059
980.903664	2501.889366
981.200931	2503.376506
981.498162	2502.524551
981.795356	2505.665190
982.092513	2506.502022
982.389633	2508.379851
982.686717	2509.930006
982.983764	2508.730212
983.280775	2510.968484
983.577749	2510.550068
983.874686	2510.277846
984.171587	2508.644512
984.468451	2511.744822
984.765279	2509.950171
985.062070	2509.667866
985.358824	2505.234171
985.655543	2504.823317
985.952224	2505.266939
986.248869	2500.601351
986.545478	2497.400218
986.842050	2500.046824
987.138586	2497.906854
987.435086	2499.086484
987.731549	2494.756133
988.027975	2503.802484
988.324366	2497.528768
988.620719	2499.106649
988.917037	2502.718636
989.213318	2501.052534
989.509563	2498.229488
989.805772	2498.181597
990.101944	2497.906854
990.398080	2498.965497
990.694180	2502.237205
990.990244	2500.009015
991.286271	2497.226298
991.582262	2501.591938
991.878217	2498.403408
992.174136	2500.790394
992.470019	2499.136896
992.765865	2498.083295
993.061676	2498.332832
993.357450	2499.386433
993.653188	2500.077071
993.948890	2499.608244
994.244556	2500.278717
994.540186	2501.493635
994.835780	2502.176712
995.131337	2502.837103
995.426859	2503.689058
995.722345	2501.344921
996.017795	2500.498007
996.313208	2505.846672
996.608586	2504.258708
996.903928	2506.602845
997.199234	2505.249295
997.494504	2507.641322
997.789738	2503.431959
998.084936	2507.041425
998.380099	2503.011022
998.675225	2504.072185
998.970316	2502.272493
999.265371	2503.973883
999.560390	2501.826351
999.855373	2502.658142
1000.150320	2501.392812
1000.445232	2501.475991
1000.740108	2498.975579
1001.034948	2501.712925
1001.329752	2500.939108
1001.624521	2500.283758
1001.919254	2496.074395
1002.213951	2496.308808
1002.508613	2493.228663
1002.803239	2499.837616
1003.097829	2494.609940
1003.392384	2500.866012
1003.686903	2497.934581
1003.981386	2499.923316
1004.275834	2496.727224
1004.570246	2499.209993
1004.864623	2496.170177
1005.158964	2499.061278
1005.453270	2498.506752
1005.747540	2497.251504
1006.041775	2498.589931
1006.335974	2496.744868
1006.630138	2497.609426
1006.924266	2499.023470
1007.218359	2498.751248
1007.512416	2499.951042
1007.806438	2496.049189
1008.100425	2499.300733
1008.394376	2500.006495
1008.688292	2499.835096
1008.982172	2497.546412
1009.276017	2499.094046
1009.569827	2498.048007
1009.863602	2497.498521
1010.157341	2498.302585
1010.451045	2498.668068
1010.744714	2497.624550
1011.038347	2497.780825
1011.331945	2498.922647
1011.625508	2498.330311
1011.919036	2494.597337
1012.212528	2496.618839
1012.505986	2497.707729
1012.799408	2499.265445
1013.092795	2497.543891
1013.386147	2495.577841
1013.679464	2496.117245
1013.972745	2496.785198
1014.265992	2495.789570
1014.559204	2496.076915
1014.852380	2498.552122
1015.145521	2498.224447
1015.438628	2497.105311
1015.731699	2498.632780
1016.024736	2497.435506
1016.317737	2499.290651
1016.610703	2495.734117
1016.903635	2493.415186
1017.196531	2491.741523
1017.489393	2496.785198
1017.782219	2494.819147
1018.075011	2495.391318
1018.367768	2495.600526
1018.660490	2499.767040
1018.953177	2499.767040
1019.245829	2499.767040
