Dividing Wavelength (nm)	Counts (n)	Blue Motor Position (mm): 0.000000	Red Motor Position (mm): 23.000000	
326.493990	2079.743143
326.888308	2079.743143
327.282561	2079.743143
327.676750	2057.834288
328.070874	2060.773281
328.464933	2066.179918
328.858929	2075.271639
329.252859	2088.547518
329.646726	2101.571339
330.040528	2119.825357
330.434265	2139.596762
330.827938	2160.116779
331.221547	2180.382218
331.615091	2197.154136
332.008571	2217.827908
332.401986	2238.237020
332.795338	2258.731831
333.188625	2279.559358
333.581847	2297.677265
333.975006	2315.149904
334.368100	2334.311330
334.761129	2351.693228
335.154095	2366.052955
335.546996	2385.479041
335.939833	2406.220869
336.332606	2421.987077
336.725315	2429.158119
337.117960	2437.223965
337.510540	2447.318875
337.903056	2458.598457
338.295508	2464.985599
338.687896	2471.975159
339.080220	2482.317086
339.472480	2481.041674
339.864676	2485.941676
340.256807	2491.355875
340.648875	2490.899650
341.040879	2493.432830
341.432818	2493.929384
341.824694	2492.580875
342.216506	2496.016422
342.608253	2496.916268
342.999937	2490.985350
343.391557	2494.403252
343.783113	2491.194558
344.174605	2491.101297
344.566033	2486.022334
344.957397	2486.234063
345.348697	2483.829432
345.739934	2481.795327
346.131106	2481.376911
346.522215	2479.955305
346.913260	2478.599235
347.304241	2478.750470
347.695159	2473.356435
348.086012	2474.808287
348.476802	2472.411219
348.867528	2472.196970
349.258191	2470.339304
349.648789	2470.387195
350.039324	2467.370065
350.429796	2469.058851
350.820203	2465.701443
351.210548	2464.451237
351.600828	2467.012143
351.991045	2466.349231
352.381198	2462.714559
352.771288	2466.807976
353.161314	2466.911320
353.551276	2467.296968
353.941175	2463.543829
354.331010	2466.281176
354.720782	2466.926443
355.110490	2467.475929
355.500135	2463.274127
355.889717	2469.701598
356.279235	2469.263018
356.668689	2468.642956
357.058080	2468.121197
357.447408	2468.239664
357.836672	2468.156485
358.225873	2467.601958
358.615010	2466.613892
359.004084	2471.627319
359.393095	2473.439614
359.782043	2474.354583
360.170927	2473.845427
360.559748	2474.079841
360.948505	2477.563278
361.337199	2476.353401
361.725830	2475.793833
362.114398	2477.717033
362.502903	2480.935810
362.891344	2477.913638
363.279722	2481.172744
363.668037	2483.579895
364.056289	2482.589308
364.444478	2484.257930
364.832603	2484.762046
365.220665	2483.751294
365.608665	2485.084679
365.996601	2487.310349
366.384474	2488.749598
366.772284	2487.784217
367.160031	2487.736326
367.547715	2487.716162
367.935336	2487.854793
368.322893	2489.843529
368.710388	2492.391832
369.097820	2495.164467
369.485189	2492.868221
369.872495	2496.185300
370.259738	2496.243273
370.646918	2498.433655
371.034035	2499.560353
371.421090	2502.496825
371.808081	2502.955570
372.195010	2507.069151
372.581875	2512.236334
372.968678	2521.312932
373.355418	2523.800741
373.742096	2534.215765
374.128710	2542.132897
374.515262	2556.114537
374.901751	2564.039231
375.288177	2579.813001
375.674540	2597.371340
376.060841	2618.435802
376.447079	2640.359780
376.833254	2661.638490
377.219367	2684.527849
377.605417	2714.464741
377.991404	2739.887280
378.377329	2777.305244
378.763191	2807.191725
379.148991	2851.019517
379.534727	2897.062895
379.920402	2942.962601
380.306013	2986.581185
380.691563	3046.391954
381.077049	3097.758792
381.462474	3148.077069
381.847835	3219.200188
382.233134	3287.507822
382.618371	3341.458251
383.003545	3425.605191
383.388657	3500.652848
383.773706	3588.815067
384.158693	3652.699089
384.543618	3742.368613
384.928480	3815.485509
385.313280	3915.280190
385.698017	4011.641846
386.082692	4126.204588
386.467305	4186.164072
386.851856	4307.403822
387.236344	4452.387406
387.620770	4515.336294
388.005133	4627.527173
388.389435	4763.267802
388.773674	4845.904917
389.157851	4971.066684
389.541965	5095.575623
389.926018	5121.154437
390.310008	5292.588956
390.693936	5409.001801
391.077802	5514.797976
391.461606	5646.616588
391.845348	5755.757568
392.229027	5873.828953
392.612645	6088.715698
392.996200	6200.097471
393.379694	6366.145517
393.763125	6577.543783
394.146494	6669.406209
394.529801	6801.769265
394.913047	7030.315016
395.296230	7030.753596
395.679351	7086.864159
396.062410	7331.344997
396.445408	7235.789926
396.828343	7382.061526
397.211217	7519.395159
397.594028	7405.429794
397.976778	7610.635003
398.359466	7772.030064
398.742092	7750.630366
399.124656	7897.126296
399.507158	8083.747291
399.889598	8104.630271
400.271977	8315.796644
400.654294	8347.087086
401.036549	8546.101757
401.418742	8575.584946
401.800874	8860.087504
402.182944	8950.127553
402.564952	9298.158732
402.946898	9144.035536
403.328783	9193.058236
403.710606	9385.385817
404.092367	9636.894024
404.474067	9987.435698
404.855705	9802.596751
405.237282	9751.953319
405.618797	10178.205562
406.000250	10413.884545
406.381642	10762.926476
406.762972	10718.574404
407.144240	10534.587412
407.525447	10787.023191
407.906593	10730.864737
408.287677	10991.615900
408.668700	11137.786676
409.049661	11123.789912
409.430560	11279.216247
409.811399	11261.415933
410.192176	11416.179356
410.572891	11495.718681
410.953545	11958.494084
411.334138	11457.509256
411.714669	12035.621217
412.095139	11390.557692
412.475547	11858.800225
412.855894	11731.664846
413.236180	12045.433823
413.616405	11746.135478
413.996568	12019.418949
414.376670	11997.620999
414.756711	11887.272662
415.136691	12160.218376
415.516609	12321.878097
415.896466	12416.200606
416.276262	12701.030840
416.655997	13156.042865
417.035670	13200.079865
417.415283	13811.503771
417.794834	13898.367893
418.174324	13651.636179
418.553753	13561.029001
418.933121	14044.427763
419.312428	13863.775495
419.691674	13781.927321
420.070859	14244.339760
420.449983	13898.143561
420.829045	14451.289208
421.208047	14205.447258
421.586988	14658.883923
421.965867	14904.453651
422.344686	14898.706735
422.723444	15470.860053
423.102141	14179.258464
423.480777	15361.676222
423.859352	14858.407752
424.237866	15958.105216
424.616319	15672.884293
424.994712	16307.316025
425.373044	16103.890344
425.751314	16780.093077
426.129524	15919.893270
426.507673	16979.750496
426.885762	16711.525823
427.263789	16891.240437
427.641756	17068.588229
428.019662	17129.744987
428.397508	17168.753436
428.775292	17444.128985
429.153016	17429.807067
429.530679	17496.756111
429.908282	17529.684928
430.285824	17261.646778
430.663305	17952.980534
431.040726	17564.925114
431.418086	17399.542500
431.795385	18025.789919
432.172624	18442.968085
432.549802	17993.546699
432.926920	18200.750725
433.303977	18043.665850
433.680974	18288.716339
434.057910	18589.678265
434.434786	18597.749152
434.811601	18511.495010
435.188355	19516.285191
435.565050	19153.392691
435.941683	19096.558722
436.318257	19926.219219
436.694770	19697.595331
437.071222	20243.161603
437.447614	19303.946750
437.823946	19283.371281
438.200218	19412.276105
438.576429	19142.866761
438.952580	19377.625734
439.328670	19305.297779
439.704700	19638.570981
440.080670	19172.612090
440.456580	19682.570172
440.832429	19755.530791
441.208218	18753.961907
441.583947	19089.738041
441.959616	19123.314646
442.335224	19262.034597
442.710773	19300.531368
443.086261	19710.321723
443.461689	19009.361884
443.837057	19045.360764
444.212365	19539.040960
444.587612	19421.400594
444.962800	18948.124468
445.337927	19216.694459
445.712995	17957.625957
446.088002	19479.777155
446.462949	19525.434886
446.837837	19541.342247
447.212664	19405.830990
447.587431	21713.782126
447.962139	24008.089379
448.336786	25733.376392
448.711374	24171.876468
449.085901	20955.209460
449.460369	20768.633836
449.834776	20563.191693
450.209124	22350.696627
450.583412	21748.676993
450.957640	21916.282756
451.331808	20678.576143
451.705917	19421.579555
452.079965	19238.860413
452.453954	19307.651998
452.827883	19026.433752
453.201752	18667.773299
453.575562	18560.479902
453.949311	19134.243868
454.323001	18940.177089
454.696632	18543.103044
455.070202	19362.298106
455.443713	19233.662983
455.817164	19360.750472
456.190556	19452.801941
456.563888	18819.237287
456.937160	18830.859667
457.310373	17510.279006
457.683526	17503.246596
458.056619	17238.250783
458.429653	16962.207280
458.802628	17044.289868
459.175542	16848.246957
459.548398	17319.912434
459.921194	17938.991332
460.293930	18041.246097
460.666607	18834.948043
461.039224	19449.487382
461.411782	19306.202667
461.784280	18321.995516
462.156719	17698.679528
462.529099	17083.875528
462.901419	16164.626166
463.273680	15386.128339
463.645882	15147.235620
464.018024	14861.293812
464.390106	14952.349653
464.762130	15854.118815
465.134094	17345.430755
465.505999	19306.237955
465.877845	20837.339721
466.249631	20816.550003
466.621358	19590.889227
466.993026	18265.305220
467.364634	17023.926127
467.736184	15967.491845
468.107674	15177.364076
468.479105	14594.795735
468.850477	14049.350450
469.221790	13297.454792
469.593043	12454.997326
469.964238	11915.336766
470.335373	11634.705813
470.706449	11857.887777
471.077467	12309.819657
471.448425	13278.779838
471.819324	13741.716557
472.190164	12945.368005
472.560945	11765.858992
472.931667	10763.959913
473.302330	10256.824877
473.672934	9835.966668
474.043479	9711.666938
474.413965	9341.089198
474.784393	9061.975633
475.154761	9019.982822
475.525070	8834.745624
475.895321	8548.745843
476.265513	8448.557951
476.635645	8425.623222
477.005719	8213.982980
477.375734	8101.353521
477.745691	8012.606528
478.115588	8027.868621
478.485427	8145.451014
478.855207	8460.215619
479.224928	8641.760172
479.594591	8643.554823
479.964194	8271.555478
480.333739	8066.824138
480.703226	7873.329530
481.072653	7766.126872
481.442022	7650.238307
481.811333	7481.513409
482.180584	7164.686972
482.549777	6937.600635
482.918912	6726.121711
483.287988	6540.768566
483.657005	6317.442930
484.025964	6105.850580
484.394864	5965.953519
484.763706	5799.461852
485.132489	5602.632520
485.501213	5476.800279
485.869879	5370.225246
486.238487	5236.654833
486.607036	5147.166791
486.975527	5015.937995
487.343959	4930.767700
487.712333	4848.715360
488.080648	4755.501905
488.448905	4698.428481
488.817104	4609.986478
489.185244	4584.130400
489.553326	4591.256071
489.921350	4653.375689
490.289315	4725.522163
490.657222	4680.912992
491.025070	4621.865957
491.392861	4509.755737
491.760593	4383.656315
492.128267	4253.113115
492.495883	4141.612874
492.863440	4042.927247
493.230939	3949.088688
493.598380	3872.004405
493.965763	3820.042712
494.333088	3760.121037
494.700354	3709.943912
495.067563	3672.576359
495.434713	3633.648569
495.801805	3614.774489
496.168839	3577.737132
496.535815	3542.784291
496.902733	3521.876106
497.269593	3489.761435
497.636395	3466.506593
498.003139	3454.319603
498.369825	3423.767690
498.736453	3411.444590
499.103023	3384.945764
499.469535	3366.638814
499.835989	3349.075434
500.202385	3330.889472
500.568723	3316.134014
500.935003	3301.822179
501.301226	3283.053963
501.667390	3283.401803
502.033497	3272.868312
502.399546	3250.268819
502.765537	3228.841394
503.131470	3223.351578
503.497345	3219.361505
503.863163	3186.162986
504.228923	3183.513860
504.594625	3178.419774
504.960269	3155.419509
505.325856	3159.475117
505.691385	3141.465595
506.056856	3132.341107
506.422270	3128.524953
506.787625	3111.780761
507.152924	3107.702468
507.518164	3098.502362
507.883347	3081.395206
508.248472	3075.214752
508.613540	3074.778692
508.978550	3073.901531
509.343503	3059.193965
509.708398	3055.362688
510.073236	3055.108109
510.438016	3047.410268
510.802738	3034.023483
511.167403	3034.338556
511.532010	3031.598688
511.896561	3031.422248
512.261053	3033.567259
512.625488	3022.748943
512.989866	3013.816018
513.354186	3008.946264
513.718449	2999.413442
514.082655	3006.458454
514.446803	2997.608709
514.810894	3000.764471
515.174927	2995.733399
515.538904	2992.290291
515.902822	2990.772904
516.266684	2984.718478
516.630488	2983.415340
516.994235	2978.386789
517.357925	2981.444249
517.721558	2977.655822
518.085133	2980.103302
518.448651	2979.092551
518.812112	2971.654328
519.175516	2969.652990
519.538863	2970.613330
519.902152	2966.250211
520.265385	2970.620892
520.628560	2967.639049
520.991678	2963.827937
521.354739	2961.395580
521.717743	2962.524798
522.080690	2963.142340
522.443580	2966.759368
522.806413	2962.050930
523.169189	2958.544808
523.531908	2956.263685
523.894569	2954.267388
524.257174	2954.847121
524.619722	2955.399128
524.982213	2955.124385
525.344647	2950.962912
525.707025	2949.450566
526.069345	2949.344702
526.431608	2948.149948
526.793815	2948.195319
527.155964	2943.514607
527.518057	2943.585183
527.880093	2941.538475
528.242072	2942.274483
528.603995	2940.343722
528.965860	2936.025973
529.327669	2939.471602
529.689421	2933.747372
530.051117	2935.111004
530.412755	2930.740323
530.774337	2930.780653
531.135862	2929.661517
531.497331	2923.980136
531.858743	2921.983839
532.220098	2926.110024
532.581396	2919.768252
532.942638	2919.962337
533.303824	2921.220104
533.664953	2918.122315
534.026025	2914.918662
534.387040	2918.177768
534.747999	2916.252047
535.108902	2917.111564
535.469748	2910.311048
535.830537	2910.679052
536.191270	2911.357087
536.551947	2908.992786
536.912567	2908.960018
537.273131	2911.452869
537.633638	2902.275448
537.994089	2905.153947
538.354483	2900.155643
538.714821	2902.658576
539.075103	2904.672517
539.435328	2901.869635
539.795497	2897.650190
540.155609	2896.951990
540.515665	2900.662279
540.875665	2896.551218
541.235609	2895.805127
541.595496	2893.574417
541.955328	2900.546333
542.315102	2890.574930
542.674821	2887.477141
543.034483	2886.237017
543.394090	2885.821122
543.753640	2886.209291
544.113134	2889.581823
544.472571	2885.110319
544.831953	2891.061402
545.191278	2884.966647
545.550548	2880.280894
545.909761	2881.624362
546.268918	2879.547406
546.628019	2888.157697
546.987064	2881.768034
547.346053	2876.003475
547.704986	2879.096223
548.063863	2874.745707
548.422684	2872.986344
548.781449	2870.710263
549.140158	2876.464741
549.498811	2873.613968
549.857408	2868.313195
550.215949	2870.112887
550.574434	2869.392002
550.932864	2867.763709
551.291237	2872.978783
551.649555	2868.610623
552.007817	2870.359903
552.366022	2869.797815
552.724173	2868.524923
553.082267	2868.928216
553.440305	2866.672299
553.798288	2865.860673
554.156215	2867.504090
554.514086	2870.627084
554.871902	2866.659696
555.229661	2864.958307
555.587365	2862.687267
555.945014	2862.049561
556.302606	2861.305991
556.660143	2863.398070
557.017625	2862.568800
557.375050	2862.404963
557.732421	2861.487472
558.089735	2862.674664
558.446994	2862.788090
558.804197	2864.978472
559.161345	2863.624922
559.518437	2856.620238
559.875474	2858.893799
560.232455	2862.079808
560.589381	2859.453367
560.946251	2858.414889
561.303065	2860.179293
561.659825	2861.331197
562.016528	2854.737367
562.373177	2853.386338
562.729770	2855.170907
563.086307	2854.487830
563.442789	2856.544621
563.799216	2855.977491
564.155587	2854.631503
564.511904	2853.202336
564.868164	2853.207377
565.224370	2853.373735
565.580520	2851.437932
565.936615	2853.025896
566.292654	2850.712006
566.648638	2851.702593
567.004567	2849.509691
567.360441	2850.880885
567.716260	2849.718899
568.072023	2847.987262
568.427732	2847.964577
568.783385	2845.801922
569.138982	2845.353260
569.494525	2845.587673
569.850013	2842.905779
570.205445	2843.959381
570.560823	2843.069617
570.916145	2841.811849
571.271412	2844.932323
571.626625	2840.574246
571.981782	2841.816890
572.336884	2838.845130
572.691931	2840.173474
573.046923	2836.226251
573.401860	2834.010663
573.756743	2835.860767
574.111570	2834.494614
574.466342	2834.159377
574.821059	2831.593430
575.175722	2830.529747
575.530330	2829.652586
575.884882	2824.624035
576.239380	2823.633448
576.593823	2825.355002
576.948211	2822.720999
577.302544	2817.407623
577.656823	2819.333344
578.011047	2818.214208
578.365216	2820.069352
578.719330	2818.609938
579.073389	2814.067859
579.427394	2814.335040
579.781344	2812.343784
580.135239	2812.154741
580.489080	2809.190542
580.842866	2807.574853
581.196597	2813.084834
581.550273	2811.060811
581.903895	2808.802374
582.257463	2808.620892
582.610975	2803.136117
582.964434	2808.348670
583.317837	2803.698205
583.671186	2800.550005
584.024481	2803.017650
584.377721	2801.306178
584.730906	2801.422124
585.084037	2800.476908
585.437113	2797.217802
585.790135	2799.372895
586.143103	2795.390384
586.496016	2793.900723
586.848874	2790.069446
587.201679	2789.030968
587.554428	2788.000052
587.907124	2789.333437
588.259765	2784.972839
588.612352	2789.315793
588.964884	2785.986111
589.317362	2788.625155
589.669786	2784.962757
590.022155	2786.127264
590.374470	2785.267747
590.726731	2781.441511
591.078937	2778.943619
591.431090	2779.142745
591.783188	2777.411109
592.135232	2776.216355
592.487222	2776.753238
592.839157	2775.402209
593.191038	2773.995727
593.542866	2769.506579
593.894639	2766.862494
594.246358	2765.894593
594.598022	2765.927360
594.949633	2764.132709
595.301190	2762.988367
595.652692	2763.757143
596.004141	2760.072060
596.355535	2758.726072
596.706876	2756.215577
597.058162	2754.821698
597.409395	2758.728592
597.760573	2754.909918
598.111698	2755.666092
598.462768	2751.963364
598.813785	2752.127202
599.164748	2750.609814
599.515657	2749.891450
599.866511	2747.161665
600.217312	2750.806419
600.568060	2744.759555
600.918753	2747.874988
601.269392	2748.943713
601.619978	2744.515059
601.970510	2743.577405
602.320988	2742.387692
602.671412	2747.496902
603.021783	2741.392064
603.372100	2743.826942
603.722363	2740.696385
604.072572	2740.086406
604.422728	2740.456930
604.772830	2736.713874
605.122878	2738.463154
605.472872	2739.690675
605.822813	2733.593399
606.172701	2735.284707
606.522534	2736.610530
606.872314	2740.643453
607.222041	2734.911661
607.571714	2738.314440
607.921333	2735.123390
608.270899	2734.357134
608.620411	2735.957701
608.969870	2735.650190
609.319276	2731.924777
609.668627	2732.312946
610.017926	2734.122721
610.367171	2734.712536
610.716362	2732.040724
611.065500	2732.912844
611.414585	2732.159191
611.763616	2734.634398
612.112594	2735.372927
612.461518	2732.451578
612.810389	2733.600961
613.159207	2730.319170
613.507971	2732.401167
613.856682	2734.304202
614.205340	2730.828327
614.553945	2735.317474
614.902496	2730.293964
615.250994	2734.432752
615.599439	2729.346227
615.947830	2733.399315
616.296169	2730.493090
616.644454	2730.851012
616.992686	2732.126424
617.340864	2733.646332
617.688990	2731.357648
618.037063	2729.749520
618.385082	2732.839747
618.733048	2733.611043
619.080961	2730.825806
619.428821	2733.326218
619.776628	2729.401680
620.124382	2731.433265
620.472083	2725.358675
620.819731	2728.360682
621.167326	2724.904971
621.514868	2725.981257
621.862357	2722.626369
622.209793	2721.303066
622.557176	2716.876933
622.904506	2715.866182
623.251783	2710.036087
623.599007	2710.094061
623.946179	2706.572815
624.293297	2709.778989
624.640363	2705.655325
624.987376	2707.540716
625.334336	2704.919316
625.681243	2700.941846
626.028097	2701.307330
626.374899	2699.013605
626.721647	2700.735159
627.068343	2699.227854
627.414987	2694.794159
627.761577	2695.381453
628.108115	2696.359437
628.454600	2693.344827
628.801032	2693.347348
629.147412	2693.390197
629.493739	2690.204188
629.840014	2689.508509
630.186236	2690.292408
630.532405	2688.538087
630.878521	2688.407017
631.224585	2686.594722
631.570597	2685.677232
631.916556	2683.229752
632.262462	2684.835359
632.608316	2684.278312
632.954117	2679.106088
633.299866	2682.216480
633.645562	2681.790502
633.991206	2681.820749
634.336797	2677.513083
634.682336	2675.554595
635.027823	2673.323885
635.373257	2672.784481
635.718639	2667.924809
636.063968	2670.059737
636.409245	2666.016732
636.754470	2666.422545
637.099642	2663.992709
637.444762	2663.748213
637.789829	2661.615805
638.134845	2662.871052
638.479808	2660.577327
638.824719	2658.187820
639.169577	2656.473828
639.514383	2657.333345
639.859137	2655.548776
640.203839	2655.873931
640.548489	2653.401245
640.893086	2653.045843
641.237632	2649.829587
641.582125	2651.599032
641.926566	2646.590646
642.270955	2649.811943
642.615292	2649.703558
642.959576	2650.996614
643.303809	2651.916625
643.647990	2648.367652
643.992118	2649.673311
644.336195	2651.011738
644.680219	2647.984525
645.024192	2649.791778
645.368112	2653.176913
645.711981	2651.800678
646.055797	2653.028199
646.399562	2653.013076
646.743274	2657.282933
647.086935	2657.446771
647.430544	2658.006339
647.774101	2655.755463
648.117606	2655.962151
648.461059	2657.688746
648.804460	2657.066163
649.147810	2653.600370
649.491108	2649.602735
649.834354	2651.301604
650.177548	2646.993938
650.520690	2645.204328
650.863781	2646.104174
651.206820	2646.560399
651.549807	2640.982362
651.892742	2639.853144
652.235626	2638.161837
652.578458	2640.422794
652.921238	2636.828451
653.263967	2639.659059
653.606644	2638.499594
653.949269	2635.164871
654.291843	2634.030611
654.634365	2637.756024
654.976836	2634.131434
655.319255	2630.559777
655.661622	2631.545322
656.003938	2631.633542
656.346203	2629.536422
656.688416	2631.691516
657.030577	2627.464508
657.372687	2627.724127
657.714746	2631.560446
658.056753	2629.775877
658.398708	2625.584158
658.740612	2625.130454
659.082465	2623.076184
659.424266	2623.330762
659.766016	2621.596605
660.107715	2627.242697
660.449362	2627.398973
660.790958	2626.365537
661.132503	2625.616925
661.473996	2625.357306
661.815438	2625.536267
662.156829	2627.552728
662.498168	2627.398973
662.839456	2626.327728
663.180693	2628.553397
663.521879	2627.850156
663.863013	2626.965434
664.204097	2625.881586
664.545129	2628.906278
664.886110	2626.927625
665.227040	2627.489714
665.567918	2626.005094
665.908746	2625.485855
666.249522	2629.745630
666.590248	2628.336628
666.930922	2629.622122
667.271545	2625.841257
667.612118	2627.945938
667.952639	2626.864611
668.293109	2626.264713
668.633528	2624.890999
668.973896	2624.525515
669.314213	2623.509723
669.654480	2623.850001
669.994695	2622.619959
670.334859	2622.549383
670.674973	2620.837911
671.015035	2622.682974
671.355047	2621.634414
671.695008	2624.036523
672.034918	2622.042747
672.374777	2617.989659
672.714585	2622.302367
673.054342	2624.160032
673.394049	2620.361522
673.733705	2623.061060
674.073310	2621.856224
674.412864	2618.992849
674.752368	2620.253137
675.091820	2620.353961
675.431223	2616.278188
675.770574	2618.032509
676.109875	2612.698968
676.449125	2612.033536
676.788324	2611.698299
677.127473	2608.124121
677.466571	2608.272835
677.805619	2611.698299
678.144616	2610.911879
678.483562	2610.806015
678.822458	2610.080089
679.161303	2610.231324
679.500098	2608.766868
679.838842	2607.884667
680.177535	2606.831065
680.516179	2608.489605
680.854771	2611.466406
681.193314	2610.548916
681.531805	2617.291460
681.870247	2618.745832
682.208638	2619.711213
682.546978	2622.166255
682.885268	2622.607356
683.223508	2619.537294
683.561697	2620.656430
683.899836	2619.373456
684.237925	2617.016717
684.575963	2615.317848
684.913951	2615.340533
685.251889	2616.142077
685.589776	2615.002776
685.927614	2614.017230
686.265401	2615.577467
686.603137	2615.930348
686.940824	2614.949844
687.278460	2617.767849
687.616046	2618.387911
687.953582	2620.956378
688.291068	2618.992849
688.628504	2622.214146
688.965889	2621.747840
689.303224	2619.181892
689.640510	2616.608383
689.977745	2617.966974
690.314930	2612.401540
690.652065	2613.407251
690.989150	2607.609924
691.326185	2605.658997
691.663170	2603.367793
692.000105	2603.781167
692.336990	2599.077771
692.673825	2598.858481
693.010610	2595.546442
693.347345	2593.988726
693.684030	2587.422623
694.020665	2590.623756
694.357251	2584.796182
694.693786	2584.667632
695.030272	2588.887078
695.366707	2588.967737
695.703093	2585.930442
696.039429	2586.631162
696.375716	2584.957499
696.711952	2584.445822
697.048139	2583.929103
697.384276	2584.468507
697.720363	2584.050091
698.056400	2586.363981
698.392388	2583.654361
698.728326	2582.817529
699.064214	2583.750142
699.400053	2583.669484
699.735842	2580.609504
700.071581	2579.460121
700.407270	2577.337795
700.742910	2581.038002
701.078501	2578.351067
701.414042	2575.744790
701.749533	2575.649008
702.084974	2575.396951
702.420366	2575.719584
702.755709	2574.348391
703.091002	2573.229254
703.426246	2572.735221
703.761440	2569.604665
704.096584	2574.610531
704.431679	2570.897721
704.766725	2573.075499
705.101721	2571.641291
705.436668	2572.641960
705.771565	2569.876887
706.106413	2572.483164
706.441212	2571.117011
706.775961	2572.470561
707.110661	2573.317475
707.445311	2577.360480
707.779913	2573.630026
708.114465	2575.802763
708.448967	2574.098853
708.783421	2579.235789
709.117825	2578.509863
709.452180	2578.696386
709.786485	2579.291242
710.120742	2583.661922
710.454949	2582.295770
710.789107	2581.247210
711.123216	2581.176633
711.457275	2585.138980
711.791286	2586.089238
712.125247	2586.739547
712.459159	2586.106882
712.793023	2592.443612
713.126837	2585.998497
713.460602	2586.555545
713.794318	2584.723085
714.127985	2584.753332
714.461602	2580.261664
714.795171	2580.917014
715.128691	2578.086406
715.462162	2576.453072
715.795584	2574.829821
716.128957	2574.214800
716.462281	2574.275294
716.795556	2571.280848
717.128782	2569.188770
717.461960	2569.919737
717.795088	2570.706157
718.128167	2568.024263
718.461198	2565.659962
718.794180	2565.160888
719.127113	2562.819272
719.459997	2564.003943
719.792833	2564.394632
720.125619	2565.773388
720.458357	2561.324570
720.791046	2561.692574
721.123686	2559.955896
721.456278	2561.243911
721.788821	2559.179559
722.121315	2559.867676
722.453761	2559.799621
722.786158	2559.734086
723.118506	2558.614949
723.450805	2558.088149
723.783056	2559.681153
724.115259	2556.858107
724.447412	2557.463046
724.779518	2560.649055
725.111574	2560.553273
725.443582	2562.282389
725.775542	2558.778787
726.107453	2561.838767
726.439315	2562.239539
726.771129	2567.704150
727.102895	2566.461505
727.434612	2566.315312
727.766281	2566.887483
728.097901	2565.503686
728.429473	2564.016546
728.760996	2564.117369
729.092471	2561.256514
729.423897	2568.404870
729.755276	2568.838409
730.086606	2565.564180
730.417887	2569.226578
730.749120	2569.816393
731.080305	2569.599624
731.411442	2572.205900
731.742530	2573.690520
732.073570	2569.995354
732.404562	2577.738567
732.735506	2572.132803
733.066401	2574.613051
733.397249	2571.905952
733.728048	2568.364541
734.058798	2566.181721
734.389501	2561.062430
734.720156	2562.446226
735.050762	2558.733417
735.381320	2560.991853
735.711831	2558.057902
736.042293	2555.610422
736.372707	2558.045299
736.703073	2555.423899
737.033391	2557.334496
737.363661	2556.870710
737.693883	2557.468087
738.024056	2558.335165
738.354182	2558.897254
738.684260	2559.323232
739.014290	2561.473284
739.344272	2562.461350
739.674207	2561.296843
740.004093	2563.174673
740.333931	2562.731052
740.663722	2564.697102
740.993464	2562.214333
741.323159	2562.627708
741.652806	2562.045455
741.982405	2560.512944
742.311956	2561.503531
742.641460	2557.931873
742.970915	2558.715773
743.300323	2559.240053
743.629683	2557.420196
743.958996	2554.405586
744.288260	2554.730740
744.617477	2553.767880
744.946647	2549.167827
745.275768	2552.242931
745.604842	2547.350491
745.933869	2547.834442
746.262847	2544.787064
746.591778	2548.298228
746.920662	2549.248486
747.249498	2550.518856
747.578286	2549.137580
747.907027	2551.592622
748.235720	2551.118754
748.564365	2556.361554
748.892963	2553.485575
749.221514	2552.560524
749.550017	2551.156562
749.878473	2555.784342
750.206881	2553.714948
750.535242	2550.919628
750.863555	2547.983156
751.191821	2547.607590
751.520039	2552.842828
751.848210	2547.937786
752.176334	2551.862324
752.504411	2550.473486
752.832440	2548.177240
753.160421	2550.760832
753.488356	2548.056253
753.816243	2550.576830
754.144082	2548.225131
754.471875	2550.067673
754.799620	2548.351160
755.127318	2546.785882
755.454969	2546.140614
755.782572	2550.228990
756.110129	2547.353012
756.437638	2548.232693
756.765100	2546.430481
757.092515	2549.024154
757.419882	2546.145655
757.747203	2545.460058
758.074477	2549.777807
758.401703	2549.888712
758.728882	2550.362581
759.056014	2549.613969
759.383099	2551.544731
759.710138	2550.556665
760.037129	2549.349309
760.364073	2550.493651
760.690970	2551.481717
761.017820	2550.738147
761.344623	2551.186809
761.671379	2553.959444
761.998088	2549.248486
762.324751	2560.656617
762.651366	2570.806980
762.977935	2589.376070
763.304456	2596.816813
763.630931	2600.791763
763.957359	2596.095928
764.283740	2587.183168
764.610074	2582.724268
764.936362	2571.943760
765.262602	2567.371434
765.588796	2560.611246
765.914943	2555.383570
766.241044	2554.188816
766.567097	2550.110523
766.893104	2547.494164
767.219064	2545.936447
767.544978	2543.239430
767.870845	2542.775644
768.196665	2541.737166
768.522438	2539.519059
768.848165	2539.176260
769.173846	2540.386137
769.499479	2537.069058
769.825066	2536.078471
770.150607	2539.556867
770.476101	2535.614685
770.801548	2540.807073
771.126949	2537.323636
771.452303	2535.357586
771.777611	2534.430014
772.102872	2536.264994
772.428087	2533.835158
772.753256	2533.197452
773.078378	2531.087729
773.403453	2533.089067
773.728482	2532.252235
774.053465	2533.507483
774.378401	2529.338448
774.703291	2529.383819
775.028135	2526.792666
775.352932	2529.131761
775.677683	2529.721576
776.002388	2531.138140
776.327046	2529.625794
776.651658	2528.869621
776.976224	2528.297450
777.300743	2527.737882
777.625216	2529.144364
777.949643	2529.998840
778.274024	2526.409538
778.598359	2525.844929
778.922647	2523.173117
779.246889	2525.476925
779.571086	2525.935670
779.895236	2526.664116
780.219339	2526.863242
780.543397	2530.598737
780.867409	2526.885927
781.191374	2529.056144
781.515294	2527.775691
781.839167	2528.758716
782.162995	2527.780732
782.486776	2526.908612
782.810511	2527.261493
783.134201	2529.741741
783.457844	2525.834847
783.781441	2530.502955
784.104993	2527.793335
784.428498	2525.938190
784.751958	2527.954652
785.075372	2530.520599
785.398739	2526.901051
785.722061	2524.763601
786.045337	2525.557583
786.368568	2528.657893
786.691752	2529.010773
787.014891	2527.289219
787.337983	2532.010260
787.661030	2534.067051
787.984031	2536.663245
788.306987	2535.750796
788.629897	2537.489994
788.952760	2538.107536
789.275579	2537.091743
789.598351	2535.251722
789.921078	2533.411701
790.243759	2529.948428
790.566395	2529.429189
790.888984	2531.324663
791.211529	2529.119158
791.534027	2529.325846
791.856480	2530.797863
792.178888	2530.019004
792.501249	2527.064888
792.823566	2528.219312
793.145836	2526.160001
793.468062	2527.016997
793.790241	2523.664630
794.112375	2525.857532
794.434464	2525.708818
794.756507	2525.804600
795.078505	2526.220495
795.400457	2526.379291
795.722364	2526.112110
796.044226	2528.005063
796.366042	2527.377440
796.687812	2527.463139
797.009538	2532.905065
797.331218	2532.957997
797.652852	2532.433717
797.974442	2531.622091
798.295986	2529.265352
798.617484	2526.679240
798.938938	2530.238294
799.260346	2529.214940
799.581709	2527.430372
799.903026	2528.025228
800.224299	2527.203520
800.545526	2528.489014
800.866708	2528.857018
801.187845	2529.172090
801.508936	2522.908457
801.829983	2527.178314
802.150984	2522.699249
802.471940	2524.972809
802.792851	2524.871986
803.113717	2523.173117
803.434538	2523.551204
803.755314	2523.052130
804.076045	2523.430216
804.396731	2526.041534
804.717372	2522.094310
805.037967	2524.834178
805.358518	2523.432737
805.679024	2526.533046
805.999485	2525.045906
806.319901	2525.184538
806.640272	2523.641945
806.960598	2525.723941
807.280879	2522.608508
807.601115	2525.250073
807.921306	2526.933818
808.241453	2527.904240
808.561554	2528.385670
808.881611	2529.192255
809.201623	2525.013138
809.521590	2526.961544
809.841513	2527.490866
810.161390	2524.574558
810.481223	2524.282171
810.801011	2525.547501
811.120755	2524.740916
811.440453	2525.844929
811.760107	2524.352747
812.079716	2520.539114
812.399281	2520.307221
812.718801	2523.387366
813.038276	2519.916532
813.357707	2522.827798
813.677093	2523.105062
813.996434	2524.042716
814.315731	2523.813344
814.634983	2523.132788
814.954191	2523.021883
815.273354	2524.168745
815.592473	2523.707480
815.911547	2523.773015
816.230577	2527.425331
816.549562	2526.764939
816.868502	2527.712676
817.187399	2528.350382
817.506250	2526.628828
817.825058	2528.524302
818.143821	2528.975485
818.462539	2533.517565
818.781213	2532.554705
819.099843	2535.007226
819.418429	2539.322454
819.736970	2543.950233
820.055466	2548.668753
820.373919	2555.733930
820.692327	2568.039387
821.010691	2589.129054
821.329011	2633.672689
821.647286	2699.706763
821.965517	2766.184459
822.283704	2804.174594
822.601847	2817.193374
822.919945	2785.746657
823.237999	2749.899012
823.556010	2719.180741
823.873976	2685.944413
824.191897	2658.722183
824.509775	2636.281486
824.827609	2615.819443
825.145398	2606.261415
825.463144	2602.084819
825.780845	2604.217227
826.098502	2610.387599
826.416116	2628.253449
826.733685	2641.773823
827.051210	2646.777168
827.368692	2636.248719
827.686129	2620.419496
828.003522	2600.852257
828.320872	2583.871130
828.638177	2572.775551
828.955439	2558.632593
829.272656	2555.093703
829.589830	2544.882846
829.906960	2543.022661
830.224046	2538.394881
830.541088	2536.010416
830.858086	2533.066382
831.175041	2532.295085
831.491952	2533.575538
831.808819	2533.575538
832.125642	2536.282638
832.442421	2541.298586
832.759157	2546.082641
833.075849	2559.769374
833.392497	2574.250088
833.709101	2585.254927
834.025662	2585.201995
834.342179	2573.806467
834.658653	2565.070147
834.975083	2555.295350
835.291469	2554.660164
835.607811	2545.782692
835.924110	2538.523431
836.240366	2532.905065
836.556578	2531.052441
836.872746	2528.877183
837.188871	2528.176463
837.504952	2525.063550
837.820990	2522.366533
838.136984	2521.081038
838.452935	2520.642458
838.768842	2521.685977
839.084706	2525.895340
839.400526	2531.793490
839.716303	2536.920344
840.032037	2544.431663
840.347727	2539.705581
840.663373	2539.216589
840.978977	2532.509334
841.294537	2526.772501
841.610054	2525.829805
841.925527	2524.501461
842.240957	2522.774866
842.556344	2520.617252
842.871687	2517.315297
843.186987	2515.835718
843.502244	2515.414782
843.817458	2516.813702
844.132629	2514.572909
844.447756	2512.995028
844.762840	2509.594769
845.077881	2513.930162
845.392879	2511.155007
845.707833	2509.456138
846.022745	2509.390603
846.337613	2512.586694
846.652438	2512.500995
846.967221	2513.564678
847.281960	2510.169461
847.596656	2513.264729
847.911309	2511.593587
848.225919	2510.421519
848.540485	2512.775737
848.855009	2511.449914
849.169490	2510.781961
849.483928	2512.420336
849.798323	2509.982938
850.112675	2511.091992
850.426984	2510.928155
850.741251	2511.419667
851.055474	2506.691065
851.369654	2509.546878
851.683792	2511.326406
851.997887	2509.675428
852.311938	2510.988648
852.625947	2513.814215
852.939914	2511.379338
853.253837	2514.582991
853.567718	2510.716426
853.881555	2510.907990
854.195350	2512.458145
854.509103	2511.056704
854.822812	2509.052845
855.136479	2511.633916
855.450103	2512.112826
855.763685	2512.528721
856.077224	2508.364728
856.390720	2509.927486
856.704173	2508.447907
857.017584	2508.964625
857.330953	2511.664163
857.644278	2509.148627
857.957561	2511.144924
858.270802	2511.477640
858.584000	2510.749194
858.897155	2512.828670
859.210268	2513.363032
859.523339	2512.533762
859.836367	2510.933196
860.149352	2510.817249
860.462295	2512.826149
860.775195	2507.895901
861.088054	2508.087464
861.400869	2508.117711
861.713642	2506.320540
862.026373	2509.478823
862.339062	2511.303721
862.651708	2511.097033
862.964312	2512.145593
863.276873	2510.688700
863.589392	2511.515449
863.901869	2511.417147
864.214303	2509.720798
864.526696	2514.099040
864.839045	2510.844976
865.151353	2512.566530
865.463619	2509.372959
865.775842	2514.315810
866.088023	2512.198525
866.400162	2513.695748
866.712258	2512.748011
867.024313	2513.201715
867.336325	2511.477640
867.648296	2511.913700
867.960224	2511.913700
868.272110	2515.319000
868.583954	2511.671725
868.895755	2512.591735
869.207515	2511.613752
869.519233	2513.572240
869.830909	2513.262209
870.142542	2515.666839
870.454134	2511.976715
870.765684	2515.336644
871.077191	2513.342867
871.388657	2515.684483
871.700081	2513.098371
872.011463	2514.837569
872.322803	2516.531397
872.634101	2513.365553
872.945357	2516.659947
873.256571	2517.262364
873.567744	2515.051818
873.878874	2515.470234
874.189963	2516.498630
874.501010	2518.976357
874.812015	2515.966788
875.122979	2515.772703
875.433900	2516.120543
875.744780	2516.284381
876.055618	2519.089783
876.366415	2519.140194
876.677169	2517.436284
876.987882	2517.572395
877.298554	2514.635923
877.609183	2514.908146
877.919771	2515.298835
878.230317	2515.497961
878.540822	2525.008097
878.851285	2525.308046
879.161707	2530.260980
879.472087	2531.536392
879.782425	2541.913607
880.092722	2557.372305
880.402977	2581.965574
880.713191	2609.034050
881.023363	2635.618574
881.333494	2654.306132
881.643583	2656.499034
881.953631	2652.609783
882.263637	2644.143166
882.573602	2634.209572
882.883526	2625.690022
883.193408	2611.398351
883.503248	2599.569283
883.813048	2591.899168
884.122806	2580.196129
884.432522	2571.621126
884.742197	2561.581668
885.051831	2554.902140
885.361424	2546.990049
885.670975	2543.395706
885.980485	2537.255581
886.289954	2538.145344
886.599382	2530.412214
886.908768	2527.684950
887.218113	2526.714528
887.527417	2524.687984
887.836680	2522.691687
888.145901	2521.832170
888.455082	2520.594567
888.764221	2518.436953
889.073319	2516.206243
889.382376	2516.808661
889.691392	2516.286901
890.000366	2520.150946
890.309300	2520.150946
890.618193	2518.036182
890.927044	2518.714217
891.235855	2517.179185
891.544625	2520.168590
891.853353	2516.768331
892.162041	2519.286388
892.470687	2523.432737
892.779293	2522.454753
893.087858	2523.326873
893.396381	2523.266379
893.704864	2532.345497
894.013306	2538.042001
894.321707	2549.767724
894.630068	2554.788714
894.938387	2557.037068
895.246665	2557.357182
895.554903	2553.142777
895.863100	2546.085162
896.171256	2544.300593
896.479371	2539.382947
896.787446	2538.193235
897.095480	2535.115611
897.403473	2532.489170
897.711425	2527.942049
898.019336	2526.780063
898.327207	2525.340813
898.635038	2522.114475
898.942827	2520.879392
899.250576	2520.922242
899.558284	2519.548528
899.865952	2519.006604
900.173579	2517.209432
900.481165	2516.942251
900.788711	2518.338651
901.096216	2519.306552
901.403681	2515.450070
901.711105	2514.572909
902.018489	2515.971829
902.325832	2519.914011
902.633135	2516.430574
902.940397	2521.010462
903.247619	2524.456091
903.554800	2537.512679
903.861941	2553.243600
904.169041	2565.037379
904.476101	2567.341187
904.783121	2562.350444
905.090100	2558.390618
905.397039	2555.774259
905.703938	2543.148689
906.010796	2543.234389
906.317614	2537.913451
906.624391	2530.954138
906.931129	2528.161339
907.237826	2529.953469
907.544483	2522.696728
907.851099	2519.412417
908.157675	2517.542148
908.464211	2516.100378
908.770707	2510.189626
909.077163	2513.315141
909.383578	2508.319358
909.689954	2509.272136
909.996289	2505.241733
910.302584	2508.372290
910.608839	2508.226096
910.915054	2510.615603
911.221229	2511.689369
911.527363	2512.190964
911.833458	2509.196518
912.139513	2510.214831
912.445527	2511.240706
912.751502	2511.480161
913.057436	2512.122908
913.363331	2514.335975
913.669186	2513.640295
913.975000	2517.829494
914.280775	2518.646161
914.586510	2527.954652
914.892205	2530.573531
915.197859	2538.273894
915.503475	2548.507436
915.809050	2558.514126
916.114585	2560.833057
916.420081	2563.643500
916.725536	2564.407235
917.030952	2562.446226
917.336328	2557.652089
917.641665	2556.570762
917.946961	2548.267981
918.252218	2544.141797
918.557435	2542.180788
918.862612	2539.781199
919.167750	2535.566794
919.472848	2534.031763
919.777906	2530.172759
920.082925	2525.260155
920.387904	2521.426358
920.692843	2521.685977
920.997743	2518.580626
921.302603	2519.616583
921.607423	2515.107271
921.912204	2512.906807
922.216946	2512.445542
922.521647	2514.414112
922.826310	2516.856552
923.130932	2511.167609
923.435516	2510.408916
923.740059	2509.814060
924.044564	2507.805160
924.349028	2508.717609
924.653454	2505.692916
924.957840	2510.660973
925.262186	2505.274501
925.566493	2506.207114
925.870761	2501.309633
926.174989	2508.470592
926.479178	2504.828358
926.783328	2508.077382
927.087438	2507.633761
927.391509	2508.495798
927.695541	2505.564367
927.999533	2504.495642
928.303486	2505.599655
928.607400	2507.447238
928.911275	2505.950015
929.215110	2503.767196
929.518906	2504.039418
929.822663	2504.225941
930.126381	2504.125118
930.430060	2507.036384
930.733699	2504.480519
931.037299	2506.030674
931.340861	2503.207627
931.644383	2505.178719
931.947866	2504.203255
932.251309	2505.639984
932.554714	2503.129490
932.858080	2508.079903
933.161407	2505.012361
933.464694	2506.454131
933.767943	2504.228461
934.071153	2504.089829
934.374323	2502.975734
934.677455	2504.709891
934.980548	2502.350631
935.283602	2504.054541
935.586617	2504.740138
935.889593	2501.629746
936.192530	2503.774757
936.495428	2504.974552
936.798287	2503.225272
937.101108	2507.169974
937.403890	2505.052690
937.706632	2509.234327
938.009336	2506.297855
938.312002	2508.697444
938.614628	2507.946312
938.917216	2509.962774
939.219765	2508.873884
939.522275	2509.728360
939.824747	2508.294152
940.127179	2505.576970
940.429573	2504.606548
940.731929	2506.759120
941.034246	2505.927330
941.336524	2505.854233
941.638763	2510.781961
941.940964	2507.232989
942.243126	2508.145438
942.545250	2504.974552
942.847335	2507.875736
943.149381	2505.642505
943.451389	2506.494460
943.753359	2505.647546
944.055290	2506.176867
944.357182	2505.221568
944.659036	2504.762823
944.960851	2509.123422
945.262628	2504.523369
945.564367	2507.953874
945.866067	2506.244923
946.167729	2507.240551
946.469352	2502.771568
946.770937	2507.011178
947.072484	2505.307268
947.373992	2504.624192
947.675462	2504.568739
947.976893	2506.539830
948.278286	2507.444717
948.579641	2508.301713
948.880958	2506.121414
949.182236	2508.881446
949.483476	2505.985303
949.784678	2506.595283
950.085841	2507.613596
950.386967	2507.500170
950.688054	2504.273832
950.989103	2507.341374
951.290114	2503.429438
951.591087	2506.358349
951.892021	2507.628719
952.192917	2506.960767
952.493776	2506.285252
952.794596	2505.690396
953.095378	2506.507063
953.396122	2506.204593
953.696828	2507.543020
953.997496	2508.112670
954.298126	2507.522855
954.598718	2506.897752
954.899272	2505.672752
955.199788	2507.205263
955.500266	2507.076713
955.800706	2502.413646
956.101108	2499.961124
956.401472	2503.245436
956.701798	2499.956083
957.002087	2500.016577
957.302337	2502.688389
957.602550	2504.455313
957.902724	2504.417504
958.202861	2504.679644
958.502960	2502.464057
958.803022	2501.634788
959.103045	2501.236536
959.403031	2503.041269
959.702979	2502.433810
960.002889	2500.452637
960.302762	2500.888697
960.602596	2499.996412
960.902393	2501.332318
961.202153	2502.721156
961.501875	2500.724859
961.801559	2501.521362
962.101205	2499.623367
962.400814	2499.951042
962.700385	2502.005312
962.999918	2500.785353
963.299414	2501.362565
963.598873	2499.772081
963.898293	2501.765857
964.197677	2500.016577
964.497022	2498.083295
964.796331	2498.920126
965.095601	2497.659838
965.394835	2500.876094
965.694030	2500.256032
965.993189	2498.368120
966.292309	2500.460199
966.591393	2501.942298
966.890439	2500.009015
967.189447	2497.375013
967.488419	2497.843840
967.787353	2501.110508
968.086249	2497.899292
968.385108	2499.225116
968.683930	2501.957421
968.982714	2499.799808
969.281462	2498.829385
969.580172	2499.567914
969.878844	2500.331649
970.177480	2500.150168
970.476078	2501.574294
970.774639	2502.050683
971.073162	2501.249139
971.371649	2496.608757
971.670098	2494.768736
971.968510	2498.305105
972.266885	2496.596154
972.565223	2501.090343
972.863524	2502.027998
973.161788	2501.594458
973.460014	2503.283245
973.758204	2498.622698
974.056356	2500.659324
974.354471	2503.560508
974.652550	2500.034221
974.950591	2500.558501
975.248595	2501.208810
975.546563	2501.455827
975.844493	2499.073881
976.142386	2500.684530
976.440243	2499.593120
976.738062	2499.661176
977.035845	2499.469612
977.333590	2501.975065
977.631299	2499.908192
977.928971	2500.533295
978.226606	2501.992709
978.524204	2499.706546
978.821765	2499.310816
979.119290	2501.254180
979.416777	2499.845178
979.714228	2499.920795
980.011642	2500.745024
980.309020	2499.890548
980.606360	2499.673779
980.903664	2500.714777
981.200931	2502.111177
981.498162	2503.492453
981.795356	2503.217710
982.092513	2504.868688
982.389633	2502.038080
982.686717	2506.658297
982.983764	2506.680983
983.280775	2506.761641
983.577749	2505.110663
983.874686	2507.411950
984.171587	2504.727535
984.468451	2509.793895
984.765279	2503.414315
985.062070	2504.173008
985.358824	2505.758451
985.655543	2502.411125
985.952224	2504.523369
986.248869	2505.534120
986.545478	2499.731752
986.842050	2500.825682
987.138586	2496.344097
987.435086	2494.655310
987.731549	2495.045999
988.027975	2503.056393
988.324366	2499.346104
988.620719	2498.466422
988.917037	2499.542709
989.213318	2500.621516
989.509563	2501.670076
989.805772	2498.804180
990.101944	2498.088336
990.398080	2501.198728
990.694180	2498.479025
990.990244	2501.395333
991.286271	2496.848212
991.582262	2502.206958
991.878217	2498.040445
992.174136	2498.320229
992.470019	2497.541371
992.765865	2498.358038
993.061676	2499.900631
993.357450	2501.090343
993.653188	2496.374343
993.948890	2501.657473
994.244556	2498.968017
994.540186	2498.781494
994.835780	2501.196207
995.131337	2499.517503
995.426859	2501.980107
995.722345	2498.320229
996.017795	2502.113697
996.313208	2503.454644
996.608586	2503.772237
996.903928	2503.328615
997.199234	2504.115035
997.494504	2505.266939
997.789738	2503.295848
998.084936	2500.918944
998.380099	2502.244767
998.675225	2503.568070
998.970316	2499.946001
999.265371	2500.341732
999.560390	2502.673265
999.855373	2499.716628
1000.150320	2501.589417
1000.445232	2500.349293
1000.740108	2499.348624
1001.034948	2499.920795
1001.329752	2499.356186
1001.624521	2500.326608
1001.919254	2493.881493
1002.213951	2497.440547
1002.508613	2494.040289
1002.803239	2496.462564
1003.097829	2495.464415
1003.392384	2499.439365
1003.686903	2498.390805
1003.981386	2497.435506
1004.275834	2498.010198
1004.570246	2498.824344
1004.864623	2496.810403
1005.158964	2501.022287
1005.453270	2498.229488
1005.747540	2498.726042
1006.041775	2500.455158
1006.335974	2497.748058
1006.630138	2496.412152
1006.924266	2499.202431
1007.218359	2497.957266
1007.512416	2497.624550
1007.806438	2496.439878
1008.100425	2498.673110
1008.394376	2495.693788
1008.688292	2499.646052
1008.982172	2496.833088
1009.276017	2496.812924
1009.569827	2497.201093
1009.863602	2499.872904
1010.157341	2495.857625
1010.451045	2497.327122
1010.744714	2498.761330
1011.038347	2499.852740
1011.331945	2499.303254
1011.625508	2498.680671
1011.919036	2497.372492
1012.212528	2498.486587
1012.505986	2495.419045
1012.799408	2498.605054
1013.092795	2496.303767
1013.386147	2496.492811
1013.679464	2499.169663
1013.972745	2495.529950
1014.265992	2499.000785
1014.559204	2499.721670
1014.852380	2496.419714
1015.145521	2497.216216
1015.438628	2496.999447
1015.731699	2501.360045
1016.024736	2496.545743
1016.317737	2499.545229
1016.610703	2500.979438
1016.903635	2493.369816
1017.196531	2493.740341
1017.489393	2494.945176
1017.782219	2495.078767
1018.075011	2500.674448
1018.367768	2497.337204
1018.660490	2497.594303
1018.953177	2497.594303
1019.245829	2497.594303
