Dividing Wavelength (nm)	Counts (n)	Blue Motor Position (mm): 0.000000	Red Motor Position (mm): 29.600000	
326.493990	2128.309619
326.888308	2128.309619
327.282561	2128.309619
327.676750	2092.837540
328.070874	2094.894331
328.464933	2095.058168
328.858929	2103.439086
329.252859	2110.945364
329.646726	2122.154370
330.040528	2137.577780
330.434265	2153.936324
330.827938	2169.415187
331.221547	2186.812209
331.615091	2208.688296
332.008571	2224.409135
332.401986	2244.082238
332.795338	2267.755496
333.188625	2285.462549
333.581847	2303.134314
333.975006	2321.431182
334.368100	2340.529593
334.761129	2357.157839
335.154095	2375.036291
335.546996	2391.861142
335.939833	2410.044584
336.332606	2423.496903
336.725315	2438.141455
337.117960	2444.387444
337.510540	2457.441512
337.903056	2466.586165
338.295508	2475.120839
338.687896	2480.484627
339.080220	2488.187510
339.472480	2496.228150
339.864676	2500.490446
340.256807	2505.771054
340.648875	2506.718791
341.040879	2510.628206
341.432818	2514.285563
341.824694	2514.981242
342.216506	2513.947806
342.608253	2515.855882
342.999937	2514.726664
343.391557	2516.007117
343.783113	2510.829852
344.174605	2515.487878
344.566033	2511.452435
344.957397	2508.488236
345.348697	2508.263905
345.739934	2507.477485
346.131106	2505.143431
346.522215	2503.711743
346.913260	2499.764519
347.304241	2501.662514
347.695159	2496.197903
348.086012	2498.390805
348.476802	2495.524909
348.867528	2495.134220
349.258191	2492.936277
349.648789	2494.020125
350.039324	2490.955103
350.429796	2489.846049
350.820203	2488.774804
351.210548	2488.679022
351.600828	2488.840339
351.991045	2487.448981
352.381198	2485.288846
352.771288	2484.230204
353.161314	2483.995790
353.551276	2485.906388
353.941175	2482.344812
354.331010	2485.493013
354.720782	2483.920173
355.110490	2482.697693
355.500135	2483.201808
355.889717	2483.799185
356.279235	2482.639720
356.668689	2485.130050
357.058080	2485.014103
357.447408	2485.611480
357.836672	2480.771972
358.225873	2487.277581
358.615010	2481.679380
359.004084	2488.313538
359.393095	2488.089207
359.782043	2489.253714
360.170927	2490.357726
360.559748	2490.410658
360.948505	2490.357726
361.337199	2493.831081
361.725830	2492.906030
362.114398	2494.224291
362.502903	2492.341420
362.891344	2493.006853
363.279722	2492.482573
363.668037	2497.856443
364.056289	2495.681185
364.444478	2498.607575
364.832603	2495.378716
365.220665	2497.642194
365.608665	2499.126813
365.996601	2498.902482
366.384474	2499.411639
366.772284	2504.193173
367.160031	2504.803153
367.547715	2506.426404
367.935336	2509.309944
368.322893	2512.009482
368.710388	2513.214318
369.097820	2521.239835
369.485189	2520.828981
369.872495	2529.227543
370.259738	2536.572504
370.646918	2544.340922
371.034035	2550.780996
371.421090	2559.419013
371.808081	2568.344376
372.195010	2578.661098
372.581875	2592.456215
372.968678	2604.436517
373.355418	2614.924638
373.742096	2634.834675
374.128710	2647.059473
374.515262	2662.888696
374.901751	2680.497447
375.288177	2689.823581
375.674540	2715.278887
376.060841	2733.225395
376.447079	2751.663415
376.833254	2774.542692
377.219367	2785.759259
377.605417	2822.327789
377.991404	2829.914726
378.377329	2853.381297
378.763191	2868.726569
379.148991	2909.542272
379.534727	2933.999429
379.920402	2962.091259
380.306013	2974.424442
380.691563	3020.787934
381.077049	3046.023950
381.462474	3065.628997
381.847835	3103.664503
382.233134	3125.210395
382.618371	3124.552524
383.003545	3194.395190
383.388657	3196.474666
383.773706	3232.191241
384.158693	3247.478540
384.543618	3275.144393
384.928480	3311.322233
385.313280	3358.714120
385.698017	3354.968543
386.082692	3406.290010
386.467305	3411.429466
386.851856	3443.385340
387.236344	3469.014567
387.620770	3498.578413
388.005133	3526.105634
388.389435	3553.340467
388.773674	3561.577713
389.157851	3606.401132
389.541965	3624.667753
389.926018	3582.808532
390.310008	3658.657733
390.693936	3673.478725
391.077802	3716.744428
391.461606	3706.886452
391.845348	3767.246708
392.229027	3763.680091
392.612645	3779.242133
392.996200	3857.432950
393.379694	3901.212850
393.763125	3961.744505
394.146494	3930.126388
394.529801	3992.324144
394.913047	4039.340466
395.296230	4009.063296
395.679351	4060.823343
396.062410	4085.051128
396.445408	4066.053540
396.828343	4095.430864
397.211217	4120.155203
397.594028	4042.677710
397.976778	4108.560549
398.359466	4134.842605
398.742092	4165.540711
399.124656	4086.150100
399.507158	4169.470291
399.889598	4192.208415
400.271977	4252.800564
400.654294	4224.257551
401.036549	4231.327769
401.418742	4201.731155
401.800874	4305.911640
402.182944	4324.117767
402.564952	4388.102612
402.946898	4378.446282
403.328783	4373.450499
403.710606	4284.600162
404.092367	4481.333712
404.474067	4444.016570
404.855705	4451.681645
405.237282	4379.391498
405.618797	4487.683045
406.000250	4523.160165
406.381642	4601.356023
406.762972	4565.286567
407.144240	4578.819545
407.525447	4580.803239
407.906593	4637.402793
408.287677	4675.473587
408.668700	4605.905664
409.049661	4655.782840
409.430560	4698.476372
409.811399	4626.965084
410.192176	4789.446514
410.572891	4726.225404
410.953545	4830.433615
411.334138	4712.599165
411.714669	4778.953352
412.095139	4671.584337
412.475547	4817.379547
412.855894	4794.782575
413.236180	4807.110717
413.616405	4758.118263
413.996568	4845.683106
414.376670	4786.076503
414.756711	4744.141664
415.136691	4774.007980
415.516609	4851.243498
415.896466	4890.509046
416.276262	4924.257050
416.655997	4901.342485
417.035670	5083.799487
417.415283	5175.172921
417.794834	5119.276607
418.174324	5072.340944
418.553753	4982.447089
418.933121	5164.417619
419.312428	5234.580399
419.691674	5171.492879
420.070859	5298.915604
420.449983	5210.468560
420.829045	5323.660108
421.208047	5231.064194
421.586988	5303.465245
421.965867	5315.919416
422.344686	5450.611485
422.723444	5303.417354
423.102141	5123.463286
423.480777	5417.244088
423.859352	5191.627247
424.237866	5447.513696
424.616319	5439.901554
424.994712	5548.611516
425.373044	5425.050314
425.751314	5566.842849
426.129524	5375.120206
426.507673	5565.338064
426.885762	5649.462319
427.263789	5579.405404
427.641756	5461.762517
428.019662	5582.299026
428.397508	5587.191466
428.775292	5538.403179
429.153016	5638.016379
429.530679	5563.293876
429.908282	5645.686495
430.285824	5519.365262
430.663305	5788.419204
431.040726	5525.812897
431.418086	5525.366755
431.795385	5635.475638
432.172624	5646.790507
432.549802	5640.652903
432.926920	5649.991640
433.303977	5656.925747
433.680974	5695.631727
434.057910	5716.794490
434.434786	5719.113421
434.811601	5690.658628
435.188355	5922.730666
435.565050	5799.083765
435.941683	5783.171363
436.318257	5996.880998
436.694770	5978.906764
437.071222	6012.836250
437.447614	5943.084325
437.823946	5857.278845
438.200218	6009.672926
438.576429	5874.912801
438.952580	5971.682791
439.328670	6015.210633
439.704700	5927.028250
440.080670	5913.812865
440.456580	6184.154822
440.832429	6065.607048
441.208218	5911.541825
441.583947	6067.293314
441.959616	6068.152831
442.335224	6000.981977
442.710773	6134.761597
443.086261	6158.230689
443.461689	5955.331808
443.837057	6105.061639
444.212365	6261.599548
444.587612	6150.671478
444.962800	6302.228728
445.337927	6284.907323
445.712995	5892.002313
446.088002	6475.407486
446.462949	6302.130425
446.837837	6233.830352
447.212664	6409.065901
447.587431	6550.719804
447.962139	7089.808193
448.336786	8015.159872
448.711374	7748.727330
449.085901	6831.018040
449.460369	6757.452482
449.834776	6686.568818
450.209124	7079.403252
450.583412	7223.585293
450.957640	7371.802778
451.331808	7139.571943
451.705917	6687.476225
452.079965	6612.524350
452.453954	6823.090825
452.827883	6701.352001
453.201752	6795.135107
453.575562	6592.959632
453.949311	6794.933461
454.323001	6683.682757
454.696632	6759.710919
455.070202	6902.773824
455.443713	7051.495424
455.817164	7151.905126
456.190556	7230.713484
456.563888	7305.758621
456.937160	7346.309663
457.310373	7003.491036
457.683526	7025.730087
458.056619	6920.448109
458.429653	6905.123001
458.802628	6836.739749
459.175542	6948.595392
459.548398	7294.789070
459.921194	7450.888399
460.293930	7455.498534
460.666607	7978.762742
461.039224	8278.192157
461.411782	8400.165395
461.784280	8411.122343
462.156719	8303.534037
462.529099	8179.239348
462.901419	7765.403467
463.273680	7655.032445
463.645882	7660.854977
464.018024	7528.683485
464.390106	7683.850201
464.762130	8058.019762
465.134094	8507.267229
465.505999	9485.356939
465.877845	10664.195478
466.249631	11285.464757
466.621358	10913.014229
466.993026	10289.179002
467.364634	10031.928921
467.736184	9665.177417
468.107674	9325.464142
468.479105	9339.816307
468.850477	9098.546684
469.221790	8862.373667
469.593043	8534.270169
469.964238	8381.074545
470.335373	8383.746357
470.706449	8421.315556
471.077467	8378.909369
471.448425	9588.241848
471.819324	10576.968393
472.190164	10583.658004
472.560945	9390.316066
472.931667	8625.547821
473.302330	8484.957602
473.672934	8119.645348
474.043479	8427.125485
474.413965	8355.926749
474.784393	8201.254067
475.154761	8321.306625
475.525070	8371.856795
475.895321	8188.653703
476.265513	8314.680028
476.635645	8438.253833
477.005719	8389.236173
477.375734	8455.870145
477.745691	8623.760732
478.115588	8696.791928
478.485427	8863.008853
478.855207	9266.490204
479.224928	9874.554181
479.594591	10350.797026
479.964194	10149.662549
480.333739	10057.918590
480.703226	9923.692828
481.072653	9933.250855
481.442022	10035.629128
481.811333	10121.308579
482.180584	9914.313761
482.549777	9598.722407
482.918912	9396.909895
483.287988	9340.471657
483.657005	9285.412175
484.025964	8976.916244
484.394864	8998.018514
484.763706	8900.121827
485.132489	8667.482660
485.501213	8561.862925
485.869879	8550.253147
486.238487	8349.209412
486.607036	8363.707770
486.975527	8123.499310
487.343959	8186.160852
487.712333	8135.542626
488.080648	8012.165427
488.448905	7953.551931
488.817104	7837.252512
489.185244	7932.815145
489.553326	7933.674662
489.921350	8173.356321
490.289315	8685.950927
490.657222	8809.154206
491.025070	8648.810226
491.392861	8485.706214
491.760593	8189.488014
492.128267	7895.929022
492.495883	7623.310984
492.863440	7353.465580
493.230939	7082.158242
493.598380	6967.751776
493.965763	6802.782537
494.333088	6685.346338
494.700354	6556.386061
495.067563	6516.820565
495.434713	6342.247927
495.801805	6326.413663
496.168839	6215.868721
496.535815	6098.359425
496.902733	6032.274939
497.269593	5918.221354
497.636395	5891.404936
498.003139	5803.114168
498.369825	5684.024470
498.736453	5658.511190
499.103023	5562.189864
499.469535	5497.690821
499.835989	5425.065438
500.202385	5331.080686
500.568723	5219.167071
500.935003	5235.936469
501.301226	5083.330660
501.667390	5109.030462
502.033497	5067.360284
502.399546	4961.647288
502.765537	4859.679869
503.131470	4813.916275
503.497345	4794.346516
503.863163	4635.663595
504.228923	4644.223475
504.594625	4606.820634
504.960269	4483.423270
505.325856	4471.652176
505.691385	4365.452708
506.056856	4343.911858
506.422270	4289.805153
506.787625	4216.675655
507.152924	4177.188297
507.518164	4126.428919
507.883347	4055.028537
508.248472	3991.875482
508.613540	3979.597752
508.978550	3912.792381
509.343503	3862.020400
509.708398	3834.480576
510.073236	3801.261893
510.438016	3761.885440
510.802738	3708.061041
511.167403	3672.561235
511.532010	3614.678707
511.896561	3611.399436
512.261053	3578.823500
512.625488	3517.626413
512.989866	3478.338181
513.354186	3444.093623
513.718449	3393.540932
514.082655	3383.866958
514.446803	3342.690813
514.810894	3321.270950
515.174927	3275.340998
515.538904	3249.343767
515.902822	3230.449522
516.266684	3195.078267
516.630488	3161.839419
516.994235	3143.240082
517.357925	3118.664457
517.721558	3096.385077
518.085133	3076.066707
518.448651	3057.195147
518.812112	3025.733306
519.175516	3006.297137
519.538863	2987.498675
519.902152	2970.199955
520.265385	2952.565999
520.628560	2936.386416
520.991678	2914.391862
521.354739	2900.745458
521.717743	2886.809188
522.080690	2873.145141
522.443580	2859.322297
522.806413	2844.556757
523.169189	2831.928667
523.531908	2823.525063
523.894569	2805.341622
524.257174	2795.544139
524.619722	2787.289250
524.982213	2779.926644
525.344647	2766.998605
525.707025	2760.636669
526.069345	2752.096955
526.431608	2741.351735
526.793815	2737.840572
527.155964	2730.268758
527.518057	2723.314487
527.880093	2715.140256
528.242072	2710.701520
528.603995	2704.755479
528.965860	2696.414890
529.327669	2692.260979
529.689421	2689.448015
530.051117	2686.814012
530.412755	2682.473579
530.774337	2679.940399
531.135862	2676.005778
531.497331	2669.275838
531.858743	2661.603202
532.220098	2662.845846
532.581396	2656.950217
532.942638	2656.146153
533.303824	2652.939979
533.664953	2653.290339
534.026025	2649.819505
534.387040	2647.974442
534.747999	2645.385810
535.108902	2644.579225
535.469748	2639.885911
535.830537	2639.301137
536.191270	2638.945736
536.551947	2638.144192
536.912567	2634.544809
537.273131	2632.964407
537.633638	2634.731331
537.994089	2632.185549
538.354483	2627.971144
538.714821	2634.386012
539.075103	2630.711011
539.435328	2630.524488
539.795497	2628.460136
540.155609	2626.841926
540.515665	2629.727986
540.875665	2625.032151
541.235609	2624.142388
541.595496	2624.525515
541.955328	2624.172635
542.315102	2621.253807
542.674821	2621.949486
543.034483	2620.822788
543.394090	2620.001080
543.753640	2618.667695
544.113134	2620.157356
544.472571	2619.572582
544.831953	2618.624845
545.191278	2617.097375
545.550548	2617.230966
545.909761	2616.646192
546.268918	2615.781634
546.628019	2617.057046
546.987064	2616.114350
547.346053	2613.785337
547.704986	2614.526387
548.063863	2614.687704
548.422684	2613.586212
548.781449	2610.581684
549.140158	2616.336161
549.498811	2614.392796
549.857408	2611.521859
550.215949	2610.702672
550.574434	2607.436004
550.932864	2609.903649
551.291237	2606.571446
551.649555	2611.519338
552.007817	2612.688886
552.366022	2611.075717
552.724173	2612.837600
553.082267	2611.625203
553.440305	2615.050667
553.798288	2610.085130
554.156215	2611.544544
554.514086	2611.945316
554.871902	2611.688217
555.229661	2610.133021
555.587365	2611.650408
555.945014	2608.882815
556.302606	2608.411467
556.660143	2610.412805
557.017625	2608.166971
557.375050	2611.191663
557.732421	2609.333998
558.089735	2608.154368
558.446994	2609.008844
558.804197	2609.593618
559.161345	2611.390789
559.518437	2607.874584
559.875474	2609.187805
560.232455	2610.165789
560.589381	2609.460027
560.946251	2608.928185
561.303065	2607.196549
561.659825	2607.385592
562.016528	2606.291662
562.373177	2605.157402
562.729770	2608.892897
563.086307	2606.921806
563.442789	2609.107146
563.799216	2607.771241
564.155587	2606.757969
564.511904	2607.403236
564.868164	2605.328802
565.224370	2604.433997
565.580520	2606.301744
565.936615	2607.630088
566.292654	2606.417691
566.648638	2605.099429
567.004567	2605.696806
567.360441	2605.016250
567.716260	2606.561364
568.072023	2607.355345
568.427732	2598.823192
568.783385	2602.669593
569.138982	2603.251846
569.494525	2605.230499
569.850013	2600.000302
570.205445	2606.263936
570.560823	2606.130345
570.916145	2605.036415
571.271412	2603.214037
571.626625	2603.612289
571.981782	2602.377206
572.336884	2604.234871
572.691931	2602.483070
573.046923	2601.689088
573.401860	2603.622371
573.756743	2603.435848
574.111570	2603.425766
574.466342	2601.686568
574.821059	2601.212699
575.175722	2600.842175
575.530330	2600.514500
575.884882	2603.982813
576.239380	2599.473501
576.593823	2600.297730
576.948211	2598.593820
577.302544	2599.213882
577.656823	2598.994592
578.011047	2601.197576
578.365216	2599.549119
578.719330	2596.804210
579.073389	2596.839498
579.427394	2596.373192
579.781344	2597.512492
580.135239	2599.821341
580.489080	2596.975610
580.842866	2598.414859
581.196597	2598.843357
581.550273	2599.148347
581.903895	2596.504262
582.257463	2599.869232
582.610975	2595.735486
582.964434	2599.594489
583.317837	2594.029055
583.671186	2597.391505
584.024481	2595.949735
584.377721	2596.350507
584.730906	2596.330342
585.084037	2595.319591
585.437113	2594.049220
585.790135	2595.808582
586.143103	2592.809096
586.496016	2596.479056
586.848874	2590.580906
587.201679	2593.325814
587.554428	2591.024527
587.907124	2593.908067
588.259765	2593.439240
588.612352	2595.070053
588.964884	2593.255238
589.317362	2593.280444
589.669786	2590.961513
590.022155	2594.064343
590.374470	2597.212544
590.726731	2594.258428
591.078937	2591.069898
591.431090	2590.011256
591.783188	2593.300608
592.135232	2590.626276
592.487222	2591.432861
592.839157	2594.656679
593.191038	2591.447984
593.542866	2592.602409
593.894639	2592.015114
594.246358	2591.626945
594.598022	2592.720876
594.949633	2590.117120
595.301190	2586.555545
595.652692	2591.233735
596.004141	2591.679877
596.355535	2591.553849
596.706876	2591.911771
597.058162	2591.271544
597.409395	2589.751636
597.760573	2590.343972
598.111698	2588.370360
598.462768	2589.101327
598.813785	2589.247521
599.164748	2587.601584
599.515657	2589.464290
599.866511	2586.757191
600.217312	2588.894640
600.568060	2589.010587
600.918753	2590.573344
601.269392	2588.773652
601.619978	2585.774166
601.970510	2591.054774
602.320988	2586.603436
602.671412	2587.440267
603.021783	2588.692994
603.372100	2589.232397
603.722363	2591.339600
604.072572	2586.159814
604.422728	2591.160639
604.772830	2584.216449
605.122878	2582.741912
605.472872	2585.703590
605.822813	2580.796026
606.172701	2583.959350
606.522534	2588.695514
606.872314	2586.825246
607.222041	2585.058322
607.571714	2588.884558
607.921333	2587.042016
608.270899	2585.375915
608.620411	2588.934969
608.969870	2591.062336
609.319276	2590.487645
609.668627	2590.696852
610.017926	2594.855804
610.367171	2596.907554
610.716362	2596.559714
611.065500	2594.523088
611.414585	2591.886565
611.763616	2593.797162
612.112594	2591.427820
612.461518	2591.596698
612.810389	2591.178283
613.159207	2588.287181
613.507971	2588.796337
613.856682	2591.689960
614.205340	2588.282140
614.553945	2591.586616
614.902496	2588.783735
615.250994	2592.451174
615.599439	2589.423961
615.947830	2590.563262
616.296169	2592.509147
616.644454	2589.618046
616.992686	2589.111410
617.340864	2589.537387
617.688990	2590.626276
618.037063	2587.702407
618.385082	2587.528487
618.733048	2589.620566
619.080961	2590.175093
619.428821	2588.587130
619.776628	2588.385483
620.124382	2588.322469
620.472083	2588.413210
620.819731	2590.820361
621.167326	2588.493868
621.514868	2589.986050
621.862357	2585.073445
622.209793	2587.737695
622.557176	2589.270206
622.904506	2585.365832
623.251783	2586.646285
623.599007	2582.941037
623.946179	2583.714854
624.293297	2581.486664
624.640363	2584.801223
624.987376	2587.541090
625.334336	2585.718713
625.681243	2584.899526
626.028097	2584.103023
626.374899	2583.563620
626.721647	2582.842735
627.068343	2583.384659
627.414987	2583.077148
627.761577	2579.928948
628.108115	2581.461459
628.454600	2581.942889
628.801032	2578.298135
629.147412	2580.919535
629.493739	2582.164700
629.840014	2581.186716
630.186236	2583.062025
630.532405	2580.294432
630.878521	2579.142528
631.224585	2579.429874
631.570597	2579.208063
631.916556	2580.422981
632.262462	2581.010275
632.608316	2579.997003
632.954117	2578.063721
633.299866	2579.419791
633.645562	2577.456262
633.991206	2579.500450
634.336797	2577.688155
634.682336	2577.544482
635.027823	2578.330902
635.373257	2577.915007
635.718639	2576.037177
636.063968	2577.294945
636.409245	2576.274111
636.754470	2576.722774
637.099642	2577.168916
637.444762	2577.420974
637.789829	2574.855027
638.134845	2577.108422
638.479808	2575.724626
638.824719	2574.403843
639.169577	2570.970817
639.514383	2573.468709
639.859137	2572.992320
640.203839	2574.040880
640.548489	2571.890828
640.893086	2570.552402
641.237632	2569.602144
641.582125	2572.062227
641.926566	2563.025959
642.270955	2572.468040
642.615292	2570.010478
642.959576	2573.206569
643.303809	2572.606672
643.647990	2575.487691
643.992118	2573.440983
644.336195	2575.031467
644.680219	2572.485684
645.024192	2572.311764
645.368112	2572.321847
645.711981	2574.245047
646.055797	2575.109605
646.399562	2573.899728
646.743274	2573.067937
647.086935	2575.220510
647.430544	2574.713874
647.774101	2575.706982
648.117606	2574.325705
648.461059	2575.419636
648.804460	2579.076993
649.147810	2574.073648
649.491108	2573.357804
649.834354	2572.962073
650.177548	2572.939388
650.520690	2572.125242
650.863781	2570.249932
651.206820	2572.382341
651.549807	2570.053327
651.892742	2572.475602
652.235626	2573.551888
652.578458	2570.368400
652.921238	2568.994685
653.263967	2572.853688
653.606644	2572.319326
653.949269	2570.065930
654.291843	2569.171126
654.634365	2571.971487
654.976836	2567.885631
655.319255	2572.100036
655.661622	2571.893349
656.003938	2568.936712
656.346203	2567.114335
656.688416	2568.160374
657.030577	2568.170457
657.372687	2568.019222
657.714746	2567.817576
658.056753	2566.731207
658.398708	2564.066957
658.740612	2567.668862
659.082465	2563.169632
659.424266	2567.023594
659.766016	2564.137533
660.107715	2567.568039
660.449362	2567.512586
660.790958	2568.939232
661.132503	2569.657597
661.473996	2569.483677
661.815438	2567.452092
662.156829	2571.411918
662.498168	2570.154151
662.839456	2568.422514
663.180693	2569.564336
663.521879	2570.234809
663.863013	2566.869839
664.204097	2567.068964
664.545129	2568.422514
664.886110	2569.150961
665.227040	2568.382185
665.567918	2570.915365
665.908746	2567.252967
666.249522	2569.297154
666.590248	2570.794377
666.930922	2566.660631
667.271545	2567.915878
667.612118	2571.742114
667.952639	2569.798749
668.293109	2568.661969
668.633528	2570.633060
668.973896	2568.528378
669.314213	2568.578790
669.654480	2568.392267
669.994695	2566.819427
670.334859	2571.237999
670.674973	2566.327915
671.015035	2567.323543
671.355047	2569.092988
671.695008	2567.167267
672.034918	2567.598286
672.374777	2567.961249
672.714585	2568.651887
673.054342	2570.068451
673.394049	2570.512072
673.733705	2569.539130
674.073310	2571.180025
674.412864	2565.405384
674.752368	2569.733214
675.091820	2570.050807
675.431223	2569.715570
675.770574	2565.024777
676.109875	2562.438665
676.449125	2562.862122
676.788324	2564.054354
677.127473	2566.045610
677.466571	2561.435475
677.805619	2568.273800
678.144616	2567.058882
678.483562	2565.775908
678.822458	2565.470919
679.161303	2566.302709
679.500098	2564.094684
679.838842	2562.642831
680.177535	2566.191804
680.516179	2564.560990
680.854771	2565.544015
681.193314	2569.264387
681.531805	2567.810014
681.870247	2568.326732
682.208638	2567.880590
682.546978	2568.911506
682.885268	2566.985785
683.223508	2565.700291
683.561697	2569.350087
683.899836	2568.596434
684.237925	2568.525858
684.575963	2568.309088
684.913951	2567.721794
685.251889	2569.239181
685.589776	2563.557801
685.927614	2567.994016
686.265401	2565.478480
686.603137	2567.610888
686.940824	2568.112483
687.278460	2572.193297
687.616046	2568.462843
687.953582	2567.759602
688.291068	2569.342525
688.628504	2568.092319
688.965889	2568.576269
689.303224	2568.256156
689.640510	2569.216496
689.977745	2568.954356
690.314930	2565.448233
690.652065	2566.348079
690.989150	2563.366237
691.326185	2565.385219
691.663170	2564.830692
692.000105	2564.024108
692.336990	2563.615774
692.673825	2565.985116
693.010610	2564.034190
693.347345	2559.751730
693.684030	2557.442881
694.020665	2558.950186
694.357251	2553.286450
694.693786	2559.333314
695.030272	2559.711400
695.366707	2561.521175
695.703093	2557.067315
696.039429	2561.196020
696.375716	2557.271482
696.711952	2560.021431
697.048139	2559.766853
697.384276	2557.518498
697.720363	2556.364074
698.056400	2562.453788
698.392388	2555.968344
698.728326	2559.436657
699.064214	2558.541853
699.400053	2556.759805
699.735842	2557.921791
700.071581	2557.231153
700.407270	2555.229815
700.742910	2556.623694
701.078501	2555.055895
701.414042	2557.596636
701.749533	2556.714434
702.084974	2556.031358
702.420366	2555.249979
702.755709	2554.445915
703.091002	2556.870710
703.426246	2553.311656
703.761440	2554.851728
704.096584	2555.451625
704.431679	2555.514640
704.766725	2554.216543
705.101721	2554.561862
705.436668	2556.318704
705.771565	2553.982129
706.106413	2556.830381
706.441212	2552.648744
706.775961	2555.935576
707.110661	2556.850546
707.445311	2559.519837
707.779913	2554.052705
708.114465	2556.820299
708.448967	2555.353323
708.783421	2554.778631
709.117825	2555.471790
709.452180	2555.968344
709.786485	2556.311142
710.120742	2559.479507
710.454949	2558.483879
710.789107	2558.912377
711.123216	2557.193344
711.457275	2557.384908
711.791286	2558.330124
712.125247	2555.265103
712.459159	2561.135526
712.793023	2563.202399
713.126837	2559.103941
713.460602	2561.158212
713.794318	2560.770043
714.127985	2557.425237
714.461602	2556.802655
714.795171	2559.660989
715.128691	2556.381718
715.462162	2556.832902
715.795584	2557.233673
716.128957	2557.730227
716.462281	2556.568241
716.795556	2558.239383
717.128782	2555.204609
717.461960	2556.086811
717.795088	2554.085473
718.128167	2553.530946
718.461198	2555.373487
718.794180	2555.476831
719.127113	2552.132026
719.459997	2555.660833
719.792833	2551.892571
720.125619	2554.718137
720.458357	2550.821326
720.791046	2551.879968
721.123686	2552.374001
721.456278	2552.689073
721.788821	2551.151521
722.121315	2551.383414
722.453761	2551.403579
722.786158	2551.333003
723.118506	2553.009186
723.450805	2554.329969
723.783056	2551.577499
724.115259	2550.564227
724.447412	2552.850390
724.779518	2553.533466
725.111574	2552.104299
725.443582	2551.791748
725.775542	2552.061449
726.107453	2553.596481
726.439315	2552.000956
726.771129	2558.138560
727.102895	2557.216029
727.434612	2551.953065
727.766281	2555.476831
728.097901	2553.372149
728.429473	2553.041954
728.760996	2548.930893
729.092471	2550.508774
729.423897	2553.357026
729.755276	2555.572613
730.086606	2553.692263
730.417887	2553.306614
730.749120	2558.761143
731.080305	2557.601677
731.411442	2558.435988
731.742530	2557.369784
732.073570	2557.483210
732.404562	2555.726368
732.735506	2556.631255
733.066401	2554.670247
733.397249	2555.562531
733.728048	2556.013714
734.058798	2553.866182
734.389501	2552.230328
734.720156	2553.336861
735.050762	2551.721172
735.381320	2550.493651
735.711831	2550.612118
736.042293	2548.946016
736.372707	2550.879299
736.703073	2552.384083
737.033391	2551.859803
737.363661	2552.676470
737.693883	2551.504402
738.024056	2554.551779
738.354182	2554.234187
738.684260	2552.752088
739.014290	2549.119936
739.344272	2554.531615
739.674207	2552.812581
740.004093	2555.378529
740.333931	2551.660678
740.663722	2554.738302
740.993464	2551.088507
741.323159	2557.122768
741.652806	2553.036913
741.982405	2551.045657
742.311956	2552.041285
742.641460	2548.431819
742.970915	2551.002807
743.300323	2550.564227
743.629683	2550.261757
743.958996	2553.230997
744.288260	2548.973743
744.617477	2548.774617
744.946647	2544.993752
745.275768	2544.537527
745.604842	2543.957795
745.933869	2545.392003
746.262847	2544.524924
746.591778	2549.210677
746.920662	2546.211190
747.249498	2549.344267
747.578286	2549.319062
747.907027	2547.325285
748.235720	2553.551110
748.564365	2548.033568
748.892963	2547.993238
749.221514	2548.532642
749.550017	2546.911911
749.878473	2549.046839
750.206881	2546.259081
750.535242	2549.745039
750.863555	2550.395348
751.191821	2548.081458
751.520039	2548.023485
751.848210	2546.553989
752.176334	2548.298228
752.504411	2546.564071
752.832440	2548.179761
753.160421	2548.908208
753.488356	2548.557847
753.816243	2548.777138
754.144082	2548.210008
754.471875	2547.723537
754.799620	2547.867209
755.127318	2545.661705
755.454969	2543.995603
755.782572	2545.560882
756.110129	2547.015254
756.437638	2547.690769
756.765100	2547.297559
757.092515	2547.693290
757.419882	2545.661705
757.747203	2548.237734
758.074477	2547.973074
758.401703	2545.351674
758.728882	2548.235214
759.056014	2545.727240
759.383099	2548.948537
759.710138	2549.581202
760.037129	2548.204967
760.364073	2549.518187
760.690970	2544.282949
761.017820	2548.880481
761.344623	2548.658671
761.671379	2547.095913
761.998088	2543.441076
762.324751	2548.441901
762.651366	2552.671429
762.977935	2561.664847
763.304456	2565.652400
763.630931	2568.528378
763.957359	2568.888821
764.283740	2563.787173
764.610074	2556.553117
764.936362	2553.664536
765.262602	2552.318548
765.588796	2551.532128
765.914943	2551.199412
766.241044	2548.225131
766.567097	2546.017106
766.893104	2548.010882
767.219064	2545.528114
767.544978	2546.851417
767.870845	2544.295552
768.196665	2544.890408
768.522438	2543.849410
768.848165	2544.492157
769.173846	2546.569112
769.499479	2542.042156
769.825066	2543.559543
770.150607	2543.468803
770.476101	2542.384955
770.801548	2544.071221
771.126949	2541.089378
771.452303	2542.914276
771.777611	2540.794471
772.102872	2542.531148
772.428087	2541.013761
772.753256	2543.620037
773.078378	2541.220448
773.403453	2540.791950
773.728482	2539.012423
774.053465	2544.529966
774.378401	2540.791950
774.703291	2541.147351
775.028135	2541.376724
775.352932	2542.125335
775.677683	2539.987886
776.002388	2541.664070
776.327046	2542.011909
776.651658	2540.441590
776.976224	2540.822197
777.300743	2541.880839
777.625216	2541.129707
777.949643	2542.553833
778.274024	2540.665921
778.598359	2538.951929
778.922647	2536.955632
779.246889	2537.439583
779.571086	2534.757689
779.895236	2539.498894
780.219339	2540.544933
780.543397	2540.852444
780.867409	2537.777340
781.191374	2538.168029
781.515294	2539.698020
781.839167	2539.196425
782.162995	2541.086858
782.486776	2542.140459
782.810511	2540.282793
783.134201	2540.676003
783.457844	2537.159799
783.781441	2538.548637
784.104993	2540.938143
784.428498	2541.533000
784.751958	2539.680376
785.075372	2541.656508
785.398739	2537.883204
785.722061	2541.386806
786.045337	2540.824717
786.368568	2540.338246
786.691752	2536.290200
787.014891	2542.548792
787.337983	2540.973432
787.661030	2541.291024
787.984031	2545.074410
788.306987	2542.926879
788.629897	2543.126004
788.952760	2544.600542
789.275579	2541.825387
789.598351	2545.457538
789.921078	2541.384286
790.243759	2542.856302
790.566395	2540.227341
790.888984	2539.355221
791.211529	2541.316230
791.534027	2541.101981
791.856480	2540.123997
792.178888	2540.628112
792.501249	2537.046373
792.823566	2541.404450
793.145836	2541.180119
793.468062	2540.126518
793.790241	2540.605427
794.112375	2541.094419
794.434464	2539.244316
794.756507	2540.111394
795.078505	2539.763555
795.400457	2537.432021
795.722364	2536.320447
796.044226	2540.398740
796.366042	2535.440765
796.687812	2540.174409
797.009538	2539.985365
797.331218	2542.684903
797.652852	2540.779347
797.974442	2541.006199
798.295986	2540.935623
798.617484	2541.646426
798.938938	2539.609799
799.260346	2543.501570
799.581709	2540.355890
799.903026	2539.773637
800.224299	2539.105684
800.545526	2539.652649
800.866708	2537.053934
801.187845	2537.802546
801.508936	2537.333718
801.829983	2538.498225
802.150984	2538.538554
802.471940	2537.724408
802.792851	2535.977648
803.113717	2540.055942
803.434538	2537.656352
803.755314	2539.191384
804.076045	2538.402443
804.396731	2538.624254
804.717372	2539.698020
805.037967	2538.551157
805.358518	2538.609130
805.679024	2540.902855
805.999485	2538.619213
806.319901	2542.047197
806.640272	2541.094419
806.960598	2539.680376
807.280879	2536.340611
807.601115	2540.068544
807.921306	2539.433359
808.241453	2539.332536
808.561554	2539.098122
808.881611	2536.569984
809.201623	2538.810777
809.521590	2538.994779
809.841513	2540.887732
810.161390	2540.217258
810.481223	2537.457227
810.801011	2538.606610
811.120755	2539.360262
811.440453	2540.534851
811.760107	2538.561239
812.079716	2536.484284
812.399281	2535.095446
812.718801	2536.012936
813.038276	2535.284489
813.357707	2536.940508
813.677093	2537.379089
813.996434	2541.056611
814.315731	2540.691127
814.634983	2535.536547
814.954191	2536.885056
815.273354	2536.701054
815.592473	2538.803215
815.911547	2536.355735
816.230577	2539.146013
816.549562	2540.048380
816.868502	2539.110725
817.187399	2539.950077
817.506250	2539.471168
817.825058	2540.063503
818.143821	2539.516538
818.462539	2540.204656
818.781213	2540.282793
819.099843	2542.730274
819.418429	2543.741025
819.736970	2550.216387
820.055466	2548.630944
820.373919	2551.514484
820.692327	2555.466749
821.010691	2561.586710
821.329011	2572.551219
821.647286	2604.575149
821.965517	2636.183184
822.283704	2653.217242
822.601847	2657.933242
822.919945	2645.894967
823.237999	2625.901750
823.556010	2611.070676
823.873976	2595.294385
824.191897	2582.005903
824.509775	2572.704974
824.827609	2568.084757
825.145398	2563.008315
825.463144	2563.928326
825.780845	2561.987481
826.098502	2568.198183
826.416116	2573.219172
826.733685	2584.738209
827.051210	2590.268354
827.368692	2586.636203
827.686129	2575.815366
828.003522	2565.750703
828.320872	2553.994732
828.638177	2553.709907
828.955439	2546.556509
829.272656	2544.509801
829.589830	2540.320602
829.906960	2544.338402
830.224046	2544.464431
830.541088	2542.299255
830.858086	2540.023174
831.175041	2541.399409
831.491952	2539.332536
831.808819	2541.868236
832.125642	2541.268339
832.442421	2541.835469
832.759157	2546.188505
833.075849	2553.034392
833.392497	2559.237532
833.709101	2564.838254
834.025662	2561.385063
834.342179	2561.196020
834.658653	2553.455328
834.975083	2552.313507
835.291469	2552.079093
835.607811	2547.360573
835.924110	2541.999306
836.240366	2539.347659
836.556578	2542.793288
836.872746	2537.127031
837.188871	2538.619213
837.504952	2540.169367
837.820990	2537.807587
838.136984	2537.429500
838.452935	2537.023687
838.768842	2536.461599
839.084706	2537.696682
839.400526	2543.768751
839.716303	2541.512835
840.032037	2547.385779
840.347727	2547.078269
840.663373	2547.247148
840.978977	2539.856816
841.294537	2540.739018
841.610054	2541.472506
841.925527	2535.818852
842.240957	2533.731814
842.556344	2536.824562
842.871687	2533.814993
843.186987	2536.393543
843.502244	2534.011598
843.817458	2534.971938
844.132629	2530.666793
844.447756	2534.714839
844.762840	2528.335259
845.077881	2533.688964
845.392879	2533.517565
845.707833	2532.196783
846.022745	2527.594209
846.337613	2533.154602
846.652438	2532.050589
846.967221	2534.939170
847.281960	2534.780374
847.596656	2534.503111
847.911309	2535.455889
848.225919	2532.204344
848.540485	2533.636032
848.855009	2533.956145
849.169490	2530.044210
849.483928	2534.137627
849.798323	2531.206196
850.112675	2533.411701
850.426984	2533.104190
850.741251	2532.632843
851.055474	2531.259128
851.369654	2533.071423
851.683792	2531.150743
851.997887	2533.948584
852.311938	2530.026566
852.625947	2532.257277
852.939914	2532.065713
853.253837	2532.746268
853.567718	2534.853471
853.881555	2535.574356
854.195350	2533.993954
854.509103	2532.285003
854.822812	2532.572349
855.136479	2532.423635
855.450103	2535.024870
855.763685	2532.511855
856.077224	2533.787267
856.390720	2532.421114
856.704173	2533.782226
857.017584	2530.427338
857.330953	2531.995137
857.644278	2531.627132
857.957561	2538.074768
858.270802	2534.296423
858.584000	2531.843902
858.897155	2533.187369
859.210268	2531.919519
859.523339	2535.440765
859.836367	2531.196114
860.149352	2538.551157
860.462295	2534.278779
860.775195	2527.417769
861.088054	2529.562780
861.400869	2529.189734
861.713642	2529.996319
862.026373	2530.601258
862.339062	2533.056299
862.651708	2532.045548
862.964312	2530.878521
863.276873	2534.886238
863.589392	2533.073943
863.901869	2531.347348
864.214303	2534.432534
864.526696	2533.726773
864.839045	2532.292565
865.151353	2533.031094
865.463619	2534.616537
865.775842	2533.298275
866.088023	2531.241484
866.400162	2534.316588
866.712258	2532.181659
867.024313	2536.625436
867.336325	2531.780888
867.648296	2532.673172
867.960224	2533.653676
868.272110	2532.753830
868.583954	2532.985723
868.895755	2532.831968
869.207515	2532.191742
869.519233	2533.182328
869.830909	2536.028060
870.142542	2537.016126
870.454134	2535.155940
870.765684	2537.106867
871.077191	2534.142668
871.388657	2535.415559
871.700081	2534.452699
872.011463	2533.623429
872.322803	2534.195600
872.634101	2533.187369
872.945357	2530.845753
873.256571	2536.080992
873.567744	2535.324819
873.878874	2538.029398
874.189963	2534.777853
874.501010	2536.539737
874.812015	2533.762061
875.122979	2533.925898
875.433900	2537.026208
875.744780	2533.719211
876.055618	2536.827083
876.366415	2535.997813
876.677169	2534.596372
876.987882	2536.759027
877.298554	2529.184693
877.609183	2532.746268
877.919771	2531.274252
878.230317	2534.709798
878.540822	2539.080478
878.851285	2539.067875
879.161707	2539.556867
879.472087	2543.720860
879.782425	2545.515511
880.092722	2549.553475
880.402977	2559.615618
880.713191	2575.666652
881.023363	2591.574013
881.333494	2606.095057
881.643583	2605.573297
881.953631	2602.228492
882.263637	2599.544077
882.573602	2595.334714
882.883526	2584.355081
883.193408	2579.412230
883.503248	2570.076013
883.813048	2562.637790
884.122806	2561.201061
884.432522	2554.599670
884.742197	2553.142777
885.051831	2548.328475
885.361424	2546.128011
885.670975	2544.703885
885.980485	2542.014430
886.289954	2541.661549
886.599382	2539.133410
886.908768	2541.895963
887.218113	2538.805735
887.527417	2539.178781
887.836680	2537.437062
888.145901	2536.678368
888.455082	2536.454037
888.764221	2536.711136
889.073319	2532.612678
889.382376	2537.873122
889.691392	2536.559901
890.000366	2535.203831
890.309300	2538.858668
890.618193	2535.619726
890.927044	2538.188194
891.235855	2535.710467
891.544625	2536.111239
891.853353	2533.545291
892.162041	2536.459078
892.470687	2538.896476
892.779293	2537.568132
893.087858	2536.935467
893.396381	2536.910262
893.704864	2540.643236
894.013306	2542.921838
894.321707	2555.804506
894.630068	2556.321224
894.938387	2559.524878
895.246665	2561.039744
895.554903	2555.033210
895.863100	2551.229659
896.171256	2548.008362
896.479371	2545.621375
896.787446	2545.505429
897.095480	2541.913607
897.403473	2540.073586
897.711425	2538.921682
898.019336	2538.798174
898.327207	2537.638708
898.635038	2537.525282
898.942827	2537.931095
899.250576	2535.395395
899.558284	2538.619213
899.865952	2536.383461
900.173579	2537.071578
900.481165	2533.986392
900.788711	2533.439427
901.096216	2536.784233
901.403681	2533.043697
901.711105	2535.990251
902.018489	2534.684592
902.325832	2536.050745
902.633135	2535.798687
902.940397	2539.108205
903.247619	2537.011085
903.554800	2543.350336
903.861941	2553.238559
904.169041	2563.716597
904.476101	2567.303378
904.783121	2566.527040
905.090100	2564.838254
905.397039	2554.256872
905.703938	2548.953578
906.010796	2548.343598
906.317614	2543.241951
906.624391	2542.959646
906.931129	2539.282124
907.237826	2538.795653
907.544483	2536.264994
907.851099	2535.932278
908.157675	2534.545960
908.464211	2534.021680
908.770707	2527.107738
909.077163	2533.706608
909.383578	2529.308202
909.689954	2527.909281
909.996289	2528.166380
910.302584	2532.544622
910.608839	2531.037317
910.915054	2533.751979
911.221229	2530.631504
911.527363	2533.794828
911.833458	2533.096629
912.139513	2531.138140
912.445527	2533.688964
912.751502	2533.326001
913.057436	2533.482277
913.363331	2537.157278
913.669186	2536.297761
913.975000	2535.085364
914.280775	2536.421270
914.586510	2538.152906
914.892205	2543.413350
915.197859	2549.306459
915.503475	2553.195709
915.809050	2557.712583
916.114585	2563.623336
916.420081	2566.501835
916.725536	2564.611402
917.030952	2560.099569
917.336328	2554.466080
917.641665	2555.103786
917.946961	2549.752601
918.252218	2547.335368
918.557435	2543.640202
918.862612	2543.889739
919.167750	2541.679193
919.472848	2540.547454
919.777906	2538.321785
920.082925	2538.331867
920.387904	2534.246012
920.692843	2536.920344
920.997743	2532.161495
921.302603	2536.577545
921.607423	2532.277441
921.912204	2535.498738
922.216946	2532.307688
922.521647	2533.600744
922.826310	2532.801721
923.130932	2533.575538
923.435516	2532.935312
923.740059	2533.804911
924.044564	2530.939015
924.349028	2530.820548
924.653454	2525.923067
924.957840	2528.877183
925.262186	2528.310053
925.566493	2529.434230
925.870761	2526.596061
926.174989	2530.762574
926.479178	2527.672347
926.783328	2532.766433
927.087438	2528.491535
927.391509	2529.908099
927.695541	2530.089580
927.999533	2528.191586
928.303486	2530.447502
928.607400	2528.335259
928.911275	2527.896678
929.215110	2529.860208
929.518906	2530.679395
929.822663	2529.749303
930.126381	2528.935156
930.430060	2529.081350
930.733699	2531.359951
931.037299	2533.908254
931.340861	2529.865249
931.644383	2528.809127
931.947866	2529.535053
932.251309	2528.292409
932.554714	2529.809796
932.858080	2531.649818
933.161407	2527.314425
933.464694	2530.760054
933.767943	2530.671834
934.071153	2529.613191
934.374323	2529.802235
934.677455	2528.660413
934.980548	2527.861390
935.283602	2526.953983
935.586617	2527.556401
935.889593	2528.635208
936.192530	2527.185876
936.495428	2529.406504
936.798287	2528.136133
937.101108	2528.612522
937.403890	2532.663089
937.706632	2528.544467
938.009336	2529.038500
938.312002	2531.052441
938.614628	2528.771319
938.917216	2530.855836
939.219765	2530.555887
939.522275	2530.066895
939.824747	2530.245856
940.127179	2528.302491
940.429573	2524.393077
940.731929	2529.661082
941.034246	2523.304187
941.336524	2527.256452
941.638763	2530.092101
941.940964	2531.349869
942.243126	2530.538243
942.545250	2529.013294
942.847335	2532.166536
943.149381	2529.540095
943.451389	2530.084539
943.753359	2528.330218
944.055290	2529.741741
944.357182	2529.625794
944.659036	2527.611853
944.960851	2531.750641
945.262628	2527.967255
945.564367	2530.051772
945.866067	2528.776360
946.167729	2529.726617
946.469352	2529.388860
946.770937	2529.620753
947.072484	2530.752492
947.373992	2528.673016
947.675462	2530.278624
947.976893	2527.795855
948.278286	2528.665454
948.579641	2528.819210
948.880958	2526.792666
949.182236	2528.415917
949.483476	2528.748633
949.784678	2529.988757
950.085841	2529.678726
950.386967	2530.568490
950.688054	2530.301309
950.989103	2526.969106
951.290114	2527.929446
951.591087	2529.824920
951.892021	2529.056144
952.192917	2529.908099
952.493776	2527.926925
952.794596	2528.733510
953.095378	2530.626463
953.396122	2529.648479
953.696828	2528.736031
953.997496	2530.306350
954.298126	2528.741072
954.598718	2528.942718
954.899272	2530.888603
955.199788	2528.428520
955.500266	2528.607481
955.800706	2526.598581
956.101108	2523.919208
956.401472	2522.865607
956.701798	2525.923067
957.002087	2523.571368
957.302337	2527.952131
957.602550	2527.137985
957.902724	2527.087573
958.202861	2528.373068
958.502960	2526.238139
958.803022	2523.271420
959.103045	2526.250742
959.403031	2527.387522
959.702979	2528.710825
960.002889	2528.599919
960.302762	2526.336441
960.602596	2527.122861
960.902393	2527.629497
961.202153	2524.514064
961.501875	2525.605474
961.801559	2527.296781
962.101205	2529.169570
962.400814	2524.922398
962.700385	2528.978006
962.999918	2525.728982
963.299414	2524.977850
963.598873	2527.785773
963.898293	2525.093797
964.197677	2528.350382
964.497022	2526.371729
964.796331	2524.995494
965.095601	2526.336441
965.394835	2526.787625
965.694030	2524.488858
965.993189	2527.332069
966.292309	2526.918695
966.591393	2525.688653
966.890439	2529.093952
967.189447	2526.706966
967.488419	2524.698066
967.787353	2525.822244
968.086249	2526.434744
968.385108	2528.178983
968.683930	2525.524816
968.982714	2526.386853
969.281462	2526.003725
969.580172	2524.935001
969.878844	2529.424148
970.177480	2526.195289
970.476078	2526.666637
970.774639	2527.342152
971.073162	2526.371729
971.371649	2523.029444
971.670098	2521.759074
971.968510	2525.338293
972.266885	2522.116996
972.565223	2526.875845
972.863524	2526.172604
973.161788	2525.184538
973.460014	2526.114631
973.758204	2527.261493
974.056356	2524.103210
974.354471	2528.788963
974.652550	2524.156142
974.950591	2527.354754
975.248595	2523.954496
975.546563	2526.427182
975.844493	2526.522964
976.142386	2529.025897
976.440243	2526.855680
976.738062	2527.014477
977.035845	2527.112779
977.333590	2526.928777
977.631299	2526.091945
977.928971	2526.286030
978.226606	2528.902389
978.524204	2525.043385
978.821765	2527.175793
979.119290	2523.208405
979.416777	2524.733354
979.714228	2527.556401
980.011642	2525.451719
980.309020	2528.602440
980.606360	2525.131606
980.903664	2525.766791
981.200931	2524.594723
981.498162	2523.052130
981.795356	2528.163860
982.092513	2527.011956
982.389633	2525.718900
982.686717	2527.503468
982.983764	2525.986081
983.280775	2525.373581
983.577749	2527.687471
983.874686	2530.102183
984.171587	2526.953983
984.468451	2526.807789
984.765279	2527.178314
985.062070	2525.285361
985.358824	2526.734692
985.655543	2526.190248
985.952224	2527.264014
986.248869	2527.122861
986.545478	2520.299660
986.842050	2525.267717
987.138586	2521.564989
987.435086	2522.137160
987.731549	2518.918383
988.027975	2526.144877
988.324366	2528.156298
988.620719	2525.539939
988.917037	2524.367871
989.213318	2524.650175
989.509563	2524.975330
989.805772	2525.499610
990.101944	2526.472552
990.398080	2526.386853
990.694180	2523.987264
990.990244	2526.270906
991.286271	2525.839888
991.582262	2526.323838
991.878217	2528.468849
992.174136	2525.119003
992.470019	2523.639424
992.765865	2524.282171
993.061676	2523.881399
993.357450	2528.078160
993.653188	2525.721421
993.948890	2525.131606
994.244556	2524.894671
994.540186	2523.478107
994.835780	2524.740916
995.131337	2525.716379
995.426859	2526.573376
995.722345	2526.835516
996.017795	2525.618077
996.313208	2527.873993
996.608586	2527.354754
996.903928	2525.492048
997.199234	2524.342665
997.494504	2526.661596
997.789738	2524.118334
998.084936	2528.025228
998.380099	2524.524147
998.675225	2526.399456
998.970316	2526.039013
999.265371	2523.568848
999.560390	2525.817202
999.855373	2526.729651
1000.150320	2525.706297
1000.445232	2526.727131
1000.740108	2522.545494
1001.034948	2525.366019
1001.329752	2523.891482
1001.624521	2526.147398
1001.919254	2519.745133
1002.213951	2522.989115
1002.508613	2521.950638
1002.803239	2525.224867
1003.097829	2522.880730
1003.392384	2523.334434
1003.686903	2525.050947
1003.981386	2527.430372
1004.275834	2523.614218
1004.570246	2526.709487
1004.864623	2523.652027
1005.158964	2523.362161
1005.453270	2524.630011
1005.747540	2525.746626
1006.041775	2522.580782
1006.335974	2522.855525
1006.630138	2522.971471
1006.924266	2521.849814
1007.218359	2526.046575
1007.512416	2525.640762
1007.806438	2525.791997
1008.100425	2524.677902
1008.394376	2525.582789
1008.688292	2527.206040
1008.982172	2523.972140
1009.276017	2524.685463
1009.569827	2520.473579
1009.863602	2525.398787
1010.157341	2523.861235
1010.451045	2526.800228
1010.744714	2523.452901
1011.038347	2524.877027
1011.331945	2524.783766
1011.625508	2521.998528
1011.919036	2524.708149
1012.212528	2523.009280
1012.505986	2522.336286
1012.799408	2524.357788
1013.092795	2523.619259
1013.386147	2526.142357
1013.679464	2522.729496
1013.972745	2524.264527
1014.265992	2525.829805
1014.559204	2524.597243
1014.852380	2525.529857
1015.145521	2524.279651
1015.438628	2523.147912
1015.731699	2524.216636
1016.024736	2525.539939
1016.317737	2526.031452
1016.610703	2521.985926
1016.903635	2522.099352
1017.196531	2519.583816
1017.489393	2521.789321
1017.782219	2522.512726
1018.075011	2522.374094
1018.367768	2522.963909
1018.660490	2524.085566
1018.953177	2524.085566
1019.245829	2524.085566
