Dividing Wavelength (nm)	Counts (n)	Blue Motor Position (mm): 0.000000	Red Motor Position (mm): 5.100000	
326.493990	2170.216731
326.888308	2170.216731
327.282561	2170.216731
327.676750	2021.502692
328.070874	2044.187885
328.464933	2172.737308
328.858929	2049.229038
329.252859	2036.626154
329.646726	2069.393654
330.040528	2039.146731
330.434265	2114.764038
330.827938	2117.284615
331.221547	2147.531538
331.615091	2202.984231
332.008571	2157.613846
332.401986	2205.504808
332.795338	2243.313462
333.188625	2258.436923
333.581847	2210.545962
333.975006	2303.807308
334.368100	2341.615962
334.761129	2301.286731
335.154095	2318.930769
335.546996	2399.589231
335.939833	2341.615962
336.332606	2349.177692
336.725315	2414.712692
337.117960	2419.753846
337.510540	2450.000769
337.903056	2429.836154
338.295508	2419.753846
338.687896	2457.562500
339.080220	2480.247692
339.472480	2404.630385
339.864676	2485.288846
340.256807	2424.795000
340.648875	2427.315577
341.040879	2409.671538
341.432818	2487.809423
341.824694	2477.727115
342.216506	2502.932885
342.608253	2487.809423
342.999937	2434.877308
343.391557	2386.986346
343.783113	2462.603654
344.174605	2434.877308
344.566033	2507.974038
344.957397	2467.644808
345.348697	2462.603654
345.739934	2515.535769
346.131106	2417.233269
346.522215	2472.685962
346.913260	2417.233269
347.304241	2510.494615
347.695159	2356.739423
348.086012	2523.097500
348.476802	2444.959615
348.867528	2422.274423
349.258191	2535.700385
349.648789	2442.439038
350.039324	2444.959615
350.429796	2407.150962
350.820203	2455.041923
351.210548	2366.821731
351.600828	2455.041923
351.991045	2432.356731
352.381198	2482.768269
352.771288	2437.397885
353.161314	2407.150962
353.551276	2533.179808
353.941175	2419.753846
354.331010	2424.795000
354.720782	2457.562500
355.110490	2437.397885
355.500135	2444.959615
355.889717	2429.836154
356.279235	2402.109808
356.668689	2442.439038
357.058080	2422.274423
357.447408	2381.945192
357.836672	2409.671538
358.225873	2419.753846
358.615010	2500.412308
359.004084	2465.124231
359.393095	2439.918462
359.782043	2414.712692
360.170927	2455.041923
360.559748	2470.165385
360.948505	2371.862885
361.337199	2535.700385
361.725830	2472.685962
362.114398	2437.397885
362.502903	2409.671538
362.891344	2475.206538
363.279722	2472.685962
363.668037	2490.330000
364.056289	2427.315577
364.444478	2470.165385
364.832603	2402.109808
365.220665	2460.083077
365.608665	2434.877308
365.996601	2366.821731
366.384474	2465.124231
366.772284	2455.041923
367.160031	2515.535769
367.547715	2513.015192
367.935336	2467.644808
368.322893	2462.603654
368.710388	2397.068654
369.097820	2366.821731
369.485189	2460.083077
369.872495	2467.644808
370.259738	2505.453462
370.646918	2432.356731
371.034035	2442.439038
371.421090	2429.836154
371.808081	2482.768269
372.195010	2417.233269
372.581875	2404.630385
372.968678	2374.383462
373.355418	2444.959615
373.742096	2520.576923
374.128710	2462.603654
374.515262	2452.521346
374.901751	2502.932885
375.288177	2417.233269
375.674540	2545.782692
376.060841	2349.177692
376.447079	2434.877308
376.833254	2429.836154
377.219367	2422.274423
377.605417	2397.068654
377.991404	2404.630385
378.377329	2507.974038
378.763191	2384.465769
379.148991	2424.795000
379.534727	2462.603654
379.920402	2472.685962
380.306013	2487.809423
380.691563	2513.015192
381.077049	2513.015192
381.462474	2419.753846
381.847835	2515.535769
382.233134	2583.591346
382.618371	2500.412308
383.003545	2460.083077
383.388657	2485.288846
383.773706	2462.603654
384.158693	2439.918462
384.543618	2485.288846
384.928480	2525.618077
385.313280	2502.932885
385.698017	2465.124231
386.082692	2465.124231
386.467305	2482.768269
386.851856	2523.097500
387.236344	2455.041923
387.620770	2457.562500
388.005133	2442.439038
388.389435	2490.330000
388.773674	2495.371154
389.157851	2548.303269
389.541965	2457.562500
389.926018	2520.576923
390.310008	2470.165385
390.693936	2518.056346
391.077802	2386.986346
391.461606	2492.850577
391.845348	2520.576923
392.229027	2465.124231
392.612645	2447.480192
392.996200	2477.727115
393.379694	2409.671538
393.763125	2424.795000
394.146494	2518.056346
394.529801	2507.974038
394.913047	2427.315577
395.296230	2570.988462
395.679351	2477.727115
396.062410	2543.262115
396.445408	2477.727115
396.828343	2583.591346
397.211217	2475.206538
397.594028	2472.685962
397.976778	2409.671538
398.359466	2482.768269
398.742092	2470.165385
399.124656	2376.904038
399.507158	2480.247692
399.889598	2505.453462
400.271977	2419.753846
400.654294	2495.371154
401.036549	2462.603654
401.418742	2389.506923
401.800874	2523.097500
402.182944	2535.700385
402.564952	2477.727115
402.946898	2429.836154
403.328783	2515.535769
403.710606	2450.000769
404.092367	2497.891731
404.474067	2593.673654
404.855705	2419.753846
405.237282	2462.603654
405.618797	2429.836154
406.000250	2563.426731
406.381642	2535.700385
406.762972	2500.412308
407.144240	2364.301154
407.525447	2450.000769
407.906593	2495.371154
408.287677	2442.439038
408.668700	2570.988462
409.049661	2472.685962
409.430560	2520.576923
409.811399	2477.727115
410.192176	2450.000769
410.572891	2490.330000
410.953545	2399.589231
411.334138	2475.206538
411.714669	2467.644808
412.095139	2560.906154
412.475547	2530.659231
412.855894	2439.918462
413.236180	2568.467885
413.616405	2402.109808
413.996568	2364.301154
414.376670	2465.124231
414.756711	2399.589231
415.136691	2518.056346
415.516609	2409.671538
415.896466	2543.262115
416.276262	2422.274423
416.655997	2540.741538
417.035670	2538.220962
417.415283	2460.083077
417.794834	2374.383462
418.174324	2500.412308
418.553753	2414.712692
418.933121	2487.809423
419.312428	2490.330000
419.691674	2492.850577
420.070859	2439.918462
420.449983	2427.315577
420.829045	2412.192115
421.208047	2480.247692
421.586988	2510.494615
421.965867	2465.124231
422.344686	2472.685962
422.723444	2455.041923
423.102141	2495.371154
423.480777	2505.453462
423.859352	2553.344423
424.237866	2434.877308
424.616319	2452.521346
424.994712	2427.315577
425.373044	2502.932885
425.751314	2515.535769
426.129524	2452.521346
426.507673	2550.823846
426.885762	2432.356731
427.263789	2485.288846
427.641756	2437.397885
428.019662	2490.330000
428.397508	2460.083077
428.775292	2550.823846
429.153016	2447.480192
429.530679	2497.891731
429.908282	2500.412308
430.285824	2550.823846
430.663305	2515.535769
431.040726	2462.603654
431.418086	2467.644808
431.795385	2460.083077
432.172624	2470.165385
432.549802	2618.879423
432.926920	2540.741538
433.303977	2513.015192
433.680974	2500.412308
434.057910	2520.576923
434.434786	2452.521346
434.811601	2495.371154
435.188355	2359.260000
435.565050	2460.083077
435.941683	2480.247692
436.318257	2475.206538
436.694770	2472.685962
437.071222	2480.247692
437.447614	2540.741538
437.823946	2601.235385
438.200218	2437.397885
438.576429	2429.836154
438.952580	2485.288846
439.328670	2455.041923
439.704700	2540.741538
440.080670	2442.439038
440.456580	2485.288846
440.832429	2548.303269
441.208218	2528.138654
441.583947	2444.959615
441.959616	2490.330000
442.335224	2457.562500
442.710773	2497.891731
443.086261	2502.932885
443.461689	2578.550192
443.837057	2495.371154
444.212365	2472.685962
444.587612	2502.932885
444.962800	2515.535769
445.337927	2427.315577
445.712995	2492.850577
446.088002	2485.288846
446.462949	2520.576923
446.837837	2497.891731
447.212664	2523.097500
447.587431	2455.041923
447.962139	2518.056346
448.336786	2520.576923
448.711374	2528.138654
449.085901	2490.330000
449.460369	2462.603654
449.834776	2518.056346
450.209124	2520.576923
450.583412	2548.303269
450.957640	2495.371154
451.331808	2485.288846
451.705917	2437.397885
452.079965	2596.194231
452.453954	2518.056346
452.827883	2422.274423
453.201752	2376.904038
453.575562	2482.768269
453.949311	2487.809423
454.323001	2447.480192
454.696632	2520.576923
455.070202	2482.768269
455.443713	2510.494615
455.817164	2533.179808
456.190556	2467.644808
456.563888	2465.124231
456.937160	2455.041923
457.310373	2540.741538
457.683526	2525.618077
458.056619	2588.632500
458.429653	2518.056346
458.802628	2492.850577
459.175542	2555.865000
459.548398	2482.768269
459.921194	2507.974038
460.293930	2598.714808
460.666607	2525.618077
461.039224	2472.685962
461.411782	2444.959615
461.784280	2442.439038
462.156719	2543.262115
462.529099	2528.138654
462.901419	2565.947308
463.273680	2513.015192
463.645882	2409.671538
464.018024	2515.535769
464.390106	2513.015192
464.762130	2492.850577
465.134094	2409.671538
465.505999	2490.330000
465.877845	2477.727115
466.249631	2545.782692
466.621358	2490.330000
466.993026	2520.576923
467.364634	2465.124231
467.736184	2502.932885
468.107674	2432.356731
468.479105	2485.288846
468.850477	2510.494615
469.221790	2502.932885
469.593043	2555.865000
469.964238	2460.083077
470.335373	2518.056346
470.706449	2434.877308
471.077467	2520.576923
471.448425	2417.233269
471.819324	2520.576923
472.190164	2487.809423
472.560945	2497.891731
472.931667	2596.194231
473.302330	2502.932885
473.672934	2555.865000
474.043479	2422.274423
474.413965	2523.097500
474.784393	2487.809423
475.154761	2419.753846
475.525070	2578.550192
475.895321	2485.288846
476.265513	2455.041923
476.635645	2528.138654
477.005719	2495.371154
477.375734	2457.562500
477.745691	2477.727115
478.115588	2507.974038
478.485427	2553.344423
478.855207	2528.138654
479.224928	2538.220962
479.594591	2507.974038
479.964194	2402.109808
480.333739	2500.412308
480.703226	2497.891731
481.072653	2472.685962
481.442022	2523.097500
481.811333	2475.206538
482.180584	2510.494615
482.549777	2558.385577
482.918912	2485.288846
483.287988	2545.782692
483.657005	2462.603654
484.025964	2596.194231
484.394864	2543.262115
484.763706	2477.727115
485.132489	2487.809423
485.501213	2576.029615
485.869879	2467.644808
486.238487	2555.865000
486.607036	2482.768269
486.975527	2558.385577
487.343959	2487.809423
487.712333	2513.015192
488.080648	2502.932885
488.448905	2550.823846
488.817104	2487.809423
489.185244	2558.385577
489.553326	2495.371154
489.921350	2555.865000
490.289315	2434.877308
490.657222	2513.015192
491.025070	2548.303269
491.392861	2573.509038
491.760593	2492.850577
492.128267	2497.891731
492.495883	2500.412308
492.863440	2583.591346
493.230939	2485.288846
493.598380	2460.083077
493.965763	2497.891731
494.333088	2495.371154
494.700354	2450.000769
495.067563	2538.220962
495.434713	2485.288846
495.801805	2518.056346
496.168839	2502.932885
496.535815	2500.412308
496.902733	2543.262115
497.269593	2502.932885
497.636395	2502.932885
498.003139	2545.782692
498.369825	2495.371154
498.736453	2470.165385
499.103023	2525.618077
499.469535	2490.330000
499.835989	2467.644808
500.202385	2457.562500
500.568723	2576.029615
500.935003	2467.644808
501.301226	2434.877308
501.667390	2548.303269
502.033497	2583.591346
502.399546	2457.562500
502.765537	2518.056346
503.131470	2407.150962
503.497345	2568.467885
503.863163	2530.659231
504.228923	2573.509038
504.594625	2452.521346
504.960269	2523.097500
505.325856	2487.809423
505.691385	2555.865000
506.056856	2480.247692
506.422270	2500.412308
506.787625	2535.700385
507.152924	2477.727115
507.518164	2472.685962
507.883347	2570.988462
508.248472	2455.041923
508.613540	2452.521346
508.978550	2528.138654
509.343503	2515.535769
509.708398	2545.782692
510.073236	2482.768269
510.438016	2455.041923
510.802738	2487.809423
511.167403	2553.344423
511.532010	2507.974038
511.896561	2439.918462
512.261053	2472.685962
512.625488	2513.015192
512.989866	2586.111923
513.354186	2422.274423
513.718449	2550.823846
514.082655	2505.453462
514.446803	2500.412308
514.810894	2487.809423
515.174927	2510.494615
515.538904	2434.877308
515.902822	2492.850577
516.266684	2475.206538
516.630488	2518.056346
516.994235	2560.906154
517.357925	2457.562500
517.721558	2530.659231
518.085133	2462.603654
518.448651	2437.397885
518.812112	2535.700385
519.175516	2548.303269
519.538863	2525.618077
519.902152	2510.494615
520.265385	2397.068654
520.628560	2573.509038
520.991678	2553.344423
521.354739	2518.056346
521.717743	2505.453462
522.080690	2548.303269
522.443580	2525.618077
522.806413	2480.247692
523.169189	2482.768269
523.531908	2563.426731
523.894569	2492.850577
524.257174	2482.768269
524.619722	2465.124231
524.982213	2545.782692
525.344647	2444.959615
525.707025	2540.741538
526.069345	2414.712692
526.431608	2477.727115
526.793815	2472.685962
527.155964	2412.192115
527.518057	2515.535769
527.880093	2502.932885
528.242072	2558.385577
528.603995	2500.412308
528.965860	2444.959615
529.327669	2447.480192
529.689421	2510.494615
530.051117	2502.932885
530.412755	2444.959615
530.774337	2513.015192
531.135862	2543.262115
531.497331	2540.741538
531.858743	2455.041923
532.220098	2467.644808
532.581396	2520.576923
532.942638	2570.988462
533.303824	2439.918462
533.664953	2593.673654
534.026025	2467.644808
534.387040	2535.700385
534.747999	2495.371154
535.108902	2510.494615
535.469748	2444.959615
535.830537	2568.467885
536.191270	2452.521346
536.551947	2513.015192
536.912567	2450.000769
537.273131	2507.974038
537.633638	2427.315577
537.994089	2550.823846
538.354483	2495.371154
538.714821	2586.111923
539.075103	2447.480192
539.435328	2563.426731
539.795497	2520.576923
540.155609	2502.932885
540.515665	2447.480192
540.875665	2543.262115
541.235609	2460.083077
541.595496	2465.124231
541.955328	2460.083077
542.315102	2543.262115
542.674821	2490.330000
543.034483	2530.659231
543.394090	2507.974038
543.753640	2545.782692
544.113134	2586.111923
544.472571	2530.659231
544.831953	2490.330000
545.191278	2513.015192
545.550548	2523.097500
545.909761	2457.562500
546.268918	2444.959615
546.628019	2505.453462
546.987064	2530.659231
547.346053	2480.247692
547.704986	2361.780577
548.063863	2462.603654
548.422684	2492.850577
548.781449	2545.782692
549.140158	2414.712692
549.498811	2424.795000
549.857408	2495.371154
550.215949	2535.700385
550.574434	2422.274423
550.932864	2548.303269
551.291237	2543.262115
551.649555	2563.426731
552.007817	2523.097500
552.366022	2470.165385
552.724173	2563.426731
553.082267	2470.165385
553.440305	2475.206538
553.798288	2429.836154
554.156215	2439.918462
554.514086	2570.988462
554.871902	2429.836154
555.229661	2523.097500
555.587365	2450.000769
555.945014	2545.782692
556.302606	2505.453462
556.660143	2520.576923
557.017625	2500.412308
557.375050	2480.247692
557.732421	2568.467885
558.089735	2507.974038
558.446994	2490.330000
558.804197	2535.700385
559.161345	2460.083077
559.518437	2497.891731
559.875474	2553.344423
560.232455	2586.111923
560.589381	2507.974038
560.946251	2475.206538
561.303065	2502.932885
561.659825	2485.288846
562.016528	2447.480192
562.373177	2502.932885
562.729770	2518.056346
563.086307	2495.371154
563.442789	2437.397885
563.799216	2523.097500
564.155587	2480.247692
564.511904	2558.385577
564.868164	2482.768269
565.224370	2523.097500
565.580520	2500.412308
565.936615	2530.659231
566.292654	2518.056346
566.648638	2485.288846
567.004567	2429.836154
567.360441	2510.494615
567.716260	2560.906154
568.072023	2573.509038
568.427732	2457.562500
568.783385	2540.741538
569.138982	2490.330000
569.494525	2495.371154
569.850013	2545.782692
570.205445	2588.632500
570.560823	2434.877308
570.916145	2505.453462
571.271412	2482.768269
571.626625	2482.768269
571.981782	2513.015192
572.336884	2528.138654
572.691931	2376.904038
573.046923	2455.041923
573.401860	2530.659231
573.756743	2525.618077
574.111570	2462.603654
574.466342	2472.685962
574.821059	2528.138654
575.175722	2500.412308
575.530330	2543.262115
575.884882	2555.865000
576.239380	2439.918462
576.593823	2487.809423
576.948211	2525.618077
577.302544	2515.535769
577.656823	2492.850577
578.011047	2500.412308
578.365216	2447.480192
578.719330	2518.056346
579.073389	2573.509038
579.427394	2439.918462
579.781344	2550.823846
580.135239	2492.850577
580.489080	2472.685962
580.842866	2490.330000
581.196597	2389.506923
581.550273	2535.700385
581.903895	2510.494615
582.257463	2505.453462
582.610975	2414.712692
582.964434	2525.618077
583.317837	2487.809423
583.671186	2424.795000
584.024481	2528.138654
584.377721	2533.179808
584.730906	2568.467885
585.084037	2462.603654
585.437113	2553.344423
585.790135	2543.262115
586.143103	2485.288846
586.496016	2462.603654
586.848874	2455.041923
587.201679	2429.836154
587.554428	2480.247692
587.907124	2467.644808
588.259765	2535.700385
588.612352	2497.891731
588.964884	2545.782692
589.317362	2379.424615
589.669786	2457.562500
590.022155	2513.015192
590.374470	2477.727115
590.726731	2533.179808
591.078937	2394.548077
591.431090	2558.385577
591.783188	2434.877308
592.135232	2583.591346
592.487222	2485.288846
592.839157	2553.344423
593.191038	2447.480192
593.542866	2573.509038
593.894639	2500.412308
594.246358	2548.303269
594.598022	2349.177692
594.949633	2533.179808
595.301190	2455.041923
595.652692	2495.371154
596.004141	2543.262115
596.355535	2591.153077
596.706876	2535.700385
597.058162	2523.097500
597.409395	2497.891731
597.760573	2429.836154
598.111698	2389.506923
598.462768	2472.685962
598.813785	2490.330000
599.164748	2518.056346
599.515657	2480.247692
599.866511	2439.918462
600.217312	2485.288846
600.568060	2429.836154
600.918753	2492.850577
601.269392	2429.836154
601.619978	2485.288846
601.970510	2467.644808
602.320988	2505.453462
602.671412	2505.453462
603.021783	2444.959615
603.372100	2502.932885
603.722363	2528.138654
604.072572	2482.768269
604.422728	2487.809423
604.772830	2528.138654
605.122878	2460.083077
605.472872	2523.097500
605.822813	2475.206538
606.172701	2482.768269
606.522534	2467.644808
606.872314	2389.506923
607.222041	2515.535769
607.571714	2437.397885
607.921333	2495.371154
608.270899	2497.891731
608.620411	2495.371154
608.969870	2432.356731
609.319276	2472.685962
609.668627	2492.850577
610.017926	2432.356731
610.367171	2487.809423
610.716362	2444.959615
611.065500	2439.918462
611.414585	2465.124231
611.763616	2530.659231
612.112594	2472.685962
612.461518	2538.220962
612.810389	2535.700385
613.159207	2523.097500
613.507971	2475.206538
613.856682	2535.700385
614.205340	2502.932885
614.553945	2492.850577
614.902496	2520.576923
615.250994	2487.809423
615.599439	2543.262115
615.947830	2555.865000
616.296169	2505.453462
616.644454	2490.330000
616.992686	2563.426731
617.340864	2439.918462
617.688990	2528.138654
618.037063	2523.097500
618.385082	2439.918462
618.733048	2485.288846
619.080961	2485.288846
619.428821	2533.179808
619.776628	2495.371154
620.124382	2455.041923
620.472083	2452.521346
620.819731	2477.727115
621.167326	2555.865000
621.514868	2558.385577
621.862357	2457.562500
622.209793	2500.412308
622.557176	2472.685962
622.904506	2492.850577
623.251783	2437.397885
623.599007	2422.274423
623.946179	2475.206538
624.293297	2444.959615
624.640363	2540.741538
624.987376	2462.603654
625.334336	2470.165385
625.681243	2538.220962
626.028097	2457.562500
626.374899	2495.371154
626.721647	2450.000769
627.068343	2414.712692
627.414987	2477.727115
627.761577	2437.397885
628.108115	2497.891731
628.454600	2495.371154
628.801032	2457.562500
629.147412	2482.768269
629.493739	2528.138654
629.840014	2462.603654
630.186236	2513.015192
630.532405	2482.768269
630.878521	2591.153077
631.224585	2477.727115
631.570597	2480.247692
631.916556	2455.041923
632.262462	2404.630385
632.608316	2429.836154
632.954117	2513.015192
633.299866	2530.659231
633.645562	2402.109808
633.991206	2472.685962
634.336797	2500.412308
634.682336	2455.041923
635.027823	2525.618077
635.373257	2490.330000
635.718639	2455.041923
636.063968	2485.288846
636.409245	2518.056346
636.754470	2523.097500
637.099642	2535.700385
637.444762	2563.426731
637.789829	2558.385577
638.134845	2502.932885
638.479808	2555.865000
638.824719	2573.509038
639.169577	2525.618077
639.514383	2452.521346
639.859137	2475.206538
640.203839	2477.727115
640.548489	2530.659231
640.893086	2432.356731
641.237632	2424.795000
641.582125	2487.809423
641.926566	2528.138654
642.270955	2510.494615
642.615292	2480.247692
642.959576	2477.727115
643.303809	2497.891731
643.647990	2427.315577
643.992118	2520.576923
644.336195	2500.412308
644.680219	2467.644808
645.024192	2502.932885
645.368112	2492.850577
645.711981	2450.000769
646.055797	2500.412308
646.399562	2392.027500
646.743274	2550.823846
647.086935	2500.412308
647.430544	2500.412308
647.774101	2535.700385
648.117606	2505.453462
648.461059	2439.918462
648.804460	2515.535769
649.147810	2409.671538
649.491108	2533.179808
649.834354	2482.768269
650.177548	2460.083077
650.520690	2578.550192
650.863781	2581.070769
651.206820	2500.412308
651.549807	2581.070769
651.892742	2510.494615
652.235626	2518.056346
652.578458	2525.618077
652.921238	2495.371154
653.263967	2439.918462
653.606644	2505.453462
653.949269	2518.056346
654.291843	2467.644808
654.634365	2497.891731
654.976836	2465.124231
655.319255	2472.685962
655.661622	2452.521346
656.003938	2487.809423
656.346203	2477.727115
656.688416	2502.932885
657.030577	2545.782692
657.372687	2560.906154
657.714746	2467.644808
658.056753	2442.439038
658.398708	2465.124231
658.740612	2417.233269
659.082465	2490.330000
659.424266	2397.068654
659.766016	2540.741538
660.107715	2442.439038
660.449362	2513.015192
660.790958	2450.000769
661.132503	2507.974038
661.473996	2525.618077
661.815438	2429.836154
662.156829	2505.453462
662.498168	2424.795000
662.839456	2533.179808
663.180693	2492.850577
663.521879	2495.371154
663.863013	2513.015192
664.204097	2558.385577
664.545129	2434.877308
664.886110	2450.000769
665.227040	2462.603654
665.567918	2490.330000
665.908746	2452.521346
666.249522	2507.974038
666.590248	2525.618077
666.930922	2465.124231
667.271545	2490.330000
667.612118	2555.865000
667.952639	2442.439038
668.293109	2497.891731
668.633528	2482.768269
668.973896	2490.330000
669.314213	2487.809423
669.654480	2515.535769
669.994695	2467.644808
670.334859	2434.877308
670.674973	2399.589231
671.015035	2507.974038
671.355047	2487.809423
671.695008	2533.179808
672.034918	2518.056346
672.374777	2515.535769
672.714585	2482.768269
673.054342	2593.673654
673.394049	2505.453462
673.733705	2462.603654
674.073310	2452.521346
674.412864	2520.576923
674.752368	2470.165385
675.091820	2568.467885
675.431223	2460.083077
675.770574	2500.412308
676.109875	2429.836154
676.449125	2505.453462
676.788324	2457.562500
677.127473	2490.330000
677.466571	2419.753846
677.805619	2555.865000
678.144616	2432.356731
678.483562	2618.879423
678.822458	2535.700385
679.161303	2455.041923
679.500098	2528.138654
679.838842	2455.041923
680.177535	2507.974038
680.516179	2543.262115
680.854771	2558.385577
681.193314	2497.891731
681.531805	2497.891731
681.870247	2523.097500
682.208638	2444.959615
682.546978	2402.109808
682.885268	2447.480192
683.223508	2528.138654
683.561697	2550.823846
683.899836	2523.097500
684.237925	2490.330000
684.575963	2407.150962
684.913951	2513.015192
685.251889	2465.124231
685.589776	2495.371154
685.927614	2450.000769
686.265401	2528.138654
686.603137	2450.000769
686.940824	2477.727115
687.278460	2487.809423
687.616046	2495.371154
687.953582	2513.015192
688.291068	2444.959615
688.628504	2528.138654
688.965889	2472.685962
689.303224	2523.097500
689.640510	2495.371154
689.977745	2543.262115
690.314930	2472.685962
690.652065	2515.535769
690.989150	2495.371154
691.326185	2513.015192
691.663170	2520.576923
692.000105	2419.753846
692.336990	2487.809423
692.673825	2482.768269
693.010610	2515.535769
693.347345	2545.782692
693.684030	2434.877308
694.020665	2462.603654
694.357251	2450.000769
694.693786	2538.220962
695.030272	2513.015192
695.366707	2533.179808
695.703093	2525.618077
696.039429	2434.877308
696.375716	2477.727115
696.711952	2550.823846
697.048139	2495.371154
697.384276	2548.303269
697.720363	2598.714808
698.056400	2467.644808
698.392388	2540.741538
698.728326	2427.315577
699.064214	2472.685962
699.400053	2573.509038
699.735842	2402.109808
700.071581	2576.029615
700.407270	2482.768269
700.742910	2505.453462
701.078501	2500.412308
701.414042	2399.589231
701.749533	2442.439038
702.084974	2455.041923
702.420366	2457.562500
702.755709	2545.782692
703.091002	2455.041923
703.426246	2540.741538
703.761440	2482.768269
704.096584	2472.685962
704.431679	2518.056346
704.766725	2558.385577
705.101721	2470.165385
705.436668	2495.371154
705.771565	2500.412308
706.106413	2497.891731
706.441212	2543.262115
706.775961	2555.865000
707.110661	2482.768269
707.445311	2490.330000
707.779913	2518.056346
708.114465	2480.247692
708.448967	2492.850577
708.783421	2495.371154
709.117825	2480.247692
709.452180	2573.509038
709.786485	2439.918462
710.120742	2470.165385
710.454949	2427.315577
710.789107	2480.247692
711.123216	2480.247692
711.457275	2480.247692
711.791286	2399.589231
712.125247	2513.015192
712.459159	2586.111923
712.793023	2495.371154
713.126837	2439.918462
713.460602	2510.494615
713.794318	2500.412308
714.127985	2543.262115
714.461602	2452.521346
714.795171	2545.782692
715.128691	2495.371154
715.462162	2475.206538
715.795584	2515.535769
716.128957	2485.288846
716.462281	2457.562500
716.795556	2507.974038
717.128782	2492.850577
717.461960	2558.385577
717.795088	2432.356731
718.128167	2477.727115
718.461198	2518.056346
718.794180	2399.589231
719.127113	2467.644808
719.459997	2444.959615
719.792833	2523.097500
720.125619	2462.603654
720.458357	2505.453462
720.791046	2492.850577
721.123686	2452.521346
721.456278	2444.959615
721.788821	2535.700385
722.121315	2543.262115
722.453761	2490.330000
722.786158	2500.412308
723.118506	2528.138654
723.450805	2477.727115
723.783056	2576.029615
724.115259	2434.877308
724.447412	2470.165385
724.779518	2538.220962
725.111574	2462.603654
725.443582	2432.356731
725.775542	2487.809423
726.107453	2525.618077
726.439315	2538.220962
726.771129	2535.700385
727.102895	2545.782692
727.434612	2513.015192
727.766281	2477.727115
728.097901	2477.727115
728.429473	2528.138654
728.760996	2518.056346
729.092471	2470.165385
729.423897	2417.233269
729.755276	2523.097500
730.086606	2502.932885
730.417887	2402.109808
730.749120	2480.247692
731.080305	2563.426731
731.411442	2485.288846
731.742530	2409.671538
732.073570	2495.371154
732.404562	2520.576923
732.735506	2424.795000
733.066401	2427.315577
733.397249	2500.412308
733.728048	2472.685962
734.058798	2495.371154
734.389501	2548.303269
734.720156	2472.685962
735.050762	2535.700385
735.381320	2545.782692
735.711831	2482.768269
736.042293	2507.974038
736.372707	2429.836154
736.703073	2558.385577
737.033391	2412.192115
737.363661	2545.782692
737.693883	2482.768269
738.024056	2495.371154
738.354182	2447.480192
738.684260	2560.906154
739.014290	2447.480192
739.344272	2490.330000
739.674207	2492.850577
740.004093	2462.603654
740.333931	2444.959615
740.663722	2497.891731
740.993464	2429.836154
741.323159	2515.535769
741.652806	2470.165385
741.982405	2588.632500
742.311956	2578.550192
742.641460	2455.041923
742.970915	2628.961731
743.300323	2525.618077
743.629683	2472.685962
743.958996	2502.932885
744.288260	2442.439038
744.617477	2422.274423
744.946647	2482.768269
745.275768	2510.494615
745.604842	2495.371154
745.933869	2475.206538
746.262847	2485.288846
746.591778	2510.494615
746.920662	2545.782692
747.249498	2442.439038
747.578286	2412.192115
747.907027	2523.097500
748.235720	2515.535769
748.564365	2477.727115
748.892963	2500.412308
749.221514	2520.576923
749.550017	2485.288846
749.878473	2482.768269
750.206881	2477.727115
750.535242	2444.959615
750.863555	2540.741538
751.191821	2502.932885
751.520039	2419.753846
751.848210	2427.315577
752.176334	2518.056346
752.504411	2485.288846
752.832440	2490.330000
753.160421	2520.576923
753.488356	2563.426731
753.816243	2502.932885
754.144082	2447.480192
754.471875	2500.412308
754.799620	2485.288846
755.127318	2550.823846
755.454969	2480.247692
755.782572	2472.685962
756.110129	2495.371154
756.437638	2492.850577
756.765100	2505.453462
757.092515	2475.206538
757.419882	2450.000769
757.747203	2538.220962
758.074477	2535.700385
758.401703	2482.768269
758.728882	2412.192115
759.056014	2500.412308
759.383099	2513.015192
759.710138	2462.603654
760.037129	2480.247692
760.364073	2450.000769
760.690970	2500.412308
761.017820	2434.877308
761.344623	2490.330000
761.671379	2576.029615
761.998088	2500.412308
762.324751	2500.412308
762.651366	2477.727115
762.977935	2480.247692
763.304456	2553.344423
763.630931	2465.124231
763.957359	2500.412308
764.283740	2528.138654
764.610074	2495.371154
764.936362	2495.371154
765.262602	2477.727115
765.588796	2495.371154
765.914943	2513.015192
766.241044	2442.439038
766.567097	2507.974038
766.893104	2437.397885
767.219064	2608.797115
767.544978	2525.618077
767.870845	2525.618077
768.196665	2472.685962
768.522438	2608.797115
768.848165	2482.768269
769.173846	2563.426731
769.499479	2467.644808
769.825066	2495.371154
770.150607	2457.562500
770.476101	2555.865000
770.801548	2495.371154
771.126949	2447.480192
771.452303	2422.274423
771.777611	2497.891731
772.102872	2523.097500
772.428087	2467.644808
772.753256	2518.056346
773.078378	2480.247692
773.403453	2513.015192
773.728482	2515.535769
774.053465	2422.274423
774.378401	2472.685962
774.703291	2444.959615
775.028135	2545.782692
775.352932	2543.262115
775.677683	2455.041923
776.002388	2520.576923
776.327046	2548.303269
776.651658	2477.727115
776.976224	2480.247692
777.300743	2452.521346
777.625216	2505.453462
777.949643	2507.974038
778.274024	2497.891731
778.598359	2349.177692
778.922647	2475.206538
779.246889	2422.274423
779.571086	2543.262115
779.895236	2487.809423
780.219339	2515.535769
780.543397	2482.768269
780.867409	2525.618077
781.191374	2505.453462
781.515294	2518.056346
781.839167	2487.809423
782.162995	2510.494615
782.486776	2447.480192
782.810511	2397.068654
783.134201	2462.603654
783.457844	2442.439038
783.781441	2515.535769
784.104993	2477.727115
784.428498	2533.179808
784.751958	2495.371154
785.075372	2480.247692
785.398739	2533.179808
785.722061	2523.097500
786.045337	2545.782692
786.368568	2482.768269
786.691752	2525.618077
787.014891	2434.877308
787.337983	2460.083077
787.661030	2477.727115
787.984031	2535.700385
788.306987	2437.397885
788.629897	2442.439038
788.952760	2444.959615
789.275579	2452.521346
789.598351	2528.138654
789.921078	2487.809423
790.243759	2404.630385
790.566395	2502.932885
790.888984	2394.548077
791.211529	2472.685962
791.534027	2437.397885
791.856480	2558.385577
792.178888	2490.330000
792.501249	2487.809423
792.823566	2480.247692
793.145836	2472.685962
793.468062	2487.809423
793.790241	2510.494615
794.112375	2487.809423
794.434464	2434.877308
794.756507	2485.288846
795.078505	2518.056346
795.400457	2429.836154
795.722364	2502.932885
796.044226	2457.562500
796.366042	2543.262115
796.687812	2523.097500
797.009538	2485.288846
797.331218	2369.342308
797.652852	2502.932885
797.974442	2485.288846
798.295986	2530.659231
798.617484	2523.097500
798.938938	2515.535769
799.260346	2414.712692
799.581709	2507.974038
799.903026	2500.412308
800.224299	2576.029615
800.545526	2447.480192
800.866708	2507.974038
801.187845	2472.685962
801.508936	2495.371154
801.829983	2513.015192
802.150984	2487.809423
802.471940	2553.344423
802.792851	2419.753846
803.113717	2467.644808
803.434538	2475.206538
803.755314	2467.644808
804.076045	2525.618077
804.396731	2455.041923
804.717372	2518.056346
805.037967	2457.562500
805.358518	2427.315577
805.679024	2528.138654
805.999485	2548.303269
806.319901	2472.685962
806.640272	2583.591346
806.960598	2533.179808
807.280879	2558.385577
807.601115	2538.220962
807.921306	2500.412308
808.241453	2540.741538
808.561554	2555.865000
808.881611	2462.603654
809.201623	2533.179808
809.521590	2490.330000
809.841513	2495.371154
810.161390	2497.891731
810.481223	2500.412308
810.801011	2480.247692
811.120755	2535.700385
811.440453	2437.397885
811.760107	2548.303269
812.079716	2545.782692
812.399281	2505.453462
812.718801	2467.644808
813.038276	2477.727115
813.357707	2442.439038
813.677093	2502.932885
813.996434	2513.015192
814.315731	2452.521346
814.634983	2523.097500
814.954191	2565.947308
815.273354	2490.330000
815.592473	2475.206538
815.911547	2404.630385
816.230577	2495.371154
816.549562	2502.932885
816.868502	2490.330000
817.187399	2593.673654
817.506250	2487.809423
817.825058	2513.015192
818.143821	2495.371154
818.462539	2530.659231
818.781213	2480.247692
819.099843	2477.727115
819.418429	2505.453462
819.736970	2518.056346
820.055466	2444.959615
820.373919	2520.576923
820.692327	2502.932885
821.010691	2573.509038
821.329011	2507.974038
821.647286	2507.974038
821.965517	2439.918462
822.283704	2505.453462
822.601847	2480.247692
822.919945	2487.809423
823.237999	2513.015192
823.556010	2480.247692
823.873976	2553.344423
824.191897	2450.000769
824.509775	2523.097500
824.827609	2414.712692
825.145398	2530.659231
825.463144	2439.918462
825.780845	2535.700385
826.098502	2444.959615
826.416116	2513.015192
826.733685	2409.671538
827.051210	2364.301154
827.368692	2563.426731
827.686129	2452.521346
828.003522	2530.659231
828.320872	2470.165385
828.638177	2523.097500
828.955439	2424.795000
829.272656	2465.124231
829.589830	2530.659231
829.906960	2540.741538
830.224046	2429.836154
830.541088	2457.562500
830.858086	2502.932885
831.175041	2444.959615
831.491952	2465.124231
831.808819	2560.906154
832.125642	2457.562500
832.442421	2535.700385
832.759157	2477.727115
833.075849	2533.179808
833.392497	2495.371154
833.709101	2523.097500
834.025662	2487.809423
834.342179	2538.220962
834.658653	2535.700385
834.975083	2492.850577
835.291469	2515.535769
835.607811	2447.480192
835.924110	2513.015192
836.240366	2432.356731
836.556578	2505.453462
836.872746	2472.685962
837.188871	2513.015192
837.504952	2500.412308
837.820990	2525.618077
838.136984	2472.685962
838.452935	2475.206538
838.768842	2495.371154
839.084706	2394.548077
839.400526	2467.644808
839.716303	2480.247692
840.032037	2462.603654
840.347727	2427.315577
840.663373	2472.685962
840.978977	2513.015192
841.294537	2374.383462
841.610054	2439.918462
841.925527	2573.509038
842.240957	2535.700385
842.556344	2495.371154
842.871687	2487.809423
843.186987	2550.823846
843.502244	2485.288846
843.817458	2518.056346
844.132629	2497.891731
844.447756	2583.591346
844.762840	2439.918462
845.077881	2417.233269
845.392879	2502.932885
845.707833	2497.891731
846.022745	2460.083077
846.337613	2505.453462
846.652438	2543.262115
846.967221	2550.823846
847.281960	2507.974038
847.596656	2515.535769
847.911309	2528.138654
848.225919	2465.124231
848.540485	2515.535769
848.855009	2457.562500
849.169490	2528.138654
849.483928	2412.192115
849.798323	2573.509038
850.112675	2381.945192
850.426984	2407.150962
850.741251	2568.467885
851.055474	2500.412308
851.369654	2419.753846
851.683792	2540.741538
851.997887	2417.233269
852.311938	2477.727115
852.625947	2460.083077
852.939914	2520.576923
853.253837	2460.083077
853.567718	2553.344423
853.881555	2457.562500
854.195350	2465.124231
854.509103	2429.836154
854.822812	2470.165385
855.136479	2394.548077
855.450103	2568.467885
855.763685	2477.727115
856.077224	2444.959615
856.390720	2480.247692
856.704173	2442.439038
857.017584	2502.932885
857.330953	2563.426731
857.644278	2492.850577
857.957561	2525.618077
858.270802	2530.659231
858.584000	2450.000769
858.897155	2520.576923
859.210268	2500.412308
859.523339	2487.809423
859.836367	2500.412308
860.149352	2480.247692
860.462295	2444.959615
860.775195	2520.576923
861.088054	2462.603654
861.400869	2555.865000
861.713642	2439.918462
862.026373	2538.220962
862.339062	2500.412308
862.651708	2510.494615
862.964312	2457.562500
863.276873	2419.753846
863.589392	2371.862885
863.901869	2520.576923
864.214303	2555.865000
864.526696	2518.056346
864.839045	2530.659231
865.151353	2545.782692
865.463619	2424.795000
865.775842	2553.344423
866.088023	2477.727115
866.400162	2601.235385
866.712258	2477.727115
867.024313	2437.397885
867.336325	2475.206538
867.648296	2457.562500
867.960224	2495.371154
868.272110	2407.150962
868.583954	2548.303269
868.895755	2563.426731
869.207515	2412.192115
869.519233	2457.562500
869.830909	2477.727115
870.142542	2397.068654
870.454134	2434.877308
870.765684	2480.247692
871.077191	2563.426731
871.388657	2543.262115
871.700081	2518.056346
872.011463	2487.809423
872.322803	2515.535769
872.634101	2515.535769
872.945357	2535.700385
873.256571	2432.356731
873.567744	2502.932885
873.878874	2427.315577
874.189963	2513.015192
874.501010	2558.385577
874.812015	2535.700385
875.122979	2434.877308
875.433900	2457.562500
875.744780	2470.165385
876.055618	2452.521346
876.366415	2467.644808
876.677169	2452.521346
876.987882	2452.521346
877.298554	2525.618077
877.609183	2460.083077
877.919771	2422.274423
878.230317	2540.741538
878.540822	2470.165385
878.851285	2513.015192
879.161707	2490.330000
879.472087	2505.453462
879.782425	2545.782692
880.092722	2460.083077
880.402977	2510.494615
880.713191	2565.947308
881.023363	2497.891731
881.333494	2432.356731
881.643583	2434.877308
881.953631	2490.330000
882.263637	2528.138654
882.573602	2523.097500
882.883526	2490.330000
883.193408	2427.315577
883.503248	2515.535769
883.813048	2568.467885
884.122806	2485.288846
884.432522	2455.041923
884.742197	2417.233269
885.051831	2553.344423
885.361424	2477.727115
885.670975	2477.727115
885.980485	2437.397885
886.289954	2442.439038
886.599382	2470.165385
886.908768	2528.138654
887.218113	2432.356731
887.527417	2457.562500
887.836680	2530.659231
888.145901	2505.453462
888.455082	2467.644808
888.764221	2550.823846
889.073319	2563.426731
889.382376	2500.412308
889.691392	2427.315577
890.000366	2497.891731
890.309300	2510.494615
890.618193	2490.330000
890.927044	2495.371154
891.235855	2497.891731
891.544625	2568.467885
891.853353	2460.083077
892.162041	2455.041923
892.470687	2497.891731
892.779293	2462.603654
893.087858	2492.850577
893.396381	2490.330000
893.704864	2558.385577
894.013306	2447.480192
894.321707	2480.247692
894.630068	2419.753846
894.938387	2510.494615
895.246665	2467.644808
895.554903	2457.562500
895.863100	2550.823846
896.171256	2460.083077
896.479371	2490.330000
896.787446	2472.685962
897.095480	2477.727115
897.403473	2470.165385
897.711425	2505.453462
898.019336	2480.247692
898.327207	2560.906154
898.635038	2492.850577
898.942827	2394.548077
899.250576	2518.056346
899.558284	2455.041923
899.865952	2460.083077
900.173579	2460.083077
900.481165	2563.426731
900.788711	2482.768269
901.096216	2518.056346
901.403681	2470.165385
901.711105	2480.247692
902.018489	2460.083077
902.325832	2530.659231
902.633135	2467.644808
902.940397	2460.083077
903.247619	2460.083077
903.554800	2475.206538
903.861941	2510.494615
904.169041	2608.797115
904.476101	2490.330000
904.783121	2470.165385
905.090100	2417.233269
905.397039	2540.741538
905.703938	2472.685962
906.010796	2581.070769
906.317614	2520.576923
906.624391	2492.850577
906.931129	2500.412308
907.237826	2540.741538
907.544483	2485.288846
907.851099	2450.000769
908.157675	2545.782692
908.464211	2545.782692
908.770707	2500.412308
909.077163	2487.809423
909.383578	2470.165385
909.689954	2477.727115
909.996289	2467.644808
910.302584	2475.206538
910.608839	2507.974038
910.915054	2570.988462
911.221229	2442.439038
911.527363	2538.220962
911.833458	2487.809423
912.139513	2538.220962
912.445527	2444.959615
912.751502	2470.165385
913.057436	2467.644808
913.363331	2507.974038
913.669186	2467.644808
913.975000	2548.303269
914.280775	2500.412308
914.586510	2487.809423
914.892205	2553.344423
915.197859	2467.644808
915.503475	2507.974038
915.809050	2525.618077
916.114585	2412.192115
916.420081	2450.000769
916.725536	2538.220962
917.030952	2472.685962
917.336328	2548.303269
917.641665	2480.247692
917.946961	2460.083077
918.252218	2558.385577
918.557435	2480.247692
918.862612	2472.685962
919.167750	2505.453462
919.472848	2530.659231
919.777906	2427.315577
920.082925	2444.959615
920.387904	2450.000769
920.692843	2437.397885
920.997743	2490.330000
921.302603	2497.891731
921.607423	2412.192115
921.912204	2439.918462
922.216946	2497.891731
922.521647	2520.576923
922.826310	2502.932885
923.130932	2480.247692
923.435516	2535.700385
923.740059	2578.550192
924.044564	2490.330000
924.349028	2520.576923
924.653454	2424.795000
924.957840	2518.056346
925.262186	2427.315577
925.566493	2495.371154
925.870761	2444.959615
926.174989	2528.138654
926.479178	2462.603654
926.783328	2528.138654
927.087438	2447.480192
927.391509	2457.562500
927.695541	2452.521346
927.999533	2550.823846
928.303486	2553.344423
928.607400	2457.562500
928.911275	2538.220962
929.215110	2515.535769
929.518906	2465.124231
929.822663	2530.659231
930.126381	2492.850577
930.430060	2492.850577
930.733699	2407.150962
931.037299	2513.015192
931.340861	2404.630385
931.644383	2429.836154
931.947866	2540.741538
932.251309	2457.562500
932.554714	2525.618077
932.858080	2447.480192
933.161407	2510.494615
933.464694	2465.124231
933.767943	2467.644808
934.071153	2482.768269
934.374323	2553.344423
934.677455	2510.494615
934.980548	2553.344423
935.283602	2502.932885
935.586617	2480.247692
935.889593	2439.918462
936.192530	2465.124231
936.495428	2490.330000
936.798287	2470.165385
937.101108	2530.659231
937.403890	2429.836154
937.706632	2548.303269
938.009336	2399.589231
938.312002	2540.741538
938.614628	2535.700385
938.917216	2465.124231
939.219765	2533.179808
939.522275	2480.247692
939.824747	2409.671538
940.127179	2467.644808
940.429573	2437.397885
940.731929	2545.782692
941.034246	2530.659231
941.336524	2480.247692
941.638763	2417.233269
941.940964	2518.056346
942.243126	2467.644808
942.545250	2525.618077
942.847335	2470.165385
943.149381	2477.727115
943.451389	2538.220962
943.753359	2452.521346
944.055290	2548.303269
944.357182	2480.247692
944.659036	2457.562500
944.960851	2518.056346
945.262628	2545.782692
945.564367	2462.603654
945.866067	2465.124231
946.167729	2482.768269
946.469352	2462.603654
946.770937	2482.768269
947.072484	2570.988462
947.373992	2523.097500
947.675462	2429.836154
947.976893	2510.494615
948.278286	2495.371154
948.579641	2480.247692
948.880958	2460.083077
949.182236	2485.288846
949.483476	2480.247692
949.784678	2467.644808
950.085841	2475.206538
950.386967	2475.206538
950.688054	2528.138654
950.989103	2490.330000
951.290114	2412.192115
951.591087	2467.644808
951.892021	2492.850577
952.192917	2442.439038
952.493776	2475.206538
952.794596	2581.070769
953.095378	2518.056346
953.396122	2439.918462
953.696828	2465.124231
953.997496	2497.891731
954.298126	2364.301154
954.598718	2528.138654
954.899272	2450.000769
955.199788	2507.974038
955.500266	2477.727115
955.800706	2528.138654
956.101108	2518.056346
956.401472	2500.412308
956.701798	2447.480192
957.002087	2361.780577
957.302337	2477.727115
957.602550	2462.603654
957.902724	2480.247692
958.202861	2497.891731
958.502960	2535.700385
958.803022	2487.809423
959.103045	2485.288846
959.403031	2434.877308
959.702979	2513.015192
960.002889	2402.109808
960.302762	2432.356731
960.602596	2457.562500
960.902393	2523.097500
961.202153	2485.288846
961.501875	2520.576923
961.801559	2485.288846
962.101205	2507.974038
962.400814	2439.918462
962.700385	2457.562500
962.999918	2490.330000
963.299414	2437.397885
963.598873	2472.685962
963.898293	2480.247692
964.197677	2462.603654
964.497022	2434.877308
964.796331	2528.138654
965.095601	2510.494615
965.394835	2500.412308
965.694030	2444.959615
965.993189	2507.974038
966.292309	2492.850577
966.591393	2450.000769
966.890439	2510.494615
967.189447	2553.344423
967.488419	2487.809423
967.787353	2530.659231
968.086249	2550.823846
968.385108	2470.165385
968.683930	2465.124231
968.982714	2548.303269
969.281462	2475.206538
969.580172	2419.753846
969.878844	2490.330000
970.177480	2472.685962
970.476078	2538.220962
970.774639	2563.426731
971.073162	2530.659231
971.371649	2490.330000
971.670098	2495.371154
971.968510	2492.850577
972.266885	2455.041923
972.565223	2399.589231
972.863524	2444.959615
973.161788	2513.015192
973.460014	2480.247692
973.758204	2507.974038
974.056356	2581.070769
974.354471	2518.056346
974.652550	2434.877308
974.950591	2460.083077
975.248595	2502.932885
975.546563	2450.000769
975.844493	2513.015192
976.142386	2533.179808
976.440243	2520.576923
976.738062	2560.906154
977.035845	2560.906154
977.333590	2424.795000
977.631299	2495.371154
977.928971	2490.330000
978.226606	2520.576923
978.524204	2535.700385
978.821765	2422.274423
979.119290	2533.179808
979.416777	2419.753846
979.714228	2500.412308
980.011642	2437.397885
980.309020	2455.041923
980.606360	2535.700385
980.903664	2470.165385
981.200931	2505.453462
981.498162	2457.562500
981.795356	2482.768269
982.092513	2472.685962
982.389633	2475.206538
982.686717	2437.397885
982.983764	2477.727115
983.280775	2505.453462
983.577749	2495.371154
983.874686	2502.932885
984.171587	2482.768269
984.468451	2407.150962
984.765279	2492.850577
985.062070	2538.220962
985.358824	2444.959615
985.655543	2545.782692
985.952224	2462.603654
986.248869	2505.453462
986.545478	2422.274423
986.842050	2492.850577
987.138586	2513.015192
987.435086	2520.576923
987.731549	2497.891731
988.027975	2535.700385
988.324366	2485.288846
988.620719	2550.823846
988.917037	2465.124231
989.213318	2472.685962
989.509563	2442.439038
989.805772	2457.562500
990.101944	2475.206538
990.398080	2553.344423
990.694180	2480.247692
990.990244	2495.371154
991.286271	2487.809423
991.582262	2402.109808
991.878217	2565.947308
992.174136	2470.165385
992.470019	2502.932885
992.765865	2487.809423
993.061676	2450.000769
993.357450	2538.220962
993.653188	2470.165385
993.948890	2505.453462
994.244556	2442.439038
994.540186	2470.165385
994.835780	2482.768269
995.131337	2470.165385
995.426859	2407.150962
995.722345	2540.741538
996.017795	2535.700385
996.313208	2505.453462
996.608586	2450.000769
996.903928	2417.233269
997.199234	2540.741538
997.494504	2497.891731
997.789738	2482.768269
998.084936	2434.877308
998.380099	2507.974038
998.675225	2439.918462
998.970316	2538.220962
999.265371	2414.712692
999.560390	2558.385577
999.855373	2482.768269
1000.150320	2470.165385
1000.445232	2563.426731
1000.740108	2462.603654
1001.034948	2467.644808
1001.329752	2439.918462
1001.624521	2515.535769
1001.919254	2570.988462
1002.213951	2485.288846
1002.508613	2432.356731
1002.803239	2495.371154
1003.097829	2487.809423
1003.392384	2455.041923
1003.686903	2573.509038
1003.981386	2429.836154
1004.275834	2523.097500
1004.570246	2462.603654
1004.864623	2417.233269
1005.158964	2505.453462
1005.453270	2535.700385
1005.747540	2465.124231
1006.041775	2570.988462
1006.335974	2442.439038
1006.630138	2502.932885
1006.924266	2492.850577
1007.218359	2427.315577
1007.512416	2510.494615
1007.806438	2434.877308
1008.100425	2550.823846
1008.394376	2470.165385
1008.688292	2513.015192
1008.982172	2560.906154
1009.276017	2533.179808
1009.569827	2434.877308
1009.863602	2520.576923
1010.157341	2560.906154
1010.451045	2500.412308
1010.744714	2470.165385
1011.038347	2457.562500
1011.331945	2460.083077
1011.625508	2550.823846
1011.919036	2500.412308
1012.212528	2495.371154
1012.505986	2502.932885
1012.799408	2460.083077
1013.092795	2550.823846
1013.386147	2475.206538
1013.679464	2523.097500
1013.972745	2535.700385
1014.265992	2540.741538
1014.559204	2490.330000
1014.852380	2608.797115
1015.145521	2379.424615
1015.438628	2497.891731
1015.731699	2475.206538
1016.024736	2490.330000
1016.317737	2528.138654
1016.610703	2535.700385
1016.903635	2432.356731
1017.196531	2477.727115
1017.489393	2409.671538
1017.782219	2487.809423
1018.075011	2467.644808
1018.367768	2520.576923
1018.660490	2422.274423
1018.953177	2422.274423
1019.245829	2422.274423
