Dividing Wavelength (nm)	Counts (n)	Blue Motor Position (mm): 0.000000	Red Motor Position (mm): 32.000000	
326.493990	2128.455812
326.888308	2128.455812
327.282561	2128.455812
327.676750	2094.841398
328.070874	2094.700246
328.464933	2094.228898
328.858929	2101.931781
329.252859	2111.651126
329.646726	2125.068157
330.040528	2135.992337
330.434265	2155.552014
330.827938	2170.521721
331.221547	2189.814216
331.615091	2209.666280
332.008571	2227.758981
332.401986	2245.944944
332.795338	2265.426483
333.188625	2285.422220
333.581847	2304.235806
333.975006	2322.124340
334.368100	2340.166630
334.761129	2357.319156
335.154095	2374.650643
335.546996	2394.933725
335.939833	2413.054153
336.332606	2427.219795
336.725315	2440.974583
337.117960	2449.458845
337.510540	2455.699794
337.903056	2468.574901
338.295508	2477.361632
338.687896	2485.583754
339.080220	2493.710094
339.472480	2497.501041
339.864676	2505.561846
340.256807	2508.762979
340.648875	2510.671056
341.040879	2513.037877
341.432818	2516.458300
341.824694	2515.981911
342.216506	2519.548528
342.608253	2518.333610
342.999937	2518.930986
343.391557	2516.806140
343.783113	2515.215656
344.174605	2519.704803
344.566033	2515.566016
344.957397	2512.924452
345.348697	2512.279184
345.739934	2506.953205
346.131106	2509.418329
346.522215	2504.561177
346.913260	2505.145951
347.304241	2501.082781
347.695159	2501.607061
348.086012	2499.545229
348.476802	2497.881648
348.867528	2495.245125
349.258191	2494.925012
349.648789	2495.335866
350.039324	2490.846718
350.429796	2492.480052
350.820203	2489.727582
351.210548	2488.515185
351.600828	2487.849752
351.991045	2486.281953
352.381198	2488.295894
352.771288	2487.454022
353.161314	2487.285143
353.551276	2485.477889
353.941175	2486.982674
354.331010	2488.018631
354.720782	2486.581902
355.110490	2486.695328
355.500135	2486.370174
355.889717	2487.464104
356.279235	2487.406131
356.668689	2487.829588
357.058080	2485.863538
357.447408	2485.974443
357.836672	2482.634679
358.225873	2488.121975
358.615010	2485.689618
359.004084	2490.839157
359.393095	2487.025524
359.782043	2491.043323
360.170927	2490.629949
360.559748	2493.447954
360.948505	2493.599188
361.337199	2496.023983
361.725830	2493.485762
362.114398	2497.911895
362.502903	2495.151864
362.891344	2497.702687
363.279722	2495.724035
363.668037	2497.170846
364.056289	2496.404590
364.444478	2498.063130
364.832603	2498.083295
365.220665	2495.832419
365.608665	2500.177894
365.996601	2502.655621
366.384474	2502.264932
366.772284	2503.144613
367.160031	2503.621002
367.547715	2507.795078
367.935336	2507.724501
368.322893	2510.686179
368.710388	2514.605676
369.097820	2523.062212
369.485189	2522.800072
369.872495	2532.584952
370.259738	2542.916796
370.646918	2546.339740
371.034035	2553.616645
371.421090	2560.646534
371.808081	2572.455437
372.195010	2580.710327
372.581875	2596.534509
372.968678	2608.318206
373.355418	2620.280864
373.742096	2634.650673
374.128710	2649.779176
374.515262	2667.486228
374.901751	2680.764628
375.288177	2692.558407
375.674540	2717.970864
376.060841	2736.847464
376.447079	2755.603077
376.833254	2776.443207
377.219367	2787.632048
377.605417	2827.283244
377.991404	2834.227433
378.377329	2858.614015
378.763191	2877.286449
379.148991	2911.899011
379.534727	2937.732404
379.920402	2965.993112
380.306013	2978.497694
380.691563	3025.763553
381.077049	3050.568550
381.462474	3068.404153
381.847835	3105.166767
382.233134	3126.130405
382.618371	3128.779532
383.003545	3198.420552
383.388657	3206.110832
383.773706	3234.454719
384.158693	3252.817122
384.543618	3276.916358
384.928480	3316.166782
385.313280	3360.080273
385.698017	3356.067515
386.082692	3413.214035
386.467305	3419.578491
386.851856	3449.583439
387.236344	3472.220740
387.620770	3503.226357
388.005133	3527.716282
388.389435	3556.768452
388.773674	3566.031572
389.157851	3612.589149
389.541965	3625.391159
389.926018	3589.757763
390.310008	3662.489010
390.693936	3679.150023
391.077802	3721.110068
391.461606	3710.442986
391.845348	3771.188890
392.229027	3773.175104
392.612645	3784.734470
392.996200	3865.357644
393.379694	3900.774270
393.763125	3967.138540
394.146494	3936.384981
394.529801	3998.940659
394.913047	4043.401115
395.296230	4010.189994
395.679351	4068.019590
396.062410	4090.714865
396.445408	4072.269283
396.828343	4102.811113
397.211217	4128.233652
397.594028	4048.142320
397.976778	4117.566571
398.359466	4139.787977
398.742092	4169.717307
399.124656	4093.290894
399.507158	4170.687729
399.889598	4195.674208
400.271977	4261.486472
400.654294	4234.115527
401.036549	4236.661310
401.418742	4207.462947
401.800874	4311.852640
402.182944	4334.439530
402.564952	4395.127460
402.946898	4383.868043
403.328783	4377.208679
403.710606	4293.664157
404.092367	4488.542562
404.474067	4450.060914
404.855705	4460.864106
405.237282	4388.896594
405.618797	4494.624714
406.000250	4524.606976
406.381642	4606.293833
406.762972	4574.287547
407.144240	4583.419597
407.525447	4583.152416
407.906593	4644.115090
408.287677	4685.016492
408.668700	4614.689875
409.049661	4666.817926
409.430560	4706.272517
409.811399	4634.511692
410.192176	4794.664108
410.572891	4733.986260
410.953545	4839.303526
411.334138	4716.485894
411.714669	4789.398623
412.095139	4679.088095
412.475547	4824.474972
412.855894	4802.634172
413.236180	4809.785049
413.616405	4764.875930
413.996568	4853.567470
414.376670	4794.825425
414.756711	4748.401439
415.136691	4782.973672
415.516609	4858.354046
415.896466	4895.925766
416.276262	4931.334830
416.655997	4913.312705
417.035670	5095.754583
417.415283	5185.741700
417.794834	5127.455879
418.174324	5082.314867
418.553753	4991.344726
418.933121	5176.576882
419.312428	5244.362758
419.691674	5177.023025
420.070859	5304.443229
420.449983	5217.964756
420.829045	5334.077652
421.208047	5237.287498
421.586988	5312.897244
421.965867	5323.430735
422.344686	5457.636333
422.723444	5309.859949
423.102141	5133.502743
423.480777	5427.656591
423.859352	5193.618503
424.237866	5455.486281
424.616319	5446.719714
424.994712	5555.185180
425.373044	5434.452066
425.751314	5577.320887
426.129524	5380.302512
426.507673	5575.692594
426.885762	5655.534389
427.263789	5588.048462
427.641756	5468.381552
428.019662	5591.458803
428.397508	5599.267550
428.775292	5545.110434
429.153016	5645.071474
429.530679	5566.883178
429.908282	5657.381972
430.285824	5524.348442
430.663305	5800.044105
431.040726	5536.616090
431.418086	5537.785638
431.795385	5640.824302
432.172624	5653.318802
432.549802	5644.408562
432.926920	5662.453372
433.303977	5666.745915
433.680974	5708.161514
434.057910	5726.579370
434.434786	5734.670422
434.811601	5696.022416
435.188355	5937.400424
435.565050	5813.050282
435.941683	5785.278565
436.318257	6005.287122
436.694770	5986.937322
437.071222	6022.719432
437.447614	5957.161747
437.823946	5868.326534
438.200218	6022.908475
438.576429	5884.974944
438.952580	5985.309029
439.328670	6028.448703
439.704700	5937.120640
440.080670	5919.090953
440.456580	6194.705957
440.832429	6082.825109
441.208218	5924.542961
441.583947	6076.195992
441.959616	6080.259162
442.335224	6008.543707
442.710773	6150.127034
443.086261	6173.507905
443.461689	5970.036854
443.837057	6114.954903
444.212365	6273.486589
444.587612	6161.220093
444.962800	6315.383619
445.337927	6301.626310
445.712995	5904.156535
446.088002	6484.111038
446.462949	6316.028886
446.837837	6244.076497
447.212664	6419.906902
447.587431	6561.414612
447.962139	7098.428566
448.336786	8029.769136
448.711374	7768.559229
449.085901	6841.339802
449.460369	6760.623368
449.834776	6701.183123
450.209124	7095.187104
450.583412	7239.454845
450.957640	7388.655355
451.331808	7156.953842
451.705917	6704.096909
452.079965	6627.115970
452.453954	6839.643454
452.827883	6717.133333
453.201752	6810.419885
453.575562	6609.058557
453.949311	6810.739998
454.323001	6699.461568
454.696632	6779.605832
455.070202	6915.878303
455.443713	7069.315903
455.817164	7169.778537
456.190556	7248.667554
456.563888	7321.247566
456.937160	7367.611058
457.310373	7026.329984
457.683526	7046.156842
458.056619	6941.016017
458.429653	6931.127793
458.802628	6867.420212
459.175542	6975.802499
459.548398	7328.912641
459.921194	7491.066395
460.293930	7489.433061
460.666607	8018.383690
461.039224	8333.400353
461.411782	8456.442316
461.784280	8476.924524
462.156719	8364.663069
462.529099	8246.745439
462.901419	7830.898138
463.273680	7724.791932
463.645882	7737.551092
464.018024	7605.455217
464.390106	7774.056607
464.762130	8155.256058
465.134094	8625.759550
465.505999	9647.661928
465.877845	10867.492610
466.249631	11523.127435
466.621358	11134.472117
466.993026	10514.155616
467.364634	10252.857489
467.736184	9884.102126
468.107674	9553.062156
468.479105	9590.464997
468.850477	9346.558850
469.221790	9120.715158
469.593043	8792.644427
469.964238	8652.029002
470.335373	8668.851333
470.706449	8720.283705
471.077467	8705.697126
471.448425	10014.572229
471.819324	11086.286248
472.190164	11109.132758
472.560945	9855.090286
472.931667	9072.211696
473.302330	8937.522148
473.672934	8582.030061
474.043479	8933.927805
474.413965	8877.723981
474.784393	8749.640864
475.154761	8911.214886
475.525070	8993.564655
475.895321	8821.658788
476.265513	8997.166559
476.635645	9162.710490
477.005719	9164.479935
477.375734	9269.101521
477.745691	9506.096246
478.115588	9638.766812
478.485427	9870.175938
478.855207	10401.846270
479.224928	11201.907632
479.594591	11824.984165
479.964194	11633.654733
480.333739	11571.202398
480.703226	11479.352575
481.072653	11563.028168
481.442022	11789.476798
481.811333	11967.016154
482.180584	11771.971392
482.549777	11469.265227
482.918912	11294.279215
483.287988	11302.929835
483.657005	11305.841101
484.025964	10983.358490
484.394864	11103.927766
484.763706	11061.093082
485.132489	10812.002109
485.501213	10767.798751
485.869879	10828.708492
486.238487	10652.462192
486.607036	10758.782647
486.975527	10526.198932
487.343959	10695.982473
487.712333	10729.536393
488.080648	10639.075408
488.448905	10662.604994
488.817104	10588.570608
489.185244	10834.987250
489.553326	10948.587131
489.921350	11439.419075
490.289315	12388.643139
490.657222	12701.532434
491.025070	12579.947365
491.392861	12436.337495
491.760593	12062.861092
492.128267	11728.761141
492.495883	11389.183977
492.863440	11050.572194
493.230939	10711.032838
493.598380	10617.683272
493.965763	10450.818559
494.333088	10345.660090
494.700354	10236.211599
495.067563	10262.896947
495.434713	10073.788142
495.801805	10153.289659
496.168839	10055.660153
496.535815	9946.151168
496.902733	9923.753322
497.269593	9820.956633
497.636395	9875.839675
498.003139	9809.049427
498.369825	9662.482921
498.736453	9754.914997
499.103023	9650.767279
499.469535	9638.146750
499.835989	9575.144930
500.202385	9498.721038
500.568723	9318.698913
500.935003	9470.735072
501.301226	9237.012057
501.667390	9419.000231
502.033497	9440.258777
502.399546	9279.962687
502.765537	9152.615579
503.131470	9158.937186
503.497345	9243.079085
503.863163	8883.521308
504.228923	9065.905213
504.594625	9066.560563
504.960269	8817.131832
505.325856	8929.453781
505.691385	8705.147641
506.056856	8764.446733
506.422270	8719.658602
506.787625	8586.297398
507.152924	8603.646528
507.518164	8530.335549
507.883347	8411.384483
508.248472	8288.508878
508.613540	8388.888333
508.978550	8235.478460
509.343503	8162.961462
509.708398	8182.289246
510.073236	8182.379987
510.438016	8117.865820
510.802738	8012.883792
511.167403	7981.694173
511.532010	7836.874426
511.896561	7927.952952
512.261053	7901.839775
512.625488	7744.787668
512.989866	7655.665109
513.354186	7587.649862
513.718449	7453.908050
514.082655	7503.787747
514.446803	7366.045780
514.810894	7367.359000
515.174927	7211.680608
515.538904	7169.339957
515.902822	7168.848444
516.266684	7043.192643
516.630488	6938.026613
516.994235	6908.366984
517.357925	6855.830599
517.721558	6831.118863
518.085133	6763.625375
518.448651	6705.331992
518.812112	6581.833805
519.175516	6510.204050
519.538863	6498.110322
519.902152	6396.813377
520.265385	6384.759978
520.628560	6289.938395
520.991678	6193.380134
521.354739	6166.727553
521.717743	6068.752728
522.080690	6000.180433
522.443580	5966.896215
522.806413	5883.215582
523.169189	5832.340257
523.531908	5783.201610
523.894569	5652.393750
524.257174	5583.826496
524.619722	5556.299275
524.982213	5493.501622
525.344647	5433.111119
525.707025	5362.784503
526.069345	5334.362477
526.431608	5234.603084
526.793815	5217.684972
527.155964	5094.884984
527.518057	5054.659097
527.880093	4973.990553
528.242072	4944.756902
528.603995	4856.524107
528.965860	4778.779432
529.327669	4740.335593
529.689421	4678.704967
530.051117	4620.255309
530.412755	4584.107715
530.774337	4519.291079
531.135862	4454.101398
531.497331	4420.708795
531.858743	4329.562213
532.220098	4319.275739
532.581396	4247.782095
532.942638	4202.275599
533.303824	4154.107374
533.664953	4109.841002
534.026025	4049.906724
534.387040	4020.811705
534.747999	3984.371724
535.108902	3951.889049
535.469748	3876.435579
535.830537	3854.294832
536.191270	3812.445693
536.551947	3779.274901
536.912567	3744.243923
537.273131	3698.984443
537.633638	3656.467352
537.994089	3626.101962
538.354483	3585.180395
538.714821	3580.189653
539.075103	3541.715567
539.435328	3505.159640
539.795497	3466.751088
540.155609	3446.712502
540.515665	3430.474945
540.875665	3374.757593
541.235609	3354.242617
541.595496	3328.159687
541.955328	3312.451452
542.315102	3281.208901
542.674821	3251.937441
543.034483	3229.118658
543.394090	3205.964638
543.753640	3178.810463
544.113134	3167.704801
544.472571	3142.551964
544.831953	3129.283647
545.191278	3100.299533
545.550548	3081.168354
545.909761	3071.144020
546.268918	3051.486040
546.628019	3037.784184
546.987064	3012.505318
547.346053	2993.858090
547.704986	2981.144300
548.063863	2967.407156
548.422684	2953.501133
548.781449	2931.302412
549.140158	2924.867379
549.498811	2906.502456
549.857408	2890.998387
550.215949	2879.842314
550.574434	2863.733307
550.932864	2859.380270
551.291237	2848.262005
551.649555	2837.620130
552.007817	2830.297854
552.366022	2819.603046
552.724173	2811.519556
553.082267	2803.763740
553.440305	2797.444654
553.798288	2783.760442
554.156215	2779.934206
554.514086	2773.935233
554.871902	2761.357554
555.229661	2756.641555
555.587365	2749.604104
555.945014	2740.411560
556.302606	2737.117166
556.660143	2730.147771
557.017625	2729.031155
557.375050	2721.093858
557.732421	2719.596636
558.089735	2713.232179
558.446994	2707.664225
558.804197	2704.563915
559.161345	2701.531661
559.518437	2695.383974
559.875474	2692.434899
560.232455	2692.167718
560.589381	2686.882068
560.946251	2685.152952
561.303065	2684.865606
561.659825	2676.860254
562.016528	2675.909997
562.373177	2672.076199
562.729770	2667.486228
563.086307	2666.939263
563.442789	2667.387926
563.799216	2662.117400
564.155587	2660.559683
564.511904	2659.448109
564.868164	2658.737306
565.224370	2655.485762
565.580520	2652.277067
565.936615	2653.224804
566.292654	2646.394041
566.648638	2650.305976
567.004567	2645.698362
567.360441	2646.399082
567.716260	2642.058648
568.072023	2644.329688
568.427732	2640.876498
568.783385	2637.100674
569.138982	2634.811990
569.494525	2636.896507
569.850013	2631.207565
570.205445	2636.004223
570.560823	2635.628657
570.916145	2635.421969
571.271412	2631.552884
571.626625	2630.892493
571.981782	2629.705301
572.336884	2632.016670
572.691931	2630.400980
573.046923	2628.883593
573.401860	2625.621966
573.756743	2625.843777
574.111570	2623.343365
574.466342	2623.829836
574.821059	2622.584671
575.175722	2624.182717
575.530330	2623.285392
575.884882	2622.103241
576.239380	2618.720627
576.593823	2623.676081
576.948211	2619.746502
577.302544	2618.120729
577.656823	2618.728188
578.011047	2621.362191
578.365216	2616.210132
578.719330	2616.041253
579.073389	2614.796088
579.427394	2617.036881
579.781344	2614.075203
580.135239	2614.876747
580.489080	2613.734926
580.842866	2612.845162
581.196597	2613.765172
581.550273	2613.561006
581.903895	2612.396499
582.257463	2613.860954
582.610975	2610.357353
582.964434	2612.721654
583.317837	2611.650408
583.671186	2612.257867
584.024481	2609.621344
584.377721	2608.885336
584.730906	2604.837289
585.084037	2605.974069
585.437113	2606.334512
585.790135	2607.650253
586.143103	2605.989193
586.496016	2607.219234
586.848874	2603.360231
587.201679	2602.848554
587.554428	2601.815117
587.907124	2604.597834
588.259765	2604.174377
588.612352	2603.226640
588.964884	2603.153544
589.317362	2603.163626
589.669786	2604.204624
590.022155	2605.792588
590.374470	2603.486260
590.726731	2605.558174
591.078937	2603.516507
591.431090	2603.438369
591.783188	2601.890735
592.135232	2601.742021
592.487222	2601.023656
592.839157	2605.346446
593.191038	2601.235385
593.542866	2604.184460
593.894639	2599.002153
594.246358	2598.566094
594.598022	2601.341249
594.949633	2598.800507
595.301190	2600.075919
595.652692	2598.601382
596.004141	2597.464602
596.355535	2600.121290
596.706876	2595.193562
597.058162	2596.423603
597.409395	2595.463263
597.760573	2598.253542
598.111698	2598.472832
598.462768	2596.796649
598.813785	2597.265476
599.164748	2596.842019
599.515657	2595.677513
599.866511	2593.935794
600.217312	2597.262955
600.568060	2594.628952
600.918753	2599.140785
601.269392	2594.172728
601.619978	2592.355392
601.970510	2595.294385
602.320988	2595.649786
602.671412	2598.104828
603.021783	2595.642224
603.372100	2595.783377
603.722363	2594.142481
604.072572	2594.691967
604.422728	2596.879828
604.772830	2591.206009
605.122878	2588.284660
605.472872	2593.628283
605.822813	2588.347675
606.172701	2590.333889
606.522534	2594.172728
606.872314	2597.310846
607.222041	2595.911926
607.571714	2595.490990
607.921333	2596.857142
608.270899	2593.048551
608.620411	2594.250866
608.969870	2595.332193
609.319276	2594.873448
609.668627	2599.002153
610.017926	2599.627257
610.367171	2601.736979
610.716362	2603.156064
611.065500	2597.381422
611.414585	2596.350507
611.763616	2597.759509
612.112594	2597.426793
612.461518	2596.917636
612.810389	2596.209354
613.159207	2596.108531
613.507971	2596.743717
613.856682	2595.460743
614.205340	2595.004518
614.553945	2598.266145
614.902496	2594.966710
615.250994	2595.954776
615.599439	2595.649786
615.947830	2596.597523
616.296169	2596.849581
616.644454	2597.421752
616.992686	2592.816658
617.340864	2595.364961
617.688990	2589.968406
618.037063	2596.408480
618.385082	2593.305650
618.733048	2594.936463
619.080961	2596.408480
619.428821	2593.857656
619.776628	2596.214395
620.124382	2596.383274
620.472083	2595.163315
620.819731	2597.673809
621.167326	2593.519899
621.514868	2594.044179
621.862357	2590.573344
622.209793	2591.909250
622.557176	2594.465115
622.904506	2593.035948
623.251783	2587.372212
623.599007	2589.159301
623.946179	2589.582757
624.293297	2587.999835
624.640363	2590.059147
624.987376	2591.649631
625.334336	2589.184506
625.681243	2589.809609
626.028097	2586.719382
626.374899	2590.157449
626.721647	2588.844228
627.068343	2589.174424
627.414987	2587.707448
627.761577	2585.592684
628.108115	2585.945565
628.454600	2585.564958
628.801032	2585.259968
629.147412	2587.341965
629.493739	2588.816502
629.840014	2586.653847
630.186236	2588.866914
630.532405	2584.753332
630.878521	2587.704928
631.224585	2585.948086
631.570597	2585.154104
631.916556	2584.571851
632.262462	2585.660740
632.608316	2583.848445
632.954117	2583.172930
633.299866	2584.410534
633.645562	2585.441450
633.991206	2585.829618
634.336797	2580.906932
634.682336	2583.238465
635.027823	2582.789803
635.373257	2581.852148
635.718639	2577.589852
636.063968	2583.677046
636.409245	2578.615727
636.754470	2578.867785
637.099642	2580.657395
637.444762	2581.869792
637.789829	2577.010120
638.134845	2580.652353
638.479808	2579.661767
638.824719	2579.255954
639.169577	2575.865778
639.514383	2579.203022
639.859137	2577.264698
640.203839	2578.288052
640.548489	2579.122363
640.893086	2575.510377
641.237632	2575.097002
641.582125	2574.300500
641.926566	2572.500808
642.270955	2578.207394
642.615292	2576.372414
642.959576	2577.549523
643.303809	2575.286045
643.647990	2575.434759
643.992118	2579.059349
644.336195	2578.169585
644.680219	2575.465006
645.024192	2576.324523
645.368112	2579.248392
645.711981	2578.116653
646.055797	2578.892991
646.399562	2577.463824
646.743274	2576.939544
647.086935	2579.331571
647.430544	2578.988773
647.774101	2580.276788
648.117606	2577.002558
648.461059	2579.729822
648.804460	2580.803588
649.147810	2578.572877
649.491108	2578.162023
649.834354	2576.931982
650.177548	2575.691858
650.520690	2576.662280
650.863781	2574.847465
651.206820	2580.748135
651.549807	2577.206725
651.892742	2574.885273
652.235626	2576.720253
652.578458	2574.706312
652.921238	2571.784964
653.263967	2575.394430
653.606644	2574.746642
653.949269	2575.066755
654.291843	2572.367217
654.634365	2571.119532
654.976836	2573.264543
655.319255	2574.038360
655.661622	2574.204718
656.003938	2574.461817
656.346203	2570.501990
656.688416	2571.721949
657.030577	2572.379820
657.372687	2570.786815
657.714746	2572.054666
658.056753	2574.141703
658.398708	2568.152812
658.740612	2570.701116
659.082465	2568.462843
659.424266	2570.315468
659.766016	2569.460992
660.107715	2571.139696
660.449362	2572.425190
660.790958	2574.905438
661.132503	2573.246898
661.473996	2571.709347
661.815438	2569.634912
662.156829	2572.266394
662.498168	2571.530386
662.839456	2571.590879
663.180693	2572.959553
663.521879	2570.708678
663.863013	2571.434604
664.204097	2570.275138
664.545129	2575.298648
664.886110	2571.923596
665.227040	2574.371076
665.567918	2573.879563
665.908746	2572.473081
666.249522	2570.577607
666.590248	2572.674727
666.930922	2572.374779
667.271545	2572.989800
667.612118	2574.744121
667.952639	2575.512897
668.293109	2574.350911
668.633528	2573.357804
668.973896	2571.744635
669.314213	2574.610531
669.654480	2572.629357
669.994695	2576.203535
670.334859	2572.107598
670.674973	2573.078020
671.015035	2573.594738
671.355047	2570.736404
671.695008	2571.696744
672.034918	2571.716908
672.374777	2570.252453
672.714585	2572.745304
673.054342	2573.682958
673.394049	2570.570046
673.733705	2572.432752
674.073310	2572.833524
674.412864	2573.899728
674.752368	2570.885118
675.091820	2571.787484
675.431223	2573.259501
675.770574	2571.316137
676.109875	2565.115517
676.449125	2569.095508
676.788324	2568.445199
677.127473	2569.690364
677.466571	2566.433779
677.805619	2568.299006
678.144616	2568.936712
678.483562	2571.686661
678.822458	2568.533420
679.161303	2572.324367
679.500098	2570.774212
679.838842	2569.753379
680.177535	2570.927968
680.516179	2573.695561
680.854771	2565.881773
681.193314	2568.941753
681.531805	2569.639953
681.870247	2574.297979
682.208638	2575.747311
682.546978	2573.869481
682.885268	2570.983420
683.223508	2572.911662
683.561697	2572.039542
683.899836	2572.662125
684.237925	2571.747155
684.575963	2571.122052
684.913951	2570.408729
685.251889	2571.790005
685.589776	2571.227916
685.927614	2570.726322
686.265401	2572.236147
686.603137	2572.767989
686.940824	2571.916034
687.278460	2572.193297
687.616046	2573.040211
687.953582	2573.814028
688.291068	2571.835375
688.628504	2574.991138
688.965889	2571.646332
689.303224	2574.212279
689.640510	2571.099367
689.977745	2570.469223
690.314930	2572.281517
690.652065	2570.562484
690.989150	2568.992165
691.326185	2568.886300
691.663170	2566.738769
692.000105	2568.281362
692.336990	2565.962431
692.673825	2568.430076
693.010610	2566.537123
693.347345	2561.198541
693.684030	2560.495300
694.020665	2562.768860
694.357251	2557.740309
694.693786	2561.251473
695.030272	2561.480845
695.366707	2562.219374
695.703093	2561.470763
696.039429	2563.083932
696.375716	2563.814900
696.711952	2561.569066
697.048139	2561.022100
697.384276	2562.874724
697.720363	2559.217367
698.056400	2561.493448
698.392388	2561.495969
698.728326	2561.009498
699.064214	2559.174517
699.400053	2563.441854
699.735842	2559.217367
700.071581	2562.668037
700.407270	2561.410269
700.742910	2560.034034
701.078501	2560.754919
701.414042	2559.834909
701.749533	2558.234342
702.084974	2559.217367
702.420366	2559.698797
702.755709	2558.902295
703.091002	2559.003118
703.426246	2558.935063
703.761440	2557.137891
704.096584	2557.490772
704.431679	2558.219219
704.766725	2558.957748
705.101721	2557.581513
705.436668	2556.558159
705.771565	2553.407437
706.106413	2558.357851
706.441212	2555.824671
706.775961	2558.849363
707.110661	2556.502706
707.445311	2557.402552
707.779913	2556.464897
708.114465	2560.245763
708.448967	2561.654765
708.783421	2561.821123
709.117825	2558.647717
709.452180	2559.943293
709.786485	2562.307595
710.120742	2561.982440
710.454949	2562.310115
710.789107	2559.789538
711.123216	2559.998746
711.457275	2564.939077
711.791286	2558.788869
712.125247	2562.967986
712.459159	2563.441854
712.793023	2565.319684
713.126837	2563.673747
713.460602	2563.018397
713.794318	2561.246432
714.127985	2562.426062
714.461602	2560.543191
714.795171	2561.082594
715.128691	2561.601833
715.462162	2559.920608
715.795584	2558.604867
716.128957	2559.487069
716.462281	2557.266441
716.795556	2556.401883
717.128782	2558.867007
717.461960	2557.838612
717.795088	2557.798283
718.128167	2555.353323
718.461198	2555.554969
718.794180	2555.323076
719.127113	2556.860628
719.459997	2555.703683
719.792833	2555.416337
720.125619	2557.208468
720.458357	2556.787531
720.791046	2555.582695
721.123686	2553.162942
721.456278	2554.753426
721.788821	2554.786193
722.121315	2554.597150
722.453761	2554.052705
722.786158	2553.876265
723.118506	2554.163611
723.450805	2556.285936
723.783056	2555.428940
724.115259	2555.028168
724.447412	2556.424568
724.779518	2553.014228
725.111574	2555.794424
725.443582	2555.774259
725.775542	2553.702345
726.107453	2557.221070
726.439315	2555.330638
726.771129	2559.623180
727.102895	2555.035730
727.434612	2557.251317
727.766281	2555.708724
728.097901	2555.648230
728.429473	2551.930379
728.760996	2557.364743
729.092471	2553.722510
729.423897	2556.401883
729.755276	2557.745350
730.086606	2555.312994
730.417887	2556.263251
730.749120	2559.071174
731.080305	2559.338355
731.411442	2561.276679
731.742530	2560.328942
732.073570	2558.370453
732.404562	2558.839281
732.735506	2556.676626
733.066401	2558.196534
733.397249	2556.510268
733.728048	2555.466749
734.058798	2557.042109
734.389501	2554.899619
734.720156	2556.752243
735.050762	2554.148487
735.381320	2554.834084
735.711831	2554.108158
736.042293	2555.136553
736.372707	2553.082283
736.703073	2550.944834
737.033391	2552.318548
737.363661	2555.978426
737.693883	2557.218550
738.024056	2555.587737
738.354182	2555.282747
738.684260	2553.583878
739.014290	2554.536656
739.344272	2552.986501
739.674207	2554.642520
740.004093	2556.180072
740.333931	2554.082952
740.663722	2554.892057
740.993464	2553.263765
741.323159	2558.158725
741.652806	2554.047664
741.982405	2553.651933
742.311956	2555.169321
742.641460	2552.008517
742.970915	2554.259392
743.300323	2552.915925
743.629683	2552.258054
743.958996	2551.764021
744.288260	2551.746377
744.617477	2549.354350
744.946647	2547.705892
745.275768	2548.169679
745.604842	2549.382076
745.933869	2545.399565
746.262847	2545.558361
746.591778	2549.384597
746.920662	2550.087838
747.249498	2551.015410
747.578286	2550.841490
747.907027	2551.038095
748.235720	2549.908877
748.564365	2552.948693
748.892963	2549.853424
749.221514	2550.813764
749.550017	2552.991542
749.878473	2552.031202
750.206881	2552.328631
750.535242	2551.539690
750.863555	2552.454659
751.191821	2551.222097
751.520039	2549.987015
751.848210	2547.158927
752.176334	2551.025492
752.504411	2549.853424
752.832440	2552.051367
753.160421	2552.948692
753.488356	2549.608928
753.816243	2550.125646
754.144082	2547.778989
754.471875	2549.243444
754.799620	2549.684545
755.127318	2548.835111
755.454969	2550.453321
755.782572	2551.252344
756.110129	2549.291335
756.437638	2550.488609
756.765100	2548.048691
757.092515	2551.085986
757.419882	2549.354350
757.747203	2548.756973
758.074477	2548.777138
758.401703	2550.402910
758.728882	2549.296377
759.056014	2549.419885
759.383099	2550.511295
759.710138	2553.155380
760.037129	2550.070194
760.364073	2552.384083
760.690970	2553.856100
761.017820	2553.440205
761.344623	2552.449618
761.671379	2551.199412
761.998088	2548.567930
762.324751	2550.438198
762.651366	2554.478683
762.977935	2566.567370
763.304456	2568.969479
763.630931	2574.149265
763.957359	2570.436455
764.283740	2564.480332
764.610074	2561.803479
764.936362	2558.181410
765.262602	2554.216543
765.588796	2554.826522
765.914943	2552.366439
766.241044	2550.181099
766.567097	2549.823177
766.893104	2550.685214
767.219064	2548.605738
767.544978	2546.712785
767.870845	2549.245965
768.196665	2546.425439
768.522438	2548.908208
768.848165	2547.794113
769.173846	2543.471323
769.499479	2547.486602
769.825066	2545.679349
770.150607	2544.787064
770.476101	2543.494008
770.801548	2546.533824
771.126949	2545.548279
771.452303	2544.751776
771.777611	2543.620037
772.102872	2544.265305
772.428087	2542.843700
772.753256	2545.646581
773.078378	2542.261446
773.403453	2545.094575
773.728482	2542.957126
774.053465	2545.734801
774.378401	2544.731612
774.703291	2542.284132
775.028135	2543.229348
775.352932	2542.967208
775.677683	2541.394368
776.002388	2545.354194
776.327046	2541.643905
776.651658	2543.070552
776.976224	2545.220604
777.300743	2543.862013
777.625216	2542.460572
777.949643	2541.717002
778.274024	2543.428473
778.598359	2540.386137
778.922647	2540.212217
779.246889	2539.418236
779.571086	2536.267514
779.895236	2539.410674
780.219339	2543.909904
780.543397	2542.977290
780.867409	2543.083154
781.191374	2542.445448
781.515294	2541.916127
781.839167	2541.454862
782.162995	2544.900490
782.486776	2542.561395
782.810511	2541.878319
783.134201	2541.570808
783.457844	2539.413194
783.781441	2540.819676
784.104993	2541.490150
784.428498	2540.716333
784.751958	2542.405119
785.075372	2538.770447
785.398739	2539.738349
785.722061	2540.219779
786.045337	2541.671631
786.368568	2542.533669
786.691752	2540.736497
787.014891	2542.269008
787.337983	2543.544420
787.661030	2545.328988
787.984031	2543.511653
788.306987	2547.242106
788.629897	2547.408464
788.952760	2543.342774
789.275579	2547.995759
789.598351	2545.273536
789.921078	2543.519214
790.243759	2542.090047
790.566395	2540.774306
790.888984	2541.699358
791.211529	2540.242464
791.534027	2543.148689
791.856480	2540.774306
792.178888	2540.900335
792.501249	2540.544933
792.823566	2543.360418
793.145836	2540.250026
793.468062	2539.413194
793.790241	2543.355377
794.112375	2540.960829
794.434464	2539.781199
794.756507	2540.040818
795.078505	2541.359080
795.400457	2540.098791
795.722364	2540.315561
796.044226	2542.014430
796.366042	2539.231713
796.687812	2538.692309
797.009538	2543.766231
797.331218	2541.863195
797.652852	2542.140459
797.974442	2544.003165
798.295986	2545.195398
798.617484	2544.013247
798.938938	2543.536858
799.260346	2540.451672
799.581709	2543.022661
799.903026	2545.424770
800.224299	2542.329502
800.545526	2541.817825
800.866708	2539.703061
801.187845	2541.225489
801.508936	2541.956457
801.829983	2538.475540
802.150984	2540.207176
802.471940	2541.185160
802.792851	2540.789429
803.113717	2540.635674
803.434538	2540.630633
803.755314	2541.260777
804.076045	2537.865560
804.396731	2539.834131
804.717372	2539.476209
805.037967	2539.869419
805.358518	2539.516538
805.679024	2541.918648
805.999485	2541.873278
806.319901	2538.488143
806.640272	2539.357742
806.960598	2540.239944
807.280879	2538.314223
807.601115	2541.341436
807.921306	2539.027546
808.241453	2538.135262
808.561554	2541.727084
808.881611	2538.757844
809.201623	2539.783719
809.521590	2539.950077
809.841513	2538.105015
810.161390	2541.038967
810.481223	2541.033925
810.801011	2540.164326
811.120755	2538.052083
811.440453	2540.736497
811.760107	2540.151723
812.079716	2539.982845
812.399281	2538.110056
812.718801	2536.832124
813.038276	2533.116793
813.357707	2539.975283
813.677093	2538.402443
813.996434	2538.089892
814.315731	2542.211035
814.634983	2538.399922
814.954191	2539.352701
815.273354	2540.607948
815.592473	2538.778009
815.911547	2541.505273
816.230577	2541.003678
816.549562	2539.776158
816.868502	2542.407640
817.187399	2540.524769
817.506250	2541.104502
817.825058	2542.241282
818.143821	2543.824204
818.462539	2542.878988
818.781213	2543.103319
819.099843	2544.093906
819.418429	2546.024668
819.736970	2547.917621
820.055466	2549.387117
820.373919	2555.905329
820.692327	2558.065464
821.010691	2564.896227
821.329011	2580.654874
821.647286	2611.521859
821.965517	2646.356232
822.283704	2666.407422
822.601847	2674.785819
822.919945	2660.307625
823.237999	2637.841723
823.556010	2619.242386
823.873976	2603.055241
824.191897	2591.284147
824.509775	2580.715368
824.827609	2572.742783
825.145398	2568.677092
825.463144	2570.076013
825.780845	2568.437638
826.098502	2574.348391
826.416116	2583.596387
826.733685	2591.652151
827.051210	2598.366968
827.368692	2590.336410
827.686129	2580.848958
828.003522	2571.606003
828.320872	2557.299208
828.638177	2558.007490
828.955439	2552.623538
829.272656	2550.559186
829.589830	2544.766900
829.906960	2547.131201
830.224046	2545.356715
830.541088	2545.157589
830.858086	2543.025181
831.175041	2544.459389
831.491952	2543.320089
831.808819	2540.897814
832.125642	2545.170192
832.442421	2546.576674
832.759157	2550.470965
833.075849	2558.168807
833.392497	2561.495969
833.709101	2568.140210
834.025662	2567.678944
834.342179	2565.428069
834.658653	2557.392470
834.975083	2555.126471
835.291469	2554.113199
835.607811	2545.389482
835.924110	2544.212373
836.240366	2544.608103
836.556578	2544.449307
836.872746	2543.012578
837.188871	2541.185160
837.504952	2539.151054
837.820990	2537.910931
838.136984	2537.101825
838.452935	2537.880684
838.768842	2538.215920
839.084706	2538.664583
839.400526	2544.008206
839.716303	2545.878474
840.032037	2550.171017
840.347727	2548.663712
840.663373	2546.790923
840.978977	2543.506611
841.294537	2541.759852
841.610054	2542.117773
841.925527	2538.427649
842.240957	2538.425128
842.556344	2539.703061
842.871687	2536.048224
843.186987	2538.495704
843.502244	2537.628626
843.817458	2536.370858
844.132629	2536.673327
844.447756	2534.868594
844.762840	2532.126207
845.077881	2534.203162
845.392879	2529.827440
845.707833	2534.150230
846.022745	2527.074970
846.337613	2534.205682
846.652438	2534.929088
846.967221	2536.857329
847.281960	2534.074613
847.596656	2537.343801
847.911309	2535.559232
848.225919	2536.312885
848.540485	2533.598223
848.855009	2536.222144
849.169490	2532.859694
849.483928	2536.189377
849.798323	2535.644932
850.112675	2536.446475
850.426984	2534.382123
850.741251	2533.361289
851.055474	2535.178625
851.369654	2537.154758
851.683792	2533.699047
851.997887	2535.251722
852.311938	2533.048738
852.625947	2535.087884
852.939914	2533.023532
853.253837	2537.300951
853.567718	2535.541588
853.881555	2532.446320
854.195350	2533.250384
854.509103	2533.346166
854.822812	2530.404652
855.136479	2532.635363
855.450103	2533.225178
855.763685	2532.784077
856.077224	2532.257277
856.390720	2534.218285
856.704173	2534.855991
857.017584	2532.330373
857.330953	2534.291382
857.644278	2535.347504
857.957561	2537.290869
858.270802	2533.028573
858.584000	2532.837009
858.897155	2532.889941
859.210268	2533.565456
859.523339	2532.491690
859.836367	2536.451517
860.149352	2533.822555
860.462295	2534.062010
860.775195	2533.671320
861.088054	2529.315763
861.400869	2531.896834
861.713642	2530.618902
862.026373	2534.414890
862.339062	2534.828265
862.651708	2534.813142
862.964312	2533.230219
863.276873	2532.847092
863.589392	2533.961187
863.901869	2534.477905
864.214303	2536.080992
864.526696	2536.207021
864.839045	2531.138140
865.151353	2535.465971
865.463619	2534.500590
865.775842	2534.808100
866.088023	2533.777184
866.400162	2535.960004
866.712258	2533.757020
867.024313	2534.248532
867.336325	2534.714839
867.648296	2534.770292
867.960224	2533.426824
868.272110	2534.351876
868.583954	2536.716177
868.895755	2534.114942
869.207515	2534.175436
869.519233	2534.656866
869.830909	2535.372710
870.142542	2537.691640
870.454134	2535.266845
870.765684	2536.544778
871.077191	2535.647453
871.388657	2537.300951
871.700081	2533.363810
872.011463	2537.177443
872.322803	2533.731814
872.634101	2536.880015
872.945357	2537.318595
873.256571	2538.561239
873.567744	2535.460930
873.878874	2536.963194
874.189963	2539.264480
874.501010	2536.310364
874.812015	2538.150385
875.122979	2540.736497
875.433900	2536.653163
875.744780	2539.100643
876.055618	2536.814480
876.366415	2537.099305
876.677169	2536.242309
876.987882	2534.830786
877.298554	2533.033614
877.609183	2535.637370
877.919771	2534.644263
878.230317	2536.978317
878.540822	2541.185160
878.851285	2540.083668
879.161707	2542.727753
879.472087	2544.842517
879.782425	2548.000800
880.092722	2552.860472
880.402977	2568.001578
880.713191	2581.380800
881.023363	2599.478542
881.333494	2615.227107
881.643583	2616.825153
881.953631	2616.323558
882.263637	2607.940119
882.573602	2603.239243
882.883526	2594.228181
883.193408	2584.486151
883.503248	2577.567167
883.813048	2569.650035
884.122806	2565.738100
884.432522	2558.718293
884.742197	2558.597305
885.051831	2554.642520
885.361424	2549.631613
885.670975	2549.583722
885.980485	2546.339740
886.289954	2545.084493
886.599382	2542.705068
886.908768	2545.762528
887.218113	2541.200283
887.527417	2542.518545
887.836680	2540.028215
888.145901	2538.765406
888.455082	2538.704912
888.764221	2536.428831
889.073319	2537.537885
889.382376	2537.041332
889.691392	2538.523431
890.000366	2538.909079
890.309300	2539.776158
890.618193	2536.413708
890.927044	2539.919830
891.235855	2537.605941
891.544625	2535.864222
891.853353	2533.653676
892.162041	2537.996630
892.470687	2540.983514
892.779293	2540.852444
893.087858	2536.844727
893.396381	2540.340767
893.704864	2546.480892
894.013306	2545.235727
894.321707	2559.787018
894.630068	2561.826164
894.938387	2564.959242
895.246665	2563.409087
895.554903	2560.502862
895.863100	2554.975236
896.171256	2554.080432
896.479371	2552.333672
896.787446	2550.556665
897.095480	2547.267312
897.403473	2545.633978
897.711425	2540.607948
898.019336	2544.207332
898.327207	2541.901004
898.635038	2540.832279
898.942827	2540.093750
899.250576	2540.925541
899.558284	2537.852957
899.865952	2540.280273
900.173579	2538.752803
900.481165	2536.862371
900.788711	2535.586959
901.096216	2534.780374
901.403681	2537.389171
901.711105	2535.813811
902.018489	2536.433872
902.325832	2537.704243
902.633135	2538.132741
902.940397	2537.749614
903.247619	2542.432846
903.554800	2545.719678
903.861941	2556.694270
904.169041	2567.126938
904.476101	2575.674214
904.783121	2572.798236
905.090100	2569.221537
905.397039	2565.213820
905.703938	2553.586398
906.010796	2550.775955
906.317614	2546.624565
906.624391	2542.929399
906.931129	2539.939995
907.237826	2542.553833
907.544483	2536.179294
907.851099	2539.113246
908.157675	2535.229037
908.464211	2536.491846
908.770707	2531.032276
909.077163	2532.174098
909.383578	2530.376926
909.689954	2532.710980
909.996289	2529.046062
910.302584	2533.648635
910.608839	2533.830117
910.915054	2534.351876
911.221229	2533.396577
911.527363	2534.649304
911.833458	2534.785415
912.139513	2533.220137
912.445527	2535.382792
912.751502	2534.984541
913.057436	2536.590148
913.363331	2535.423121
913.669186	2537.547968
913.975000	2537.442103
914.280775	2537.096784
914.586510	2543.221786
914.892205	2543.952753
915.197859	2551.625390
915.503475	2558.612429
915.809050	2562.731052
916.114585	2569.531568
916.420081	2571.679100
916.725536	2567.457133
917.030952	2567.353790
917.336328	2560.971689
917.641665	2558.882131
917.946961	2553.329300
918.252218	2549.823177
918.557435	2548.867878
918.862612	2546.634647
919.167750	2544.736653
919.472848	2541.711961
919.777906	2540.764224
920.082925	2540.938143
920.387904	2538.324305
920.692843	2536.643080
920.997743	2536.340611
921.302603	2535.355066
921.607423	2536.892617
921.912204	2536.264994
922.216946	2534.576207
922.521647	2534.737524
922.826310	2533.951104
923.130932	2534.172915
923.435516	2533.187369
923.740059	2531.949766
924.044564	2532.710980
924.349028	2531.168387
924.653454	2527.463139
924.957840	2532.189221
925.262186	2528.993129
925.566493	2527.805938
925.870761	2526.953983
926.174989	2531.276772
926.479178	2530.525640
926.783328	2529.945907
927.087438	2530.114786
927.391509	2529.971113
927.695541	2531.601927
927.999533	2528.889786
928.303486	2529.764426
928.607400	2529.106555
928.911275	2530.757533
929.215110	2530.772657
929.518906	2528.723428
929.822663	2531.334745
930.126381	2527.944569
930.430060	2530.926412
930.733699	2528.466329
931.037299	2531.004550
931.340861	2530.240815
931.644383	2529.179652
931.947866	2527.889117
932.251309	2532.292565
932.554714	2533.363810
932.858080	2530.961700
933.161407	2531.443130
933.464694	2528.695701
933.767943	2527.788294
934.071153	2531.707791
934.374323	2530.888603
934.677455	2530.175280
934.980548	2530.336597
935.283602	2529.998840
935.586617	2531.307019
935.889593	2532.932791
936.192530	2528.032790
936.495428	2531.241484
936.798287	2529.575383
937.101108	2531.949766
937.403890	2530.896165
937.706632	2534.490508
938.009336	2530.996988
938.312002	2532.390867
938.614628	2531.763243
938.917216	2533.633512
939.219765	2533.920857
939.522275	2533.545291
939.824747	2534.538399
940.127179	2530.361803
940.429573	2528.665454
940.731929	2531.700229
941.034246	2528.582275
941.336524	2532.335414
941.638763	2532.348017
941.940964	2530.702081
942.243126	2531.498583
942.545250	2532.030425
942.847335	2531.475898
943.149381	2529.958510
943.451389	2529.419107
943.753359	2530.482790
944.055290	2530.802904
944.357182	2527.926925
944.659036	2532.050589
944.960851	2531.090249
945.262628	2529.585465
945.564367	2528.037831
945.866067	2530.787780
946.167729	2528.700743
946.469352	2532.466484
946.770937	2528.914992
947.072484	2531.450692
947.373992	2530.124868
947.675462	2528.431041
947.976893	2533.104190
948.278286	2528.650331
948.579641	2531.564118
948.880958	2527.700073
949.182236	2531.793490
949.483476	2530.460105
949.784678	2530.167718
950.085841	2528.758716
950.386967	2532.650487
950.688054	2531.105373
950.989103	2529.938346
951.290114	2527.599250
951.591087	2531.334745
951.892021	2528.415917
952.192917	2531.395239
952.493776	2529.414066
952.794596	2531.806093
953.095378	2531.927081
953.396122	2533.000847
953.696828	2531.508665
953.997496	2531.241484
954.298126	2530.568490
954.598718	2527.785773
954.899272	2533.222658
955.199788	2530.616381
955.500266	2529.691329
955.800706	2528.811648
956.101108	2526.908612
956.401472	2527.183355
956.701798	2524.922398
957.002087	2527.102697
957.302337	2530.341638
957.602550	2528.199148
957.902724	2528.582275
958.202861	2526.865762
958.502960	2527.251411
958.803022	2525.996163
959.103045	2527.962213
959.403031	2529.754344
959.702979	2527.959693
960.002889	2528.574714
960.302762	2526.475073
960.602596	2528.718387
960.902393	2525.035824
961.202153	2526.906092
961.501875	2526.888448
961.801559	2528.206709
962.101205	2525.214785
962.400814	2526.545649
962.700385	2528.186545
962.999918	2525.978519
963.299414	2526.795186
963.598873	2528.297450
963.898293	2525.313087
964.197677	2527.644621
964.497022	2527.984899
964.796331	2525.151770
965.095601	2528.380629
965.394835	2527.558921
965.694030	2527.042203
965.993189	2529.986237
966.292309	2525.590351
966.591393	2527.349713
966.890439	2528.594878
967.189447	2528.635207
967.488419	2524.579599
967.787353	2527.213602
968.086249	2530.255938
968.385108	2527.548839
968.683930	2526.109589
968.982714	2528.057995
969.281462	2525.955834
969.580172	2527.511030
969.878844	2529.608150
970.177480	2530.104704
970.476078	2523.954496
970.774639	2527.894158
971.073162	2527.080012
971.371649	2525.607995
971.670098	2523.112623
971.968510	2526.235618
972.266885	2524.488858
972.565223	2527.238808
972.863524	2526.482635
973.161788	2527.251411
973.460014	2527.059847
973.758204	2529.928263
974.056356	2529.648479
974.354471	2525.391225
974.652550	2529.124199
974.950591	2526.827954
975.248595	2528.446164
975.546563	2527.725279
975.844493	2526.626308
976.142386	2527.755526
976.440243	2528.277286
976.738062	2527.266534
977.035845	2525.776873
977.333590	2526.550690
977.631299	2525.849970
977.928971	2526.928777
978.226606	2525.928108
978.524204	2526.890968
978.821765	2525.431554
979.119290	2527.183355
979.416777	2528.647810
979.714228	2526.863242
980.011642	2526.049096
980.309020	2530.626463
980.606360	2526.316277
980.903664	2527.085053
981.200931	2528.191586
981.498162	2525.297964
981.795356	2526.349044
982.092513	2530.676875
982.389633	2526.359127
982.686717	2527.725279
982.983764	2527.904240
983.280775	2529.368695
983.577749	2527.359796
983.874686	2530.298788
984.171587	2529.383819
984.468451	2527.803417
984.765279	2528.751154
985.062070	2525.912984
985.358824	2528.708304
985.655543	2525.930628
985.952224	2530.268541
986.248869	2527.473222
986.545478	2522.336286
986.842050	2524.657737
987.138586	2522.797551
987.435086	2525.544980
987.731549	2522.159845
988.027975	2526.999353
988.324366	2528.249559
988.620719	2523.742768
988.917037	2525.413910
989.213318	2527.064888
989.509563	2526.268386
989.805772	2525.754188
990.101944	2526.896009
990.398080	2525.582789
990.694180	2524.483817
990.990244	2526.792666
991.286271	2524.599764
991.582262	2525.660927
991.878217	2524.793848
992.174136	2526.971627
992.470019	2525.063550
992.765865	2525.290402
993.061676	2523.410052
993.357450	2528.642769
993.653188	2527.879034
993.948890	2526.800227
994.244556	2525.303005
994.540186	2528.342821
994.835780	2526.573376
995.131337	2528.083201
995.426859	2524.612367
995.722345	2523.334434
996.017795	2525.940711
996.313208	2529.098994
996.608586	2527.062368
996.903928	2529.479601
997.199234	2527.453057
997.494504	2527.218643
997.789738	2525.441637
998.084936	2526.769981
998.380099	2523.740247
998.675225	2525.272758
998.970316	2524.582120
999.265371	2524.773684
999.560390	2526.356606
999.855373	2526.732172
1000.150320	2524.047758
1000.445232	2526.568334
1000.740108	2526.346524
1001.034948	2525.411390
1001.329752	2525.492048
1001.624521	2524.854342
1001.919254	2520.713034
1002.213951	2523.049609
1002.508613	2522.195133
1002.803239	2523.641945
1003.097829	2523.200844
1003.392384	2522.038858
1003.686903	2522.827798
1003.981386	2529.414066
1004.275834	2524.831657
1004.570246	2525.691174
1004.864623	2526.283509
1005.158964	2524.929959
1005.453270	2523.677233
1005.747540	2527.074970
1006.041775	2528.168901
1006.335974	2524.904754
1006.630138	2527.402645
1006.924266	2524.821575
1007.218359	2525.091276
1007.512416	2526.830474
1007.806438	2525.766791
1008.100425	2526.162522
1008.394376	2521.932993
1008.688292	2524.350227
1008.982172	2523.725124
1009.276017	2524.251924
1009.569827	2525.920546
1009.863602	2527.604292
1010.157341	2525.509692
1010.451045	2526.306194
1010.744714	2527.120341
1011.038347	2525.799558
1011.331945	2525.824764
1011.625508	2526.437264
1011.919036	2525.968437
1012.212528	2526.323838
1012.505986	2524.743437
1012.799408	2524.819054
1013.092795	2523.652027
1013.386147	2525.013138
1013.679464	2526.873324
1013.972745	2526.033972
1014.265992	2526.664116
1014.559204	2525.872655
1014.852380	2525.237470
1015.145521	2525.814682
1015.438628	2524.415762
1015.731699	2525.960875
1016.024736	2527.868952
1016.317737	2524.743437
1016.610703	2527.092614
1016.903635	2523.503313
1017.196531	2522.482479
1017.489393	2524.350227
1017.782219	2518.885616
1018.075011	2523.644465
1018.367768	2524.597243
1018.660490	2525.497089
1018.953177	2525.497089
1019.245829	2525.497089
