Dividing Wavelength (nm)	Counts (n)	Blue Motor Position (mm): 0.000000	Red Motor Position (mm): 22.500000	
326.493990	2126.905658
326.888308	2126.905658
327.282561	2126.905658
327.676750	2096.631008
328.070874	2091.796542
328.464933	2095.718559
328.858929	2104.651484
329.252859	2114.259923
329.646726	2127.129989
330.040528	2134.787502
330.434265	2153.238125
330.827938	2172.901145
331.221547	2190.590554
331.615091	2210.525797
332.008571	2227.141440
332.401986	2247.565675
332.795338	2266.374220
333.188625	2286.710234
333.581847	2305.939716
333.975006	2322.613332
334.368100	2343.251816
334.761129	2362.178828
335.154095	2375.837834
335.546996	2393.862480
335.939833	2408.847310
336.332606	2423.486821
336.725315	2437.022319
337.117960	2445.660336
337.510540	2452.042437
337.903056	2467.604478
338.295508	2475.055304
338.687896	2480.711478
339.080220	2488.711790
339.472480	2496.059271
339.864676	2501.780981
340.256807	2506.849861
340.648875	2509.196518
341.040879	2509.521673
341.432818	2513.390758
341.824694	2513.693227
342.216506	2512.841272
342.608253	2514.779596
342.999937	2515.228259
343.391557	2510.459327
343.783113	2515.500481
344.174605	2511.838083
344.566033	2513.012672
344.957397	2509.309944
345.348697	2506.010509
345.739934	2506.237361
346.131106	2502.396002
346.522215	2503.031187
346.913260	2497.826196
347.304241	2499.641011
347.695159	2497.871566
348.086012	2495.323263
348.476802	2491.925525
348.867528	2489.846049
349.258191	2490.375370
349.648789	2492.691781
350.039324	2488.926039
350.429796	2488.802530
350.820203	2486.581902
351.210548	2485.029227
351.600828	2483.063177
351.991045	2483.264823
352.381198	2481.029071
352.771288	2482.589308
353.161314	2481.369349
353.551276	2484.658702
353.941175	2481.548310
354.331010	2483.156438
354.720782	2482.508650
355.110490	2484.240286
355.500135	2482.569144
355.889717	2482.629637
356.279235	2483.108547
356.668689	2484.636017
357.058080	2485.992087
357.447408	2482.057467
357.836672	2480.240131
358.225873	2484.860348
358.615010	2477.487661
359.004084	2486.181130
359.393095	2485.399752
359.782043	2487.471666
360.170927	2484.051243
360.559748	2488.016110
360.948505	2489.964516
361.337199	2492.190186
361.725830	2490.793786
362.114398	2491.176914
362.502903	2490.342603
362.891344	2493.866369
363.279722	2491.285299
363.668037	2490.950062
364.056289	2493.452995
364.444478	2496.581031
364.832603	2497.037255
365.220665	2497.291833
365.608665	2497.750578
365.996601	2497.909375
366.384474	2497.730414
366.772284	2500.555981
367.160031	2500.334170
367.547715	2502.663183
367.935336	2506.139058
368.322893	2507.149810
368.710388	2511.596107
369.097820	2519.730009
369.485189	2519.475431
369.872495	2527.016997
370.259738	2536.103677
370.646918	2542.276570
371.034035	2546.420398
371.421090	2556.437171
371.808081	2567.194993
372.195010	2576.158165
372.581875	2594.510485
372.968678	2603.849223
373.355418	2615.494288
373.742096	2633.254273
374.128710	2649.146511
374.515262	2663.362565
374.901751	2676.948474
375.288177	2690.899867
375.674540	2713.199412
376.060841	2730.407390
376.447079	2751.383631
376.833254	2772.024636
377.219367	2784.622479
377.605417	2822.002635
377.991404	2830.698625
378.377329	2852.546986
378.763191	2866.697505
379.148991	2908.312230
379.534727	2931.047834
379.920402	2960.536063
380.306013	2973.953094
380.691563	3025.670292
381.077049	3044.899773
381.462474	3063.574727
381.847835	3101.075871
382.233134	3125.099489
382.618371	3122.594036
383.003545	3190.972247
383.388657	3201.447764
383.773706	3231.225860
384.158693	3248.489292
384.543618	3272.593569
384.928480	3311.226451
385.313280	3357.877289
385.698017	3353.514170
386.082692	3408.624064
386.467305	3415.956422
386.851856	3447.196453
387.236344	3471.706543
387.620770	3497.981037
388.005133	3523.973226
388.389435	3552.856517
388.773674	3565.159453
389.157851	3604.677058
389.541965	3620.622227
389.926018	3585.384562
390.310008	3658.834173
390.693936	3675.071730
391.077802	3717.903894
391.461606	3707.433417
391.845348	3770.021863
392.229027	3767.390380
392.612645	3781.613996
392.996200	3858.670553
393.379694	3898.493148
393.763125	3963.521512
394.146494	3930.174279
394.529801	3993.327334
394.913047	4042.087895
395.296230	4006.958614
395.679351	4060.959454
396.062410	4086.631530
396.445408	4065.937593
396.828343	4098.737861
397.211217	4123.603352
397.594028	4042.264335
397.976778	4107.756485
398.359466	4137.597595
398.742092	4167.088345
399.124656	4083.006940
399.507158	4164.963499
399.889598	4191.343857
400.271977	4254.824587
400.654294	4224.686049
401.036549	4230.692583
401.418742	4202.799879
401.800874	4306.463646
402.182944	4325.236903
402.564952	4393.476482
402.946898	4378.529461
403.328783	4374.148698
403.710606	4287.271974
404.092367	4478.994616
404.474067	4446.862302
404.855705	4450.454124
405.237282	4378.610120
405.618797	4490.150690
406.000250	4526.436915
406.381642	4605.351137
406.762972	4566.045261
407.144240	4573.193617
407.525447	4575.948608
407.906593	4636.674347
408.287677	4680.401315
408.668700	4605.149491
409.049661	4658.958767
409.430560	4695.297925
409.811399	4626.231597
410.192176	4785.229589
410.572891	4724.702975
410.953545	4827.529911
411.334138	4705.874266
411.714669	4773.965131
412.095139	4671.997712
412.475547	4810.853774
412.855894	4795.266526
413.236180	4801.532680
413.616405	4757.911576
413.996568	4844.493393
414.376670	4785.337974
414.756711	4739.148402
415.136691	4770.474132
415.516609	4846.963559
415.896466	4885.631729
416.276262	4920.007357
416.655997	4895.945930
417.035670	5080.311009
417.415283	5173.864742
417.794834	5115.636894
418.174324	5063.773503
418.553753	4972.271520
418.933121	5158.849665
419.312428	5228.130242
419.691674	5164.901570
420.070859	5284.560918
420.449983	5193.227814
420.829045	5307.233508
421.208047	5214.022573
421.586988	5276.608498
421.965867	5286.421104
422.344686	5411.361061
422.723444	5264.585346
423.102141	5076.376388
423.480777	5365.673084
423.859352	5133.540552
424.237866	5380.073140
424.616319	5362.459348
424.994712	5460.681190
425.373044	5329.265871
425.751314	5459.166323
426.129524	5260.078555
426.507673	5429.153814
426.885762	5493.483978
427.263789	5416.382050
427.641756	5291.583246
428.019662	5393.719543
428.397508	5381.522472
428.775292	5309.769208
429.153016	5385.399119
429.530679	5296.495850
429.908282	5355.202607
430.285824	5216.316298
430.663305	5439.170586
431.040726	5181.897820
431.418086	5159.797402
431.795385	5225.675200
432.172624	5207.708528
432.549802	5179.193241
432.926920	5155.157020
433.303977	5137.686901
433.680974	5137.034072
434.057910	5118.543119
434.434786	5088.223100
434.811601	5033.272002
435.188355	5183.246329
435.565050	5046.852871
435.941683	4990.291124
436.318257	5103.487713
436.694770	5052.415784
437.071222	5036.649575
437.447614	4941.734731
437.823946	4842.156819
438.200218	4902.590171
438.576429	4765.798461
438.952580	4782.154485
439.328670	4763.537504
439.704700	4660.952544
440.080670	4608.897589
440.456580	4712.147982
440.832429	4593.476699
441.208218	4456.740442
441.583947	4495.781658
441.959616	4446.131334
442.335224	4357.442315
442.710773	4378.095922
443.086261	4331.727389
443.461689	4185.856561
443.837057	4202.207544
444.212365	4218.291345
444.587612	4122.910194
444.962800	4134.439313
445.337927	4070.837595
445.712995	3864.737582
446.088002	4038.203686
446.462949	3923.766973
446.837837	3847.166640
447.212664	3863.517622
447.587431	3847.537165
447.962139	3971.022749
448.336786	4205.020508
448.711374	4069.410948
449.085901	3746.983790
449.460369	3660.991787
449.834776	3594.317487
450.209124	3644.676093
450.583412	3629.169504
450.957640	3625.305459
451.331808	3515.423429
451.705917	3374.755072
452.079965	3318.815908
452.453954	3315.128304
452.827883	3259.289964
453.201752	3232.503793
453.575562	3167.049451
453.949311	3158.136691
454.323001	3113.497274
454.696632	3093.035230
455.070202	3074.657704
455.443713	3065.061868
455.817164	3045.106460
456.190556	3019.197450
456.563888	3001.250942
456.937160	2974.363948
457.310373	2915.924372
457.683526	2892.314128
458.056619	2861.182483
458.429653	2838.898062
458.802628	2815.572643
459.175542	2802.427835
459.548398	2804.779533
459.921194	2796.244859
460.293930	2783.924279
460.666607	2794.835857
461.039224	2797.051444
461.411782	2781.837242
461.784280	2761.811258
462.156719	2737.757392
462.529099	2715.770400
462.901419	2692.369364
463.273680	2677.394616
463.645882	2665.232833
464.018024	2653.620535
464.390106	2648.503764
464.762130	2648.410502
465.134094	2655.589105
465.505999	2671.942608
465.877845	2688.349044
466.249631	2687.214784
466.621358	2670.084943
466.993026	2653.991060
467.364634	2643.349184
467.736184	2632.142699
468.107674	2623.068622
468.479105	2621.039557
468.850477	2612.978752
469.221790	2608.005654
469.593043	2601.628595
469.964238	2597.439396
470.335373	2594.258428
470.706449	2597.401587
471.077467	2591.480752
471.448425	2603.539192
471.819324	2610.143103
472.190164	2612.777106
472.560945	2597.152050
472.931667	2586.580750
473.302330	2588.372881
473.672934	2583.024216
474.043479	2584.571851
474.413965	2583.306521
474.784393	2579.409709
475.154761	2580.160841
475.525070	2579.833166
475.895321	2578.275449
476.265513	2582.270564
476.635645	2583.982036
477.005719	2586.018662
477.375734	2585.164186
477.745691	2588.453539
478.115588	2585.257447
478.485427	2587.034454
478.855207	2590.948910
479.224928	2596.416042
479.594591	2600.695981
479.964194	2598.026690
480.333739	2597.149529
480.703226	2597.232708
481.072653	2597.772112
481.442022	2599.677668
481.811333	2596.121134
482.180584	2597.401587
482.549777	2596.516865
482.918912	2591.914291
483.287988	2595.483428
483.657005	2591.495875
484.025964	2591.979826
484.394864	2592.451174
484.763706	2592.529312
485.132489	2590.729620
485.501213	2591.052254
485.869879	2589.691142
486.238487	2590.255752
486.607036	2589.504620
486.975527	2591.188365
487.343959	2587.359609
487.712333	2589.035792
488.080648	2589.292891
488.448905	2587.944382
488.817104	2587.241142
489.185244	2590.182655
489.553326	2591.538725
489.921350	2593.277923
490.289315	2600.552308
490.657222	2601.754623
491.025070	2601.061465
491.392861	2600.456526
491.760593	2597.933429
492.128267	2593.482090
492.495883	2592.683067
492.863440	2593.986205
493.230939	2590.774990
493.598380	2590.127202
493.965763	2583.611511
494.333088	2586.192582
494.700354	2581.700913
495.067563	2584.831470
495.434713	2577.851992
495.801805	2583.984556
496.168839	2586.142170
496.535815	2583.435070
496.902733	2582.986408
497.269593	2583.235945
497.636395	2583.450194
498.003139	2585.096131
498.369825	2584.317272
498.736453	2582.338619
499.103023	2585.935483
499.469535	2583.268712
499.835989	2581.403485
500.202385	2580.816191
500.568723	2582.593198
500.935003	2583.309042
501.301226	2581.826942
501.667390	2584.831470
502.033497	2584.322313
502.399546	2579.497929
502.765537	2582.419278
503.131470	2580.934658
503.497345	2581.930286
503.863163	2581.892477
504.228923	2580.828794
504.594625	2584.501274
504.960269	2578.535069
505.325856	2580.992631
505.691385	2580.717888
506.056856	2581.511870
506.422270	2581.768969
506.787625	2580.498598
507.152924	2580.654874
507.518164	2579.855851
507.883347	2580.826273
508.248472	2581.335430
508.613540	2580.249061
508.978550	2580.279308
509.343503	2581.017837
509.708398	2583.621593
510.073236	2583.056984
510.438016	2583.238465
510.802738	2579.974318
511.167403	2584.448342
511.532010	2581.058166
511.896561	2581.209401
512.261053	2584.408013
512.625488	2580.647312
512.989866	2577.824266
513.354186	2580.453228
513.718449	2578.431725
514.082655	2582.081521
514.446803	2581.408527
514.810894	2584.839032
515.174927	2585.239803
515.538904	2584.526480
515.902822	2583.208218
516.266684	2585.098651
516.630488	2582.966243
516.994235	2587.828436
517.357925	2584.478589
517.721558	2582.482292
518.085133	2585.305338
518.448651	2584.229052
518.812112	2582.671336
519.175516	2585.164186
519.538863	2587.591502
519.902152	2585.769125
520.265385	2586.459763
520.628560	2587.465473
520.991678	2585.902715
521.354739	2588.146029
521.717743	2587.268868
522.080690	2586.502612
522.443580	2586.618559
522.806413	2590.795155
523.169189	2583.921542
523.531908	2587.919177
523.894569	2586.835329
524.257174	2587.553693
524.619722	2590.197778
524.982213	2589.628128
525.344647	2585.829618
525.707025	2587.715010
526.069345	2588.045206
526.431608	2585.585122
526.793815	2588.080494
527.155964	2586.258117
527.518057	2588.214084
527.880093	2588.050247
528.242072	2585.653178
528.603995	2586.202664
528.965860	2585.958168
529.327669	2586.346337
529.689421	2586.812643
530.051117	2586.676532
530.412755	2586.242993
530.774337	2585.706110
531.135862	2586.817685
531.497331	2583.823239
531.858743	2582.681418
532.220098	2583.235945
532.581396	2583.586305
532.942638	2581.882395
533.303824	2586.782397
533.664953	2586.376584
534.026025	2583.011613
534.387040	2586.774835
534.747999	2582.409196
535.108902	2585.317941
535.469748	2585.630493
535.830537	2585.582602
536.191270	2586.086717
536.551947	2586.409351
536.912567	2585.703590
537.273131	2587.873806
537.633638	2584.902046
537.994089	2585.887592
538.354483	2587.304156
538.714821	2586.079156
539.075103	2587.079825
539.435328	2585.728795
539.795497	2585.320462
540.155609	2585.302818
540.515665	2587.160483
540.875665	2586.321131
541.235609	2583.326686
541.595496	2587.722572
541.955328	2587.437747
542.315102	2585.302818
542.674821	2585.748960
543.034483	2588.508992
543.394090	2588.400607
543.753640	2586.981522
544.113134	2587.687284
544.472571	2584.360122
544.831953	2586.787438
545.191278	2586.598394
545.550548	2585.960688
545.909761	2586.709300
546.268918	2586.782397
546.628019	2587.394897
546.987064	2587.571337
547.346053	2586.492530
547.704986	2583.351891
548.063863	2588.337592
548.422684	2586.893302
548.781449	2586.205184
549.140158	2584.982705
549.498811	2586.885740
549.857408	2585.428847
550.215949	2584.770976
550.574434	2580.629668
550.932864	2582.782241
551.291237	2584.002200
551.649555	2585.973291
552.007817	2587.800710
552.366022	2587.299115
552.724173	2588.574527
553.082267	2585.784248
553.440305	2588.140987
553.798288	2585.075966
554.156215	2587.319279
554.514086	2587.268868
554.871902	2585.693507
555.229661	2588.100658
555.587365	2585.179310
555.945014	2587.639393
556.302606	2587.868765
556.660143	2584.907087
557.017625	2586.668971
557.375050	2586.185020
557.732421	2588.506471
558.089735	2586.389187
558.446994	2587.684763
558.804197	2585.839701
559.161345	2589.391194
559.518437	2588.375401
559.875474	2587.445308
560.232455	2588.445977
560.589381	2590.543097
560.946251	2589.555031
561.303065	2588.289702
561.659825	2588.672829
562.016528	2585.953127
562.373177	2586.379104
562.729770	2587.097469
563.086307	2585.496902
563.442789	2586.825246
563.799216	2586.237952
564.155587	2588.445977
564.511904	2589.257603
564.868164	2584.612180
565.224370	2587.921697
565.580520	2587.553693
565.936615	2590.117120
566.292654	2586.295925
566.648638	2587.220977
567.004567	2589.194589
567.360441	2588.698035
567.716260	2584.581933
568.072023	2586.502612
568.427732	2580.672518
568.783385	2583.961871
569.138982	2582.517580
569.494525	2583.258630
569.850013	2581.784092
570.205445	2587.563775
570.560823	2586.391707
570.916145	2583.871130
571.271412	2586.527818
571.626625	2585.620411
571.981782	2583.823239
572.336884	2584.970102
572.691931	2583.820719
573.046923	2581.716037
573.401860	2581.630337
573.756743	2582.220152
574.111570	2581.905080
574.466342	2583.848445
574.821059	2581.620255
575.175722	2584.949937
575.530330	2583.225862
575.884882	2584.463466
576.239380	2583.011613
576.593823	2582.825091
576.948211	2583.583784
577.302544	2581.302662
577.656823	2581.080852
578.011047	2585.093610
578.365216	2583.094792
578.719330	2582.361305
579.073389	2578.754359
579.427394	2582.058835
579.781344	2578.552713
580.135239	2582.769638
580.489080	2579.185378
580.842866	2579.109760
581.196597	2580.922055
581.550273	2580.997672
581.903895	2578.598083
582.257463	2583.626634
582.610975	2581.277457
582.964434	2581.584967
583.317837	2582.928434
583.671186	2583.848445
584.024481	2579.727302
584.377721	2577.942733
584.730906	2579.858372
585.084037	2580.102868
585.437113	2580.168403
585.790135	2579.651684
586.143103	2578.315779
586.496016	2580.027250
586.848874	2574.786971
587.201679	2576.107753
587.554428	2575.528021
587.907124	2578.371231
588.259765	2573.347722
588.612352	2579.560944
588.964884	2576.551375
589.317362	2578.824935
589.669786	2574.953329
590.022155	2579.787796
590.374470	2575.956519
590.726731	2579.762590
591.078937	2575.109605
591.431090	2576.195973
591.783188	2574.424008
592.135232	2577.073134
592.487222	2576.279152
592.839157	2576.954667
593.191038	2575.790161
593.542866	2577.980542
593.894639	2576.485840
594.246358	2574.527352
594.598022	2576.145562
594.949633	2576.952147
595.301190	2574.771847
595.652692	2575.091961
596.004141	2575.538103
596.355535	2574.955850
596.706876	2573.569532
597.058162	2573.859399
597.409395	2574.300500
597.760573	2576.362332
598.111698	2573.453586
598.462768	2574.466858
598.813785	2572.158009
599.164748	2574.323185
599.515657	2576.785788
599.866511	2574.610531
600.217312	2573.844275
600.568060	2571.991651
600.918753	2575.074317
601.269392	2571.656414
601.619978	2572.783112
601.970510	2573.219172
602.320988	2573.609862
602.671412	2574.192115
603.021783	2569.765982
603.372100	2573.297310
603.722363	2573.219172
604.072572	2572.473081
604.422728	2574.527352
604.772830	2568.780436
605.122878	2568.956877
605.472872	2568.916547
605.822813	2569.796229
606.172701	2570.242371
606.522534	2575.626323
606.872314	2575.376786
607.222041	2571.669017
607.571714	2574.287897
607.921333	2574.860068
608.270899	2575.192784
608.620411	2574.073648
608.969870	2574.754203
609.319276	2574.648339
609.668627	2574.829821
610.017926	2579.268557
610.367171	2580.044894
610.716362	2579.351736
611.065500	2576.831159
611.414585	2575.616241
611.763616	2575.051632
612.112594	2574.552557
612.461518	2575.376786
612.810389	2573.385530
613.159207	2572.097515
613.507971	2572.674728
613.856682	2573.529203
614.205340	2574.330747
614.553945	2576.306879
614.902496	2574.376117
615.250994	2574.232444
615.599439	2574.625654
615.947830	2575.817887
616.296169	2572.357135
616.644454	2572.168092
616.992686	2572.147927
617.340864	2573.710685
617.688990	2573.083061
618.037063	2573.067937
618.385082	2572.011816
618.733048	2575.346539
619.080961	2571.681620
619.428821	2571.805128
619.776628	2572.168092
620.124382	2571.757237
620.472083	2575.275963
620.819731	2575.449883
621.167326	2570.444017
621.514868	2574.272773
621.862357	2571.517783
622.209793	2571.757237
622.557176	2569.808832
622.904506	2568.167936
623.251783	2566.826989
623.599007	2564.132492
623.946179	2567.646177
624.293297	2564.971844
624.640363	2567.983934
624.987376	2569.307237
625.334336	2568.409911
625.681243	2569.629871
626.028097	2568.619119
626.374899	2569.062741
626.721647	2568.563667
627.068343	2568.845971
627.414987	2567.779767
627.761577	2566.209448
628.108115	2571.243040
628.454600	2567.711712
628.801032	2567.094170
629.147412	2569.027453
629.493739	2566.854715
629.840014	2567.729356
630.186236	2568.636763
630.532405	2565.813717
630.878521	2566.325394
631.224585	2567.046279
631.570597	2564.250959
631.916556	2565.665003
632.262462	2564.974365
632.608316	2567.230281
632.954117	2563.966134
633.299866	2566.343038
633.645562	2561.992523
633.991206	2564.341700
634.336797	2565.138202
634.682336	2566.587534
635.027823	2563.938408
635.373257	2562.912533
635.718639	2560.006308
636.063968	2562.370609
636.409245	2562.305074
636.754470	2563.625856
637.099642	2561.788356
637.444762	2561.410269
637.789829	2558.070505
638.134845	2559.834909
638.479808	2558.987995
638.824719	2563.232646
639.169577	2561.556463
639.514383	2562.105948
639.859137	2559.282902
640.203839	2560.326421
640.548489	2558.249466
640.893086	2558.206616
641.237632	2557.155535
641.582125	2558.897254
641.926566	2554.771070
642.270955	2558.645196
642.615292	2562.710887
642.959576	2561.039744
643.303809	2558.075546
643.647990	2561.672409
643.992118	2558.383056
644.336195	2562.272307
644.680219	2556.346430
645.024192	2558.730896
645.368112	2559.348437
645.711981	2559.043447
646.055797	2561.896741
646.399562	2560.961607
646.743274	2562.632749
647.086935	2562.138716
647.430544	2561.125444
647.774101	2561.959755
648.117606	2560.669220
648.461059	2561.750547
648.804460	2565.987637
649.147810	2560.964127
649.491108	2561.775753
649.834354	2562.773901
650.177548	2561.962276
650.520690	2559.396328
650.863781	2559.413972
651.206820	2563.073850
651.549807	2559.776935
651.892742	2559.718962
652.235626	2559.431616
652.578458	2558.204095
652.921238	2557.326935
653.263967	2559.303067
653.606644	2558.441030
653.949269	2559.933211
654.291843	2557.392470
654.634365	2559.061092
654.976836	2556.774928
655.319255	2560.364230
655.661622	2558.594785
656.003938	2556.873231
656.346203	2557.558828
656.688416	2557.722665
657.030577	2556.953889
657.372687	2557.581513
657.714746	2557.231153
658.056753	2557.795762
658.398708	2551.920297
658.740612	2553.861141
659.082465	2554.229146
659.424266	2553.336861
659.766016	2551.668239
660.107715	2553.883827
660.449362	2556.406924
660.790958	2555.570092
661.132503	2558.582182
661.473996	2556.338868
661.815438	2556.671585
662.156829	2555.723848
662.498168	2555.731409
662.839456	2557.848694
663.180693	2553.377191
663.521879	2557.647048
663.863013	2558.060422
664.204097	2556.021276
664.545129	2554.907181
664.886110	2556.810216
665.227040	2556.840463
665.567918	2556.298539
665.908746	2557.256358
666.249522	2558.241904
666.590248	2556.457336
666.930922	2557.659651
667.271545	2560.704508
667.612118	2556.200237
667.952639	2556.106975
668.293109	2557.367264
668.633528	2554.312325
668.973896	2554.582026
669.314213	2556.724517
669.654480	2559.348437
669.994695	2556.260731
670.334859	2557.515978
670.674973	2556.679146
671.015035	2556.379198
671.355047	2556.172510
671.695008	2556.437171
672.034918	2555.872562
672.374777	2556.928683
672.714585	2556.613611
673.054342	2557.090000
673.394049	2557.147974
673.733705	2558.340207
674.073310	2555.660833
674.412864	2558.274672
674.752368	2556.215360
675.091820	2555.466749
675.431223	2555.517160
675.770574	2556.696790
676.109875	2552.802499
676.449125	2552.666388
676.788324	2552.167314
677.127473	2550.223949
677.466571	2549.336706
677.805619	2554.347613
678.144616	2553.009186
678.483562	2555.484393
678.822458	2551.864844
679.161303	2552.426933
679.500098	2551.421223
679.838842	2556.061605
680.177535	2553.450287
680.516179	2554.274516
680.854771	2554.587068
681.193314	2558.473797
681.531805	2556.119578
681.870247	2557.092521
682.208638	2557.359702
682.546978	2556.164949
682.885268	2558.562017
683.223508	2555.368446
683.561697	2555.297870
683.899836	2556.386759
684.237925	2553.840977
684.575963	2552.978939
684.913951	2554.960113
685.251889	2557.037068
685.589776	2555.156718
685.927614	2559.512275
686.265401	2556.608570
686.603137	2555.882644
686.940824	2554.377860
687.278460	2556.835422
687.616046	2555.406255
687.953582	2557.342058
688.291068	2558.791390
688.628504	2556.749723
688.965889	2556.379198
689.303224	2558.289795
689.640510	2554.766028
689.977745	2555.204609
690.314930	2553.331820
690.652065	2555.310473
690.989150	2554.826522
691.326185	2554.662685
691.663170	2554.085473
692.000105	2554.171172
692.336990	2552.381563
692.673825	2551.625390
693.010610	2555.048333
693.347345	2550.869217
693.684030	2548.867878
694.020665	2549.049360
694.357251	2545.810419
694.693786	2551.600184
695.030272	2549.424926
695.366707	2548.661191
695.703093	2552.250493
696.039429	2551.416182
696.375716	2549.664381
696.711952	2548.527601
697.048139	2549.470296
697.384276	2549.039278
697.720363	2550.947354
698.056400	2552.038764
698.392388	2551.459032
698.728326	2549.598846
699.064214	2549.704710
699.400053	2549.003990
699.735842	2548.078938
700.071581	2551.075904
700.407270	2549.734957
700.742910	2551.161603
701.078501	2547.486602
701.414042	2548.560368
701.749533	2546.511139
702.084974	2548.071376
702.420366	2547.176571
702.755709	2545.134904
703.091002	2545.964174
703.426246	2548.383928
703.761440	2549.830739
704.096584	2546.692621
704.431679	2547.153886
704.766725	2550.027344
705.101721	2545.384441
705.436668	2549.026675
705.771565	2544.235058
706.106413	2549.944165
706.441212	2547.421067
706.775961	2548.837632
707.110661	2544.076262
707.445311	2549.961809
707.779913	2549.326623
708.114465	2551.562375
708.448967	2548.656150
708.783421	2549.492982
709.117825	2547.116077
709.452180	2548.182282
709.786485	2548.578012
710.120742	2549.563558
710.454949	2550.067673
710.789107	2550.997766
711.123216	2547.867209
711.457275	2549.460214
711.791286	2544.875285
712.125247	2550.420554
712.459159	2550.176058
712.793023	2551.748898
713.126837	2552.285781
713.460602	2550.660009
713.794318	2551.244782
714.127985	2546.901828
714.461602	2547.501726
714.795171	2551.554813
715.128691	2551.368291
715.462162	2547.602549
715.795584	2548.000800
716.128957	2550.546583
716.462281	2546.937117
716.795556	2548.041129
717.128782	2545.896118
717.461960	2546.289328
717.795088	2546.135573
718.128167	2545.394523
718.461198	2545.109698
718.794180	2546.299411
719.127113	2545.331509
719.459997	2546.969884
719.792833	2547.385779
720.125619	2547.524411
720.458357	2546.841335
720.791046	2544.925696
721.123686	2546.049873
721.456278	2547.012734
721.788821	2542.266487
722.121315	2547.050542
722.453761	2541.810263
722.786158	2543.554502
723.118506	2542.556354
723.450805	2545.112219
723.783056	2544.769420
724.115259	2543.998124
724.447412	2542.901673
724.779518	2545.402085
725.111574	2546.705223
725.443582	2547.675646
725.775542	2544.109029
726.107453	2546.712785
726.439315	2545.492826
726.771129	2549.750080
727.102895	2545.240768
727.434612	2547.894936
727.766281	2544.928217
728.097901	2546.281767
728.429473	2544.993752
728.760996	2542.631971
729.092471	2539.640046
729.423897	2545.079451
729.755276	2543.952753
730.086606	2547.292518
730.417887	2545.795295
730.749120	2547.032898
731.080305	2548.883002
731.411442	2547.658002
731.742530	2548.179761
732.073570	2548.421736
732.404562	2547.975594
732.735506	2548.318393
733.066401	2547.403423
733.397249	2549.283774
733.728048	2548.908208
734.058798	2544.839997
734.389501	2546.715306
734.720156	2545.593649
735.050762	2546.223793
735.381320	2542.473175
735.711831	2544.847558
736.042293	2543.814122
736.372707	2545.870912
736.703073	2543.781354
737.033391	2545.520552
737.363661	2544.925696
737.693883	2543.786395
738.024056	2547.375697
738.354182	2545.049204
738.684260	2545.129863
739.014290	2543.148689
739.344272	2547.721016
739.674207	2542.722712
740.004093	2545.563402
740.333931	2541.911086
740.663722	2543.264636
740.993464	2543.685572
741.323159	2546.990049
741.652806	2544.197249
741.982405	2546.475851
742.311956	2544.988711
742.641460	2543.526776
742.970915	2545.918803
743.300323	2542.450490
743.629683	2546.896787
743.958996	2545.175233
744.288260	2542.362269
744.617477	2541.853113
744.946647	2538.326826
745.275768	2539.934954
745.604842	2540.834800
745.933869	2539.428318
746.262847	2539.604758
746.591778	2544.345963
746.920662	2543.758669
747.249498	2542.919317
747.578286	2541.787578
747.907027	2544.681200
748.235720	2542.770603
748.564365	2542.115253
748.892963	2542.858823
749.221514	2543.229348
749.550017	2542.702547
749.878473	2541.885880
750.206881	2542.740356
750.535242	2543.304965
750.863555	2542.029553
751.191821	2540.789429
751.520039	2543.617517
751.848210	2541.676673
752.176334	2544.383772
752.504411	2544.086344
752.832440	2539.874460
753.160421	2540.381096
753.488356	2542.926879
753.816243	2540.179450
754.144082	2542.626930
754.471875	2542.619368
754.799620	2543.214224
755.127318	2540.847403
755.454969	2544.116591
755.782572	2540.640715
756.110129	2542.332023
756.437638	2539.723225
756.765100	2542.291693
757.092515	2540.948226
757.419882	2540.504604
757.747203	2540.860006
758.074477	2537.926054
758.401703	2543.630120
758.728882	2541.759852
759.056014	2543.458720
759.383099	2539.430838
759.710138	2544.073741
760.037129	2542.962167
760.364073	2542.783206
760.690970	2540.484440
761.017820	2543.526776
761.344623	2540.360931
761.671379	2542.263967
761.998088	2537.046373
762.324751	2542.813453
762.651366	2540.933102
762.977935	2549.712272
763.304456	2551.078424
763.630931	2556.265772
763.957359	2551.053219
764.283740	2551.451470
764.610074	2548.595656
764.936362	2545.480223
765.262602	2547.443752
765.588796	2545.601211
765.914943	2542.493339
766.241044	2543.925027
766.567097	2543.302445
766.893104	2542.364790
767.219064	2543.078113
767.544978	2542.707588
767.870845	2540.892773
768.196665	2539.335057
768.522438	2538.087371
768.848165	2539.758513
769.173846	2540.154244
769.499479	2542.790768
769.825066	2538.034439
770.150607	2540.653318
770.476101	2540.350849
770.801548	2542.311858
771.126949	2537.636188
771.452303	2540.333205
771.777611	2539.534182
772.102872	2540.335726
772.428087	2539.335057
772.753256	2538.357073
773.078378	2538.248688
773.403453	2538.553678
773.728482	2538.503266
774.053465	2537.845396
774.378401	2538.241126
774.703291	2538.306661
775.028135	2536.290200
775.352932	2538.430169
775.677683	2537.260622
776.002388	2541.699358
776.327046	2537.563091
776.651658	2538.594007
776.976224	2538.669624
777.300743	2537.232895
777.625216	2537.721887
777.949643	2539.498894
778.274024	2538.379758
778.598359	2533.898172
778.922647	2533.416742
779.246889	2535.944881
779.571086	2534.480425
779.895236	2537.164840
780.219339	2538.120138
780.543397	2535.997813
780.867409	2538.714995
781.191374	2538.815818
781.515294	2540.146682
781.839167	2536.214582
782.162995	2537.426980
782.486776	2538.410005
782.810511	2537.910931
783.134201	2539.057793
783.457844	2537.530323
783.781441	2536.922864
784.104993	2534.919006
784.428498	2538.127700
784.751958	2535.418080
785.075372	2537.356404
785.398739	2537.694161
785.722061	2537.527803
786.045337	2536.746424
786.368568	2539.244316
786.691752	2535.087884
787.014891	2537.794984
787.337983	2537.618544
787.661030	2538.523431
787.984031	2539.418236
788.306987	2541.159954
788.629897	2537.696682
788.952760	2537.535365
789.275579	2539.125849
789.598351	2540.063503
789.921078	2537.628626
790.243759	2539.201466
790.566395	2534.019160
790.888984	2537.721887
791.211529	2536.023018
791.534027	2538.097453
791.856480	2536.247350
792.178888	2539.030067
792.501249	2537.923533
792.823566	2536.842206
793.145836	2536.194418
793.468062	2536.872453
793.790241	2538.170550
794.112375	2537.590817
794.434464	2537.134593
794.756507	2536.751465
795.078505	2538.553678
795.400457	2535.667617
795.722364	2531.380116
796.044226	2535.415559
796.366042	2533.056299
796.687812	2535.410518
797.009538	2537.800025
797.331218	2539.108205
797.652852	2536.592669
797.974442	2538.959491
798.295986	2535.516382
798.617484	2534.868594
798.938938	2539.120807
799.260346	2538.183153
799.581709	2534.024201
799.903026	2540.988555
800.224299	2535.753317
800.545526	2536.776671
800.866708	2536.322967
801.187845	2535.639891
801.508936	2535.624767
801.829983	2537.714326
802.150984	2534.626619
802.471940	2537.802546
802.792851	2536.307844
803.113717	2538.999820
803.434538	2534.944212
803.755314	2538.122659
804.076045	2535.856660
804.396731	2536.448996
804.717372	2535.879346
805.037967	2534.303985
805.358518	2534.800539
805.679024	2537.399253
805.999485	2538.256250
806.319901	2537.610982
806.640272	2535.763399
806.960598	2537.653832
807.280879	2536.144006
807.601115	2535.045035
807.921306	2535.360107
808.241453	2537.421939
808.561554	2536.822041
808.881611	2536.592669
809.201623	2536.063348
809.521590	2538.987217
809.841513	2535.760878
810.161390	2538.389840
810.481223	2534.903882
810.801011	2536.451517
811.120755	2537.996630
811.440453	2533.751979
811.760107	2536.002854
812.079716	2531.032276
812.399281	2533.870446
812.718801	2532.925229
813.038276	2530.467667
813.357707	2536.469161
813.677093	2536.106198
813.996434	2534.276259
814.315731	2534.782895
814.634983	2536.761548
814.954191	2535.231557
815.273354	2537.084181
815.592473	2536.459078
815.911547	2535.173584
816.230577	2537.003523
816.549562	2536.519572
816.868502	2535.569315
817.187399	2533.510003
817.506250	2540.045859
817.825058	2539.692978
818.143821	2537.797505
818.462539	2538.324305
818.781213	2535.715508
819.099843	2539.050231
819.418429	2540.486960
819.736970	2540.275232
820.055466	2544.396375
820.373919	2543.481406
820.692327	2546.468289
821.010691	2550.256716
821.329011	2559.955896
821.647286	2578.398958
821.965517	2595.722883
822.283704	2608.376179
822.601847	2613.525718
822.919945	2603.728235
823.237999	2591.707604
823.556010	2579.739905
823.873976	2570.164233
824.191897	2561.949673
824.509775	2554.597150
824.827609	2553.425082
825.145398	2551.390976
825.463144	2553.089845
825.780845	2552.018600
826.098502	2555.837274
826.416116	2558.562017
826.733685	2564.376988
827.051210	2565.894376
827.368692	2566.985785
827.686129	2556.795093
828.003522	2555.751574
828.320872	2547.163968
828.638177	2544.774462
828.955439	2537.232895
829.272656	2538.336908
829.589830	2535.750796
829.906960	2541.038967
830.224046	2541.011240
830.541088	2538.926723
830.858086	2539.138452
831.175041	2536.980838
831.491952	2538.778009
831.808819	2537.668955
832.125642	2537.845396
832.442421	2537.742052
832.759157	2540.242464
833.075849	2544.552651
833.392497	2547.060625
833.709101	2548.900646
834.025662	2552.255534
834.342179	2549.528270
834.658653	2547.839483
834.975083	2541.759852
835.291469	2547.965512
835.607811	2538.228523
835.924110	2541.747249
836.240366	2538.296579
836.556578	2535.886907
836.872746	2539.355221
837.188871	2534.099818
837.504952	2538.241126
837.820990	2534.742565
838.136984	2532.859694
838.452935	2534.543440
838.768842	2533.953625
839.084706	2536.484284
839.400526	2538.294058
839.716303	2538.490663
840.032037	2544.232537
840.347727	2540.300437
840.663373	2539.730787
840.978977	2536.567463
841.294537	2534.906403
841.610054	2534.074613
841.925527	2535.327339
842.240957	2534.283820
842.556344	2537.265663
842.871687	2535.763399
843.186987	2535.584438
843.502244	2534.266176
843.817458	2534.487987
844.132629	2531.085208
844.447756	2533.381454
844.762840	2528.642769
845.077881	2529.056144
845.392879	2526.331400
845.707833	2529.678726
846.022745	2527.891637
846.337613	2531.884231
846.652438	2533.270548
846.967221	2534.566125
847.281960	2531.218799
847.596656	2533.371372
847.911309	2531.680064
848.225919	2533.502442
848.540485	2532.731145
848.855009	2534.848430
849.169490	2533.565456
849.483928	2532.342976
849.798323	2532.869777
850.112675	2533.225178
850.426984	2532.403470
850.741251	2534.117462
851.055474	2532.048069
851.369654	2527.858870
851.683792	2535.329860
851.997887	2532.158974
852.311938	2530.994467
852.625947	2532.607637
852.939914	2532.075795
853.253837	2534.745086
853.567718	2530.203006
853.881555	2531.556556
854.195350	2529.787111
854.509103	2534.949253
854.822812	2533.757020
855.136479	2532.035466
855.450103	2531.652338
855.763685	2532.053110
856.077224	2530.056813
856.390720	2531.516227
856.704173	2534.034283
857.017584	2531.589324
857.330953	2533.542771
857.644278	2530.707122
857.957561	2535.954963
858.270802	2534.392205
858.584000	2530.928932
858.897155	2532.665610
859.210268	2530.150074
859.523339	2532.902544
859.836367	2532.365661
860.149352	2533.104190
860.462295	2534.722401
860.775195	2532.922709
861.088054	2527.747964
861.400869	2529.033459
861.713642	2527.727800
862.026373	2531.748120
862.339062	2532.831968
862.651708	2530.034128
862.964312	2533.676361
863.276873	2530.634025
863.589392	2534.102339
863.901869	2534.177956
864.214303	2533.129396
864.526696	2532.685775
864.839045	2533.386495
865.151353	2534.049407
865.463619	2532.509334
865.775842	2534.437576
866.088023	2532.884900
866.400162	2533.202493
866.712258	2530.697039
867.024313	2535.644932
867.336325	2533.583100
867.648296	2533.182328
867.960224	2530.303829
868.272110	2533.590662
868.583954	2529.421628
868.895755	2533.026053
869.207515	2531.735517
869.519233	2533.026053
869.830909	2532.713501
870.142542	2532.176618
870.454134	2530.044210
870.765684	2534.760209
871.077191	2531.380116
871.388657	2532.988244
871.700081	2534.011598
872.011463	2532.506814
872.322803	2535.569315
872.634101	2533.026052
872.945357	2531.223840
873.256571	2533.222658
873.567744	2533.094108
873.878874	2535.662576
874.189963	2530.278624
874.501010	2536.184335
874.812015	2531.775846
875.122979	2531.967410
875.433900	2532.458923
875.744780	2534.051927
876.055618	2532.403470
876.366415	2534.455220
876.677169	2530.876000
876.987882	2535.032432
877.298554	2527.541277
877.609183	2532.615198
877.919771	2531.279293
878.230317	2532.146371
878.540822	2535.839016
878.851285	2535.133255
879.161707	2539.632485
879.472087	2538.742721
879.782425	2538.399923
880.092722	2543.773793
880.402977	2549.162786
880.713191	2558.856925
881.023363	2568.805642
881.333494	2576.937023
881.643583	2578.030953
881.953631	2576.402661
882.263637	2572.515931
882.573602	2571.530386
882.883526	2565.450754
883.193408	2558.577141
883.503248	2555.774259
883.813048	2551.068342
884.122806	2547.000131
884.432522	2547.627755
884.742197	2541.419574
885.051831	2541.429656
885.361424	2536.801877
885.670975	2540.980993
885.980485	2537.222813
886.289954	2535.423121
886.599382	2537.621064
886.908768	2536.897659
887.218113	2537.767258
887.527417	2535.690302
887.836680	2533.262987
888.145901	2533.575538
888.455082	2535.239119
888.764221	2536.093595
889.073319	2530.906247
889.382376	2534.024201
889.691392	2534.412370
890.000366	2536.406146
890.309300	2530.636546
890.618193	2533.694005
890.927044	2534.447658
891.235855	2532.035466
891.544625	2534.964376
891.853353	2536.844727
892.162041	2534.296423
892.470687	2536.451517
892.779293	2537.079140
893.087858	2533.762061
893.396381	2532.733666
893.704864	2534.266176
894.013306	2536.063348
894.321707	2547.743701
894.630068	2548.701520
894.938387	2547.085831
895.246665	2547.141283
895.554903	2546.929555
895.863100	2543.612476
896.171256	2544.769420
896.479371	2543.410829
896.787446	2539.577032
897.095480	2538.311702
897.403473	2538.520910
897.711425	2536.575025
898.019336	2536.212062
898.327207	2533.411701
898.635038	2534.916485
898.942827	2535.213913
899.250576	2533.094108
899.558284	2532.950435
899.865952	2534.974458
900.173579	2534.755168
900.481165	2534.989582
900.788711	2534.200641
901.096216	2531.629653
901.403681	2534.750127
901.711105	2534.745086
902.018489	2533.983872
902.325832	2535.844057
902.633135	2531.763243
902.940397	2532.421114
903.247619	2533.547812
903.554800	2541.928730
903.861941	2546.251520
904.169041	2553.994732
904.476101	2552.560524
904.783121	2555.615463
905.090100	2551.532128
905.397039	2547.093392
905.703938	2542.324461
906.010796	2541.462423
906.317614	2539.037628
906.624391	2535.632329
906.931129	2534.246012
907.237826	2533.535209
907.544483	2533.111752
907.851099	2533.023532
908.157675	2533.666279
908.464211	2532.872297
908.770707	2529.403983
909.077163	2529.217461
909.383578	2527.873993
909.689954	2530.634025
909.996289	2527.072450
910.302584	2530.737369
910.608839	2531.594365
910.915054	2533.436907
911.221229	2530.467667
911.527363	2532.325332
911.833458	2532.915147
912.139513	2531.201155
912.445527	2531.120496
912.751502	2530.001360
913.057436	2531.773326
913.363331	2533.661238
913.669186	2534.251053
913.975000	2535.854140
914.280775	2533.971269
914.586510	2534.346835
914.892205	2537.646270
915.197859	2542.085006
915.503475	2544.356046
915.809050	2547.645399
916.114585	2551.446429
916.420081	2552.789896
916.725536	2551.839639
917.030952	2549.145142
917.336328	2546.148176
917.641665	2547.347971
917.946961	2542.498381
918.252218	2538.830941
918.557435	2541.822866
918.862612	2535.904551
919.167750	2534.727442
919.472848	2535.478574
919.777906	2535.884387
920.082925	2533.583100
920.387904	2534.818183
920.692843	2531.276772
920.997743	2531.453212
921.302603	2532.968079
921.607423	2532.859694
921.912204	2530.596216
922.216946	2532.617719
922.521647	2533.167205
922.826310	2530.331556
923.130932	2530.724766
923.435516	2528.103366
923.740059	2530.782739
924.044564	2532.239633
924.349028	2531.511186
924.653454	2525.313087
924.957840	2526.044054
925.262186	2527.992460
925.566493	2527.311905
925.870761	2524.846780
926.174989	2530.097142
926.479178	2531.062523
926.783328	2528.350382
927.087438	2529.545136
927.391509	2527.997502
927.695541	2528.887265
927.999533	2527.100176
928.303486	2527.518592
928.607400	2530.921371
928.911275	2530.560928
929.215110	2530.659231
929.518906	2530.339118
929.822663	2529.381298
930.126381	2530.102183
930.430060	2530.248377
930.733699	2529.098994
931.037299	2529.837523
931.340861	2528.410876
931.644383	2530.528161
931.947866	2526.943900
932.251309	2530.903727
932.554714	2531.317101
932.858080	2530.787780
933.161407	2528.259642
933.464694	2527.594209
933.767943	2527.546318
934.071153	2527.125382
934.374323	2529.487162
934.677455	2530.371885
934.980548	2529.575383
935.283602	2529.461957
935.586617	2527.626977
935.889593	2530.815507
936.192530	2528.347862
936.495428	2530.079498
936.798287	2528.126051
937.101108	2531.869108
937.403890	2529.923222
937.706632	2528.241998
938.009336	2530.087060
938.312002	2530.379447
938.614628	2529.938346
938.917216	2530.117307
939.219765	2529.335928
939.522275	2529.774508
939.824747	2531.770805
940.127179	2527.682429
940.429573	2525.330731
940.731929	2527.609333
941.034246	2526.134795
941.336524	2531.614529
941.638763	2530.467667
941.940964	2528.350382
942.243126	2526.709487
942.545250	2530.412214
942.847335	2530.356762
943.149381	2529.320804
943.451389	2527.551359
943.753359	2529.865249
944.055290	2529.071267
944.357182	2529.499765
944.659036	2527.768129
944.960851	2530.671834
945.262628	2528.494055
945.564367	2528.834333
945.866067	2531.143182
946.167729	2529.703932
946.469352	2526.737213
946.770937	2528.516740
947.072484	2527.223684
947.373992	2531.075126
947.675462	2527.357275
947.976893	2531.881711
948.278286	2529.756864
948.579641	2528.862059
948.880958	2527.906761
949.182236	2528.874662
949.483476	2528.617563
949.784678	2527.059847
950.085841	2529.880373
950.386967	2530.021525
950.688054	2528.186545
950.989103	2532.476567
951.290114	2527.503468
951.591087	2531.508665
951.892021	2529.250228
952.192917	2528.332738
952.493776	2530.757533
952.794596	2528.153777
953.095378	2527.019518
953.396122	2529.353572
953.696828	2530.588655
953.997496	2528.857018
954.298126	2524.831657
954.598718	2529.474560
954.899272	2527.511030
955.199788	2529.129241
955.500266	2526.220495
955.800706	2526.732172
956.101108	2525.318128
956.401472	2525.124044
956.701798	2521.789321
957.002087	2523.765453
957.302337	2527.485824
957.602550	2528.123530
957.902724	2528.151257
958.202861	2528.461288
958.502960	2527.306863
958.803022	2528.332738
959.103045	2526.510361
959.403031	2525.867614
959.702979	2526.573376
960.002889	2529.507327
960.302762	2525.970958
960.602596	2529.320804
960.902393	2526.449867
961.202153	2530.563449
961.501875	2528.733510
961.801559	2527.863911
962.101205	2528.428520
962.400814	2526.885927
962.700385	2526.555732
962.999918	2530.278624
963.299414	2527.586647
963.598873	2528.289888
963.898293	2524.693025
964.197677	2526.507841
964.497022	2528.804086
964.796331	2526.744775
965.095601	2527.962213
965.394835	2524.861904
965.694030	2527.276617
965.993189	2526.548170
966.292309	2526.344003
966.591393	2529.890455
966.890439	2526.129754
967.189447	2530.331556
967.488419	2527.022038
967.787353	2525.184538
968.086249	2525.902902
968.385108	2526.165042
968.683930	2524.677902
968.982714	2526.734693
969.281462	2525.403828
969.580172	2529.489683
969.878844	2527.337110
970.177480	2526.081863
970.476078	2529.126720
970.774639	2526.948942
971.073162	2528.491535
971.371649	2528.113448
971.670098	2523.336955
971.968510	2524.004908
972.266885	2521.754033
972.565223	2529.219981
972.863524	2526.686802
973.161788	2528.201668
973.460014	2526.359127
973.758204	2526.757378
974.056356	2525.834847
974.354471	2527.037162
974.652550	2524.763601
974.950591	2529.141843
975.248595	2525.802079
975.546563	2524.897192
975.844493	2526.832995
976.142386	2529.083870
976.440243	2526.512882
976.738062	2526.679240
977.035845	2527.316946
977.333590	2527.548839
977.631299	2526.580937
977.928971	2527.372398
978.226606	2528.100845
978.524204	2527.367357
978.821765	2526.769981
979.119290	2527.342152
979.416777	2527.962213
979.714228	2527.281658
980.011642	2525.378622
980.309020	2529.086391
980.606360	2530.197965
980.903664	2528.821730
981.200931	2527.011956
981.498162	2525.381143
981.795356	2529.343490
982.092513	2530.011443
982.389633	2526.001205
982.686717	2527.200999
982.983764	2527.667306
983.280775	2528.247039
983.577749	2528.312574
983.874686	2527.319466
984.171587	2524.113293
984.468451	2528.662934
984.765279	2528.746113
985.062070	2528.526823
985.358824	2527.042203
985.655543	2526.462470
985.952224	2526.177645
986.248869	2527.611853
986.545478	2520.256810
986.842050	2524.312418
987.138586	2522.137160
987.435086	2524.745957
987.731549	2522.348889
988.027975	2525.635721
988.324366	2527.838705
988.620719	2527.301822
988.917037	2524.146060
989.213318	2528.057995
989.509563	2526.807789
989.805772	2526.321318
990.101944	2524.935001
990.398080	2526.515402
990.694180	2525.204702
990.990244	2526.336441
991.286271	2524.730834
991.582262	2523.997346
991.878217	2524.319980
992.174136	2526.722090
992.470019	2526.656555
992.765865	2526.545649
993.061676	2525.229908
993.357450	2525.572707
993.653188	2526.807789
993.948890	2525.817202
994.244556	2525.313087
994.540186	2527.200999
994.835780	2525.474404
995.131337	2526.654034
995.426859	2526.780063
995.722345	2528.357944
996.017795	2527.321987
996.313208	2524.345186
996.608586	2527.490866
996.903928	2525.885258
997.199234	2526.749816
997.494504	2527.538757
997.789738	2526.838036
998.084936	2527.773170
998.380099	2527.518592
998.675225	2526.157480
998.970316	2525.353416
999.265371	2527.248890
999.560390	2527.150588
999.855373	2528.229395
1000.150320	2529.272913
1000.445232	2527.430372
1000.740108	2525.403828
1001.034948	2525.981040
1001.329752	2526.868283
1001.624521	2526.404497
1001.919254	2521.108765
1002.213951	2521.499454
1002.508613	2520.856707
1002.803239	2525.466842
1003.097829	2522.694208
1003.392384	2525.093797
1003.686903	2525.275278
1003.981386	2526.301153
1004.275834	2525.880217
1004.570246	2526.953983
1004.864623	2524.463653
1005.158964	2524.110772
1005.453270	2523.848632
1005.747540	2524.511544
1006.041775	2525.023221
1006.335974	2525.353416
1006.630138	2526.412059
1006.924266	2526.059178
1007.218359	2523.503313
1007.512416	2527.412728
1007.806438	2524.491379
1008.100425	2526.885927
1008.394376	2522.772346
1008.688292	2526.923736
1008.982172	2526.568334
1009.276017	2526.401976
1009.569827	2526.384332
1009.863602	2525.650844
1010.157341	2525.849970
1010.451045	2525.282840
1010.744714	2525.965917
1011.038347	2523.203364
1011.331945	2522.379136
1011.625508	2526.349044
1011.919036	2524.382994
1012.212528	2526.885927
1012.505986	2524.982892
1012.799408	2527.737882
1013.092795	2525.910464
1013.386147	2527.657224
1013.679464	2524.141019
1013.972745	2526.870804
1014.265992	2523.228570
1014.559204	2525.920546
1014.852380	2525.807120
1015.145521	2527.571524
1015.438628	2522.885772
1015.731699	2527.256452
1016.024736	2526.555732
1016.317737	2526.591020
1016.610703	2526.175124
1016.903635	2524.244362
1017.196531	2521.199506
1017.489393	2521.902747
1017.782219	2520.713034
1018.075011	2522.593385
1018.367768	2525.250073
1018.660490	2523.888961
1018.953177	2523.888961
1019.245829	2523.888961
