Dividing Wavelength (nm)	Counts (n)	Blue Motor Position (mm): 0.000000	Red Motor Position (mm): 22.200000	
326.493990	2128.052520
326.888308	2128.052520
327.282561	2128.052520
327.676750	2094.823754
328.070874	2092.656058
328.464933	2098.518920
328.858929	2103.308016
329.252859	2113.569285
329.646726	2122.734103
330.040528	2136.511576
330.434265	2154.823568
330.827938	2170.020126
331.221547	2190.653568
331.615091	2210.157793
332.008571	2228.119424
332.401986	2248.513412
332.795338	2267.659714
333.188625	2283.791406
333.581847	2305.559109
333.975006	2321.302632
334.368100	2341.550427
334.761129	2359.219671
335.154095	2375.058976
335.546996	2393.625546
335.939833	2409.737073
336.332606	2424.898344
336.725315	2436.177925
337.117960	2444.934410
337.510540	2453.348095
337.903056	2467.496094
338.295508	2472.123873
338.687896	2478.752990
339.080220	2490.352685
339.472480	2497.115393
339.864676	2502.731238
340.256807	2506.247443
340.648875	2507.051507
341.040879	2512.674914
341.432818	2511.933865
341.824694	2513.652898
342.216506	2513.484020
342.608253	2513.282373
342.999937	2514.822446
343.391557	2512.740449
343.783113	2513.421005
344.174605	2510.701303
344.566033	2510.741632
344.957397	2510.965963
345.348697	2506.784326
345.739934	2506.300375
346.131106	2502.718636
346.522215	2502.335508
346.913260	2499.315857
347.304241	2498.912564
347.695159	2497.226298
348.086012	2494.783859
348.476802	2494.713283
348.867528	2492.376708
349.258191	2488.459732
349.648789	2489.470483
350.039324	2488.434526
350.429796	2488.316059
350.820203	2485.896305
351.210548	2483.607621
351.600828	2484.840183
351.991045	2482.876654
352.381198	2481.717189
352.771288	2480.809781
353.161314	2485.251038
353.551276	2482.148207
353.941175	2483.443784
354.331010	2479.355408
354.720782	2481.583598
355.110490	2484.429329
355.500135	2482.307004
355.889717	2481.669298
356.279235	2483.592498
356.668689	2485.001500
357.058080	2479.970429
357.447408	2482.632158
357.836672	2482.110399
358.225873	2483.292549
358.615010	2481.024030
359.004084	2486.778507
359.393095	2485.903867
359.782043	2486.481079
360.170927	2487.877479
360.559748	2487.975781
360.948505	2490.682881
361.337199	2487.680874
361.725830	2490.496358
362.114398	2494.068016
362.502903	2489.435195
362.891344	2490.826554
363.279722	2492.326297
363.668037	2494.204127
364.056289	2494.415855
364.444478	2491.610453
364.832603	2494.156236
365.220665	2493.760505
365.608665	2498.552122
365.996601	2494.209168
366.384474	2497.017091
366.772284	2500.427431
367.160031	2497.982472
367.547715	2504.863647
367.935336	2505.740807
368.322893	2507.386744
368.710388	2512.672394
369.097820	2519.644310
369.485189	2520.523991
369.872495	2527.488345
370.259738	2530.533202
370.646918	2538.778009
371.034035	2548.363763
371.421090	2558.418344
371.808081	2565.808676
372.195010	2576.130438
372.581875	2587.896492
372.968678	2602.868718
373.355418	2614.526387
373.742096	2632.853502
374.128710	2645.889925
374.515262	2662.230826
374.901751	2677.019050
375.288177	2690.700742
375.674540	2711.790409
376.060841	2729.787328
376.447079	2750.019999
376.833254	2772.133021
377.219367	2781.955709
377.605417	2820.102120
377.991404	2829.987823
378.377329	2852.017665
378.763191	2869.213041
379.148991	2907.147723
379.534727	2933.260900
379.920402	2959.477421
380.306013	2972.365131
380.691563	3021.692821
381.077049	3042.963970
381.462474	3060.033317
381.847835	3100.624688
382.233134	3125.354068
382.618371	3123.529170
383.003545	3188.292873
383.388657	3195.945345
383.773706	3231.283833
384.158693	3246.437542
384.543618	3272.109618
384.928480	3307.203610
385.313280	3353.007534
385.698017	3349.607276
386.082692	3404.306316
386.467305	3412.445259
386.851856	3443.239147
387.236344	3464.941314
387.620770	3496.297291
388.005133	3522.692773
388.389435	3549.947771
388.773674	3560.395562
389.157851	3604.480453
389.541965	3618.131897
389.926018	3587.418667
390.310008	3656.784944
390.693936	3673.929909
391.077802	3714.274263
391.461606	3701.953683
391.845348	3764.310235
392.229027	3767.450874
392.612645	3775.778860
392.996200	3854.231817
393.379694	3893.121798
393.763125	3959.710400
394.146494	3925.405348
394.529801	3984.573370
394.913047	4037.795352
395.296230	4003.328983
395.679351	4054.665573
396.062410	4078.301023
396.445408	4063.366605
396.828343	4095.854321
397.211217	4123.013537
397.594028	4036.915671
397.976778	4103.627780
398.359466	4134.872852
398.742092	4164.590454
399.124656	4082.586004
399.507158	4166.508613
399.889598	4189.990307
400.271977	4249.206221
400.654294	4221.600863
401.036549	4232.948500
401.418742	4201.254766
401.800874	4302.529026
402.182944	4321.352694
402.564952	4386.965832
402.946898	4375.207341
403.328783	4367.607801
403.710606	4283.279380
404.092367	4474.931446
404.474067	4439.290488
404.855705	4449.193835
405.237282	4377.019636
405.618797	4481.421932
406.000250	4520.901728
406.381642	4600.531794
406.762972	4559.635434
407.144240	4574.380809
407.525447	4572.659255
407.906593	4631.118995
408.287677	4670.681971
408.668700	4603.803503
409.049661	4651.455010
409.430560	4690.024878
409.811399	4623.312768
410.192176	4779.182725
410.572891	4718.976224
410.953545	4824.696782
411.334138	4704.939132
411.714669	4767.567906
412.095139	4666.782638
412.475547	4807.153567
412.855894	4786.089106
413.236180	4797.343482
413.616405	4748.658538
413.996568	4835.220191
414.376670	4776.203403
414.756711	4734.089604
415.136691	4761.576495
415.516609	4842.030790
415.896466	4878.163260
416.276262	4913.118621
416.655997	4893.639602
417.035670	5075.363116
417.415283	5160.392258
417.794834	5103.230615
418.174324	5059.559099
418.553753	4963.031085
418.933121	5144.563035
419.312428	5212.210278
419.691674	5149.707533
420.070859	5269.064412
420.449983	5172.733003
420.829045	5286.940343
421.208047	5187.806053
421.586988	5255.801136
421.965867	5257.678966
422.344686	5381.265373
422.723444	5233.713320
423.102141	5045.973189
423.480777	5332.177137
423.859352	5094.670735
424.237866	5334.551521
424.616319	5310.265762
424.994712	5409.780659
425.373044	5278.027583
425.751314	5397.996962
426.129524	5198.881468
426.507673	5365.778948
426.885762	5426.282877
427.263789	5346.143654
427.641756	5216.626329
428.019662	5307.954393
428.397508	5297.869565
428.775292	5223.421805
429.153016	5290.426301
429.530679	5206.987643
429.908282	5253.058748
430.285824	5119.692503
430.663305	5323.745807
431.040726	5073.833126
431.418086	5042.270462
431.795385	5100.768011
432.172624	5082.302264
432.549802	5044.957397
432.926920	5023.325806
433.303977	4992.272298
433.680974	4987.337008
434.057910	4967.522753
434.434786	4934.888844
434.811601	4867.254203
435.188355	4999.443339
435.565050	4874.634452
435.941683	4813.268487
436.318257	4914.789763
436.694770	4855.049570
437.071222	4833.443184
437.447614	4736.078339
437.823946	4642.837157
438.200218	4691.247358
438.576429	4555.862130
438.952580	4561.452770
439.328670	4543.876787
439.704700	4439.814768
440.080670	4388.921800
440.456580	4470.323832
440.832429	4358.062377
441.208218	4233.591247
441.583947	4259.548148
441.959616	4205.859860
442.335224	4122.930358
442.710773	4133.756236
443.086261	4088.983228
443.461689	3956.216880
443.837057	3961.905822
444.212365	3971.642811
444.587612	3884.826580
444.962800	3889.371180
445.337927	3833.328673
445.712995	3650.659942
446.088002	3791.240079
446.462949	3687.019265
446.837837	3617.658029
447.212664	3627.563896
447.587431	3614.696351
447.962139	3709.134807
448.336786	3894.011562
448.711374	3780.656177
449.085901	3507.095443
449.460369	3431.228598
449.834776	3378.546020
450.209124	3412.447779
450.583412	3392.578071
450.957640	3386.248903
451.331808	3299.578865
451.705917	3186.369673
452.079965	3139.562560
452.453954	3131.471508
452.827883	3084.810588
453.201752	3064.736713
453.575562	3012.502798
453.949311	3001.679440
454.323001	2967.394553
454.696632	2946.539300
455.070202	2932.517330
455.443713	2920.990732
455.817164	2905.905079
456.190556	2883.555123
456.563888	2865.868235
456.937160	2846.603466
457.310373	2803.078143
457.683526	2786.462500
458.056619	2763.134561
458.429653	2744.726788
458.802628	2727.617112
459.175542	2718.054043
459.548398	2720.587222
459.921194	2716.617314
460.293930	2706.708926
460.666607	2713.990873
461.039224	2710.981304
461.411782	2702.764223
461.784280	2690.617563
462.156719	2673.190294
462.529099	2659.750578
462.901419	2641.408340
463.273680	2629.685136
463.645882	2624.974178
464.018024	2620.454784
464.390106	2615.857251
464.762130	2614.657457
465.134094	2620.106944
465.505999	2631.411732
465.877845	2643.598721
466.249631	2644.869092
466.621358	2636.573873
466.993026	2623.214815
467.364634	2618.539145
467.736184	2609.717126
468.107674	2599.995261
468.479105	2601.963831
468.850477	2595.979982
469.221790	2595.312029
469.593043	2588.191399
469.964238	2588.146029
470.335373	2584.682756
470.706449	2583.039340
471.077467	2582.348702
471.448425	2593.834971
471.819324	2600.204469
472.190164	2599.982658
472.560945	2588.929928
472.931667	2583.493044
473.302330	2583.213260
473.672934	2579.550861
474.043479	2580.370049
474.413965	2578.696386
474.784393	2573.640108
475.154761	2575.119687
475.525070	2577.461303
475.895321	2575.623802
476.265513	2573.967783
476.635645	2578.958526
477.005719	2576.110274
477.375734	2579.805440
477.745691	2583.258630
478.115588	2582.956161
478.485427	2583.200657
478.855207	2586.535380
479.224928	2592.448653
479.594591	2593.020824
479.964194	2592.478900
480.333739	2595.876638
480.703226	2593.880341
481.072653	2594.081987
481.442022	2594.371854
481.811333	2596.166504
482.180584	2594.744899
482.549777	2595.286823
482.918912	2592.461256
483.287988	2593.106524
483.657005	2590.911102
484.025964	2589.497058
484.394864	2590.328848
484.763706	2589.923035
485.132489	2587.667119
485.501213	2586.469845
485.869879	2586.323652
486.238487	2587.094948
486.607036	2587.848601
486.975527	2584.488672
487.343959	2587.099989
487.712333	2586.248034
488.080648	2586.721903
488.448905	2587.392376
488.817104	2585.227201
489.185244	2589.953282
489.553326	2590.923704
489.921350	2591.478231
490.289315	2599.901999
490.657222	2599.322267
491.025070	2598.916454
491.392861	2600.968203
491.760593	2596.310177
492.128267	2594.868407
492.495883	2593.356061
492.863440	2590.926225
493.230939	2587.372212
493.598380	2588.498909
493.965763	2578.671180
494.333088	2580.422981
494.700354	2580.533886
495.067563	2582.981367
495.434713	2575.404512
495.801805	2582.389031
496.168839	2582.618403
496.535815	2580.914493
496.902733	2581.753846
497.269593	2584.690318
497.636395	2582.585636
498.003139	2582.804926
498.369825	2581.799216
498.736453	2582.089082
499.103023	2582.918352
499.469535	2580.876685
499.835989	2579.697055
500.202385	2580.339802
500.568723	2581.937848
500.935003	2581.887436
501.301226	2578.756880
501.667390	2580.261664
502.033497	2582.058835
502.399546	2578.683783
502.765537	2579.422312
503.131470	2579.780234
503.497345	2581.859710
503.863163	2580.314596
504.228923	2579.432394
504.594625	2582.925914
504.960269	2580.027250
505.325856	2580.359967
505.691385	2579.949112
506.056856	2581.910121
506.422270	2580.644792
506.787625	2581.421129
507.152924	2579.858372
507.518164	2582.885585
507.883347	2579.555903
508.248472	2582.530183
508.613540	2578.991293
508.978550	2580.266705
509.343503	2577.249575
509.708398	2581.768969
510.073236	2581.297621
510.438016	2579.939030
510.802738	2582.343661
511.167403	2580.465831
511.532010	2578.555233
511.896561	2584.690318
512.261053	2583.919021
512.625488	2580.428022
512.989866	2578.540110
513.354186	2580.828794
513.718449	2579.384503
514.082655	2582.353743
514.446803	2582.096644
514.810894	2583.102354
515.174927	2585.678384
515.538904	2583.810636
515.902822	2581.484144
516.266684	2583.656881
516.630488	2581.602611
516.994235	2582.119329
517.357925	2585.449011
517.721558	2585.764083
518.085133	2585.413723
518.448651	2587.425144
518.812112	2582.235276
519.175516	2583.394741
519.538863	2584.758373
519.902152	2585.252406
520.265385	2583.762745
520.628560	2582.378949
520.991678	2580.601942
521.354739	2584.770976
521.717743	2586.011100
522.080690	2584.198805
522.443580	2584.450863
522.806413	2585.091089
523.169189	2582.378949
523.531908	2585.073445
523.894569	2584.559248
524.257174	2586.091758
524.619722	2585.895153
524.982213	2587.024372
525.344647	2586.124526
525.707025	2585.716192
526.069345	2584.627303
526.431608	2584.836511
526.793815	2587.326841
527.155964	2584.511357
527.518057	2587.765422
527.880093	2587.425144
528.242072	2586.610997
528.603995	2588.083014
528.965860	2586.477407
529.327669	2585.915318
529.689421	2585.877509
530.051117	2584.773497
530.412755	2582.434401
530.774337	2585.428847
531.135862	2586.323652
531.497331	2580.634709
531.858743	2577.352918
532.220098	2583.397262
532.581396	2578.293093
532.942638	2583.964392
533.303824	2586.185020
533.664953	2583.911459
534.026025	2587.299115
534.387040	2584.813826
534.747999	2586.789958
535.108902	2584.604618
535.469748	2585.002869
535.830537	2585.811974
536.191270	2584.844073
536.551947	2585.350709
536.912567	2587.059660
537.273131	2585.703590
537.633638	2583.160327
537.994089	2585.280133
538.354483	2581.980697
538.714821	2585.960688
539.075103	2586.094279
539.435328	2584.176120
539.795497	2582.053794
540.155609	2585.121336
540.515665	2585.050760
540.875665	2583.795513
541.235609	2586.016141
541.595496	2586.633682
541.955328	2585.267530
542.315102	2588.395566
542.674821	2586.051429
543.034483	2583.417426
543.394090	2585.227201
543.753640	2583.188054
544.113134	2585.408682
544.472571	2587.321800
544.831953	2584.304669
545.191278	2585.333065
545.550548	2584.808785
545.909761	2585.638055
546.268918	2586.860534
546.628019	2586.174937
546.987064	2585.917839
547.346053	2584.748291
547.704986	2582.305852
548.063863	2584.690318
548.422684	2586.391707
548.781449	2583.291397
549.140158	2585.217118
549.498811	2584.624783
549.857408	2584.201326
550.215949	2582.915832
550.574434	2581.617734
550.932864	2584.125708
551.291237	2581.174113
551.649555	2583.505647
552.007817	2584.982705
552.366022	2583.316603
552.724173	2586.225349
553.082267	2584.307190
553.440305	2585.368353
553.798288	2584.697879
554.156215	2586.031265
554.514086	2587.992273
554.871902	2585.776686
555.229661	2587.034454
555.587365	2584.329875
555.945014	2585.791810
556.302606	2585.426326
556.660143	2586.356419
557.017625	2585.711151
557.375050	2584.571851
557.732421	2584.496233
558.089735	2584.541604
558.446994	2585.776686
558.804197	2583.848445
559.161345	2586.482448
559.518437	2588.393045
559.875474	2585.864907
560.232455	2586.580750
560.589381	2587.596543
560.946251	2588.375401
561.303065	2586.530339
561.659825	2585.512026
562.016528	2585.300297
562.373177	2587.848601
562.729770	2584.367684
563.086307	2583.863568
563.442789	2586.361460
563.799216	2585.512026
564.155587	2584.186202
564.511904	2584.942375
564.868164	2584.428178
565.224370	2587.984712
565.580520	2584.423137
565.936615	2585.401120
566.292654	2583.193095
566.648638	2582.792323
567.004567	2587.094948
567.360441	2584.937334
567.716260	2583.883733
568.072023	2587.410020
568.427732	2581.050605
568.783385	2580.445666
569.138982	2578.671180
569.494525	2582.373908
569.850013	2580.359967
570.205445	2584.324834
570.560823	2581.922724
570.916145	2583.616552
571.271412	2585.007910
571.626625	2583.041860
571.981782	2580.884247
572.336884	2582.681418
572.691931	2583.374577
573.046923	2579.863413
573.401860	2585.169227
573.756743	2582.729309
574.111570	2583.664443
574.466342	2580.417940
574.821059	2584.387848
575.175722	2582.199988
575.530330	2579.646643
575.884882	2580.428022
576.239380	2582.991449
576.593823	2582.018506
576.948211	2582.676377
577.302544	2583.014134
577.656823	2580.153279
578.011047	2581.683269
578.365216	2580.458269
578.719330	2584.680235
579.073389	2579.223186
579.427394	2578.414081
579.781344	2580.002045
580.135239	2579.873495
580.489080	2581.983218
580.842866	2580.765779
581.196597	2584.440781
581.550273	2580.707806
581.903895	2579.190419
582.257463	2581.290059
582.610975	2579.084555
582.964434	2581.406006
583.317837	2578.212435
583.671186	2582.126891
584.024481	2578.288052
584.377721	2578.950964
584.730906	2580.758218
585.084037	2578.880388
585.437113	2578.822415
585.790135	2578.842579
586.143103	2578.025912
586.496016	2580.138156
586.848874	2571.134655
587.201679	2574.040880
587.554428	2572.152968
587.907124	2576.770665
588.259765	2572.334450
588.612352	2576.420305
588.964884	2577.209245
589.317362	2576.513566
589.669786	2575.079358
590.022155	2581.610173
590.374470	2576.921900
590.726731	2576.591704
591.078937	2576.732856
591.431090	2577.736046
591.783188	2575.643967
592.135232	2575.134811
592.487222	2576.006930
592.839157	2573.274625
593.191038	2575.669173
593.542866	2575.187743
593.894639	2574.242526
594.246358	2574.764286
594.598022	2577.274780
594.949633	2575.981724
595.301190	2573.040211
595.652692	2575.016343
596.004141	2575.437280
596.355535	2573.995510
596.706876	2572.334450
597.058162	2572.959553
597.409395	2574.103895
597.760573	2572.904100
598.111698	2574.431570
598.462768	2572.420149
598.813785	2573.703123
599.164748	2570.829665
599.515657	2571.820252
599.866511	2572.863771
600.217312	2572.515931
600.568060	2572.767989
600.918753	2571.190108
601.269392	2572.034501
601.619978	2571.648853
601.970510	2574.756724
602.320988	2573.448545
602.671412	2572.369738
603.021783	2568.583831
603.372100	2572.531055
603.722363	2573.403174
604.072572	2572.493246
604.422728	2572.142886
604.772830	2568.490570
605.122878	2567.452092
605.472872	2569.370251
605.822813	2566.088460
606.172701	2568.966959
606.522534	2569.397977
606.872314	2573.929975
607.222041	2571.018708
607.571714	2572.578946
607.921333	2568.500652
608.270899	2572.561302
608.620411	2571.290931
608.969870	2572.352094
609.319276	2571.815211
609.668627	2574.817218
610.017926	2579.873495
610.367171	2580.546489
610.716362	2580.221335
611.065500	2577.673032
611.414585	2575.333936
611.763616	2575.361662
612.112594	2575.308730
612.461518	2574.837382
612.810389	2576.407702
613.159207	2571.638770
613.507971	2574.287897
613.856682	2573.708164
614.205340	2573.093143
614.553945	2571.913513
614.902496	2570.070972
615.250994	2573.095664
615.599439	2574.250088
615.947830	2573.635067
616.296169	2570.809501
616.644454	2575.253278
616.992686	2569.939902
617.340864	2570.557443
617.688990	2571.401836
618.037063	2572.546178
618.385082	2569.682803
618.733048	2572.321847
619.080961	2570.781774
619.428821	2571.301013
619.776628	2570.559963
620.124382	2570.355797
620.472083	2570.436455
620.819731	2574.567681
621.167326	2569.350087
621.514868	2573.163719
621.862357	2568.248594
622.209793	2571.971487
622.557176	2571.696744
622.904506	2566.680796
623.251783	2564.538305
623.599007	2567.696588
623.946179	2566.958059
624.293297	2564.681978
624.640363	2567.550395
624.987376	2567.459654
625.334336	2566.617781
625.681243	2567.106773
626.028097	2568.425035
626.374899	2570.527196
626.721647	2565.594427
627.068343	2566.562328
627.414987	2566.857236
627.761577	2566.761454
628.108115	2566.922771
628.454600	2567.429407
628.801032	2563.701474
629.147412	2566.557287
629.493739	2564.734910
629.840014	2565.705332
630.186236	2568.079716
630.532405	2566.905127
630.878521	2568.248594
631.224585	2566.590055
631.570597	2564.233315
631.916556	2564.084601
632.262462	2563.073850
632.608316	2564.039231
632.954117	2561.773232
633.299866	2564.364385
633.645562	2565.375137
633.991206	2567.169788
634.336797	2563.613253
634.682336	2562.617626
635.027823	2561.964796
635.373257	2562.869683
635.718639	2562.612584
636.063968	2562.179045
636.409245	2561.621998
636.754470	2562.118551
637.099642	2559.678633
637.444762	2562.713407
637.789829	2559.398849
638.134845	2559.996226
638.479808	2560.273489
638.824719	2559.522357
639.169577	2559.509754
639.514383	2559.393808
639.859137	2560.187789
640.203839	2561.236349
640.548489	2561.891699
640.893086	2557.941955
641.237632	2556.565720
641.582125	2559.466904
641.926566	2552.870555
642.270955	2559.459343
642.615292	2561.160732
642.959576	2557.762994
643.303809	2562.121072
643.647990	2560.333983
643.992118	2559.154353
644.336195	2558.062943
644.680219	2558.713252
645.024192	2558.715772
645.368112	2560.727193
645.711981	2558.199054
646.055797	2559.237532
646.399562	2559.986143
646.743274	2558.383056
647.086935	2562.042934
647.430544	2561.042265
647.774101	2561.730382
648.117606	2561.463201
648.461059	2562.617626
648.804460	2563.661144
649.147810	2559.812223
649.491108	2559.419013
649.834354	2561.672409
650.177548	2560.099569
650.520690	2561.468242
650.863781	2559.731565
651.206820	2559.040927
651.549807	2560.059240
651.892742	2557.054712
652.235626	2557.173179
652.578458	2558.435988
652.921238	2559.693756
653.263967	2555.789383
653.606644	2560.122254
653.949269	2556.888354
654.291843	2555.812068
654.634365	2560.394477
654.976836	2555.696121
655.319255	2557.261400
655.661622	2556.963972
656.003938	2555.978426
656.346203	2558.012532
656.688416	2556.830381
657.030577	2555.812068
657.372687	2556.553117
657.714746	2555.451625
658.056753	2555.247459
658.398708	2550.697817
658.740612	2553.420040
659.082465	2552.600853
659.424266	2551.660678
659.766016	2551.799309
660.107715	2555.421378
660.449362	2556.628735
660.790958	2556.331307
661.132503	2556.991698
661.473996	2557.475649
661.815438	2556.326266
662.156829	2555.733930
662.498168	2556.769887
662.839456	2555.045813
663.180693	2553.956923
663.521879	2554.135884
663.863013	2554.629917
664.204097	2558.907336
664.545129	2558.355330
664.886110	2555.015566
665.227040	2556.033879
665.567918	2557.604198
665.908746	2556.744681
666.249522	2556.903478
666.590248	2557.463046
666.930922	2556.747202
667.271545	2558.942624
667.612118	2558.226781
667.952639	2555.706204
668.293109	2553.818292
668.633528	2555.807027
668.973896	2554.574465
669.314213	2555.401214
669.654480	2554.516491
669.994695	2555.940617
670.334859	2555.955741
670.674973	2555.484393
671.015035	2556.477500
671.355047	2554.087993
671.695008	2554.201419
672.034918	2555.315514
672.374777	2555.776780
672.714585	2555.854918
673.054342	2555.376008
673.394049	2556.641338
673.733705	2557.798283
674.073310	2554.009855
674.412864	2558.841801
674.752368	2554.834084
675.091820	2556.306101
675.431223	2555.222253
675.770574	2553.699824
676.109875	2549.245965
676.449125	2554.178734
676.788324	2551.423743
677.127473	2551.726213
677.466571	2548.141952
677.805619	2554.357695
678.144616	2552.492468
678.483562	2552.757129
678.822458	2555.469269
679.161303	2554.188816
679.500098	2554.415668
679.838842	2555.365926
680.177535	2552.794937
680.516179	2555.002963
680.854771	2556.230484
681.193314	2553.523384
681.531805	2555.920453
681.870247	2556.543035
682.208638	2556.147305
682.546978	2556.714434
682.885268	2556.469938
683.223508	2553.041954
683.561697	2553.951882
683.899836	2556.348951
684.237925	2551.678322
684.575963	2554.695452
684.913951	2554.506409
685.251889	2556.797613
685.589776	2556.101934
685.927614	2554.632438
686.265401	2552.802499
686.603137	2553.372149
686.940824	2553.959444
687.278460	2556.074208
687.616046	2554.864331
687.953582	2556.472459
688.291068	2556.003632
688.628504	2553.614125
688.965889	2556.298539
689.303224	2555.512119
689.640510	2557.042109
689.977745	2554.556821
690.314930	2553.825853
690.652065	2553.379711
690.989150	2552.457180
691.326185	2552.507592
691.663170	2550.770914
692.000105	2552.384083
692.336990	2551.149001
692.673825	2551.290153
693.010610	2550.995245
693.347345	2548.782179
693.684030	2546.586756
694.020665	2547.095913
694.357251	2544.393854
694.693786	2550.254196
695.030272	2550.823846
695.366707	2549.803013
695.703093	2550.339895
696.039429	2548.217570
696.375716	2551.305276
696.711952	2547.559699
697.048139	2549.064483
697.384276	2548.174720
697.720363	2547.645399
698.056400	2550.140770
698.392388	2547.791592
698.728326	2548.542724
699.064214	2549.127498
699.400053	2547.872251
699.735842	2545.825542
700.071581	2546.856458
700.407270	2547.095913
700.742910	2546.259081
701.078501	2550.486089
701.414042	2546.047353
701.749533	2548.986346
702.084974	2544.519883
702.420366	2547.489123
702.755709	2544.235058
703.091002	2546.115408
703.426246	2547.894936
703.761440	2546.135573
704.096584	2551.002807
704.431679	2544.103988
704.766725	2547.300080
705.101721	2546.281767
705.436668	2545.921324
705.771565	2544.381252
706.106413	2548.741850
706.441212	2548.449463
706.775961	2545.954092
707.110661	2546.039791
707.445311	2544.020809
707.779913	2549.306459
708.114465	2549.624052
708.448967	2549.301418
708.783421	2548.625903
709.117825	2547.970553
709.452180	2547.952909
709.786485	2548.459545
710.120742	2549.974412
710.454949	2548.643547
710.789107	2547.317724
711.123216	2545.828063
711.457275	2543.773793
711.791286	2545.586087
712.125247	2547.713454
712.459159	2550.579350
712.793023	2552.263096
713.126837	2547.037940
713.460602	2551.448949
713.794318	2550.977601
714.127985	2550.939793
714.461602	2548.172199
714.795171	2547.942827
715.128691	2550.118085
715.462162	2546.009544
715.795584	2547.368135
716.128957	2545.208001
716.462281	2545.031560
716.795556	2546.687579
717.128782	2545.142466
717.461960	2546.990049
717.795088	2543.942671
718.128167	2547.584905
718.461198	2546.410316
718.794180	2547.143804
719.127113	2544.973587
719.459997	2548.000800
719.792833	2546.427960
720.125619	2545.336550
720.458357	2543.725902
720.791046	2545.225645
721.123686	2544.678680
721.456278	2545.702034
721.788821	2545.026519
722.121315	2544.411498
722.453761	2547.169010
722.786158	2543.569626
723.118506	2542.682383
723.450805	2546.105326
723.783056	2543.292362
724.115259	2545.933927
724.447412	2545.792775
724.779518	2545.961653
725.111574	2543.390665
725.443582	2547.428629
725.775542	2546.916952
726.107453	2546.962322
726.439315	2543.756148
726.771129	2549.435008
727.102895	2541.865716
727.434612	2545.470141
727.766281	2544.028371
728.097901	2544.368649
728.429473	2542.599204
728.760996	2543.252033
729.092471	2539.645088
729.423897	2547.189174
729.755276	2547.350491
730.086606	2543.700696
730.417887	2546.306972
730.749120	2546.906870
731.080305	2543.433515
731.411442	2546.639688
731.742530	2545.162630
732.073570	2546.622044
732.404562	2546.546427
732.735506	2547.922662
733.066401	2547.912580
733.397249	2548.744370
733.728048	2545.800336
734.058798	2546.561551
734.389501	2545.233207
734.720156	2544.905532
735.050762	2544.721529
735.381320	2546.324616
735.711831	2543.315047
736.042293	2540.509645
736.372707	2544.653474
736.703073	2546.344781
737.033391	2544.109029
737.363661	2544.887887
737.693883	2543.640202
738.024056	2547.300080
738.354182	2546.463248
738.684260	2543.821683
739.014290	2543.151210
739.344272	2545.291180
739.674207	2543.965356
740.004093	2542.044677
740.333931	2543.816642
740.663722	2545.651622
740.993464	2542.904193
741.323159	2544.900490
741.652806	2546.647250
741.982405	2545.654143
742.311956	2546.669935
742.641460	2545.462579
742.970915	2542.301776
743.300323	2545.210521
743.629683	2542.942002
743.958996	2541.890922
744.288260	2542.868905
744.617477	2542.110212
744.946647	2539.912269
745.275768	2541.225489
745.604842	2534.503111
745.933869	2541.462423
746.262847	2538.946888
746.591778	2544.933258
746.920662	2542.684903
747.249498	2543.879657
747.578286	2542.715150
747.907027	2542.851261
748.235720	2544.585418
748.564365	2541.885880
748.892963	2538.641898
749.221514	2543.985521
749.550017	2541.835469
749.878473	2544.008206
750.206881	2544.124153
750.535242	2539.206507
750.863555	2542.611807
751.191821	2541.081816
751.520039	2543.788916
751.848210	2542.253885
752.176334	2542.155582
752.504411	2540.232382
752.832440	2542.959646
753.160421	2541.762372
753.488356	2539.995448
753.816243	2544.169523
754.144082	2539.670293
754.471875	2541.974101
754.799620	2544.315717
755.127318	2540.353370
755.454969	2542.576518
755.782572	2541.449821
756.110129	2540.827238
756.437638	2539.808925
756.765100	2541.180119
757.092515	2543.930068
757.419882	2540.890253
757.747203	2542.664739
758.074477	2543.226827
758.401703	2542.135417
758.728882	2542.758000
759.056014	2544.119112
759.383099	2542.006868
759.710138	2542.261446
760.037129	2539.405633
760.364073	2542.813453
760.690970	2542.163144
761.017820	2544.935778
761.344623	2542.299255
761.671379	2543.793957
761.998088	2539.642567
762.324751	2538.052083
762.651366	2543.778834
762.977935	2548.270502
763.304456	2551.706048
763.630931	2553.283929
763.957359	2551.935421
764.283740	2549.616490
764.610074	2548.426777
764.936362	2548.149514
765.262602	2545.346633
765.588796	2543.383103
765.914943	2545.104657
766.241044	2541.623740
766.567097	2541.031405
766.893104	2541.525438
767.219064	2542.188350
767.544978	2542.485778
767.870845	2540.849923
768.196665	2539.859337
768.522438	2540.428987
768.848165	2538.783050
769.173846	2538.926723
769.499479	2540.189532
769.825066	2538.815818
770.150607	2539.352701
770.476101	2538.984696
770.801548	2540.053421
771.126949	2537.792463
771.452303	2539.801363
771.777611	2539.130890
772.102872	2539.294727
772.428087	2538.367155
772.753256	2538.823379
773.078378	2537.701723
773.403453	2537.406815
773.728482	2539.443441
774.053465	2538.266332
774.378401	2537.086702
774.703291	2539.398071
775.028135	2536.849768
775.352932	2537.898328
775.677683	2538.422608
776.002388	2538.382278
776.327046	2538.316743
776.651658	2537.003523
776.976224	2537.215251
777.300743	2538.415046
777.625216	2537.863040
777.949643	2538.818338
778.274024	2537.800025
778.598359	2533.638553
778.922647	2536.088553
779.246889	2533.462112
779.571086	2531.634694
779.895236	2536.199459
780.219339	2535.498738
780.543397	2541.273380
780.867409	2536.264994
781.191374	2534.702236
781.515294	2539.599717
781.839167	2538.190715
782.162995	2536.930426
782.486776	2536.144006
782.810511	2536.907741
783.134201	2536.970755
783.457844	2538.326826
783.781441	2536.186856
784.104993	2537.648791
784.428498	2535.692823
784.751958	2537.915972
785.075372	2536.794315
785.398739	2538.165509
785.722061	2537.318595
786.045337	2536.161650
786.368568	2537.694161
786.691752	2538.248688
787.014891	2535.851619
787.337983	2536.753986
787.661030	2540.570139
787.984031	2536.895138
788.306987	2540.287835
788.629897	2539.289686
788.952760	2538.987217
789.275579	2538.967052
789.598351	2541.202804
789.921078	2539.826569
790.243759	2539.577032
790.566395	2535.589479
790.888984	2539.052752
791.211529	2537.124511
791.534027	2536.272556
791.856480	2537.363965
792.178888	2537.023688
792.501249	2538.258770
792.823566	2536.433872
793.145836	2535.123173
793.468062	2541.117104
793.790241	2535.985210
794.112375	2537.185004
794.434464	2536.998482
794.756507	2536.877494
795.078505	2537.570653
795.400457	2536.360776
795.722364	2532.433717
796.044226	2534.682072
796.366042	2535.236598
796.687812	2535.763399
797.009538	2537.452186
797.331218	2535.614685
797.652852	2537.714326
797.974442	2537.290869
798.295986	2536.343132
798.617484	2540.335726
798.938938	2536.325488
799.260346	2537.308513
799.581709	2538.044521
799.903026	2539.045190
800.224299	2536.935467
800.545526	2535.745755
800.866708	2535.221475
801.187845	2535.186187
801.508936	2536.270035
801.829983	2534.707277
802.150984	2536.610313
802.471940	2536.464119
802.792851	2534.810621
803.113717	2537.384130
803.434538	2535.811290
803.755314	2535.723070
804.076045	2535.360107
804.396731	2536.753986
804.717372	2535.539068
805.037967	2538.301620
805.358518	2535.642411
805.679024	2535.902031
805.999485	2535.899510
806.319901	2536.459078
806.640272	2535.082843
806.960598	2535.803728
807.280879	2533.809952
807.601115	2536.078471
807.921306	2535.017308
808.241453	2537.968904
808.561554	2535.095446
808.881611	2535.559232
809.201623	2537.104346
809.521590	2534.724921
809.841513	2534.190559
810.161390	2538.299099
810.481223	2534.462781
810.801011	2536.017977
811.120755	2537.179963
811.440453	2536.960673
811.760107	2534.588810
812.079716	2531.695188
812.399281	2533.454551
812.718801	2534.404808
813.038276	2532.078316
813.357707	2536.068389
813.677093	2538.576363
813.996434	2536.204500
814.315731	2536.378420
814.634983	2539.297248
814.954191	2534.505631
815.273354	2537.520241
815.592473	2534.848430
815.911547	2536.272556
816.230577	2536.227185
816.549562	2535.954963
816.868502	2534.089736
817.187399	2538.271373
817.506250	2535.115611
817.825058	2537.734490
818.143821	2535.836496
818.462539	2539.418236
818.781213	2536.534696
819.099843	2535.796167
819.418429	2537.442103
819.736970	2541.313709
820.055466	2541.916127
820.373919	2543.758669
820.692327	2546.153217
821.010691	2549.702189
821.329011	2561.669889
821.647286	2577.894842
821.965517	2593.794642
822.283704	2606.153030
822.601847	2613.074534
822.919945	2601.797473
823.237999	2587.843559
823.556010	2579.182857
823.873976	2571.910993
824.191897	2563.414128
824.509775	2557.591595
824.827609	2551.181768
825.145398	2551.675801
825.463144	2554.032541
825.780845	2549.235883
826.098502	2553.404917
826.416116	2558.405742
826.733685	2563.451937
827.051210	2566.345559
827.368692	2560.588561
827.686129	2554.700493
828.003522	2550.685214
828.320872	2546.145655
828.638177	2541.500232
828.955439	2539.690458
829.272656	2535.433203
829.589830	2537.981507
829.906960	2539.115766
830.224046	2537.580735
830.541088	2537.928575
830.858086	2538.415046
831.175041	2537.978986
831.491952	2537.313554
831.808819	2540.010571
832.125642	2538.767927
832.442421	2540.978473
832.759157	2540.968390
833.075849	2543.252033
833.392497	2549.707231
833.709101	2550.173537
834.025662	2551.685883
834.342179	2550.511295
834.658653	2544.159441
834.975083	2542.543751
835.291469	2544.638350
835.607811	2540.209697
835.924110	2540.151723
836.240366	2538.362114
836.556578	2538.105015
836.872746	2533.845240
837.188871	2534.636701
837.504952	2537.311033
837.820990	2533.683923
838.136984	2534.893800
838.452935	2535.155940
838.768842	2533.525127
839.084706	2533.257946
839.400526	2535.014788
839.716303	2539.103163
840.032037	2541.490150
840.347727	2540.673483
840.663373	2536.769109
840.978977	2538.064686
841.294537	2536.454037
841.610054	2536.174253
841.925527	2534.160312
842.240957	2533.608306
842.556344	2534.009077
842.871687	2533.051258
843.186987	2533.416742
843.502244	2534.603934
843.817458	2533.643594
844.132629	2532.272400
844.447756	2531.780888
844.762840	2528.597399
845.077881	2530.931453
845.392879	2529.875331
845.707833	2529.194776
846.022745	2529.018335
846.337613	2533.073943
846.652438	2533.313398
846.967221	2532.736186
847.281960	2534.493028
847.596656	2530.422297
847.911309	2532.915147
848.225919	2532.443799
848.540485	2535.271887
848.855009	2533.474715
849.169490	2532.617719
849.483928	2530.999509
849.798323	2531.853984
850.112675	2530.245856
850.426984	2530.150074
850.741251	2532.037986
851.055474	2534.772812
851.369654	2532.171577
851.683792	2531.153264
851.997887	2532.055630
852.311938	2532.237112
852.625947	2532.622760
852.939914	2532.421114
853.253837	2534.780374
853.567718	2530.543284
853.881555	2533.772143
854.195350	2534.039324
854.509103	2534.341794
854.822812	2531.372554
855.136479	2532.804242
855.450103	2531.344828
855.763685	2532.463964
856.077224	2530.898686
856.390720	2530.979344
856.704173	2532.809283
857.017584	2530.006401
857.330953	2535.360107
857.644278	2528.882224
857.957561	2534.616537
858.270802	2530.588655
858.584000	2532.910106
858.897155	2532.403470
859.210268	2530.734848
859.523339	2531.125538
859.836367	2532.179139
860.149352	2533.530168
860.462295	2533.605785
860.775195	2529.635877
861.088054	2527.548839
861.400869	2526.941380
861.713642	2527.992460
862.026373	2531.012112
862.339062	2530.046731
862.651708	2530.717204
862.964312	2530.412214
863.276873	2531.675023
863.589392	2532.955476
863.901869	2531.722914
864.214303	2533.532688
864.526696	2530.876000
864.839045	2534.679551
865.151353	2532.632842
865.463619	2532.887421
865.775842	2533.588141
866.088023	2530.371885
866.400162	2533.411701
866.712258	2534.442617
867.024313	2533.822555
867.336325	2531.612009
867.648296	2532.511855
867.960224	2531.206196
868.272110	2533.265507
868.583954	2532.957997
868.895755	2530.649148
869.207515	2532.423635
869.519233	2531.165867
869.830909	2533.210055
870.142542	2536.189377
870.454134	2532.287523
870.765684	2531.606968
871.077191	2530.712163
871.388657	2535.864222
871.700081	2533.580579
872.011463	2534.457740
872.322803	2534.041845
872.634101	2530.525640
872.945357	2531.649818
873.256571	2534.480425
873.567744	2533.116793
873.878874	2532.078316
874.189963	2534.374561
874.501010	2533.391536
874.812015	2530.296268
875.122979	2533.240302
875.433900	2532.310209
875.744780	2537.553009
876.055618	2534.097298
876.366415	2533.540250
876.677169	2534.364479
876.987882	2531.319622
877.298554	2532.189221
877.609183	2531.969931
877.919771	2529.950949
878.230317	2532.098480
878.540822	2536.403626
878.851285	2535.443286
879.161707	2535.602082
879.472087	2538.271373
879.782425	2538.518390
880.092722	2542.531148
880.402977	2549.417364
880.713191	2558.274672
881.023363	2568.014181
881.333494	2576.626992
881.643583	2576.294276
881.953631	2573.720767
882.263637	2572.079871
882.573602	2569.609706
882.883526	2563.830023
883.193408	2562.816751
883.503248	2556.477500
883.813048	2552.754608
884.122806	2549.387117
884.432522	2542.536189
884.742197	2542.725233
885.051831	2541.956457
885.361424	2539.992927
885.670975	2537.895807
885.980485	2536.945550
886.289954	2538.188194
886.599382	2539.269522
886.908768	2536.645601
887.218113	2535.765920
887.527417	2537.525282
887.836680	2532.600075
888.145901	2534.180477
888.455082	2535.496218
888.764221	2533.073943
889.073319	2532.584952
889.382376	2532.867256
889.691392	2532.771474
890.000366	2535.329860
890.309300	2534.450178
890.618193	2533.925898
890.927044	2534.122503
891.235855	2534.941691
891.544625	2536.338091
891.853353	2535.221475
892.162041	2532.965559
892.470687	2533.517565
892.779293	2535.140817
893.087858	2533.119314
893.396381	2534.311547
893.704864	2534.815662
894.013306	2534.024201
894.321707	2545.026519
894.630068	2545.109698
894.938387	2546.606921
895.246665	2547.973074
895.554903	2543.972918
895.863100	2543.425953
896.171256	2542.261446
896.479371	2541.684234
896.787446	2542.059800
897.095480	2535.947401
897.403473	2539.703061
897.711425	2535.198790
898.019336	2537.789943
898.327207	2533.973789
898.635038	2535.014788
898.942827	2533.084026
899.250576	2535.586959
899.558284	2533.517565
899.865952	2531.024714
900.173579	2533.600744
900.481165	2532.264838
900.788711	2534.508152
901.096216	2532.768954
901.403681	2535.372710
901.711105	2532.635363
902.018489	2532.889941
902.325832	2535.344983
902.633135	2533.719211
902.940397	2534.445137
903.247619	2534.359438
903.554800	2539.687937
903.861941	2542.770603
904.169041	2551.857283
904.476101	2551.544731
904.783121	2553.866182
905.090100	2551.809392
905.397039	2546.133053
905.703938	2541.550644
906.010796	2540.791950
906.317614	2536.461599
906.624391	2537.593338
906.931129	2534.601413
907.237826	2536.116280
907.544483	2532.232071
907.851099	2535.750796
908.157675	2530.656710
908.464211	2532.088398
908.770707	2526.868283
909.077163	2529.724097
909.383578	2528.431041
909.689954	2527.218643
909.996289	2525.605474
910.302584	2530.775177
910.608839	2528.418438
910.915054	2531.556556
911.221229	2532.221988
911.527363	2533.124355
911.833458	2533.605785
912.139513	2529.119158
912.445527	2532.660569
912.751502	2531.024714
913.057436	2531.886752
913.363331	2532.080836
913.669186	2535.407998
913.975000	2533.484798
914.280775	2533.449509
914.586510	2538.009233
914.892205	2537.303472
915.197859	2544.146838
915.503475	2544.366128
915.809050	2547.174051
916.114585	2553.447767
916.420081	2551.159083
916.725536	2549.492982
917.030952	2549.145142
917.336328	2543.705737
917.641665	2547.660522
917.946961	2541.749769
918.252218	2537.860519
918.557435	2542.105171
918.862612	2536.030580
919.167750	2534.203162
919.472848	2538.452855
919.777906	2534.782895
920.082925	2535.765920
920.387904	2533.525127
920.692843	2534.974458
920.997743	2533.535209
921.302603	2531.798532
921.607423	2532.128727
921.912204	2533.073943
922.216946	2531.944725
922.521647	2532.529499
922.826310	2531.869108
923.130932	2532.733666
923.435516	2531.682585
923.740059	2533.419262
924.044564	2528.826771
924.349028	2531.105373
924.653454	2527.382481
924.957840	2528.988088
925.262186	2527.407687
925.566493	2527.626977
925.870761	2525.358457
926.174989	2529.179652
926.479178	2527.813499
926.783328	2529.535053
927.087438	2529.335928
927.391509	2528.955321
927.695541	2529.053623
927.999533	2529.855167
928.303486	2528.398273
928.607400	2531.039838
928.911275	2529.020856
929.215110	2530.616381
929.518906	2530.623943
929.822663	2529.225023
930.126381	2529.066226
930.430060	2529.966072
930.733699	2532.050589
931.037299	2528.962883
931.340861	2528.408356
931.644383	2527.992460
931.947866	2526.316277
932.251309	2529.472039
932.554714	2529.338448
932.858080	2533.494880
933.161407	2528.673016
933.464694	2528.368026
933.767943	2528.814168
934.071153	2528.620084
934.374323	2528.075639
934.677455	2528.960362
934.980548	2532.476567
935.283602	2528.068078
935.586617	2527.591689
935.889593	2529.671165
936.192530	2530.102183
936.495428	2529.295599
936.798287	2529.774508
937.101108	2528.947759
937.403890	2528.494055
937.706632	2531.286854
938.009336	2530.165198
938.312002	2530.644107
938.614628	2528.592358
938.917216	2531.284334
939.219765	2529.822399
939.522275	2531.702750
939.824747	2531.251566
940.127179	2527.400125
940.429573	2525.383663
940.731929	2529.835002
941.034246	2522.764784
941.336524	2531.521268
941.638763	2527.639580
941.940964	2529.386339
942.243126	2529.366175
942.545250	2525.993643
942.847335	2529.446833
943.149381	2529.877852
943.451389	2530.238294
943.753359	2528.763757
944.055290	2529.550177
944.357182	2529.973634
944.659036	2528.993129
944.960851	2530.611340
945.262628	2529.033459
945.564367	2528.602440
945.866067	2530.230733
946.167729	2530.689478
946.469352	2528.947759
946.770937	2528.599919
947.072484	2525.983561
947.373992	2529.237625
947.675462	2529.406504
947.976893	2530.218130
948.278286	2527.959693
948.579641	2530.444982
948.880958	2528.882224
949.182236	2527.072450
949.483476	2528.567152
949.784678	2528.403314
950.085841	2528.854498
950.386967	2530.011443
950.688054	2527.321987
950.989103	2527.148067
951.290114	2527.269055
951.591087	2530.061854
951.892021	2527.117820
952.192917	2530.455064
952.493776	2530.480270
952.794596	2527.208561
953.095378	2528.554549
953.396122	2530.505476
953.696828	2527.374919
953.997496	2530.399611
954.298126	2530.119827
954.598718	2529.761905
954.899272	2529.779549
955.199788	2529.892975
955.500266	2526.873324
955.800706	2527.518592
956.101108	2521.925432
956.401472	2528.214271
956.701798	2525.434075
957.002087	2526.452388
957.302337	2527.425331
957.602550	2527.243849
957.902724	2527.175793
958.202861	2530.409694
958.502960	2526.278468
958.803022	2528.461288
959.103045	2526.908612
959.403031	2529.771988
959.702979	2527.407687
960.002889	2530.815507
960.302762	2529.933305
960.602596	2529.807276
960.902393	2528.993129
961.202153	2528.236956
961.501875	2528.380629
961.801559	2527.846267
962.101205	2528.935156
962.400814	2529.376257
962.700385	2526.301153
962.999918	2530.190403
963.299414	2524.481297
963.598873	2527.054806
963.898293	2530.157636
964.197677	2525.184538
964.497022	2526.805269
964.796331	2527.659744
965.095601	2527.107738
965.394835	2526.883407
965.694030	2526.452388
965.993189	2529.061185
966.292309	2526.807789
966.591393	2526.727131
966.890439	2526.177645
967.189447	2527.200999
967.488419	2528.836854
967.787353	2527.153108
968.086249	2523.778056
968.385108	2529.613191
968.683930	2526.850639
968.982714	2527.037162
969.281462	2525.479445
969.580172	2527.306863
969.878844	2525.713859
970.177480	2525.620597
970.476078	2527.117820
970.774639	2526.361647
971.073162	2526.417100
971.371649	2525.640762
971.670098	2523.836029
971.968510	2525.146729
972.266885	2522.041378
972.565223	2526.144878
972.863524	2525.265196
973.161788	2527.601771
973.460014	2528.083201
973.758204	2527.634538
974.056356	2526.855680
974.354471	2527.697553
974.652550	2525.955834
974.950591	2526.918695
975.248595	2522.805113
975.546563	2525.711338
975.844493	2526.142357
976.142386	2529.104035
976.440243	2525.257634
976.738062	2526.863242
977.035845	2529.098994
977.333590	2525.222346
977.631299	2528.279806
977.928971	2529.595547
978.226606	2528.330218
978.524204	2526.858201
978.821765	2528.385670
979.119290	2527.997502
979.416777	2525.923067
979.714228	2528.254600
980.011642	2526.623787
980.309020	2526.505320
980.606360	2527.392563
980.903664	2527.258973
981.200931	2525.355937
981.498162	2527.047244
981.795356	2527.379960
982.092513	2528.897348
982.389633	2529.469518
982.686717	2528.186545
982.983764	2526.505320
983.280775	2528.249559
983.577749	2527.770650
983.874686	2527.120341
984.171587	2526.752337
984.468451	2526.548170
984.765279	2529.618233
985.062070	2525.728982
985.358824	2527.090094
985.655543	2524.483817
985.952224	2527.914323
986.248869	2526.258303
986.545478	2523.634383
986.842050	2523.921729
987.138586	2524.408200
987.435086	2521.822088
987.731549	2521.408713
988.027975	2527.364837
988.324366	2527.372398
988.620719	2526.704446
988.917037	2527.949611
989.213318	2526.999353
989.509563	2525.030783
989.805772	2526.757378
990.101944	2526.190248
990.398080	2526.601102
990.694180	2525.819723
990.990244	2528.630166
991.286271	2526.704446
991.582262	2527.175793
991.878217	2525.721421
992.174136	2524.687984
992.470019	2525.741585
992.765865	2527.861390
993.061676	2524.733354
993.357450	2525.623118
993.653188	2525.839888
993.948890	2526.714528
994.244556	2525.928108
994.540186	2526.946421
994.835780	2527.755526
995.131337	2527.495907
995.426859	2522.563138
995.722345	2525.764270
996.017795	2525.512213
996.313208	2525.489528
996.608586	2527.697553
996.903928	2526.790145
997.199234	2523.778056
997.494504	2527.674868
997.789738	2526.457429
998.084936	2524.680422
998.380099	2524.347706
998.675225	2528.834333
998.970316	2528.771319
999.265371	2525.640762
999.560390	2525.764270
999.855373	2527.385001
1000.150320	2526.404497
1000.445232	2525.794517
1000.740108	2522.994156
1001.034948	2527.637059
1001.329752	2525.852491
1001.624521	2523.465504
1001.919254	2520.861748
1002.213951	2523.077335
1002.508613	2521.491892
1002.803239	2525.136647
1003.097829	2521.330576
1003.392384	2527.369878
1003.686903	2526.543129
1003.981386	2527.077491
1004.275834	2527.483304
1004.570246	2522.240504
1004.864623	2526.349044
1005.158964	2526.306194
1005.453270	2526.255783
1005.747540	2523.866276
1006.041775	2527.180835
1006.335974	2527.553880
1006.630138	2525.509692
1006.924266	2525.406348
1007.218359	2525.028262
1007.512416	2525.353416
1007.806438	2523.836029
1008.100425	2527.899199
1008.394376	2522.714372
1008.688292	2525.519774
1008.982172	2527.057326
1009.276017	2526.530526
1009.569827	2524.264527
1009.863602	2525.028262
1010.157341	2525.426513
1010.451045	2527.891637
1010.744714	2526.049096
1011.038347	2523.452901
1011.331945	2524.435926
1011.625508	2527.395084
1011.919036	2523.997346
1012.212528	2525.570186
1012.505986	2526.361647
1012.799408	2526.099507
1013.092795	2526.414579
1013.386147	2526.288550
1013.679464	2522.548014
1013.972745	2524.277130
1014.265992	2527.042203
1014.559204	2525.030782
1014.852380	2526.548170
1015.145521	2526.545649
1015.438628	2525.875176
1015.731699	2526.233098
1016.024736	2523.853673
1016.317737	2526.275948
1016.610703	2526.011287
1016.903635	2523.589013
1017.196531	2522.379136
1017.489393	2521.789321
1017.782219	2520.176151
1018.075011	2524.529188
1018.367768	2525.633200
1018.660490	2527.574045
1018.953177	2527.574045
1019.245829	2527.574045
