Dividing Wavelength (nm)	Counts (n)	Blue Motor Position (mm): 21.400000	Red Motor Position (mm): 0.000000	
326.493990	2188.339679
326.888308	2188.339679
327.282561	2188.339679
327.676750	2148.222177
328.070874	2144.557258
328.464933	2147.276960
328.858929	2149.656385
329.252859	2152.141674
329.646726	2163.575011
330.040528	2175.346105
330.434265	2187.205419
330.827938	2208.894984
331.221547	2220.144318
331.615091	2239.388923
332.008571	2259.765267
332.401986	2275.919645
332.795338	2294.700463
333.188625	2315.054122
333.581847	2333.512307
333.975006	2351.758763
334.368100	2371.005888
334.761129	2387.069525
335.154095	2404.461506
335.546996	2426.844229
335.939833	2461.207254
336.332606	2477.832980
336.725315	2491.209681
337.117960	2502.627895
337.510540	2513.305059
337.903056	2527.400125
338.295508	2532.736186
338.687896	2541.916127
339.080220	2548.623382
339.472480	2555.693601
339.864676	2562.577296
340.256807	2568.626681
340.648875	2572.183215
341.040879	2573.811508
341.432818	2576.150603
341.824694	2583.165369
342.216506	2581.587487
342.608253	2578.759400
342.999937	2581.731160
343.391557	2581.025399
343.783113	2580.417940
344.174605	2578.144379
344.566033	2580.034812
344.957397	2578.517425
345.348697	2577.809143
345.739934	2577.746128
346.131106	2574.020716
346.522215	2573.821590
346.913260	2571.490056
347.304241	2569.312278
347.695159	2563.814900
348.086012	2565.720456
348.476802	2560.394477
348.867528	2558.879610
349.258191	2556.984136
349.648789	2554.798796
350.039324	2550.448280
350.429796	2556.815258
350.820203	2554.511450
351.210548	2554.047664
351.600828	2550.861655
351.991045	2550.387786
352.381198	2548.983825
352.771288	2549.072045
353.161314	2546.657333
353.551276	2547.688248
353.941175	2546.909390
354.331010	2546.120450
354.720782	2548.020965
355.110490	2547.007693
355.500135	2546.730429
355.889717	2545.349153
356.279235	2548.121788
356.668689	2546.818649
357.058080	2547.859648
357.447408	2546.644730
357.836672	2546.977446
358.225873	2546.841335
358.615010	2547.358053
359.004084	2547.988197
359.393095	2549.205636
359.782043	2550.022303
360.170927	2547.728578
360.559748	2549.256047
360.948505	2549.344267
361.337199	2551.020451
361.725830	2553.309135
362.114398	2551.358208
362.502903	2551.101110
362.891344	2553.195709
363.279722	2556.101934
363.668037	2550.236552
364.056289	2556.742161
364.444478	2556.807696
364.832603	2553.596481
365.220665	2558.443550
365.608665	2556.666543
365.996601	2556.212840
366.384474	2559.103941
366.772284	2558.461194
367.160031	2558.060422
367.547715	2558.493962
367.935336	2559.469425
368.322893	2554.319886
368.710388	2555.882644
369.097820	2558.501523
369.485189	2556.648899
369.872495	2561.460681
370.259738	2559.968499
370.646918	2559.355999
371.034035	2561.828685
371.421090	2561.569066
371.808081	2560.830537
372.195010	2563.479663
372.581875	2561.069991
372.968678	2562.690722
373.355418	2561.992522
373.742096	2563.711556
374.128710	2562.060578
374.515262	2561.899261
374.901751	2562.085784
375.288177	2563.300702
375.674540	2560.949004
376.060841	2563.119220
376.447079	2566.562328
376.833254	2567.121897
377.219367	2562.857080
377.605417	2566.718604
377.991404	2563.235167
378.377329	2564.160219
378.763191	2567.530230
379.148991	2566.602658
379.534727	2567.767164
379.920402	2568.041907
380.306013	2568.621640
380.691563	2567.603327
381.077049	2565.922102
381.462474	2567.862946
381.847835	2567.207596
382.233134	2570.030642
382.618371	2566.033007
383.003545	2568.924109
383.388657	2566.610219
383.773706	2571.885787
384.158693	2569.564336
384.543618	2568.185580
384.928480	2567.515107
385.313280	2569.836558
385.698017	2571.018708
386.082692	2570.585169
386.467305	2569.879408
386.851856	2571.071641
387.236344	2570.449058
387.620770	2568.679613
388.005133	2570.159192
388.389435	2570.360838
388.773674	2569.186249
389.157851	2572.750345
389.541965	2574.373596
389.926018	2574.807136
390.310008	2570.290262
390.693936	2573.514080
391.077802	2574.441652
391.461606	2572.926785
391.845348	2572.659604
392.229027	2576.044739
392.612645	2574.481981
392.996200	2575.220510
393.379694	2575.006261
393.763125	2576.478278
394.146494	2574.033318
394.529801	2576.458113
394.913047	2577.544482
395.296230	2574.847465
395.679351	2576.780747
396.062410	2577.541962
396.445408	2575.747311
396.828343	2579.152610
397.211217	2579.021540
397.594028	2578.222517
397.976778	2579.901222
398.359466	2580.627148
398.742092	2577.778896
399.124656	2575.744790
399.507158	2576.621951
399.889598	2576.931982
400.271977	2583.266192
400.654294	2579.291242
401.036549	2578.945923
401.418742	2578.338464
401.800874	2579.230748
402.182944	2581.337950
402.564952	2582.338619
402.946898	2582.411716
403.328783	2580.291911
403.710606	2581.622776
404.092367	2583.530852
404.474067	2582.353743
404.855705	2581.637899
405.237282	2581.471541
405.618797	2580.397775
406.000250	2583.208218
406.381642	2583.982036
406.762972	2580.796026
407.144240	2579.134966
407.525447	2582.545307
407.906593	2580.735533
408.287677	2582.401634
408.668700	2582.719227
409.049661	2586.598394
409.430560	2584.597056
409.811399	2585.252406
410.192176	2589.071080
410.572891	2584.934814
410.953545	2587.253744
411.334138	2585.481779
411.714669	2585.539752
412.095139	2588.062850
412.475547	2585.673343
412.855894	2587.014290
413.236180	2585.885071
413.616405	2584.536562
413.996568	2585.880030
414.376670	2589.204671
414.756711	2588.471183
415.136691	2589.212233
415.516609	2588.496389
415.896466	2586.202664
416.276262	2588.531677
416.655997	2588.259455
417.035670	2588.614856
417.415283	2589.459249
417.794834	2589.179465
418.174324	2584.531521
418.553753	2588.004876
418.933121	2589.963365
419.312428	2586.782397
419.691674	2589.454208
420.070859	2590.159970
420.449983	2589.527305
420.829045	2591.485793
421.208047	2589.124012
421.586988	2592.609970
421.965867	2593.308170
422.344686	2591.541246
422.723444	2591.821030
423.102141	2590.772470
423.480777	2590.850608
423.859352	2592.047882
424.237866	2595.508634
424.616319	2592.988057
424.994712	2595.513675
425.373044	2593.232553
425.751314	2590.331369
426.129524	2589.365988
426.507673	2593.124168
426.885762	2589.234918
427.263789	2593.676174
427.641756	2595.198603
428.019662	2592.859507
428.397508	2592.413365
428.775292	2595.914447
429.153016	2594.681885
429.530679	2591.629466
429.908282	2597.184817
430.285824	2595.299426
430.663305	2594.568459
431.040726	2593.993767
431.418086	2597.636001
431.795385	2597.353696
432.172624	2597.152050
432.549802	2595.783377
432.926920	2597.867894
433.303977	2597.119282
433.680974	2596.040476
434.057910	2595.710280
434.434786	2599.019797
434.811601	2598.853439
435.188355	2598.515682
435.565050	2600.015425
435.941683	2598.041814
436.318257	2597.222626
436.694770	2600.073399
437.071222	2596.673140
437.447614	2600.592638
437.823946	2600.360744
438.200218	2601.033738
438.576429	2600.718666
438.952580	2599.531475
439.328670	2602.536002
439.704700	2598.838316
440.080670	2599.841506
440.456580	2598.641711
440.832429	2601.530292
441.208218	2598.563573
441.583947	2602.886362
441.959616	2602.283945
442.335224	2602.525920
442.710773	2597.988882
443.086261	2602.359562
443.461689	2602.296547
443.837057	2601.414346
444.212365	2603.493822
444.587612	2602.291506
444.962800	2601.646239
445.337927	2598.787904
445.712995	2594.810434
446.088002	2605.485077
446.462949	2602.515838
446.837837	2603.453492
447.212664	2603.077926
447.587431	2604.275200
447.962139	2605.051538
448.336786	2611.567229
448.711374	2610.332147
449.085901	2608.872733
449.460369	2606.848709
449.834776	2607.234358
450.209124	2607.640171
450.583412	2611.584873
450.957640	2611.244596
451.331808	2609.840634
451.705917	2607.327619
452.079965	2608.663525
452.453954	2608.161930
452.827883	2606.059769
453.201752	2609.704523
453.575562	2609.888525
453.949311	2610.304420
454.323001	2610.685027
454.696632	2609.172681
455.070202	2611.910028
455.443713	2612.530090
455.817164	2613.485388
456.190556	2613.601335
456.563888	2616.636110
456.937160	2612.983794
457.310373	2614.160903
457.683526	2614.972529
458.056619	2614.783486
458.429653	2615.116202
458.802628	2612.837600
459.175542	2615.927827
459.548398	2616.769700
459.921194	2614.833897
460.293930	2620.689197
460.666607	2617.790534
461.039224	2620.096862
461.411782	2621.664661
461.784280	2623.479476
462.156719	2622.655247
462.529099	2623.439147
462.901419	2622.932511
463.273680	2622.561986
463.645882	2619.277674
464.018024	2621.760443
464.390106	2616.920935
464.762130	2626.151287
465.134094	2628.384519
465.505999	2631.018522
465.877845	2634.784263
466.249631	2641.040335
466.621358	2645.378248
466.993026	2642.464461
467.364634	2645.668115
467.736184	2640.914307
468.107674	2641.186529
468.479105	2639.696868
468.850477	2642.227527
469.221790	2645.365645
469.593043	2642.605614
469.964238	2643.427322
470.335373	2644.697693
470.706449	2648.314720
471.077467	2649.416212
471.448425	2656.927532
471.819324	2668.522186
472.190164	2678.443176
472.560945	2671.468740
472.931667	2668.612926
473.302330	2670.445386
473.672934	2671.168791
474.043479	2677.046777
474.413965	2681.619103
474.784393	2683.902746
475.154761	2688.893488
475.525070	2697.314736
475.895321	2700.679706
476.265513	2709.884853
476.635645	2723.536297
477.005719	2730.508213
477.375734	2738.737897
477.745691	2751.678539
478.115588	2768.410128
478.485427	2784.060391
478.855207	2808.424287
479.224928	2850.096985
479.594591	2899.228071
479.964194	2916.647778
480.333739	2932.242587
480.703226	2947.045936
481.072653	2972.939822
481.442022	3010.211593
481.811333	3065.301323
482.180584	3090.827205
482.549777	3105.287755
482.918912	3135.895120
483.287988	3182.419929
483.657005	3216.626679
484.025964	3248.701020
484.394864	3284.881381
484.763706	3317.913542
485.132489	3356.722865
485.501213	3408.361924
485.869879	3463.653299
486.238487	3507.773478
486.607036	3583.148810
486.975527	3624.577012
487.343959	3708.272769
487.712333	3778.397740
488.080648	3822.323834
488.448905	3929.065225
488.817104	3986.173937
489.185244	4119.754431
489.553326	4206.245508
489.921350	4358.440463
490.289315	4667.372453
490.657222	4946.848981
491.025070	5094.506898
491.392861	5191.581877
491.760593	5218.118511
492.128267	5256.799284
492.495883	5243.656996
492.863440	5276.883241
493.230939	5287.278100
493.598380	5394.571498
493.965763	5457.175067
494.333088	5518.357031
494.700354	5632.430781
495.067563	5753.736066
495.434713	5850.175859
495.801805	5967.677594
496.168839	6099.591987
496.535815	6206.446805
496.902733	6369.981835
497.269593	6421.268014
497.636395	6616.249763
498.003139	6747.607108
498.369825	6868.675459
498.736453	7017.717172
499.103023	7127.120293
499.469535	7289.573997
499.835989	7487.530026
500.202385	7664.673651
500.568723	7700.302006
500.935003	7882.353195
501.301226	7967.498283
501.667390	8293.234960
502.033497	8573.843227
502.399546	8618.439794
502.765537	8722.050629
503.131470	8962.914440
503.497345	9172.460082
503.863163	9106.637736
504.228923	9467.072674
504.594625	9709.975631
504.960269	9708.753151
505.325856	10053.230317
505.691385	10053.036233
506.056856	10396.384180
506.422270	10618.000865
506.787625	10605.554256
507.152924	10987.260343
507.518164	11128.576488
507.883347	11235.196892
508.248472	11278.694488
508.613540	11776.014397
508.978550	11915.281313
509.343503	12083.436561
509.708398	12389.802604
510.073236	12628.715488
510.438016	12927.098863
510.802738	12994.531858
511.167403	13290.578658
511.532010	13333.693127
511.896561	13901.926947
512.261053	14125.048416
512.625488	14196.814283
512.989866	14345.223331
513.354186	14441.637919
513.718449	14725.280961
514.082655	15079.424539
514.446803	15171.100442
514.810894	15583.151755
515.174927	15489.381252
515.538904	15693.300966
515.902822	16148.028167
516.266684	16235.035962
516.630488	16336.022876
516.994235	16533.600819
517.357925	16874.539094
517.721558	17203.726441
518.085133	17440.758974
518.448651	17565.315803
518.812112	17594.022654
519.175516	17857.370010
519.538863	18198.988842
519.902152	18197.831897
520.265385	18625.296537
520.628560	18632.543196
520.991678	18832.019133
521.354739	19053.635818
521.717743	19273.346946
522.080690	19274.234189
522.443580	19711.549244
522.806413	19851.305153
523.169189	20122.315063
523.531908	20285.272881
523.894569	20169.636374
524.257174	20371.642970
524.619722	20686.132832
524.982213	20570.760985
525.344647	20811.402985
525.707025	21027.459277
526.069345	21194.313907
526.431608	21297.808796
526.793815	21610.675407
527.155964	21234.433930
527.518057	21528.474352
527.880093	21627.089403
528.242072	21906.835633
528.603995	21784.917848
528.965860	21741.130386
529.327669	21943.414246
529.689421	22015.719515
530.051117	21985.732212
530.412755	22278.474536
530.774337	22194.430940
531.135862	22181.109691
531.497331	22462.060756
531.858743	22158.742091
532.220098	22696.300490
532.581396	22479.606492
532.942638	22560.423750
533.303824	22710.720711
533.664953	22806.200165
534.026025	22610.590793
534.387040	22882.613975
534.747999	23058.318351
535.108902	23261.565071
535.469748	22877.348489
535.830537	23129.625472
536.191270	23290.849134
536.551947	23292.631182
536.912567	23031.201984
537.273131	23367.734292
537.633638	23162.944978
537.994089	23432.094703
538.354483	23063.959402
538.714821	23586.250667
539.075103	23684.049051
539.435328	23537.497668
539.795497	23144.474191
540.155609	23591.818621
540.515665	23914.197889
540.875665	23228.273291
541.235609	23524.385627
541.595496	23570.033275
541.955328	23926.745321
542.315102	23884.291244
542.674821	23517.017980
543.034483	23431.716616
543.394090	23617.883907
543.753640	23429.180916
544.113134	24083.820113
544.472571	23735.181475
544.831953	24036.609707
545.191278	23670.357278
545.550548	23656.347911
545.909761	23875.383525
546.268918	24113.653662
546.628019	24088.866308
546.987064	23835.858358
547.346053	23626.474033
547.704986	23768.667339
548.063863	23939.776704
548.422684	23937.843421
548.781449	23539.672926
549.140158	23942.887096
549.498811	23531.344940
549.857408	23284.535088
550.215949	23736.910591
550.574434	23420.820162
550.932864	23662.417460
551.291237	23809.810716
551.649555	23694.960629
552.007817	23750.836778
552.366022	23637.481393
552.724173	23690.957953
553.082267	23634.691114
553.440305	24103.278967
553.798288	23392.723291
554.156215	23925.212810
554.514086	24006.461087
554.871902	23379.719635
555.229661	23680.878166
555.587365	23555.597931
555.945014	23385.993351
556.302606	23677.913967
556.660143	23594.066976
557.017625	23871.194326
557.375050	23420.555502
557.732421	23810.085459
558.089735	23617.800728
558.446994	23683.555018
558.804197	23699.399365
559.161345	23678.788607
559.518437	23399.208736
559.875474	23615.832158
560.232455	23790.498056
560.589381	23636.735302
560.946251	23596.731226
561.303065	23938.271919
561.659825	24007.854966
562.016528	23624.228199
562.373177	23365.649774
562.729770	23704.425395
563.086307	23605.691877
563.442789	23768.992494
563.799216	23589.028342
564.155587	23604.981074
564.511904	23596.481688
564.868164	23516.029914
565.224370	23510.603112
565.580520	23414.919492
565.936615	23551.554925
566.292654	23220.651066
566.648638	23541.969171
567.004567	23360.379248
567.360441	23306.731289
567.716260	23034.110730
568.072023	23374.249983
568.427732	23118.814718
568.783385	22913.869128
569.138982	23147.408142
569.494525	23183.656559
569.850013	22927.840686
570.205445	23030.004710
570.560823	22825.127177
570.916145	22611.510803
571.271412	22775.620525
571.626625	22531.497609
571.981782	22643.784270
572.336884	22441.944032
572.691931	22582.451072
573.046923	22322.509015
573.401860	22198.484027
573.756743	22192.500178
574.111570	22113.656532
574.466342	22058.060166
574.821059	22144.059730
575.175722	21848.307837
575.530330	21846.518227
575.884882	21869.006815
576.239380	21768.284561
576.593823	21661.142398
576.948211	21641.996095
577.302544	21494.822129
577.656823	21354.637723
578.011047	21448.158689
578.365216	21334.604178
578.719330	21212.295703
579.073389	21117.295159
579.427394	21257.424112
579.781344	21036.694671
580.135239	20925.338103
580.489080	20920.044891
580.842866	20670.366624
581.196597	20848.420177
581.550273	20835.953404
581.903895	20729.232177
582.257463	21036.934126
582.610975	20564.822506
582.964434	20868.534381
583.317837	20589.967782
583.671186	20682.354488
584.024481	20637.420163
584.377721	20423.410579
584.730906	20471.699792
585.084037	20502.201293
585.437113	20402.126828
585.790135	20602.999164
586.143103	20086.169990
586.496016	20087.067315
586.848874	20327.653862
587.201679	20284.257089
587.554428	19936.198183
587.907124	20265.897207
588.259765	20057.879034
588.612352	20137.027670
588.964884	19695.707418
589.317362	19871.946157
589.669786	19914.629607
590.022155	19980.194853
590.374470	20145.643002
590.726731	19955.135278
591.078937	19703.846361
591.431090	19810.234872
591.783188	19546.516991
592.135232	19533.319250
592.487222	19623.341655
592.839157	19660.005967
593.191038	19545.783503
593.542866	19430.076419
593.894639	19154.534512
594.246358	19366.749445
594.598022	19280.581002
594.949633	19033.531696
595.301190	18992.201796
595.652692	19155.767074
596.004141	19396.600637
596.355535	18728.642712
596.706876	18740.302900
597.058162	18636.273650
597.409395	18842.338375
597.760573	18939.786399
598.111698	18721.905209
598.462768	18651.860897
598.813785	18615.234394
599.164748	18444.855997
599.515657	18465.592783
599.866511	18266.313451
600.217312	18629.329460
600.568060	18158.813366
600.918753	18465.744018
601.269392	18363.322895
601.619978	18138.389131
601.970510	18359.491618
602.320988	18298.254202
602.671412	18517.191513
603.021783	18411.428106
603.372100	18143.929359
603.722363	18280.095966
604.072572	18217.552891
604.422728	18350.316718
604.772830	18107.224718
605.122878	18056.951811
605.472872	18060.679745
605.822813	18047.842446
606.172701	17997.466196
606.522534	18209.935707
606.872314	18230.659891
607.222041	18062.698727
607.571714	18278.918856
607.921333	18107.161704
608.270899	18179.459412
608.620411	18384.682264
608.969870	18133.307648
609.319276	18137.015417
609.668627	18157.253129
610.017926	18313.803641
610.367171	18412.809382
610.716362	18456.644735
611.065500	18293.717163
611.414585	18403.957116
611.763616	18389.199138
612.112594	18346.636676
612.461518	18317.163570
612.810389	18507.673815
613.159207	18358.599334
613.507971	18261.945291
613.856682	18562.052742
614.205340	18484.406369
614.553945	18621.528275
614.902496	18359.630250
615.250994	18609.006048
615.599439	18538.787817
615.947830	18530.275828
616.296169	18583.754909
616.644454	18541.804947
616.992686	18519.971710
617.340864	18728.801508
617.688990	18487.083222
618.037063	18671.387807
618.385082	18501.193412
618.733048	18793.358524
619.080961	18660.158637
619.428821	18700.724802
619.776628	18585.269776
620.124382	18511.757150
620.472083	18538.790337
620.819731	18564.336384
621.167326	18262.635929
621.514868	18305.347105
621.862357	18065.771310
622.209793	18074.081652
622.557176	17910.846570
622.904506	17736.828460
623.251783	17646.211199
623.599007	17419.785253
623.946179	17362.737036
624.293297	17306.414744
624.640363	17060.736632
624.987376	17073.236173
625.334336	16874.702932
625.681243	16719.379941
626.028097	16718.482615
626.374899	16653.920558
626.721647	16524.607400
627.068343	16361.732761
627.414987	16290.342460
627.761577	16258.805002
628.108115	16309.985316
628.454600	16027.075762
628.801032	16121.486492
629.147412	16056.339661
629.493739	16077.641056
629.840014	15880.743669
630.186236	15992.107799
630.532405	15753.910759
630.878521	15954.160513
631.224585	15834.181052
631.570597	15663.084290
631.916556	15702.722883
632.262462	15675.762792
632.608316	15595.870586
632.954117	15532.659558
633.299866	15533.766091
633.645562	15453.876406
633.991206	15210.996134
634.336797	15080.135342
634.682336	15042.740063
635.027823	14949.597183
635.373257	14832.488659
635.718639	14715.390217
636.063968	14670.627291
636.409245	14424.477831
636.754470	14453.799703
637.099642	14294.612667
637.444762	14066.485332
637.789829	14119.603970
638.134845	13953.744968
638.479808	13973.213904
638.824719	13937.774592
639.169577	13775.945992
639.514383	13828.021111
639.859137	13644.457576
640.203839	13723.901120
640.548489	13573.452924
640.893086	13563.746182
641.237632	13427.445985
641.582125	13577.296804
641.926566	13409.340681
642.270955	13428.867591
642.615292	13381.304304
642.959576	13391.195048
643.303809	13429.918671
643.647990	13362.200852
643.992118	13423.120675
644.336195	13197.584493
644.680219	13386.743709
645.024192	13320.538236
645.368112	13556.628073
645.711981	13618.364564
646.055797	13791.134988
646.399562	13756.240122
646.743274	14016.376263
647.086935	14293.226350
647.430544	14266.689716
647.774101	14293.380105
648.117606	14449.716368
648.461059	14419.562706
648.804460	14411.827056
649.147810	14144.078772
649.491108	14037.954922
649.834354	14056.289598
650.177548	13758.022169
650.520690	13566.095360
650.863781	13489.278258
651.206820	13528.004402
651.549807	13353.451929
651.892742	13168.388651
652.235626	13110.470834
652.578458	13109.429836
652.921238	12788.729273
653.263967	12989.939367
653.606644	12817.602481
653.949269	12792.404274
654.291843	12600.215324
654.634365	12749.720824
654.976836	12609.949793
655.319255	12622.587965
655.661622	12568.072927
656.003938	12488.546205
656.346203	12414.784042
656.688416	12485.836585
657.030577	12450.346862
657.372687	12369.398534
657.714746	12346.829288
658.056753	12524.371165
658.398708	12350.123682
658.740612	12360.057276
659.082465	12454.596554
659.424266	12416.301429
659.766016	12438.638782
660.107715	12348.951614
660.449362	12413.589288
660.790958	12382.518137
661.132503	12322.974548
661.473996	12388.237326
661.815438	12406.080490
662.156829	12415.714135
662.498168	12399.877350
662.839456	12399.196794
663.180693	12415.777149
663.521879	12503.364677
663.863013	12485.619815
664.204097	12464.998975
664.545129	12571.652147
664.886110	12549.161039
665.227040	12631.193215
665.567918	12634.850572
665.908746	12675.630986
666.249522	12648.118889
666.590248	12708.693393
666.930922	12823.755209
667.271545	12801.964822
667.612118	12883.326524
667.952639	12789.568625
668.293109	12791.995940
668.633528	12753.146288
668.973896	12726.720560
669.314213	12816.816061
669.654480	12556.271586
669.994695	12611.515071
670.334859	12638.805357
670.674973	12577.963671
671.015035	12625.078295
671.355047	12562.562946
671.695008	12530.755786
672.034918	12541.488403
672.374777	12579.753281
672.714585	12507.095131
673.054342	12527.688244
673.394049	12483.436996
673.733705	12571.531159
674.073310	12480.636635
674.412864	12505.822239
674.752368	12381.981254
675.091820	12380.426058
675.431223	12377.628217
675.770574	12249.008218
676.109875	12169.206753
676.449125	12143.272537
676.788324	12075.320304
677.127473	11913.363154
677.466571	11903.505178
677.805619	11807.584623
678.144616	11718.459543
678.483562	11683.365551
678.822458	11556.557847
679.161303	11539.808613
679.500098	11529.610359
679.838842	11478.616567
680.177535	11496.469813
680.516179	11565.105123
680.854771	11512.236022
681.193314	11719.387116
681.531805	11867.135773
681.870247	12276.674071
682.208638	12690.038604
682.546978	13005.019978
682.885268	13063.714132
683.223508	12753.194179
683.561697	12589.051689
683.899836	12495.934016
684.237925	12300.233903
684.575963	12210.985315
684.913951	12151.066161
685.251889	12088.167684
685.589776	12182.495234
685.927614	12117.802107
686.265401	12073.727299
686.603137	12118.079371
686.940824	12263.282245
687.278460	12381.119217
687.616046	12430.749376
687.953582	12612.432561
688.291068	12531.345601
688.628504	12751.273499
688.965889	12768.925100
689.303224	12743.989032
689.640510	12640.060604
689.977745	12339.323010
690.314930	12114.270779
690.652065	12027.008406
690.989150	11744.373595
691.326185	11511.373985
691.663170	11298.226438
692.000105	11062.807074
692.336990	10953.628285
692.673825	10706.135357
693.010610	10587.640516
693.347345	10384.255164
693.684030	10177.446868
694.020665	10119.198856
694.357251	9926.780534
694.693786	9877.200786
695.030272	9708.211227
695.366707	9591.742929
695.703093	9521.459162
696.039429	9517.569912
696.375716	9449.239592
696.711952	9314.895363
697.048139	9350.811063
697.384276	9310.300351
697.720363	9321.015324
698.056400	9260.632383
698.392388	9208.632881
698.728326	9174.214403
699.064214	9113.607131
699.400053	9159.607660
699.735842	8975.600503
700.071581	8929.524357
700.407270	8859.159932
700.742910	8774.334957
701.078501	8691.970064
701.414042	8574.138134
701.749533	8499.274479
702.084974	8362.870938
702.420366	8471.207855
702.755709	8356.466153
703.091002	8220.904484
703.426246	8248.986232
703.761440	8206.312865
704.096584	8160.975247
704.431679	8099.069878
704.766725	8083.676715
705.101721	8029.020525
705.436668	8071.862771
705.771565	7974.245868
706.106413	8046.818319
706.441212	8092.085360
706.775961	8050.505923
707.110661	8078.451559
707.445311	8227.636945
707.779913	8120.996377
708.114465	8252.502437
708.448967	8293.333262
708.783421	8422.049043
709.117825	8607.150130
709.452180	8648.943816
709.786485	8733.456240
710.120742	9014.341771
710.454949	9007.294237
710.789107	9112.775341
711.123216	9320.612031
711.457275	9487.638061
711.791286	9647.475406
712.125247	9638.267738
712.459159	9627.038568
712.793023	9886.574812
713.126837	9460.181417
713.460602	9603.793807
713.794318	9436.861039
714.127985	9467.274320
714.461602	9158.758225
714.795171	9104.177653
715.128691	8860.145477
715.462162	8602.638298
715.795584	8549.852376
716.128957	8408.019512
716.462281	8233.966114
716.795556	8281.932693
717.128782	8088.778363
717.461960	7814.007752
717.795088	7889.209164
718.128167	7795.995709
718.461198	7633.809187
718.794180	7569.753766
719.127113	7558.388484
719.459997	7417.284067
719.792833	7184.241607
720.125619	7246.439364
720.458357	7105.987776
720.791046	7093.392453
721.123686	7092.260714
721.456278	6933.366066
721.788821	6956.996474
722.121315	6845.859197
722.453761	6912.210864
722.786158	6857.743717
723.118506	6869.474482
723.450805	6844.682087
723.783056	6905.425471
724.115259	6816.272665
724.447412	6810.891233
724.779518	6857.315219
725.111574	6854.081319
725.443582	6930.716939
725.775542	6912.563744
726.107453	7098.718432
726.439315	7019.542070
726.771129	7070.064514
727.102895	7241.526759
727.434612	7349.243614
727.766281	7380.415589
728.097901	7468.698796
728.429473	7456.269831
728.760996	7433.637571
729.092471	7407.559682
729.423897	7358.920109
729.755276	7370.436625
730.086606	7299.996582
730.417887	7396.423773
730.749120	7574.275681
731.080305	7765.032942
731.411442	7900.902121
731.742530	7892.143116
732.073570	7994.808734
732.404562	8084.780728
732.735506	7933.851102
733.066401	8078.396106
733.397249	8004.999427
733.728048	7777.093903
734.058798	7441.106040
734.389501	7228.765078
734.720156	7049.504168
735.050762	6810.797972
735.381320	6706.864503
735.711831	6663.923954
736.042293	6556.280196
736.372707	6584.679537
736.703073	6441.883813
737.033391	6477.333207
737.363661	6487.440720
737.693883	6512.341499
738.024056	6597.796619
738.354182	6641.936962
738.684260	6674.074318
739.014290	6791.182842
739.344272	6899.227372
739.674207	6929.542351
740.004093	6995.147927
740.333931	7012.950762
740.663722	7022.402925
740.993464	7097.921930
741.323159	7093.435303
741.652806	6843.757036
741.982405	6840.170255
742.311956	6906.836994
742.641460	6753.033910
742.970915	6557.096863
743.300323	6546.452467
743.629683	6496.295507
743.958996	6365.033943
744.288260	6273.839470
744.617477	6221.000616
744.946647	6229.981431
745.275768	6062.148817
745.604842	6016.652403
745.933869	6003.164796
746.262847	5956.488753
746.591778	5947.986847
746.920662	5910.276496
747.249498	5894.041460
747.578286	5943.404438
747.907027	6015.747516
748.235720	6077.448719
748.564365	6045.273554
748.892963	6070.050826
749.221514	6226.215689
749.550017	6074.691208
749.878473	5944.228667
750.206881	5998.799157
750.535242	5940.341937
750.863555	5867.093972
751.191821	5886.530140
751.520039	5894.699330
751.848210	5802.108458
752.176334	5817.310057
752.504411	5870.663109
752.832440	5795.048322
753.160421	5724.512497
753.488356	5767.132932
753.816243	5804.369415
754.144082	5652.817207
754.471875	5623.792764
754.799620	5669.881513
755.127318	5683.406928
755.454969	5631.820801
755.782572	5596.217652
756.110129	5639.574096
756.437638	5629.585049
756.765100	5575.140588
757.092515	5565.156583
757.419882	5615.411845
757.747203	5600.326192
758.074477	5662.471017
758.401703	5655.950284
758.728882	5602.582109
759.056014	5646.046937
759.383099	5784.572804
759.710138	5790.889370
760.037129	5777.865549
760.364073	5785.792763
760.690970	5863.456779
761.017820	5852.799780
761.344623	5801.253982
761.671379	5901.250310
761.998088	6016.975037
762.324751	6245.253607
762.651366	6822.574107
762.977935	8107.140766
763.304456	9718.280932
763.630931	10641.863166
763.957359	10270.650241
764.283740	9341.615999
764.610074	8530.572483
764.936362	7547.524798
765.262602	6943.554238
765.588796	6411.538587
765.914943	6070.383542
766.241044	5909.543008
766.567097	5718.884049
766.893104	5460.754287
767.219064	5280.475063
767.544978	5217.725301
767.870845	5143.181759
768.196665	5035.923649
768.522438	4962.703410
768.848165	4930.480355
769.173846	4866.407289
769.499479	4828.240713
769.825066	4771.217702
770.150607	4709.947518
770.476101	4683.473898
770.801548	4681.643960
771.126949	4612.285244
771.452303	4554.969846
771.777611	4513.864277
772.102872	4530.384138
772.428087	4492.716637
772.753256	4454.645843
773.078378	4413.376437
773.403453	4343.518648
773.728482	4329.418540
774.053465	4282.256026
774.378401	4270.394191
774.703291	4274.164974
775.028135	4202.053788
775.352932	4154.954288
775.677683	4142.694202
776.002388	4159.793796
776.327046	4168.930887
776.651658	4096.229887
776.976224	4033.691853
777.300743	4040.159653
777.625216	4061.904670
777.949643	4061.892067
778.274024	4013.922968
778.598359	3969.646514
778.922647	3988.828104
779.246889	3986.103361
779.571086	3981.634378
779.895236	3961.298363
780.219339	3951.783185
780.543397	3946.487453
780.867409	3993.864217
781.191374	4012.375334
781.515294	3948.390489
781.839167	3944.932257
782.162995	3959.818784
782.486776	3944.765899
782.810511	3958.160245
783.134201	3954.502888
783.457844	3912.169798
783.781441	3854.819112
784.104993	3862.206922
784.428498	3877.166547
784.751958	3877.448851
785.075372	3855.807178
785.398739	3819.730160
785.722061	3830.394721
786.045337	3869.824106
786.368568	3904.981113
786.691752	3818.870643
787.014891	3863.394114
787.337983	3986.368021
787.661030	4142.245539
787.984031	4302.927277
788.306987	4476.330366
788.629897	4558.733067
788.952760	4512.974514
789.275579	4447.767189
789.598351	4386.217221
789.921078	4252.737549
790.243759	4049.858833
790.566395	4026.717417
790.888984	4023.135677
791.211529	3919.212290
791.534027	3860.734906
791.856480	3853.135366
792.178888	3788.454842
792.501249	3736.944332
792.823566	3743.933892
793.145836	3778.811114
793.468062	3727.877817
793.790241	3682.315868
794.112375	3712.177143
794.434464	3770.795680
794.756507	3798.620328
795.078505	3784.928555
795.400457	3810.121721
795.722364	3946.812607
796.044226	4048.689286
796.366042	4125.776090
796.687812	4108.190024
797.009538	4116.815439
797.331218	4074.875559
797.652852	4044.467319
797.974442	4024.320348
798.295986	4025.678939
798.617484	3950.805201
798.938938	3856.535624
799.260346	3893.192375
799.581709	3895.208836
799.903026	3822.560768
800.224299	3783.728760
800.545526	3781.180457
800.866708	3745.068151
801.187845	3680.667411
801.508936	3716.739387
801.829983	3715.819377
802.150984	3636.968169
802.471940	3625.244965
802.792851	3638.475474
803.113717	3635.067654
803.434538	3641.515289
803.755314	3587.360694
804.076045	3557.880027
804.396731	3573.300916
804.717372	3599.996346
805.037967	3589.311621
805.358518	3581.331474
805.679024	3603.867953
805.999485	3617.819346
806.319901	3624.211529
806.640272	3632.577324
806.960598	3650.397802
807.280879	3624.418216
807.601115	3635.964979
807.921306	3649.034170
808.241453	3690.069163
808.561554	3666.642921
808.881611	3602.993312
809.201623	3638.742655
809.521590	3651.779079
809.841513	3621.491826
810.161390	3650.828821
810.481223	3632.970534
810.801011	3580.865167
811.120755	3564.521747
811.440453	3601.730503
811.760107	3606.171760
812.079716	3567.821182
812.399281	3535.315822
812.718801	3550.817370
813.038276	3529.881458
813.357707	3525.909029
813.677093	3544.026936
813.996434	3494.011128
814.315731	3498.313753
814.634983	3505.643590
814.954191	3518.506094
815.273354	3547.888460
815.592473	3544.397461
815.911547	3549.027760
816.230577	3586.808688
816.549562	3636.217037
816.868502	3680.352339
817.187399	3702.619115
817.506250	3701.179866
817.825058	3671.926050
818.143821	3761.066253
818.462539	3864.533415
818.781213	3908.895569
819.099843	3961.638641
819.418429	4196.843756
819.736970	4437.276547
820.055466	4677.797559
820.373919	5040.906830
820.692327	5441.945742
821.010691	5863.832345
821.329011	7185.322935
821.647286	9851.871509
821.965517	14329.515096
822.283704	18356.731587
822.601847	20612.932758
822.919945	18842.131688
823.237999	16297.120292
823.556010	13829.246112
823.873976	11767.391503
824.191897	9680.729377
824.509775	8327.550094
824.827609	7206.876388
825.145398	6658.542523
825.463144	6542.459873
825.780845	6655.175032
826.098502	6828.494942
826.416116	7666.004516
826.733685	8970.841654
827.051210	10086.343136
827.368692	10180.547178
827.686129	8961.147515
828.003522	7447.052081
828.320872	6433.107164
828.638177	5740.392132
828.955439	5187.022153
829.272656	4696.061660
829.589830	4405.275303
829.906960	4234.697780
830.224046	4054.143814
830.541088	3923.487189
830.858086	3883.024367
831.175041	3803.447233
831.491952	3783.761528
831.808819	3796.699649
832.125642	3866.328066
832.442421	4009.479191
832.759157	4274.492649
833.075849	4808.358403
833.392497	5659.882384
833.709101	6426.173057
834.025662	6778.025431
834.342179	6447.746675
834.658653	5782.495848
834.975083	5144.094208
835.291469	4571.255293
835.607811	4159.887057
835.924110	4020.587373
836.240366	3827.223835
836.556578	3623.256230
836.872746	3511.703057
837.188871	3476.815752
837.504952	3410.426277
837.820990	3328.958710
838.136984	3283.701751
838.452935	3306.245791
838.768842	3302.152374
839.084706	3320.892864
839.400526	3470.834423
839.716303	3801.551759
840.032037	4307.731497
840.347727	4584.631995
840.663373	4327.573478
840.978977	3947.730097
841.294537	3646.682472
841.610054	3415.243099
841.925527	3309.832572
842.240957	3240.183991
842.556344	3186.107533
842.871687	3131.348000
843.186987	3082.461410
843.502244	3043.687375
843.817458	3012.694362
844.132629	2977.423929
844.447756	2987.208808
844.762840	2975.987200
845.077881	2942.670214
845.392879	2924.741350
845.707833	2921.159611
846.022745	2915.760535
846.337613	2918.455032
846.652438	2907.004051
846.967221	2906.469688
847.281960	2892.982081
847.596656	2887.308263
847.911309	2885.548900
848.225919	2881.727705
848.540485	2877.760317
848.855009	2876.260574
849.169490	2868.255222
849.483928	2858.682070
849.798323	2858.629138
850.112675	2853.237624
850.426984	2867.355376
850.741251	2864.151722
851.055474	2856.479086
851.369654	2848.239320
851.683792	2851.395082
851.997887	2859.135774
852.311938	2862.778008
852.625947	2852.536904
852.939914	2854.956658
853.253837	2860.416227
853.567718	2845.650688
853.881555	2844.450893
854.195350	2857.144518
854.509103	2854.462625
854.822812	2848.357787
855.136479	2845.895184
855.450103	2845.680935
855.763685	2838.449399
856.077224	2835.964111
856.390720	2849.509691
856.704173	2858.629138
857.017584	2848.705627
857.330953	2848.188909
857.644278	2856.078314
857.957561	2863.410673
858.270802	2867.161291
858.584000	2866.649614
858.897155	2855.012110
859.210268	2856.040506
859.523339	2854.092100
859.836367	2852.552027
860.149352	2848.728312
860.462295	2842.878053
860.775195	2849.925586
861.088054	2849.098837
861.400869	2833.728359
861.713642	2829.226608
862.026373	2847.221007
862.339062	2844.713033
862.651708	2854.152594
862.964312	2857.114272
863.276873	2850.084382
863.589392	2859.387832
863.901869	2871.226982
864.214303	2890.068294
864.526696	2909.108732
864.839045	2904.712846
865.151353	2904.372568
865.463619	2900.306878
865.775842	2900.876528
866.088023	2922.361926
866.400162	2929.681681
866.712258	2899.686816
867.024313	2886.809188
867.336325	2898.182031
867.648296	2917.033426
867.960224	2910.910945
868.272110	2899.233112
868.583954	2902.701426
868.895755	2917.096441
869.207515	2901.234450
869.519233	2907.482960
869.830909	2917.817326
870.142542	2929.512803
870.454134	2926.629263
870.765684	2930.203441
871.077191	2931.277206
871.388657	2935.544543
871.700081	2950.226904
872.011463	2964.150571
872.322803	2962.534881
872.634101	2963.220478
872.945357	2977.313023
873.256571	3003.398474
873.567744	2995.887155
873.878874	2988.670743
874.189963	3010.831655
874.501010	3012.795185
874.812015	3005.465347
875.122979	3006.304699
875.433900	3000.046107
875.744780	3006.866788
876.055618	3015.340967
876.366415	3008.860564
876.677169	3022.675846
876.987882	3017.894312
877.298554	3010.173785
877.609183	3029.889737
877.919771	3056.345713
878.230317	3081.070052
878.540822	3133.349338
878.851285	3169.328053
879.161707	3209.223744
879.472087	3308.542037
879.782425	3523.932897
880.092722	3946.800005
880.402977	4472.027742
880.713191	5085.067337
881.023363	6215.624225
881.333494	7491.048751
881.643583	8058.841471
881.953631	7772.602235
882.263637	7160.192783
882.573602	6586.191883
882.883526	6008.599160
883.193408	5436.438281
883.503248	4973.083146
883.813048	4673.620963
884.122806	4376.278586
884.432522	4068.553952
884.742197	3836.391174
885.051831	3642.725166
885.361424	3504.317767
885.670975	3434.694391
885.980485	3353.448635
886.289954	3277.387706
886.599382	3232.851632
886.908768	3193.379398
887.218113	3148.898777
887.527417	3092.515992
887.836680	3047.127963
888.145901	3040.960111
888.455082	3031.061806
888.764221	2982.460041
889.073319	2952.114816
889.382376	2951.003241
889.691392	2951.204888
890.000366	2953.226390
890.309300	2940.550409
890.618193	2951.267902
890.927044	2970.177270
891.235855	2970.182311
891.544625	2956.793007
891.853353	2964.979840
892.162041	2983.601863
892.470687	3021.907070
892.779293	3072.139648
893.087858	3114.447531
893.396381	3184.340609
893.704864	3304.045328
894.013306	3535.482180
894.321707	3833.474866
894.630068	4040.472205
894.938387	4041.122514
895.246665	3997.783714
895.554903	3882.863050
895.863100	3681.584901
896.171256	3515.393182
896.479371	3382.387379
896.787446	3260.812392
897.095480	3159.454953
897.403473	3091.913574
897.711425	3055.188768
898.019336	3048.955381
898.327207	3022.529653
898.635038	2987.483551
898.942827	2971.009060
899.250576	2962.018163
899.558284	2930.916764
899.865952	2907.240985
900.173579	2890.983264
900.481165	2883.189640
900.788711	2870.551467
901.096216	2845.096161
901.403681	2833.748523
901.711105	2842.406705
902.018489	2840.163392
902.325832	2838.504852
902.633135	2849.474403
902.940397	2879.892725
903.247619	2960.457925
903.554800	3144.744866
903.861941	3475.656287
904.169041	3897.883168
904.476101	4200.158315
904.783121	4165.951565
905.090100	3928.316614
905.397039	3655.615397
905.703938	3408.601379
906.010796	3226.406517
906.317614	3116.743777
906.624391	3021.665095
906.931129	2953.244034
907.237826	2890.075856
907.544483	2845.237313
907.851099	2816.469969
908.157675	2794.929118
908.464211	2775.497991
908.770707	2762.448964
909.077163	2750.007396
909.383578	2734.437793
909.689954	2723.932028
909.996289	2720.728375
910.302584	2720.287274
910.608839	2723.765670
910.915054	2718.454814
911.221229	2710.550285
911.527363	2713.380893
911.833458	2719.420195
912.139513	2722.623849
912.445527	2727.191134
912.751502	2736.166908
913.057436	2744.326016
913.363331	2757.579209
913.669186	2775.601334
913.975000	2809.256077
914.280775	2869.780171
914.586510	2938.637291
914.892205	3014.554547
915.197859	3137.886376
915.503475	3328.043740
915.809050	3536.928991
916.114585	3680.985003
916.420081	3707.135989
916.725536	3650.521311
917.030952	3536.172818
917.336328	3408.525762
917.641665	3278.559774
917.946961	3177.829959
918.252218	3109.469392
918.557435	3033.824358
918.862612	2976.882005
919.167750	2927.012390
919.472848	2888.152656
919.777906	2861.439582
920.082925	2837.342866
920.387904	2806.811118
920.692843	2790.379477
920.997743	2778.552930
921.302603	2767.033893
921.607423	2754.378077
921.912204	2744.961201
922.216946	2735.055334
922.521647	2723.105279
922.826310	2715.941799
923.130932	2709.128680
923.435516	2699.326156
923.740059	2694.985723
924.044564	2687.234949
924.349028	2681.828311
924.653454	2675.705830
924.957840	2668.020591
925.262186	2663.259221
925.566493	2663.949859
925.870761	2657.764363
926.174989	2651.825884
926.479178	2650.265647
926.783328	2642.529996
927.087438	2638.713843
927.391509	2641.534368
927.695541	2637.521610
927.999533	2635.699233
928.303486	2629.705301
928.607400	2633.012298
928.911275	2630.577421
929.215110	2629.947276
929.518906	2629.841412
929.822663	2632.112452
930.126381	2631.094139
930.430060	2625.992491
930.733699	2629.254118
931.037299	2631.331073
931.340861	2632.407359
931.644383	2630.552215
931.947866	2629.463326
932.251309	2629.506175
932.554714	2628.843264
932.858080	2625.599281
933.161407	2627.577934
933.464694	2624.923767
933.767943	2618.854217
934.071153	2623.870165
934.374323	2622.728344
934.677455	2625.004425
934.980548	2621.195833
935.283602	2620.711882
935.586617	2620.336317
935.889593	2620.487551
936.192530	2617.931686
936.495428	2620.727006
936.798287	2622.798920
937.101108	2625.445526
937.403890	2631.043727
937.706632	2635.837865
938.009336	2640.090078
938.312002	2649.113743
938.614628	2658.313849
938.917216	2662.714776
939.219765	2666.467915
939.522275	2663.919612
939.824747	2660.970537
940.127179	2659.488438
940.429573	2655.377377
940.731929	2654.321255
941.034246	2651.004176
941.336524	2649.055770
941.638763	2644.062507
941.940964	2641.257105
942.243126	2642.658546
942.545250	2640.195942
942.847335	2636.581435
943.149381	2633.173615
943.451389	2626.448716
943.753359	2626.862090
944.055290	2624.548201
944.357182	2625.919394
944.659036	2623.920577
944.960851	2623.605505
945.262628	2625.838736
945.564367	2622.609877
945.866067	2623.509723
946.167729	2623.487038
946.469352	2626.451236
946.770937	2623.671040
947.072484	2622.592233
947.373992	2624.061729
947.675462	2619.262551
947.976893	2613.848352
948.278286	2612.628392
948.579641	2613.573609
948.880958	2610.939606
949.182236	2615.436315
949.483476	2614.410440
949.784678	2612.812394
950.085841	2612.663680
950.386967	2613.031685
950.688054	2614.841459
950.989103	2616.802468
951.290114	2616.124432
951.591087	2618.052674
951.892021	2621.011831
952.192917	2622.720782
952.493776	2625.458129
952.794596	2625.753036
953.095378	2624.449898
953.396122	2625.755557
953.696828	2624.341513
953.997496	2622.342696
954.298126	2620.807664
954.598718	2618.619804
954.899272	2616.343723
955.199788	2612.338526
955.500266	2610.097733
955.800706	2607.531786
956.101108	2607.587238
956.401472	2604.615478
956.701798	2603.881990
957.002087	2602.659511
957.302337	2597.734303
957.602550	2597.262955
957.902724	2594.084508
958.202861	2593.240115
958.502960	2592.267172
958.803022	2594.739858
959.103045	2590.840525
959.403031	2593.469487
959.702979	2591.879003
960.002889	2589.897830
960.302762	2591.853797
960.602596	2590.855649
960.902393	2588.524115
961.202153	2589.832295
961.501875	2588.687953
961.801559	2588.481265
962.101205	2587.687284
962.400814	2589.086204
962.700385	2587.480596
962.999918	2587.843559
963.299414	2585.401120
963.598873	2586.064032
963.898293	2585.809454
964.197677	2585.073445
964.497022	2589.600402
964.796331	2589.411358
965.095601	2585.849783
965.394835	2588.173755
965.694030	2586.550503
965.993189	2584.405492
966.292309	2583.533373
966.591393	2584.871799
966.890439	2585.302818
967.189447	2588.113261
967.488419	2583.135122
967.787353	2583.954309
968.086249	2586.444639
968.385108	2584.481110
968.683930	2584.960019
968.982714	2586.505133
969.281462	2589.224836
969.580172	2587.029413
969.878844	2584.171079
970.177480	2586.333734
970.476078	2586.956316
970.774639	2585.527149
971.073162	2584.970102
971.371649	2588.730802
971.670098	2586.419433
971.968510	2586.530339
972.266885	2586.411872
972.565223	2586.890781
972.863524	2589.255082
973.161788	2588.829105
973.460014	2588.274578
973.758204	2586.351378
974.056356	2588.594691
974.354471	2586.850452
974.652550	2585.658219
974.950591	2587.422623
975.248595	2586.784917
975.546563	2586.671491
975.844493	2586.999166
976.142386	2586.800041
976.440243	2584.428178
976.738062	2586.951275
977.035845	2586.532859
977.333590	2585.965730
977.631299	2585.932962
977.928971	2580.375090
978.226606	2581.655543
978.524204	2581.995821
978.821765	2581.151428
979.119290	2583.004052
979.416777	2581.133784
979.714228	2582.862899
980.011642	2584.879361
980.309020	2584.327355
980.606360	2581.597570
980.903664	2585.549834
981.200931	2583.538414
981.498162	2586.300966
981.795356	2587.145360
982.092513	2587.347006
982.389633	2590.482603
982.686717	2593.522419
982.983764	2596.264807
983.280775	2600.547267
983.577749	2602.727566
983.874686	2601.855447
984.171587	2597.600713
984.468451	2595.884200
984.765279	2594.394539
985.062070	2592.851946
985.358824	2589.605443
985.655543	2586.537901
985.952224	2586.550503
986.248869	2584.909608
986.545478	2582.331058
986.842050	2585.166707
987.138586	2584.287025
987.435086	2583.122519
987.731549	2584.602097
988.027975	2580.581777
988.324366	2582.943558
988.620719	2583.185533
988.917037	2582.394072
989.213318	2578.777044
989.509563	2578.167065
989.805772	2582.056315
990.101944	2581.650502
990.398080	2580.637230
990.694180	2580.322158
990.990244	2580.554051
991.286271	2581.716037
991.582262	2578.938361
991.878217	2581.153948
992.174136	2579.525656
992.470019	2580.864082
992.765865	2578.038515
993.061676	2576.233782
993.357450	2577.272260
993.653188	2576.107753
993.948890	2580.208732
994.244556	2578.973649
994.540186	2580.783423
994.835780	2578.950964
995.131337	2581.983218
995.426859	2579.979359
995.722345	2584.612180
996.017795	2584.939855
996.313208	2585.199474
996.608586	2586.530339
996.903928	2585.068404
997.199234	2586.883220
997.494504	2586.487489
997.789738	2582.013465
998.084936	2584.249217
998.380099	2582.174782
998.675225	2584.486151
998.970316	2583.510688
999.265371	2583.873651
999.560390	2580.576736
999.855373	2579.702096
1000.150320	2582.079000
1000.445232	2580.700244
1000.740108	2578.598083
1001.034948	2581.789134
1001.329752	2579.283680
1001.624521	2578.151941
1001.919254	2579.928948
1002.213951	2579.064390
1002.508613	2580.296952
1002.803239	2578.880388
1003.097829	2578.668659
1003.392384	2578.361149
1003.686903	2579.019020
1003.981386	2578.678742
1004.275834	2578.772003
1004.570246	2579.288721
1004.864623	2580.075141
1005.158964	2577.489029
1005.453270	2578.235120
1005.747540	2577.315110
1006.041775	2579.258474
1006.335974	2578.638412
1006.630138	2577.738567
1006.924266	2577.761252
1007.218359	2578.651015
1007.512416	2576.359811
1007.806438	2572.647001
1008.100425	2577.236972
1008.394376	2572.147927
1008.688292	2578.315779
1008.982172	2578.209914
1009.276017	2578.661098
1009.569827	2576.606827
1009.863602	2576.115315
1010.157341	2576.863926
1010.451045	2577.325192
1010.744714	2577.836869
1011.038347	2576.596745
1011.331945	2576.422825
1011.625508	2577.352918
1011.919036	2579.502970
1012.212528	2575.270922
1012.505986	2577.345357
1012.799408	2575.621282
1013.092795	2576.382496
1013.386147	2575.888463
1013.679464	2575.593556
1013.972745	2577.211766
1014.265992	2577.695717
1014.559204	2576.637074
1014.852380	2577.322671
1015.145521	2576.138000
1015.438628	2577.375603
1015.731699	2575.596076
1016.024736	2576.997517
1016.317737	2577.000037
1016.610703	2576.838721
1016.903635	2577.499112
1017.196531	2578.653536
1017.489393	2579.140007
1017.782219	2573.957701
1018.075011	2575.223031
1018.367768	2578.109091
1018.660490	2579.621437
1018.953177	2579.621437
1019.245829	2579.621437
