Dividing Wavelength (nm)	Counts (n)	Blue Motor Position (mm): 0.000000	Red Motor Position (mm): 21.100000	
326.493990	2130.908334
326.888308	2130.908334
327.282561	2130.908334
327.676750	2097.848447
328.070874	2094.901892
328.464933	2098.468509
328.858929	2104.452358
329.252859	2113.970057
329.646726	2124.748044
330.040528	2136.756072
330.434265	2156.522436
330.827938	2172.873419
331.221547	2190.545184
331.615091	2212.000334
332.008571	2230.597151
332.401986	2249.327558
332.795338	2269.129210
333.188625	2288.320883
333.581847	2306.426187
333.975006	2327.450319
334.368100	2343.887001
334.761129	2361.236132
335.154095	2376.286497
335.546996	2394.457336
335.939833	2410.601631
336.332606	2426.151070
336.725315	2439.195056
337.117960	2448.269133
337.510540	2456.871862
337.903056	2467.823769
338.295508	2472.096147
338.687896	2482.581747
339.080220	2491.474342
339.472480	2496.674292
339.864676	2502.312823
340.256807	2508.044615
340.648875	2508.082423
341.040879	2512.241375
341.432818	2514.071314
341.824694	2517.297653
342.216506	2514.257837
342.608253	2517.713548
342.999937	2514.504853
343.391557	2516.914525
343.783113	2513.032836
344.174605	2514.741787
344.566033	2512.024606
344.957397	2511.656601
345.348697	2511.374297
345.739934	2507.152330
346.131106	2505.080416
346.522215	2503.885663
346.913260	2496.664210
347.304241	2498.713439
347.695159	2500.470281
348.086012	2496.210506
348.476802	2494.373005
348.867528	2492.805207
349.258191	2492.018787
349.648789	2489.914105
350.039324	2490.302274
350.429796	2489.714979
350.820203	2487.385966
351.210548	2488.053919
351.600828	2485.117447
351.991045	2485.571151
352.381198	2484.509988
352.771288	2485.107365
353.161314	2484.497385
353.551276	2482.758187
353.941175	2484.996459
354.331010	2482.705255
354.720782	2482.523773
355.110490	2484.630976
355.500135	2483.718527
355.889717	2486.715493
356.279235	2484.872951
356.668689	2484.114257
357.058080	2485.137612
357.447408	2482.422950
357.836672	2481.954123
358.225873	2485.830770
358.615010	2483.153918
359.004084	2489.074753
359.393095	2488.784886
359.782043	2488.500061
360.170927	2486.977633
360.559748	2492.739672
360.948505	2490.113230
361.337199	2492.729589
361.725830	2491.151708
362.114398	2492.651451
362.502903	2490.995432
362.891344	2494.461226
363.279722	2493.831081
363.668037	2496.321411
364.056289	2495.230002
364.444478	2496.770074
364.832603	2498.249653
365.220665	2500.520692
365.608665	2499.353665
365.996601	2497.342245
366.384474	2499.179746
366.772284	2501.750734
367.160031	2500.926505
367.547715	2500.440034
367.935336	2507.535458
368.322893	2512.483351
368.710388	2512.450583
369.097820	2520.942407
369.485189	2521.635565
369.872495	2529.479601
370.259738	2533.482277
370.646918	2544.847558
371.034035	2550.269319
371.421090	2558.443550
371.808081	2572.727660
372.195010	2578.603124
372.581875	2593.585434
372.968678	2606.211003
373.355418	2614.324741
373.742096	2634.277627
374.128710	2646.265491
374.515262	2662.697132
374.901751	2678.506191
375.288177	2692.240814
375.674540	2714.943651
376.060841	2730.001577
376.447079	2751.857500
376.833254	2770.862650
377.219367	2785.466872
377.605417	2821.465752
377.991404	2831.719459
378.377329	2853.771987
378.763191	2870.591796
379.148991	2906.908269
379.534727	2935.831889
379.920402	2959.769808
380.306013	2971.561067
380.691563	3022.224663
381.077049	3042.769885
381.462474	3062.349727
381.847835	3102.522682
382.233134	3123.403141
382.618371	3122.926752
383.003545	3190.513502
383.388657	3197.732434
383.773706	3229.095973
384.158693	3247.748242
384.543618	3272.853188
384.928480	3308.438693
385.313280	3357.466435
385.698017	3351.568285
386.082692	3403.494690
386.467305	3407.527613
386.851856	3444.295269
387.236344	3466.962817
387.620770	3498.863238
388.005133	3524.920963
388.389435	3550.106567
388.773674	3562.139802
389.157851	3605.551698
389.541965	3618.361270
389.926018	3582.196032
390.310008	3654.108092
390.693936	3675.308664
391.077802	3713.770148
391.461606	3704.272614
391.845348	3767.523971
392.229027	3762.709669
392.612645	3778.513686
392.996200	3858.330275
393.379694	3896.257396
393.763125	3958.331644
394.146494	3928.256120
394.529801	3990.229545
394.913047	4035.839384
395.296230	4000.518540
395.679351	4058.350657
396.062410	4083.319492
396.445408	4060.354516
396.828343	4099.788942
397.211217	4122.348105
397.594028	4040.199982
397.976778	4104.207513
398.359466	4129.322541
398.742092	4160.338240
399.124656	4084.799071
399.507158	4164.270340
399.889598	4188.997200
400.271977	4244.134820
400.654294	4215.226323
401.036549	4231.257193
401.418742	4200.047409
401.800874	4304.159839
402.182944	4321.352694
402.564952	4386.766707
402.946898	4372.999315
403.328783	4367.872462
403.710606	4280.032877
404.092367	4477.895645
404.474067	4441.768216
404.855705	4447.978917
405.237282	4372.520406
405.618797	4481.590810
406.000250	4515.648846
406.381642	4600.882154
406.762972	4561.510743
407.144240	4572.555911
407.525447	4568.999377
407.906593	4629.117657
408.287677	4670.618956
408.668700	4598.429633
409.049661	4649.491480
409.430560	4691.514539
409.811399	4616.756748
410.192176	4778.910502
410.572891	4719.382037
410.953545	4822.962625
411.334138	4700.218091
411.714669	4767.862814
412.095139	4662.661495
412.475547	4802.808092
412.855894	4783.573570
413.236180	4789.065907
413.616405	4742.475563
413.996568	4830.864634
414.376670	4769.796096
414.756711	4720.715422
415.136691	4747.499073
415.516609	4823.741484
415.896466	4858.550651
416.276262	4887.670876
416.655997	4859.891598
417.035670	5035.018762
417.415283	5117.131596
417.794834	5048.100556
418.174324	4998.684646
418.553753	4906.129061
418.933121	5068.265172
419.312428	5125.520076
419.691674	5054.482657
420.070859	5160.810674
420.449983	5064.844749
420.829045	5161.201363
421.208047	5057.701434
421.586988	5105.426037
421.965867	5102.081232
422.344686	5202.667374
422.723444	5053.129107
423.102141	4872.681005
423.480777	5122.634016
423.859352	4887.665835
424.237866	5092.946661
424.616319	5061.951126
424.994712	5133.447291
425.373044	5000.423844
425.751314	5090.594963
426.129524	4895.386362
426.507673	5027.782186
426.885762	5066.636879
427.263789	4970.078618
427.641756	4844.821068
428.019662	4906.280296
428.397508	4876.146798
428.775292	4790.104385
429.153016	4826.670394
429.530679	4734.578596
429.908282	4757.074745
430.285824	4622.175988
430.663305	4768.717289
431.040726	4543.662538
431.418086	4505.488400
431.795385	4526.658726
432.172624	4489.790247
432.549802	4441.869039
432.926920	4399.972009
433.303977	4358.541286
433.680974	4332.249148
434.057910	4294.926966
434.434786	4246.917537
434.811601	4181.707692
435.188355	4251.268053
435.565050	4141.920385
435.941683	4080.887135
436.318257	4124.392293
436.694770	4065.584713
437.071222	4028.330586
437.447614	3947.394861
437.823946	3862.806820
438.200218	3876.254098
438.576429	3775.441103
438.952580	3758.391921
439.328670	3722.398082
439.704700	3647.254643
440.080670	3598.962910
440.456580	3631.372488
440.832429	3549.204201
441.208218	3458.002166
441.583947	3462.755974
441.959616	3418.466917
442.335224	3358.908205
442.710773	3351.830425
443.086261	3310.064465
443.461689	3233.186869
443.837057	3222.557596
444.212365	3213.758262
444.587612	3161.231960
444.962800	3150.985814
445.337927	3114.140021
445.712995	3022.239786
446.088002	3067.635377
446.462949	3016.545803
446.837837	2977.854947
447.212664	2970.492342
447.587431	2954.912656
447.962139	2981.953405
448.336786	3048.428581
448.711374	2996.731548
449.085901	2886.554610
449.460369	2848.856862
449.834776	2819.976091
450.209124	2827.189982
450.583412	2814.370328
450.957640	2808.038639
451.331808	2773.085799
451.705917	2732.764130
452.079965	2713.126315
452.453954	2707.462578
452.827883	2689.846266
453.201752	2682.960050
453.575562	2664.426248
453.949311	2660.637821
454.323001	2648.763383
454.696632	2643.079482
455.070202	2640.286683
455.443713	2634.234778
455.817164	2625.085083
456.190556	2618.904629
456.563888	2615.864813
456.937160	2610.760645
457.310373	2600.408635
457.683526	2595.979982
458.056619	2591.427820
458.429653	2588.340113
458.802628	2581.746284
459.175542	2582.729309
459.548398	2584.284505
459.921194	2585.638055
460.293930	2582.378949
460.666607	2586.411872
461.039224	2587.762901
461.411782	2583.934145
461.784280	2583.853486
462.156719	2581.741243
462.529099	2580.246541
462.901419	2573.682958
463.273680	2571.507700
463.645882	2570.197000
464.018024	2573.128431
464.390106	2569.524006
464.762130	2571.094326
465.134094	2572.614234
465.505999	2582.875502
465.877845	2589.224836
466.249631	2594.444950
466.621358	2587.780545
466.993026	2588.095617
467.364634	2584.123188
467.736184	2580.448187
468.107674	2577.284863
468.479105	2577.166396
468.850477	2572.984758
469.221790	2574.081209
469.593043	2572.674727
469.964238	2569.050138
470.335373	2571.283369
470.706449	2571.611044
471.077467	2569.372772
471.448425	2579.356777
471.819324	2585.554876
472.190164	2585.587643
472.560945	2578.905594
472.931667	2572.384861
473.302330	2573.766137
473.672934	2568.309088
474.043479	2570.915365
474.413965	2570.542319
474.784393	2569.990313
475.154761	2568.543502
475.525070	2568.036866
475.895321	2567.986454
476.265513	2570.476784
476.635645	2571.598441
477.005719	2573.088102
477.375734	2576.011971
477.745691	2578.187229
478.115588	2579.308886
478.485427	2578.494740
478.855207	2579.387024
479.224928	2586.444639
479.594591	2589.078642
479.964194	2588.667788
480.333739	2589.658375
480.703226	2587.490679
481.072653	2588.045206
481.442022	2589.610484
481.811333	2589.479414
482.180584	2589.497058
482.549777	2589.275247
482.918912	2586.260637
483.287988	2587.440267
483.657005	2586.429516
484.025964	2583.114957
484.394864	2584.662591
484.763706	2588.327510
485.132489	2585.007910
485.501213	2583.777869
485.869879	2584.392890
486.238487	2581.574885
486.607036	2581.658064
486.975527	2584.765935
487.343959	2583.482961
487.712333	2586.139649
488.080648	2583.067066
488.448905	2583.261151
488.817104	2584.453383
489.185244	2582.948599
489.553326	2585.050760
489.921350	2589.023189
490.289315	2593.270362
490.657222	2597.220106
491.025070	2594.255907
491.392861	2595.448140
491.760593	2591.442943
492.128267	2590.885896
492.495883	2589.353385
492.863440	2585.706110
493.230939	2587.788107
493.598380	2586.386666
493.965763	2578.451890
494.333088	2577.834348
494.700354	2579.434915
495.067563	2579.402147
495.434713	2577.060531
495.801805	2580.496078
496.168839	2580.536407
496.535815	2580.112950
496.902733	2580.831314
497.269593	2579.848289
497.636395	2579.145048
498.003139	2578.623289
498.369825	2578.527507
498.736453	2580.354925
499.103023	2578.545151
499.469535	2579.876016
499.835989	2577.673032
500.202385	2578.275449
500.568723	2577.431056
500.935003	2579.936510
501.301226	2577.085737
501.667390	2578.104050
502.033497	2578.610686
502.399546	2578.235120
502.765537	2578.378793
503.131470	2580.085224
503.497345	2579.354256
503.863163	2578.819894
504.228923	2577.698237
504.594625	2580.397775
504.960269	2579.535738
505.325856	2578.139338
505.691385	2578.686303
506.056856	2580.148238
506.422270	2578.671180
506.787625	2580.223855
507.152924	2577.226889
507.518164	2578.577919
507.883347	2579.452559
508.248472	2577.851992
508.613540	2579.225707
508.978550	2578.726633
509.343503	2577.678073
509.708398	2581.642940
510.073236	2583.117478
510.438016	2581.857189
510.802738	2582.192426
511.167403	2580.004565
511.532010	2579.608835
511.896561	2583.714854
512.261053	2581.889957
512.625488	2576.503484
512.989866	2577.405850
513.354186	2577.544482
513.718449	2576.768144
514.082655	2580.599421
514.446803	2583.150245
514.810894	2581.751325
515.174927	2584.531521
515.538904	2583.578743
515.902822	2581.973136
516.266684	2582.492375
516.630488	2580.357446
516.994235	2581.191757
517.357925	2581.799216
517.721558	2583.518249
518.085133	2586.842890
518.448651	2584.523960
518.812112	2582.754515
519.175516	2583.654361
519.538863	2582.774679
519.902152	2585.486820
520.265385	2584.196285
520.628560	2584.529001
520.991678	2584.526480
521.354739	2584.236614
521.717743	2583.820719
522.080690	2583.256109
522.443580	2584.458425
522.806413	2585.544793
523.169189	2583.808116
523.531908	2582.305852
523.894569	2583.314083
524.257174	2586.366501
524.619722	2586.626121
524.982213	2583.838363
525.344647	2585.438929
525.707025	2581.640420
526.069345	2584.014803
526.431608	2585.449011
526.793815	2584.778538
527.155964	2584.667633
527.518057	2583.974474
527.880093	2586.041347
528.242072	2586.739547
528.603995	2586.303487
528.965860	2586.215267
529.327669	2585.854824
529.689421	2584.395410
530.051117	2586.046388
530.412755	2585.204515
530.774337	2583.097313
531.135862	2586.033785
531.497331	2580.793506
531.858743	2578.850141
532.220098	2582.797364
532.581396	2579.649164
532.942638	2579.508012
533.303824	2582.759556
533.664953	2585.794330
534.026025	2583.888774
534.387040	2586.449680
534.747999	2585.186871
535.108902	2587.047057
535.469748	2584.067735
535.830537	2584.723085
536.191270	2582.860379
536.551947	2582.966243
536.912567	2583.785431
537.273131	2584.087900
537.633638	2584.365163
537.994089	2583.866089
538.354483	2580.949782
538.714821	2584.667632
539.075103	2580.392734
539.435328	2582.552868
539.795497	2582.499936
540.155609	2583.561099
540.515665	2585.325503
540.875665	2583.261151
541.235609	2585.252406
541.595496	2582.371387
541.955328	2588.566965
542.315102	2584.574371
542.674821	2584.339958
543.034483	2586.089238
543.394090	2583.382138
543.753640	2585.466655
544.113134	2586.764753
544.472571	2588.065370
544.831953	2584.791141
545.191278	2583.750142
545.550548	2582.696541
545.909761	2582.941037
546.268918	2583.976994
546.628019	2585.708631
546.987064	2583.056984
547.346053	2584.629824
547.704986	2582.845255
548.063863	2583.472879
548.422684	2585.995977
548.781449	2583.959350
549.140158	2583.961871
549.498811	2585.673343
549.857408	2583.447673
550.215949	2581.138825
550.574434	2579.046746
550.932864	2583.982036
551.291237	2579.192939
551.649555	2583.205698
552.007817	2588.244331
552.366022	2585.406162
552.724173	2584.105544
553.082267	2583.873651
553.440305	2582.462128
553.798288	2583.954309
554.156215	2583.767787
554.514086	2586.129567
554.871902	2583.127560
555.229661	2587.062181
555.587365	2586.091758
555.945014	2584.264340
556.302606	2583.122519
556.660143	2583.485482
557.017625	2581.463979
557.375050	2584.075297
557.732421	2583.941706
558.089735	2586.903384
558.446994	2582.862899
558.804197	2586.343816
559.161345	2585.315421
559.518437	2584.322313
559.875474	2583.402303
560.232455	2586.331213
560.589381	2583.598908
560.946251	2587.110072
561.303065	2584.791141
561.659825	2585.582602
562.016528	2582.946078
562.373177	2584.612180
562.729770	2582.452045
563.086307	2583.578743
563.442789	2584.339957
563.799216	2582.610842
564.155587	2585.328024
564.511904	2584.312231
564.868164	2584.405492
565.224370	2584.544124
565.580520	2584.289546
565.936615	2584.261820
566.292654	2582.605801
566.648638	2585.716192
567.004567	2583.107395
567.360441	2584.072776
567.716260	2584.844073
568.072023	2580.175964
568.427732	2577.710840
568.783385	2579.283680
569.138982	2579.944071
569.494525	2578.628330
569.850013	2577.420974
570.205445	2583.190574
570.560823	2581.408527
570.916145	2580.150759
571.271412	2579.860892
571.626625	2582.560430
571.981782	2581.307703
572.336884	2582.530183
572.691931	2579.765110
573.046923	2579.918866
573.401860	2581.027919
573.756743	2580.654874
574.111570	2581.526994
574.466342	2579.623958
574.821059	2577.662949
575.175722	2579.719740
575.530330	2581.358115
575.884882	2582.278126
576.239380	2579.563464
576.593823	2579.447518
576.948211	2578.792168
577.302544	2577.552044
577.656823	2581.118660
578.011047	2583.147725
578.365216	2578.991293
578.719330	2579.480285
579.073389	2578.905594
579.427394	2578.149421
579.781344	2577.872157
580.135239	2579.122363
580.489080	2576.274111
580.842866	2577.786457
581.196597	2580.707806
581.550273	2579.344174
581.903895	2576.750500
582.257463	2578.063721
582.610975	2578.477096
582.964434	2576.707651
583.317837	2578.172106
583.671186	2581.012796
584.024481	2577.037846
584.377721	2577.799060
584.730906	2577.463824
585.084037	2578.953485
585.437113	2577.015161
585.790135	2579.326530
586.143103	2575.633885
586.496016	2574.184553
586.848874	2572.599110
587.201679	2574.784450
587.554428	2570.539799
587.907124	2573.584656
588.259765	2571.331260
588.612352	2576.155644
588.964884	2572.800756
589.317362	2576.816035
589.669786	2572.468040
590.022155	2575.724626
590.374470	2573.559450
590.726731	2577.403330
591.078937	2575.089440
591.431090	2574.648339
591.783188	2574.570201
592.135232	2574.713874
592.487222	2572.309244
592.839157	2573.161199
593.191038	2574.323185
593.542866	2574.655901
593.894639	2573.617423
594.246358	2573.748493
594.598022	2572.357135
594.949633	2570.653225
595.301190	2569.481157
595.652692	2573.375448
596.004141	2574.406364
596.355535	2572.687330
596.706876	2571.091805
597.058162	2571.527865
597.409395	2571.883266
597.760573	2571.870663
598.111698	2572.435273
598.462768	2572.677248
598.813785	2570.917885
599.164748	2573.695561
599.515657	2570.076013
599.866511	2571.137176
600.217312	2570.348235
600.568060	2569.095508
600.918753	2573.995510
601.269392	2569.579459
601.619978	2569.811352
601.970510	2571.386713
602.320988	2571.492577
602.671412	2570.711198
603.021783	2571.817731
603.372100	2570.539799
603.722363	2567.986454
604.072572	2571.648853
604.422728	2570.882597
604.772830	2565.165929
605.122878	2565.450754
605.472872	2568.233471
605.822813	2565.145764
606.172701	2567.557956
606.522534	2572.097515
606.872314	2570.454099
607.222041	2571.275807
607.571714	2571.459809
607.921333	2570.156671
608.270899	2569.276990
608.620411	2569.062741
608.969870	2569.564336
609.319276	2575.031467
609.668627	2573.985427
610.017926	2578.204873
610.367171	2577.428536
610.716362	2578.537589
611.065500	2575.848134
611.414585	2575.805284
611.763616	2575.417115
612.112594	2571.800087
612.461518	2572.891497
612.810389	2574.131621
613.159207	2568.924109
613.507971	2570.277659
613.856682	2574.023236
614.205340	2570.990982
614.553945	2574.350911
614.902496	2570.270097
615.250994	2570.658266
615.599439	2572.087433
615.947830	2566.650549
616.296169	2570.784295
616.644454	2571.248081
616.992686	2571.984089
617.340864	2570.401167
617.688990	2569.062741
618.037063	2569.029973
618.385082	2569.244222
618.733048	2568.253636
619.080961	2570.988462
619.428821	2572.460478
619.776628	2569.934860
620.124382	2569.677762
620.472083	2571.154820
620.819731	2570.350756
621.167326	2562.990671
621.514868	2569.715570
621.862357	2570.065930
622.209793	2568.115004
622.557176	2568.853533
622.904506	2568.074675
623.251783	2561.435475
623.599007	2564.596278
623.946179	2566.456464
624.293297	2562.668037
624.640363	2563.966134
624.987376	2567.283213
625.334336	2565.980075
625.681243	2565.720456
626.028097	2562.753737
626.374899	2566.680796
626.721647	2564.800445
627.068343	2564.349262
627.414987	2563.207441
627.761577	2566.456464
628.108115	2565.876732
628.454600	2566.650549
628.801032	2565.274314
629.147412	2567.094170
629.493739	2563.630898
629.840014	2565.279355
630.186236	2568.397308
630.532405	2563.628377
630.878521	2563.467060
631.224585	2564.447564
631.570597	2564.792883
631.916556	2561.579148
632.262462	2563.406566
632.608316	2561.334652
632.954117	2562.443706
633.299866	2565.170970
633.645562	2563.126782
633.991206	2564.732390
634.336797	2564.513099
634.682336	2561.246432
635.027823	2559.570248
635.373257	2560.011349
635.718639	2559.610577
636.063968	2558.496482
636.409245	2561.831206
636.754470	2561.372461
637.099642	2563.018397
637.444762	2561.304405
637.789829	2562.310115
638.134845	2559.537481
638.479808	2557.505896
638.824719	2559.703839
639.169577	2559.413972
639.514383	2562.516802
639.859137	2555.691080
640.203839	2558.380536
640.548489	2560.374312
640.893086	2558.582182
641.237632	2556.462377
641.582125	2555.733930
641.926566	2554.798796
642.270955	2557.810885
642.615292	2560.245763
642.959576	2559.761812
643.303809	2558.146122
643.647990	2560.180228
643.992118	2557.200906
644.336195	2558.191492
644.680219	2557.644527
645.024192	2558.488921
645.368112	2557.720145
645.711981	2560.863304
646.055797	2559.290464
646.399562	2560.633932
646.743274	2559.300546
647.086935	2563.094015
647.430544	2559.419013
647.774101	2560.119734
648.117606	2559.877758
648.461059	2560.893551
648.804460	2562.536967
649.147810	2559.487069
649.491108	2559.497151
649.834354	2559.552604
650.177548	2557.483210
650.520690	2559.366081
650.863781	2558.004970
651.206820	2560.699467
651.549807	2557.936914
651.892742	2556.238045
652.235626	2555.854918
652.578458	2558.307439
652.921238	2558.836760
653.263967	2557.873900
653.606644	2556.948848
653.949269	2559.444219
654.291843	2556.918601
654.634365	2555.403734
654.976836	2556.253169
655.319255	2557.193344
655.661622	2557.629404
656.003938	2555.454146
656.346203	2557.752912
656.688416	2555.771739
657.030577	2556.485062
657.372687	2555.789383
657.714746	2553.508261
658.056753	2553.702345
658.398708	2551.912735
658.740612	2556.091852
659.082465	2552.767211
659.424266	2551.688404
659.766016	2551.378373
660.107715	2554.022458
660.449362	2557.480690
660.790958	2555.529763
661.132503	2552.621018
661.473996	2557.037068
661.815438	2557.863818
662.156829	2555.408776
662.498168	2558.778787
662.839456	2554.027499
663.180693	2557.561348
663.521879	2553.351985
663.863013	2554.791234
664.204097	2553.664536
664.545129	2556.598488
664.886110	2558.171328
665.227040	2558.194013
665.567918	2555.376008
665.908746	2555.204609
666.249522	2556.306101
666.590248	2557.077398
666.930922	2558.322562
667.271545	2555.159238
667.612118	2556.989177
667.952639	2555.033210
668.293109	2558.544373
668.633528	2556.621173
668.973896	2556.217881
669.314213	2557.805844
669.654480	2553.551110
669.994695	2559.108982
670.334859	2551.968188
670.674973	2553.838456
671.015035	2556.442212
671.355047	2558.604867
671.695008	2557.044630
672.034918	2555.174362
672.374777	2558.171328
672.714585	2556.558159
673.054342	2555.928014
673.394049	2557.263920
673.733705	2556.003632
674.073310	2555.817109
674.412864	2556.240566
674.752368	2555.968344
675.091820	2560.066802
675.431223	2555.519681
675.770574	2556.321224
676.109875	2549.412323
676.449125	2553.031872
676.788324	2551.451470
677.127473	2553.450287
677.466571	2552.701676
677.805619	2554.140925
678.144616	2551.731254
678.483562	2555.456667
678.822458	2553.967006
679.161303	2557.478169
679.500098	2555.081101
679.838842	2554.151008
680.177535	2554.133364
680.516179	2554.415668
680.854771	2554.755946
681.193314	2554.655123
681.531805	2553.793086
681.870247	2556.172510
682.208638	2556.429609
682.546978	2556.752243
682.885268	2556.646379
683.223508	2553.127653
683.561697	2557.344579
683.899836	2554.627397
684.237925	2555.355843
684.575963	2553.384752
684.913951	2554.909701
685.251889	2556.164949
685.589776	2556.671585
685.927614	2558.085628
686.265401	2557.263920
686.603137	2557.377346
686.940824	2551.809392
687.278460	2559.038406
687.616046	2555.126471
687.953582	2556.187634
688.291068	2554.881975
688.628504	2555.781821
688.965889	2554.521533
689.303224	2556.747202
689.640510	2555.118909
689.977745	2553.994732
690.314930	2554.100596
690.652065	2554.801317
690.989150	2551.239741
691.326185	2554.960113
691.663170	2552.310987
692.000105	2551.078424
692.336990	2552.431974
692.673825	2550.806202
693.010610	2551.978270
693.347345	2549.306459
693.684030	2547.461397
694.020665	2545.974256
694.357251	2546.347302
694.693786	2549.170348
695.030272	2549.198074
695.366707	2550.201264
695.703093	2547.821839
696.039429	2551.101110
696.375716	2550.181099
696.711952	2549.644216
697.048139	2546.768238
697.384276	2552.857952
697.720363	2550.687735
698.056400	2548.857796
698.392388	2551.955585
698.728326	2551.723692
699.064214	2547.557178
699.400053	2549.114895
699.735842	2549.107333
700.071581	2547.867209
700.407270	2549.631613
700.742910	2551.368291
701.078501	2547.171530
701.414042	2547.652960
701.749533	2548.212528
702.084974	2549.921480
702.420366	2548.320913
702.755709	2547.584905
703.091002	2547.226983
703.426246	2549.535831
703.761440	2547.234545
704.096584	2550.191181
704.431679	2547.161448
704.766725	2547.249668
705.101721	2547.955430
705.436668	2547.272353
705.771565	2548.434339
706.106413	2549.203115
706.441212	2547.436191
706.775961	2550.034906
707.110661	2549.457693
707.445311	2548.346119
707.779913	2545.069369
708.114465	2549.127498
708.448967	2549.805533
708.783421	2547.872251
709.117825	2546.957281
709.452180	2551.315359
709.786485	2549.319062
710.120742	2549.147663
710.454949	2549.540873
710.789107	2550.455842
711.123216	2549.460214
711.457275	2546.760676
711.791286	2547.239586
712.125247	2545.833104
712.459159	2548.462066
712.793023	2552.704197
713.126837	2547.224462
713.460602	2550.861655
713.794318	2546.813608
714.127985	2548.033568
714.461602	2546.627086
714.795171	2550.261757
715.128691	2549.714792
715.462162	2547.771428
715.795584	2548.946016
716.128957	2549.301418
716.462281	2550.801161
716.795556	2547.625234
717.128782	2545.994421
717.461960	2550.009700
717.795088	2546.584236
718.128167	2548.719164
718.461198	2548.459545
718.794180	2546.228834
719.127113	2547.017775
719.459997	2548.638506
719.792833	2545.659184
720.125619	2547.562220
720.458357	2547.158927
720.791046	2547.839483
721.123686	2545.689431
721.456278	2545.412168
721.788821	2542.510983
722.121315	2544.759338
722.453761	2546.072559
722.786158	2545.081972
723.118506	2544.456869
723.450805	2545.944009
723.783056	2542.909235
724.115259	2544.734132
724.447412	2546.009544
724.779518	2547.859648
725.111574	2543.249513
725.443582	2544.807229
725.775542	2546.642209
726.107453	2545.845707
726.439315	2544.383772
726.771129	2551.022972
727.102895	2545.384441
727.434612	2544.824873
727.766281	2543.657846
728.097901	2544.328319
728.429473	2542.674821
728.760996	2544.963505
729.092471	2541.059131
729.423897	2547.917621
729.755276	2546.932075
730.086606	2547.915100
730.417887	2546.559030
730.749120	2548.194884
731.080305	2544.164482
731.411442	2549.457693
731.742530	2549.669422
732.073570	2548.121788
732.404562	2549.258568
732.735506	2545.608772
733.066401	2547.005172
733.397249	2547.597508
733.728048	2546.367466
734.058798	2544.507280
734.389501	2547.015254
734.720156	2547.307641
735.050762	2545.434853
735.381320	2546.516180
735.711831	2547.645399
736.042293	2545.066848
736.372707	2547.458876
736.703073	2544.885367
737.033391	2544.303114
737.363661	2543.741025
737.693883	2543.980480
738.024056	2545.497867
738.354182	2546.478372
738.684260	2547.763866
739.014290	2545.911242
739.344272	2544.073741
739.674207	2548.356201
740.004093	2549.082127
740.333931	2544.277908
740.663722	2545.392003
740.993464	2546.985008
741.323159	2548.739329
741.652806	2544.101467
741.982405	2543.980480
742.311956	2544.275387
742.641460	2543.841848
742.970915	2544.749256
743.300323	2545.132383
743.629683	2546.049873
743.958996	2546.717826
744.288260	2541.384286
744.617477	2544.388813
744.946647	2541.036446
745.275768	2542.732794
745.604842	2538.790612
745.933869	2542.780685
746.262847	2538.805735
746.591778	2544.547610
746.920662	2544.262784
747.249498	2543.574667
747.578286	2544.494677
747.907027	2545.253371
748.235720	2544.083823
748.564365	2544.819832
748.892963	2545.233207
749.221514	2543.983000
749.550017	2542.629451
749.878473	2544.454348
750.206881	2542.861344
750.535242	2544.295552
750.863555	2542.198432
751.191821	2543.249513
751.520039	2542.558874
751.848210	2544.676159
752.176334	2543.625078
752.504411	2541.958977
752.832440	2540.275232
753.160421	2545.349153
753.488356	2541.149872
753.816243	2543.917465
754.144082	2541.538041
754.471875	2543.262115
754.799620	2545.139945
755.127318	2540.169367
755.454969	2542.682383
755.782572	2542.694986
756.110129	2545.409647
756.437638	2542.536189
756.765100	2544.535007
757.092515	2543.007537
757.419882	2542.211035
757.747203	2542.251364
758.074477	2539.604758
758.401703	2543.292362
758.728882	2541.510314
759.056014	2543.315047
759.383099	2540.733977
759.710138	2543.836807
760.037129	2542.949564
760.364073	2545.041643
760.690970	2541.782537
761.017820	2541.354039
761.344623	2541.916127
761.671379	2542.914276
761.998088	2538.268852
762.324751	2542.906714
762.651366	2544.517363
762.977935	2550.909546
763.304456	2547.000131
763.630931	2554.634958
763.957359	2553.243600
764.283740	2551.390976
764.610074	2549.883671
764.936362	2548.867878
765.262602	2548.000800
765.588796	2547.368135
765.914943	2543.519214
766.241044	2543.725902
766.567097	2542.810932
766.893104	2544.046015
767.219064	2540.844882
767.544978	2541.868236
767.870845	2541.928730
768.196665	2540.733977
768.522438	2542.616848
768.848165	2544.111550
769.173846	2542.899152
769.499479	2540.804553
769.825066	2542.440407
770.150607	2541.112063
770.476101	2540.761703
770.801548	2541.492670
771.126949	2538.175591
771.452303	2541.689275
771.777611	2539.892104
772.102872	2539.945036
772.428087	2539.130890
772.753256	2542.032074
773.078378	2539.561908
773.403453	2537.681558
773.728482	2537.747093
774.053465	2536.806918
774.378401	2540.749100
774.703291	2539.340098
775.028135	2540.161806
775.352932	2539.627443
775.677683	2538.193235
776.002388	2540.091230
776.327046	2536.297761
776.651658	2540.688606
776.976224	2539.009902
777.300743	2538.289017
777.625216	2538.873791
777.949643	2539.032587
778.274024	2538.788091
778.598359	2536.602751
778.922647	2536.706095
779.246889	2533.966228
779.571086	2531.634694
779.895236	2538.546116
780.219339	2541.588452
780.543397	2538.868750
780.867409	2538.785571
781.191374	2538.924202
781.515294	2538.788091
781.839167	2539.017464
782.162995	2537.457227
782.486776	2538.737680
782.810511	2538.853626
783.134201	2539.884542
783.457844	2538.273894
783.781441	2538.856147
784.104993	2539.710622
784.428498	2538.805735
784.751958	2537.560570
785.075372	2536.595189
785.398739	2539.501415
785.722061	2537.205169
786.045337	2539.569470
786.368568	2540.229861
786.691752	2538.304141
787.014891	2541.215407
787.337983	2538.346990
787.661030	2540.928061
787.984031	2539.907228
788.306987	2541.086857
788.629897	2539.682896
788.952760	2541.210366
789.275579	2538.205838
789.598351	2539.743390
789.921078	2538.737680
790.243759	2538.289017
790.566395	2535.841537
790.888984	2539.236754
791.211529	2537.921013
791.534027	2541.454862
791.856480	2538.024357
792.178888	2538.301620
792.501249	2538.553678
792.823566	2539.357742
793.145836	2538.130221
793.468062	2539.957639
793.790241	2538.594007
794.112375	2541.263298
794.434464	2536.539737
794.756507	2539.115766
795.078505	2539.090561
795.400457	2535.289531
795.722364	2533.537730
796.044226	2536.348173
796.366042	2534.588810
796.687812	2536.285158
797.009538	2540.638195
797.331218	2537.618544
797.652852	2538.674665
797.974442	2539.793802
798.295986	2537.989068
798.617484	2538.999820
798.938938	2539.670293
799.260346	2535.440765
799.581709	2539.342618
799.903026	2541.928730
800.224299	2537.621064
800.545526	2538.657021
800.866708	2539.362783
801.187845	2537.492515
801.508936	2537.651311
801.829983	2537.900848
802.150984	2539.491332
802.471940	2539.158616
802.792851	2536.222144
803.113717	2536.128883
803.434538	2537.474871
803.755314	2535.216434
804.076045	2538.563760
804.396731	2534.954294
804.717372	2536.385982
805.037967	2538.682227
805.358518	2535.087884
805.679024	2539.967721
805.999485	2536.786753
806.319901	2539.100643
806.640272	2536.214582
806.960598	2537.409336
807.280879	2536.872453
807.601115	2538.714995
807.921306	2538.946888
808.241453	2537.290869
808.561554	2537.648791
808.881611	2537.701723
809.201623	2540.653318
809.521590	2537.479912
809.841513	2539.335057
810.161390	2537.807587
810.481223	2536.935467
810.801011	2539.458565
811.120755	2535.876825
811.440453	2539.002340
811.760107	2534.939170
812.079716	2536.070909
812.399281	2531.831299
812.718801	2533.827596
813.038276	2530.901206
813.357707	2535.034952
813.677093	2535.576876
813.996434	2536.620395
814.315731	2538.397402
814.634983	2534.591331
814.954191	2536.829603
815.273354	2536.259953
815.592473	2539.025026
815.911547	2538.362114
816.230577	2538.195756
816.549562	2538.546116
816.868502	2535.539068
817.187399	2539.503935
817.506250	2535.967566
817.825058	2540.426466
818.143821	2538.483102
818.462539	2539.556867
818.781213	2541.414533
819.099843	2538.979655
819.418429	2540.315561
819.736970	2541.782537
820.055466	2544.177085
820.373919	2544.524924
820.692327	2546.564071
821.010691	2549.424926
821.329011	2557.326935
821.647286	2576.697568
821.965517	2591.952100
822.283704	2605.182608
822.601847	2609.016406
822.919945	2598.029211
823.237999	2586.837849
823.556010	2578.545151
823.873976	2567.671382
824.191897	2563.146947
824.509775	2553.906512
824.827609	2553.029351
825.145398	2551.426264
825.463144	2553.006666
825.780845	2551.832077
826.098502	2553.503219
826.416116	2558.120916
826.733685	2562.947821
827.051210	2565.770867
827.368692	2564.293809
827.686129	2559.275341
828.003522	2553.077242
828.320872	2544.408978
828.638177	2544.822352
828.955439	2543.625078
829.272656	2538.553678
829.589830	2537.616023
829.906960	2540.426466
830.224046	2537.898328
830.541088	2539.922351
830.858086	2540.524769
831.175041	2540.134079
831.491952	2538.389840
831.808819	2537.331198
832.125642	2538.251208
832.442421	2541.812784
832.759157	2543.007537
833.075849	2546.624565
833.392497	2549.460214
833.709101	2550.299566
834.025662	2549.278732
834.342179	2548.784699
834.658653	2546.112888
834.975083	2544.870243
835.291469	2548.351160
835.607811	2539.052752
835.924110	2540.560057
836.240366	2538.067206
836.556578	2539.821528
836.872746	2537.789943
837.188871	2536.068389
837.504952	2535.607123
837.820990	2536.514531
838.136984	2536.050745
838.452935	2541.149872
838.768842	2536.015457
839.084706	2536.943029
839.400526	2538.442772
839.716303	2538.815818
840.032037	2541.719522
840.347727	2542.223638
840.663373	2540.169367
840.978977	2537.729449
841.294537	2535.881866
841.610054	2536.731301
841.925527	2534.462781
842.240957	2535.090405
842.556344	2537.558050
842.871687	2535.977648
843.186987	2537.288348
843.502244	2536.338091
843.817458	2537.169881
844.132629	2533.252904
844.447756	2533.668800
844.762840	2531.072605
845.077881	2533.187369
845.392879	2531.428007
845.707833	2530.291227
846.022745	2528.859539
846.337613	2533.663758
846.652438	2534.261135
846.967221	2533.464633
847.281960	2532.095960
847.596656	2536.484284
847.911309	2534.674510
848.225919	2534.329191
848.540485	2533.139478
848.855009	2534.303985
849.169490	2533.835158
849.483928	2536.184335
849.798323	2536.585107
850.112675	2534.349355
850.426984	2535.221475
850.741251	2533.878007
851.055474	2532.910106
851.369654	2532.945394
851.683792	2534.649304
851.997887	2533.406660
852.311938	2533.389016
852.625947	2532.544622
852.939914	2531.266690
853.253837	2533.338604
853.567718	2533.061341
853.881555	2532.658048
854.195350	2535.357586
854.509103	2535.866743
854.822812	2533.678882
855.136479	2533.315919
855.450103	2535.062679
855.763685	2533.872966
856.077224	2533.562935
856.390720	2534.606454
856.704173	2533.212575
857.017584	2534.697195
857.330953	2532.539581
857.644278	2534.893800
857.957561	2532.910106
858.270802	2531.407842
858.584000	2535.135775
858.897155	2533.101670
859.210268	2535.014788
859.523339	2533.499921
859.836367	2534.024201
860.149352	2533.477236
860.462295	2536.796836
860.775195	2529.938346
861.088054	2533.641073
861.400869	2528.851977
861.713642	2531.695188
862.026373	2533.567977
862.339062	2533.026053
862.651708	2532.370703
862.964312	2533.714170
863.276873	2533.893131
863.589392	2534.147709
863.901869	2531.985054
864.214303	2537.968904
864.526696	2532.708460
864.839045	2534.195600
865.151353	2537.124511
865.463619	2534.031763
865.775842	2534.193080
866.088023	2534.382123
866.400162	2535.188707
866.712258	2532.957997
867.024313	2535.886907
867.336325	2533.668800
867.648296	2534.246012
867.960224	2533.741896
868.272110	2535.861702
868.583954	2534.019160
868.895755	2536.423790
869.207515	2533.809952
869.519233	2535.176105
869.830909	2533.809952
870.142542	2534.707277
870.454134	2532.274921
870.765684	2534.238450
871.077191	2533.777184
871.388657	2537.537885
871.700081	2536.393543
872.011463	2537.341280
872.322803	2535.350024
872.634101	2533.837678
872.945357	2534.530837
873.256571	2537.240457
873.567744	2531.395239
873.878874	2533.661238
874.189963	2534.845909
874.501010	2537.815149
874.812015	2533.883049
875.122979	2534.319108
875.433900	2531.259128
875.744780	2531.682585
876.055618	2535.332380
876.366415	2536.857329
876.677169	2534.503111
876.987882	2532.428676
877.298554	2533.459592
877.609183	2534.414890
877.919771	2532.431196
878.230317	2534.283820
878.540822	2536.595189
878.851285	2534.883718
879.161707	2539.072917
879.472087	2540.454193
879.782425	2538.838503
880.092722	2542.117773
880.402977	2548.356201
880.713191	2557.989846
881.023363	2566.219530
881.333494	2575.396951
881.643583	2576.690007
881.953631	2576.581622
882.263637	2573.234296
882.573602	2570.083574
882.883526	2561.198541
883.193408	2560.066802
883.503248	2557.909188
883.813048	2550.128167
884.122806	2548.998948
884.432522	2548.124308
884.742197	2544.131714
885.051831	2544.464431
885.361424	2539.453524
885.670975	2541.192722
885.980485	2537.898328
886.289954	2538.742721
886.599382	2537.134593
886.908768	2538.861188
887.218113	2535.793646
887.527417	2536.905220
887.836680	2535.105528
888.145901	2535.196269
888.455082	2536.927906
888.764221	2536.272556
889.073319	2535.135775
889.382376	2535.289531
889.691392	2533.978831
890.000366	2536.128883
890.309300	2537.595858
890.618193	2537.394212
890.927044	2535.546629
891.235855	2536.063348
891.544625	2535.697864
891.853353	2538.858667
892.162041	2535.755837
892.470687	2533.991433
892.779293	2537.895807
893.087858	2534.177956
893.396381	2535.261804
893.704864	2537.091743
894.013306	2540.600386
894.321707	2544.968546
894.630068	2547.763866
894.938387	2548.789741
895.246665	2548.220090
895.554903	2547.579864
895.863100	2541.533000
896.171256	2544.441745
896.479371	2541.724563
896.787446	2539.551826
897.095480	2539.574511
897.403473	2538.904038
897.711425	2537.432021
898.019336	2536.547298
898.327207	2535.047555
898.635038	2536.063348
898.942827	2536.229706
899.250576	2535.728111
899.558284	2536.481763
899.865952	2532.947915
900.173579	2536.668286
900.481165	2532.733666
900.788711	2537.046373
901.096216	2534.664428
901.403681	2533.411701
901.711105	2533.580579
902.018489	2532.126207
902.325832	2538.445293
902.633135	2534.281300
902.940397	2536.060827
903.247619	2538.173071
903.554800	2541.396888
903.861941	2546.566592
904.169041	2552.056408
904.476101	2555.176883
904.783121	2554.284598
905.090100	2553.626728
905.397039	2550.972560
905.703938	2544.078782
906.010796	2542.057280
906.317614	2544.305634
906.624391	2538.422608
906.931129	2537.815149
907.237826	2534.750127
907.544483	2534.157792
907.851099	2534.170394
908.157675	2532.653007
908.464211	2533.172246
908.770707	2529.487163
909.077163	2531.574200
909.383578	2526.202851
909.689954	2529.265352
909.996289	2528.204189
910.302584	2532.259797
910.608839	2531.798532
910.915054	2533.603265
911.221229	2531.680064
911.527363	2533.507483
911.833458	2534.306506
912.139513	2534.510672
912.445527	2531.901875
912.751502	2533.401618
913.057436	2535.380271
913.363331	2533.114273
913.669186	2533.252904
913.975000	2533.510003
914.280775	2536.204500
914.586510	2535.473533
914.892205	2539.350180
915.197859	2543.214224
915.503475	2544.613145
915.809050	2551.741336
916.114585	2550.347457
916.420081	2551.015410
916.725536	2551.885009
917.030952	2551.007848
917.336328	2543.466282
917.641665	2546.155738
917.946961	2544.492157
918.252218	2539.365303
918.557435	2540.643236
918.862612	2538.727598
919.167750	2536.554860
919.472848	2536.126362
919.777906	2537.144675
920.082925	2537.114428
920.387904	2534.412370
920.692843	2531.647297
920.997743	2534.792977
921.302603	2532.854653
921.607423	2534.361958
921.912204	2535.501259
922.216946	2532.700898
922.521647	2534.762730
922.826310	2533.860363
923.130932	2535.347504
923.435516	2532.118645
923.740059	2532.504293
924.044564	2531.906916
924.349028	2532.229550
924.653454	2525.232429
924.957840	2528.836854
925.262186	2528.035310
925.566493	2527.803417
925.870761	2528.806607
926.174989	2531.778367
926.479178	2532.479087
926.783328	2532.106042
927.087438	2528.511699
927.391509	2531.604447
927.695541	2532.123686
927.999533	2531.662420
928.303486	2530.339117
928.607400	2534.513193
928.911275	2531.301978
929.215110	2529.744261
929.518906	2529.623274
929.822663	2530.810465
930.126381	2533.116793
930.430060	2532.806762
930.733699	2530.974303
931.037299	2530.901206
931.340861	2529.925743
931.644383	2532.448840
931.947866	2532.090918
932.251309	2534.414890
932.554714	2531.002029
932.858080	2535.738193
933.161407	2528.509179
933.464694	2532.279962
933.767943	2530.865918
934.071153	2528.816689
934.374323	2533.227699
934.677455	2530.165198
934.980548	2531.208717
935.283602	2531.949766
935.586617	2530.757533
935.889593	2531.294416
936.192530	2529.136802
936.495428	2531.322142
936.798287	2530.538243
937.101108	2532.698378
937.403890	2529.623274
937.706632	2532.779036
938.009336	2532.688295
938.312002	2532.738707
938.614628	2530.447502
938.917216	2531.251566
939.219765	2531.914478
939.522275	2531.438089
939.824747	2533.358769
940.127179	2528.635207
940.429573	2529.683768
940.731929	2526.606143
941.034246	2525.461801
941.336524	2528.960362
941.638763	2532.093439
941.940964	2530.465146
942.243126	2532.012781
942.545250	2529.867770
942.847335	2536.068389
943.149381	2529.030938
943.451389	2530.981865
943.753359	2531.871628
944.055290	2532.716022
944.357182	2535.213913
944.659036	2528.799045
944.960851	2530.835671
945.262628	2529.502286
945.564367	2533.205013
945.866067	2529.235105
946.167729	2531.060003
946.469352	2531.904396
946.770937	2531.664941
947.072484	2529.807276
947.373992	2531.755682
947.675462	2529.971113
947.976893	2529.351051
948.278286	2528.604961
948.579641	2530.933974
948.880958	2531.463295
949.182236	2530.928932
949.483476	2529.955990
949.784678	2532.617719
950.085841	2530.114786
950.386967	2530.364323
950.688054	2529.978675
950.989103	2531.528830
951.290114	2529.335928
951.591087	2531.138140
951.892021	2531.556556
952.192917	2531.591844
952.493776	2530.419776
952.794596	2531.642256
953.095378	2531.949766
953.396122	2531.581762
953.696828	2527.364837
953.997496	2529.532533
954.298126	2530.613860
954.598718	2534.190559
954.899272	2530.674354
955.199788	2528.395753
955.500266	2530.276103
955.800706	2530.528161
956.101108	2524.287212
956.401472	2524.635052
956.701798	2526.522964
957.002087	2528.360465
957.302337	2530.203006
957.602550	2531.816176
957.902724	2529.056144
958.202861	2532.075795
958.502960	2527.848788
958.803022	2530.500434
959.103045	2529.189734
959.403031	2531.687626
959.702979	2528.985568
960.002889	2529.678726
960.302762	2529.356093
960.602596	2529.739220
960.902393	2529.489683
961.202153	2529.550177
961.501875	2529.018335
961.801559	2529.615712
962.101205	2526.805269
962.400814	2528.269724
962.700385	2528.683098
962.999918	2528.158818
963.299414	2528.252080
963.598873	2528.673016
963.898293	2528.947759
964.197677	2528.552028
964.497022	2530.281144
964.796331	2528.730989
965.095601	2530.876000
965.394835	2531.523789
965.694030	2529.169570
965.993189	2530.339117
966.292309	2528.241997
966.591393	2527.896678
966.890439	2527.571524
967.189447	2531.246525
967.488419	2528.544467
967.787353	2529.648479
968.086249	2529.504807
968.385108	2528.965403
968.683930	2529.154446
968.982714	2529.698891
969.281462	2529.041020
969.580172	2527.334590
969.878844	2530.903727
970.177480	2526.263345
970.476078	2528.499096
970.774639	2528.282327
971.073162	2527.826102
971.371649	2526.717048
971.670098	2525.184538
971.968510	2528.191586
972.266885	2522.326203
972.565223	2529.623274
972.863524	2525.839888
973.161788	2526.754857
973.460014	2529.741741
973.758204	2530.835671
974.056356	2530.082019
974.354471	2531.717873
974.652550	2531.175949
974.950591	2528.035310
975.248595	2528.395753
975.546563	2530.031607
975.844493	2525.401307
976.142386	2528.587317
976.440243	2528.683098
976.738062	2528.995650
977.035845	2529.530012
977.333590	2532.383305
977.631299	2530.235774
977.928971	2526.719569
978.226606	2528.398273
978.524204	2530.510517
978.821765	2527.528674
979.119290	2527.586647
979.416777	2526.245701
979.714228	2529.139323
980.011642	2529.225023
980.309020	2529.787111
980.606360	2529.298119
980.903664	2528.920033
981.200931	2528.927594
981.498162	2528.617563
981.795356	2528.597399
982.092513	2531.047400
982.389633	2530.354241
982.686717	2527.488345
982.983764	2530.379447
983.280775	2531.012112
983.577749	2529.272913
983.874686	2531.778367
984.171587	2530.190403
984.468451	2529.194776
984.765279	2529.144364
985.062070	2530.182842
985.358824	2527.037162
985.655543	2530.402132
985.952224	2528.410876
986.248869	2529.300640
986.545478	2520.909639
986.842050	2525.867614
987.138586	2524.062881
987.435086	2526.875845
987.731549	2524.390556
988.027975	2528.627646
988.324366	2528.420958
988.620719	2527.722759
988.917037	2526.613705
989.213318	2528.920033
989.509563	2527.032121
989.805772	2529.119158
990.101944	2528.158818
990.398080	2526.981709
990.694180	2526.107069
990.990244	2532.647966
991.286271	2527.707635
991.582262	2528.741072
991.878217	2528.375588
992.174136	2527.027079
992.470019	2528.645290
992.765865	2527.518592
993.061676	2525.910464
993.357450	2528.272244
993.653188	2527.392563
993.948890	2525.928108
994.244556	2526.223015
994.540186	2528.347862
994.835780	2526.921215
995.131337	2529.429189
995.426859	2528.604961
995.722345	2528.123530
996.017795	2526.979188
996.313208	2529.681247
996.608586	2526.898530
996.903928	2528.420958
997.199234	2526.235618
997.494504	2527.148067
997.789738	2527.785773
998.084936	2528.962882
998.380099	2526.916174
998.675225	2526.369209
998.970316	2526.374250
999.265371	2526.374250
999.560390	2528.045392
999.855373	2528.652852
1000.150320	2527.579086
1000.445232	2531.463295
1000.740108	2528.121010
1001.034948	2529.885414
1001.329752	2526.328880
1001.624521	2530.563449
1001.919254	2525.214785
1002.213951	2526.522964
1002.508613	2523.687315
1002.803239	2526.089425
1003.097829	2519.488034
1003.392384	2526.636390
1003.686903	2525.978519
1003.981386	2527.969775
1004.275834	2525.164373
1004.570246	2528.274765
1004.864623	2526.964065
1005.158964	2527.679909
1005.453270	2529.023376
1005.747540	2526.976668
1006.041775	2528.655372
1006.335974	2527.881555
1006.630138	2528.320135
1006.924266	2527.790814
1007.218359	2526.291071
1007.512416	2529.431710
1007.806438	2528.075639
1008.100425	2527.430372
1008.394376	2526.482635
1008.688292	2527.072450
1008.982172	2528.199148
1009.276017	2527.954652
1009.569827	2526.628828
1009.863602	2528.904909
1010.157341	2526.767460
1010.451045	2528.373068
1010.744714	2526.258303
1011.038347	2527.818541
1011.331945	2526.764939
1011.625508	2525.088756
1011.919036	2525.061029
1012.212528	2526.170083
1012.505986	2526.991791
1012.799408	2527.475742
1013.092795	2526.633869
1013.386147	2527.632018
1013.679464	2529.149405
1013.972745	2525.343334
1014.265992	2524.788807
1014.559204	2526.953983
1014.852380	2527.311905
1015.145521	2529.061185
1015.438628	2525.928108
1015.731699	2528.617563
1016.024736	2524.317459
1016.317737	2526.384332
1016.610703	2528.741072
1016.903635	2525.557583
1017.196531	2522.537932
1017.489393	2527.753006
1017.782219	2521.998528
1018.075011	2524.877027
1018.367768	2522.739578
1018.660490	2526.943900
1018.953177	2526.943900
1019.245829	2526.943900
