Dividing Wavelength (nm)	Counts (n)	Blue Motor Position (mm): 0.000000	Red Motor Position (mm): 38.500000	
326.493990	2077.482185
326.888308	2077.482185
327.282561	2077.482185
327.676750	2054.381098
328.070874	2056.233722
328.464933	2062.845195
328.858929	2068.617316
329.252859	2086.863773
329.646726	2098.677717
330.040528	2112.664398
330.434265	2134.946298
330.827938	2157.361788
331.221547	2174.176557
331.615091	2193.320339
332.008571	2213.542928
332.401986	2238.380693
332.795338	2255.573548
333.188625	2275.667587
333.581847	2293.538477
333.975006	2313.821560
334.368100	2329.794456
334.761129	2346.236179
335.154095	2362.514065
335.546996	2392.481204
335.939833	2439.028698
336.332606	2451.656788
336.725315	2463.001905
337.117960	2467.319653
337.510540	2479.809112
337.903056	2487.159114
338.295508	2494.367964
338.687896	2502.138903
339.080220	2507.979080
339.472480	2513.620131
339.864676	2515.918897
340.256807	2520.307221
340.648875	2520.972654
341.040879	2523.384846
341.432818	2523.641945
341.824694	2523.402490
342.216506	2524.975330
342.608253	2523.533560
342.999937	2521.892664
343.391557	2520.241686
343.783113	2522.366533
344.174605	2520.098013
344.566033	2518.263033
344.957397	2516.024761
345.348697	2515.298835
345.739934	2517.688342
346.131106	2514.605676
346.522215	2510.454286
346.913260	2507.280880
347.304241	2508.400016
347.695159	2509.073010
348.086012	2505.650067
348.476802	2504.049500
348.867528	2504.730056
349.258191	2501.039931
349.648789	2499.882987
350.039324	2503.031187
350.429796	2498.335352
350.820203	2499.215034
351.210548	2494.496514
351.600828	2497.485918
351.991045	2495.678664
352.381198	2497.611947
352.771288	2495.350989
353.161314	2496.104642
353.551276	2498.204282
353.941175	2497.311998
354.331010	2497.669920
354.720782	2495.328304
355.110490	2497.760661
355.500135	2501.276866
355.889717	2497.427945
356.279235	2499.651093
356.668689	2501.176043
357.058080	2500.230826
357.447408	2498.075733
357.836672	2498.887359
358.225873	2499.542709
358.615010	2499.620847
359.004084	2502.370796
359.393095	2503.494973
359.782043	2505.599655
360.170927	2507.744666
360.559748	2510.421519
360.948505	2509.098216
361.337199	2509.478823
361.725830	2509.705675
362.114398	2510.603000
362.502903	2511.497805
362.891344	2512.558968
363.279722	2511.616272
363.668037	2515.621469
364.056289	2515.845800
364.444478	2514.822446
364.832603	2515.560975
365.220665	2519.099865
365.608665	2517.169103
365.996601	2518.447036
366.384474	2520.622293
366.772284	2519.147756
367.160031	2518.835204
367.547715	2520.002232
367.935336	2524.579599
368.322893	2523.823426
368.710388	2526.550690
369.097820	2526.913653
369.485189	2526.081863
369.872495	2532.635363
370.259738	2530.971782
370.646918	2532.617719
371.034035	2532.486649
371.421090	2538.442772
371.808081	2541.033925
372.195010	2544.335881
372.581875	2551.423743
372.968678	2554.640000
373.355418	2562.403377
373.742096	2569.372772
374.128710	2579.192939
374.515262	2589.340782
374.901751	2601.820158
375.288177	2618.347581
375.674540	2635.338790
376.060841	2651.999804
376.447079	2673.855726
376.833254	2697.039993
377.219367	2718.230483
377.605417	2748.507653
377.991404	2775.467744
378.377329	2811.668270
378.763191	2843.059535
379.148991	2888.155176
379.534727	2931.801486
379.920402	2974.200111
380.306013	3023.338758
380.691563	3082.784044
381.077049	3134.029893
381.462474	3185.938655
381.847835	3254.891557
382.233134	3322.984943
382.618371	3380.711195
383.003545	3461.742702
383.388657	3536.245915
383.773706	3621.358236
384.158693	3696.110986
384.543618	3782.750776
384.928480	3852.394317
385.313280	3958.250986
385.698017	4052.008885
386.082692	4165.669261
386.467305	4227.342737
386.851856	4344.728525
387.236344	4493.830732
387.620770	4557.099733
388.005133	4667.329603
388.389435	4803.554183
388.773674	4890.443511
389.157851	5011.900030
389.541965	5138.276716
389.926018	5167.366694
390.310008	5334.753167
390.693936	5452.020487
391.077802	5565.204474
391.461606	5694.651222
391.845348	5799.797088
392.229027	5917.712198
392.612645	6131.343695
392.996200	6243.063226
393.379694	6410.326190
393.763125	6627.650332
394.146494	6711.338527
394.529801	6850.396235
394.913047	7078.752943
395.296230	7078.284115
395.679351	7132.605069
396.062410	7380.274437
396.445408	7284.157277
396.828343	7435.495236
397.211217	7569.748724
397.594028	7462.236036
397.976778	7656.070922
398.359466	7818.075963
398.742092	7798.546533
399.124656	7938.645239
399.507158	8125.336810
399.889598	8150.436715
400.271977	8359.853808
400.654294	8386.297180
401.036549	8581.160462
401.418742	8611.614072
401.800874	8908.830421
402.182944	8992.253955
402.564952	9342.314199
402.946898	9186.900467
403.328783	9237.158250
403.710606	9432.855842
404.092367	9683.920427
404.474067	10034.759529
404.855705	9847.140386
405.237282	9799.178848
405.618797	10219.691737
406.000250	10457.238468
406.381642	10807.558332
406.762972	10765.298339
407.144240	10577.127189
407.525447	10830.367032
407.906593	10781.114959
408.287677	11037.195492
408.668700	11185.680158
409.049661	11173.762870
409.430560	11331.215749
409.811399	11302.937397
410.192176	11464.140894
410.572891	11544.017976
410.953545	12019.149247
411.334138	11512.740137
411.714669	12082.808938
412.095139	11441.037286
412.475547	11906.083728
412.855894	11780.228802
413.236180	12103.772576
413.616405	11791.427725
413.996568	12074.760736
414.376670	12047.624204
414.756711	11931.460896
415.136691	12208.547918
415.516609	12376.380532
415.896466	12460.923202
416.276262	12751.213006
416.655997	13205.909959
417.035670	13253.947114
417.415283	13869.769427
417.794834	13947.834215
418.174324	13709.523749
418.553753	13620.272641
418.933121	14105.965128
419.312428	13938.417339
419.691674	13838.635261
420.070859	14299.588286
420.449983	13951.098362
420.829045	14511.533517
421.208047	14271.178863
421.586988	14723.309870
421.965867	14967.175687
422.344686	14969.119052
422.723444	15540.596855
423.102141	14243.921345
423.480777	15420.072948
423.859352	14929.344348
424.237866	16028.620876
424.616319	15748.615027
424.994712	16388.985238
425.373044	16178.696026
425.751314	16881.019498
426.129524	16006.467526
426.507673	17079.446875
426.885762	16809.974517
427.263789	16980.466340
427.641756	17171.576482
428.019662	17232.660143
428.397508	17282.958256
428.775292	17561.653405
429.153016	17557.320533
429.530679	17621.950646
429.908282	17657.601686
430.285824	17387.562198
430.663305	18105.714893
431.040726	17704.708748
431.418086	17557.214669
431.795385	18184.981996
432.172624	18625.069685
432.549802	18187.006019
432.926920	18404.289832
433.303977	18281.048744
433.680974	18526.421866
434.057910	18845.521863
434.434786	18878.531339
434.811601	18807.448549
435.188355	19853.288847
435.565050	19521.921201
435.941683	19479.963678
436.318257	20372.073989
436.694770	20182.715647
437.071222	20763.718711
437.447614	19840.151600
437.823946	19875.404388
438.200218	20048.754546
438.576429	19829.547532
438.952580	20132.876280
439.328670	20097.489901
439.704700	20523.921104
440.080670	20098.843450
440.456580	20714.950588
440.832429	20877.600897
441.208218	19899.821217
441.583947	20337.272383
441.959616	20455.777307
442.335224	20702.456088
442.710773	20843.815083
443.086261	21391.730533
443.461689	20728.614636
443.837057	20895.781818
444.212365	21554.607693
444.587612	21548.442362
444.962800	21145.341618
445.337927	21571.198131
445.712995	20298.679830
446.088002	22188.121936
446.462949	22396.669429
446.837837	22583.857554
447.212664	22597.662753
447.587431	25546.770521
447.962139	28529.064204
448.336786	30808.472327
448.711374	29168.579940
449.085901	25447.404337
449.460369	25460.012263
449.834776	25448.838546
450.209124	27987.815680
450.583412	27487.987797
450.957640	27959.350805
451.331808	26619.795241
451.705917	25243.260292
452.079965	25288.300481
452.453954	25673.353894
452.827883	25584.405255
453.201752	25381.581992
453.575562	25544.842280
453.949311	26681.118357
454.323001	26750.749294
454.696632	26530.234101
455.070202	28140.892837
455.443713	28337.961624
455.817164	28909.192410
456.190556	29476.596961
456.563888	28870.451143
456.937160	29318.284565
457.310373	27617.484957
457.683526	28046.088898
458.056619	28046.782057
458.429653	28026.907308
458.802628	28632.251582
459.175542	28785.414439
459.548398	30146.667130
459.921194	31784.175051
460.293930	32520.271733
460.666607	34613.041217
461.039224	36401.032622
461.411782	36759.937570
461.784280	35471.728678
462.156719	34910.917957
462.529099	34354.954305
462.901419	33014.796322
463.273680	31960.771712
463.645882	32118.461525
464.018024	32097.649121
464.390106	33033.284754
464.762130	35949.433458
465.134094	40287.573194
465.505999	45767.637621
465.877845	50320.941365
466.249631	51320.521514
466.621358	49468.388988
466.993026	47224.977224
467.364634	45095.634169
467.736184	43120.467242
468.107674	41849.191586
468.479105	41057.916955
468.850477	40333.835863
469.221790	38883.717713
469.593043	37115.832950
469.964238	36196.470161
470.335373	36162.525552
470.706449	38020.851135
471.077467	40778.347165
471.448425	45460.452391
471.819324	48228.865040
472.190164	46234.710607
472.560945	42601.271246
472.931667	39440.089698
473.302330	38334.970472
473.672934	37488.364137
474.043479	38023.190230
474.413965	37228.275886
474.784393	36870.918572
475.154761	37800.890469
475.525070	37832.009512
475.895321	37357.556277
476.265513	37988.663368
476.635645	38981.669852
477.005719	38840.449489
477.375734	39339.793422
477.745691	40064.703783
478.115588	41437.599018
478.485427	43562.457967
478.855207	47040.518885
479.224928	49704.614937
479.594591	51265.482197
479.964194	50157.121509
480.333739	50289.441715
480.703226	50354.885975
481.072653	51017.260823
481.442022	51487.149293
481.811333	51693.975232
482.180584	50419.057342
482.549777	49889.249717
482.918912	49351.489672
483.287988	49037.667763
483.657005	48207.762770
484.025964	47515.632511
484.394864	47521.525620
484.763706	47091.283304
485.132489	46191.903649
485.501213	46060.654688
485.869879	46165.780390
486.238487	45760.557320
486.607036	45961.976622
486.975527	45402.907619
487.343959	45619.011803
487.712333	45687.790785
488.080648	45573.623774
488.448905	46041.485701
488.817104	45843.655700
489.185244	46840.962289
489.553326	48615.839132
489.921350	51376.548898
490.289315	54211.822371
490.657222	54739.545479
491.025070	54967.418236
491.392861	54037.038005
491.760593	52764.290332
492.128267	51073.366344
492.495883	49511.662253
492.863440	48086.588555
493.230939	46692.051646
493.598380	45605.105780
493.965763	45265.425272
494.333088	44443.003872
494.700354	43953.051609
495.067563	43647.257737
495.434713	43488.930218
495.801805	43580.076800
496.168839	43165.845189
496.535815	42836.730939
496.902733	42836.441073
497.269593	42399.841862
497.636395	42337.634023
498.003139	42745.269285
498.369825	42185.900334
498.736453	42474.483706
499.103023	41993.476971
499.469535	41862.863195
499.835989	41956.656383
500.202385	41614.737603
500.568723	41616.975875
500.935003	41805.658702
501.301226	41616.945628
501.667390	42220.086918
502.033497	42456.801859
502.399546	41892.111970
502.765537	41179.262569
503.131470	41549.747047
503.497345	41914.396390
503.863163	40538.463860
504.228923	41189.531399
504.594625	41591.021495
504.960269	40838.130209
505.325856	41533.012937
505.691385	40887.662066
506.056856	41033.573223
506.422270	41465.869809
506.787625	41017.910358
507.152924	41227.473644
507.518164	41310.859370
507.883347	40518.042145
508.248472	40759.001738
508.613540	41240.439492
508.978550	41526.464478
509.343503	41281.207303
509.708398	41486.566266
510.073236	42003.092972
510.438016	41995.654749
510.802738	41454.282717
511.167403	42069.971439
511.532010	42284.596044
511.896561	42582.533277
512.261053	43425.371350
512.625488	42968.763800
512.989866	42855.625184
513.354186	42683.114379
513.718449	42666.932275
514.082655	43348.748332
514.446803	42997.886545
514.810894	43532.445458
515.174927	43423.720372
515.538904	43327.794777
515.902822	44000.453578
516.266684	43440.951036
516.630488	43853.687946
516.994235	43707.408785
517.357925	44288.394204
517.721558	44445.093430
518.085133	44755.094144
518.448651	44852.310276
518.812112	44642.220189
519.175516	44742.506383
519.538863	45061.671916
519.902152	45011.565367
520.265385	45482.651112
520.628560	45485.839641
520.991678	45276.677127
521.354739	45497.842629
521.717743	45831.173803
522.080690	45703.909874
522.443580	46249.216527
522.806413	46274.210568
523.169189	46246.945487
523.531908	46402.273520
523.894569	46265.665812
524.257174	46426.213959
524.619722	46691.066100
524.982213	46669.114396
525.344647	46589.748990
525.707025	46638.927966
526.069345	47043.168011
526.431608	46940.439378
526.793815	47267.534645
527.155964	46773.776311
527.518057	46932.524766
527.880093	46710.378760
528.242072	47236.087927
528.603995	46934.780683
528.965860	46921.842561
529.327669	47014.977879
529.689421	46914.923578
530.051117	46856.607510
530.412755	47005.029162
530.774337	47071.920232
531.135862	46862.044394
531.497331	47049.519865
531.858743	46941.621528
532.220098	47284.616595
532.581396	46988.806728
532.942638	46639.288409
533.303824	46941.737475
533.664953	46905.408400
534.026025	46620.217724
534.387040	47065.031495
534.747999	47008.371447
535.108902	47161.821649
535.469748	46653.585121
535.830537	46759.235103
536.191270	46946.584544
536.551947	46597.091431
536.912567	46891.605721
537.273131	47011.416303
537.633638	46486.677558
537.994089	46807.604974
538.354483	46379.842906
538.714821	46963.439642
539.075103	47285.219013
539.435328	47038.328503
539.795497	46887.353507
540.155609	46882.027528
540.515665	47318.843509
540.875665	46746.639780
541.235609	47069.344202
541.595496	47025.110598
541.955328	47691.609110
542.315102	47021.380144
542.674821	46775.160108
543.034483	46811.501786
543.394090	46780.750748
543.753640	46689.626851
544.113134	47672.346861
544.472571	46665.338571
544.831953	47875.081904
545.191278	47042.910912
545.550548	46765.768438
545.909761	47202.178606
546.268918	47347.255452
546.628019	47650.261566
546.987064	47176.070470
547.346053	46411.271979
547.704986	47260.111546
548.063863	46797.363870
548.422684	46934.407637
548.781449	46736.582678
549.140158	47110.971530
549.498811	46918.840554
549.857408	46327.830801
550.215949	47103.213194
550.574434	47014.743465
550.932864	46732.280053
551.291237	47406.849452
551.649555	46991.881832
552.007817	47186.674538
552.366022	46787.624361
552.724173	46919.881552
553.082267	47270.619831
553.440305	47480.697315
553.798288	46764.833304
554.156215	47029.544293
554.514086	47179.632046
554.871902	46877.861015
555.229661	46842.187289
555.587365	46613.558360
555.945014	46660.587284
556.302606	46555.801860
556.660143	46693.566512
557.017625	46713.884883
557.375050	46454.903166
557.732421	46720.440903
558.089735	46646.204872
558.446994	46501.216246
558.804197	46902.111485
559.161345	46753.392406
559.518437	45954.205683
559.875474	46194.951027
560.232455	46291.473999
560.589381	46410.155364
560.946251	46030.185954
561.303065	46605.356402
561.659825	46326.043712
562.016528	45946.217975
562.373177	45600.036899
562.729770	45988.919069
563.086307	45438.508248
563.442789	45808.165977
563.799216	45753.230003
564.155587	45475.364124
564.511904	45406.055820
564.868164	45406.038176
565.224370	45554.361525
565.580520	45208.719853
565.936615	45318.614486
566.292654	44923.909784
566.648638	45086.308034
567.004567	44925.933807
567.360441	44884.487961
567.716260	44642.086599
568.072023	44816.757538
568.427732	44684.109657
568.783385	44144.058407
569.138982	44422.637610
569.494525	44266.240853
569.850013	43928.143268
570.205445	43793.660406
570.560823	43620.884941
570.916145	43390.441195
571.271412	43316.437057
571.626625	42950.066160
571.981782	42860.923437
572.336884	42449.134264
572.691931	42629.884835
573.046923	42149.251145
573.401860	41877.535473
573.756743	41717.705691
574.111570	41693.019160
574.466342	41432.333533
574.821059	41399.477813
575.175722	40846.569100
575.530330	40716.441796
575.884882	40343.663593
576.239380	40183.402791
576.593823	40015.673521
576.948211	39811.511831
577.302544	39245.430583
577.656823	39110.781364
578.011047	39165.775311
578.365216	38802.197214
578.719330	38447.330230
579.073389	38181.061525
579.427394	38106.528065
579.781344	37925.532998
580.135239	37478.228897
580.489080	37382.482262
580.842866	36796.685061
581.196597	37017.396859
581.550273	36805.426422
581.903895	36554.608854
582.257463	36695.872067
582.610975	36027.523452
582.964434	36120.870497
583.317837	35646.061861
583.671186	35360.624168
584.024481	35356.165267
584.377721	34837.833829
584.730906	34884.923247
585.084037	34753.714615
585.437113	34376.323756
585.790135	34213.141606
586.143103	33737.281889
586.496016	33652.217459
586.848874	33499.904037
587.201679	33334.130733
587.554428	32767.149640
587.907124	32731.365009
588.259765	32371.255225
588.612352	32389.410941
588.964884	31759.738058
589.317362	31797.546712
589.669786	31566.132545
590.022155	31241.613307
590.374470	31358.192510
590.726731	30835.949136
591.078937	30319.787915
591.431090	30226.309799
591.783188	29800.123091
592.135232	29419.221068
592.487222	29429.472254
592.839157	29299.314703
593.191038	28899.727644
593.542866	28550.098419
593.894639	27971.855387
594.246358	27985.088416
594.598022	27791.639178
594.949633	27359.798817
595.301190	27153.749215
595.652692	26894.202888
596.004141	26932.823168
596.355535	26116.524249
596.706876	25923.538798
597.058162	25639.923482
597.409395	25789.028210
597.760573	25674.410016
598.111698	25237.520938
598.462768	25078.724592
598.813785	24930.426449
599.164748	24432.171406
599.515657	24497.930737
599.866511	24022.615464
600.217312	24229.325457
600.568060	23454.850471
600.918753	23734.218614
601.269392	23538.321897
601.619978	23169.095186
601.970510	23126.371407
602.320988	23056.742990
602.671412	23050.358369
603.021783	22759.869440
603.372100	22395.613307
603.722363	22286.149693
604.072572	22154.149600
604.422728	22010.398577
604.772830	21747.371334
605.122878	21642.774954
605.472872	21431.210330
605.822813	21416.941344
606.172701	21165.692757
606.522534	21128.736058
606.872314	21099.331007
607.222041	20830.831592
607.571714	20856.251610
607.921333	20424.360837
608.270899	20392.137781
608.620411	20407.087323
608.969870	20148.874382
609.319276	19998.829479
609.668627	19847.713330
610.017926	19922.188817
610.367171	19838.591362
610.716362	19714.783145
611.065500	19536.313696
611.414585	19457.991809
611.763616	19444.088307
612.112594	19252.257279
612.461518	19189.625984
612.810389	19176.226597
613.159207	18955.071178
613.507971	18827.724070
613.856682	18870.830976
614.205340	18665.068720
614.553945	18793.514800
614.902496	18411.299556
615.250994	18459.873594
615.599439	18325.778902
615.947830	18259.086957
616.296169	18123.792470
616.644454	18021.643570
616.992686	17940.571734
617.340864	17981.067322
617.688990	17716.167291
618.037063	17805.062998
618.385082	17633.129405
618.733048	17600.785362
619.080961	17455.229606
619.428821	17310.717369
619.776628	17208.636524
620.124382	17003.418713
620.472083	16899.757467
620.819731	16800.330789
621.167326	16544.167077
621.514868	16392.423305
621.862357	16102.766167
622.209793	15967.612832
622.557176	15724.780452
622.904506	15501.956410
623.251783	15252.436939
623.599007	15045.505135
623.946179	14852.451628
624.293297	14706.540471
624.640363	14398.810797
624.987376	14266.006640
625.334336	14075.912290
625.681243	13846.292773
626.028097	13721.085635
626.374899	13567.907655
626.721647	13440.898304
627.068343	13296.144092
627.414987	13114.503757
627.761577	12935.421808
628.108115	12922.725662
628.454600	12654.256494
628.801032	12588.655959
629.147412	12468.404275
629.493739	12363.076927
629.840014	12172.170951
630.186236	12155.454485
630.532405	11962.567336
630.878521	11920.451016
631.224585	11784.044955
631.570597	11621.162754
631.916556	11562.042622
632.262462	11461.668208
632.608316	11367.607839
632.954117	11252.803122
633.299866	11159.745942
633.645562	11041.777901
633.991206	10839.793990
634.336797	10652.668880
634.682336	10545.834227
635.027823	10411.537888
635.373257	10270.912381
635.718639	10130.969950
636.063968	10016.429894
636.409245	9814.829110
636.754470	9735.811544
637.099642	9601.605947
637.444762	9431.414072
637.789829	9377.448520
638.134845	9229.152898
638.479808	9140.206779
638.824719	9051.152276
639.169577	8897.578565
639.514383	8840.921037
639.859137	8710.004792
640.203839	8685.061163
640.548489	8545.930358
640.893086	8490.409610
641.237632	8377.999441
641.582125	8330.952873
641.926566	8244.476920
642.270955	8176.897732
642.615292	8124.610884
642.959576	8048.529790
643.303809	7986.052250
643.647990	7945.773431
643.992118	7883.316055
644.336195	7816.735016
644.680219	7778.397041
645.024192	7757.645131
645.368112	7780.721013
645.711981	7741.001762
646.055797	7810.068090
646.399562	7760.722756
646.743274	7847.405396
647.086935	7862.886779
647.430544	7800.794887
647.774101	7758.645800
648.117606	7733.833241
648.461059	7711.395065
648.804460	7596.413908
649.147810	7442.323479
649.491108	7340.645926
649.834354	7241.491471
650.177548	7067.765748
650.520690	6952.277954
650.863781	6904.780203
651.206820	6827.907648
651.549807	6721.289765
651.892742	6612.315142
652.235626	6544.148660
652.578458	6478.860676
652.921238	6365.162492
653.263967	6353.522468
653.606644	6274.356188
653.949269	6222.674279
654.291843	6136.455425
654.634365	6139.129757
654.976836	6054.365275
655.319255	6023.150451
655.661622	5975.325024
656.003938	5911.993008
656.346203	5857.344380
656.688416	5840.756463
657.030577	5778.546104
657.372687	5727.259926
657.714746	5717.142330
658.056753	5686.403894
658.398708	5600.190081
658.740612	5571.195885
659.082465	5553.574532
659.424266	5513.845198
659.766016	5488.281507
660.107715	5448.660558
660.449362	5427.306231
660.790958	5397.235748
661.132503	5367.482858
661.473996	5340.709290
661.815438	5319.047452
662.156829	5301.380728
662.498168	5250.487760
662.839456	5222.353080
663.180693	5208.386563
663.521879	5188.002658
663.863013	5149.273993
664.204097	5124.090909
664.545129	5129.401765
664.886110	5103.041571
665.227040	5088.117235
665.567918	5068.486982
665.908746	5047.911513
666.249522	5033.965161
666.590248	5010.725442
666.930922	4996.887474
667.271545	4967.525274
667.612118	4943.660451
667.952639	4899.575561
668.293109	4882.435638
668.633528	4845.688147
668.973896	4817.820648
669.314213	4789.307882
669.654480	4747.060492
669.994695	4723.919076
670.334859	4695.945713
670.674973	4660.183768
671.015035	4649.622550
671.355047	4623.406030
671.695008	4598.351495
672.034918	4575.036159
672.374777	4561.956885
672.714585	4528.836504
673.054342	4526.535217
673.394049	4494.254189
673.733705	4486.889063
674.073310	4450.300368
674.412864	4430.092903
674.752368	4386.991038
675.091820	4388.110174
675.431223	4339.921784
675.770574	4301.813182
676.109875	4271.775467
676.449125	4234.763315
676.788324	4207.480591
677.127473	4159.730781
677.466571	4139.089777
677.805619	4106.886886
678.144616	4088.534566
678.483562	4066.613108
678.822458	4034.155639
679.161303	4018.568391
679.500098	3996.160462
679.838842	3977.936691
680.177535	3967.567038
680.516179	3968.754230
680.854771	3967.251966
681.193314	3997.009897
681.531805	4042.690312
681.870247	4066.605546
682.208638	4088.721088
682.546978	4085.378803
682.885268	4071.815579
683.223508	4035.748644
683.561697	4010.656300
683.899836	3982.269563
684.237925	3946.560550
684.575963	3931.837860
684.913951	3901.215371
685.251889	3895.186151
685.589776	3885.308010
685.927614	3875.760065
686.265401	3874.991289
686.603137	3874.444323
686.940824	3883.289028
687.278460	3896.580030
687.616046	3894.432498
687.953582	3916.127104
688.291068	3901.502717
688.628504	3904.945825
688.965889	3890.734812
689.303224	3861.546531
689.640510	3830.861028
689.977745	3782.826393
690.314930	3738.300402
690.652065	3698.467725
690.989150	3655.801919
691.326185	3608.039507
691.663170	3565.814803
692.000105	3527.799462
692.336990	3490.356291
692.673825	3465.087508
693.010610	3435.868980
693.347345	3403.698857
693.684030	3370.903630
694.020665	3356.143132
694.357251	3321.432267
694.693786	3312.897594
695.030272	3298.719348
695.366707	3277.244033
695.703093	3255.262082
696.039429	3250.765373
696.375716	3238.996799
696.711952	3230.447002
697.048139	3222.718913
697.384276	3213.632233
697.720363	3212.651729
698.056400	3199.562373
698.392388	3186.747760
698.728326	3178.132428
699.064214	3167.845953
699.400053	3160.614418
699.735842	3143.958446
700.071581	3126.281640
700.407270	3108.118363
700.742910	3102.658793
701.078501	3088.462904
701.414042	3071.827096
701.749533	3061.265879
702.084974	3044.143600
702.420366	3044.937582
702.755709	3029.917464
703.091002	3017.417923
703.426246	3014.123529
703.761440	3006.332425
704.096584	2998.445540
704.431679	2988.438850
704.766725	2984.491626
705.101721	2980.355360
705.436668	2976.904690
705.771565	2965.231898
706.106413	2969.907568
706.441212	2967.336580
706.775961	2963.931280
707.110661	2964.153091
707.445311	2968.367496
707.779913	2960.798203
708.114465	2965.093266
708.448967	2966.593010
708.783421	2982.114722
709.117825	2983.349805
709.452180	2985.383911
709.786485	2994.636948
710.120742	3008.926099
710.454949	3013.634537
710.789107	3020.808099
711.123216	3035.699667
711.457275	3041.991027
711.791286	3051.596946
712.125247	3052.466545
712.459159	3045.580329
712.793023	3059.718245
713.126837	3032.664893
713.460602	3028.878986
713.794318	3018.143849
714.127985	3000.444358
714.461602	2979.097592
714.795171	2974.318578
715.128691	2948.654064
715.462162	2934.795932
715.795584	2921.716658
716.128957	2912.140986
716.462281	2898.464336
716.795556	2895.076681
717.128782	2880.969012
717.461960	2870.974924
717.795088	2863.582072
718.128167	2857.081504
718.461198	2844.471058
718.794180	2842.101715
719.127113	2834.517299
719.459997	2828.752740
719.792833	2819.280412
720.125619	2819.981132
720.458357	2808.295738
720.791046	2807.196766
721.123686	2802.805921
721.456278	2799.864408
721.788821	2798.082360
722.121315	2794.919036
722.453761	2789.918211
722.786158	2791.473407
723.118506	2785.769342
723.450805	2787.143056
723.783056	2789.446863
724.115259	2787.059877
724.447412	2781.504526
724.779518	2785.807150
725.111574	2785.179527
725.443582	2788.864610
725.775542	2787.120371
726.107453	2797.603450
726.439315	2793.172276
726.771129	2804.313226
727.102895	2801.343987
727.434612	2808.812456
727.766281	2811.718681
728.097901	2812.162303
728.429473	2809.888742
728.760996	2810.047539
729.092471	2809.591314
729.423897	2810.682724
729.755276	2806.470840
730.086606	2808.527631
730.417887	2813.170533
730.749120	2823.008345
731.080305	2824.941628
731.411442	2830.280210
731.742530	2827.076556
732.073570	2830.864983
732.404562	2833.657783
732.735506	2830.431444
733.066401	2825.967502
733.397249	2817.316882
733.728048	2804.643422
734.058798	2791.254117
734.389501	2779.384720
734.720156	2772.339708
735.050762	2761.917122
735.381320	2755.766915
735.711831	2750.486306
736.042293	2746.029926
736.372707	2745.361973
736.703073	2739.788977
737.033391	2745.888774
737.363661	2743.572363
737.693883	2748.081676
738.024056	2748.459762
738.354182	2750.761049
738.684260	2757.929570
739.014290	2756.381935
739.344272	2761.322266
739.674207	2765.274531
740.004093	2767.071702
740.333931	2765.730755
740.663722	2764.117586
740.993464	2764.536002
741.323159	2765.007350
741.652806	2758.335382
741.982405	2758.403438
742.311956	2748.958836
742.641460	2745.639237
742.970915	2740.446848
743.300323	2735.776219
743.629683	2733.979048
743.958996	2728.418655
744.288260	2719.521018
744.617477	2721.224928
744.946647	2712.176057
745.275768	2711.213197
745.604842	2705.148689
745.933869	2702.887731
746.262847	2701.350179
746.591778	2704.120293
746.920662	2702.668441
747.249498	2703.664069
747.578286	2706.703885
747.907027	2708.246478
748.235720	2712.654967
748.564365	2711.074565
748.892963	2705.320088
749.221514	2710.585573
749.550017	2708.629606
749.878473	2705.862012
750.206881	2703.313709
750.535242	2701.352700
750.863555	2697.949921
751.191821	2698.580065
751.520039	2696.450178
751.848210	2697.259283
752.176334	2697.249201
752.504411	2698.917823
752.832440	2690.826771
753.160421	2691.837522
753.488356	2689.206040
753.816243	2692.092100
754.144082	2686.594722
754.471875	2686.718230
754.799620	2686.534228
755.127318	2682.733198
755.454969	2684.053981
755.782572	2684.656398
756.110129	2683.065914
756.437638	2681.730009
756.765100	2683.622962
757.092515	2684.220339
757.419882	2683.378466
757.747203	2685.581450
758.074477	2686.690504
758.401703	2684.232942
758.728882	2685.838549
759.056014	2686.738395
759.383099	2690.231915
759.710138	2693.047399
760.037129	2691.018335
760.364073	2695.769622
760.690970	2692.699559
761.017820	2692.102183
761.344623	2697.400435
761.671379	2700.604089
761.998088	2710.318392
762.324751	2735.491394
762.651366	2777.411109
762.977935	2835.586024
763.304456	2865.260776
763.630931	2877.505739
763.957359	2865.084336
764.283740	2832.846157
764.610074	2807.297589
764.936362	2774.467075
765.262602	2748.174937
765.588796	2724.786504
765.914943	2705.219265
766.241044	2696.515713
766.567097	2682.347550
766.893104	2674.306910
767.219064	2669.190138
767.544978	2661.479694
767.870845	2655.664723
768.196665	2652.186327
768.522438	2649.093579
768.848165	2645.441263
769.173846	2643.094606
769.499479	2640.616878
769.825066	2638.862557
770.150607	2635.782412
770.476101	2634.244860
770.801548	2632.402318
771.126949	2630.622791
771.452303	2628.321504
771.777611	2624.505351
772.102872	2624.971657
772.428087	2623.063581
772.753256	2620.827829
773.078378	2620.157356
773.403453	2617.591408
773.728482	2614.223918
774.053465	2613.409771
774.378401	2613.170316
774.703291	2609.737291
775.028135	2609.306272
775.352932	2609.049173
775.677683	2609.144955
776.002388	2607.143617
776.327046	2606.037084
776.651658	2606.536158
776.976224	2603.609768
777.300743	2603.234202
777.625216	2600.307812
777.949643	2601.888214
778.274024	2600.879983
778.598359	2594.646597
778.922647	2597.033583
779.246889	2596.587441
779.571086	2594.697008
779.895236	2599.801176
780.219339	2600.096084
780.543397	2599.947370
780.867409	2601.401743
781.191374	2599.453337
781.515294	2599.566763
781.839167	2602.868718
782.162995	2599.980137
782.486776	2599.312184
782.810511	2599.634818
783.134201	2600.030549
783.457844	2596.519385
783.781441	2597.134406
784.104993	2594.414703
784.428498	2596.743717
784.751958	2596.796649
785.075372	2595.354879
785.398739	2597.368820
785.722061	2597.313367
786.045337	2593.673654
786.368568	2596.554673
786.691752	2597.232708
787.014891	2602.883842
787.337983	2608.086313
787.661030	2616.205091
787.984031	2624.195320
788.306987	2630.244704
788.629897	2630.199334
788.952760	2627.857718
789.275579	2624.926287
789.598351	2622.783797
789.921078	2614.163424
790.243759	2609.573453
790.566395	2607.309975
790.888984	2603.982813
791.211529	2601.159767
791.534027	2601.016094
791.856480	2597.031062
792.178888	2595.506113
792.501249	2593.320773
792.823566	2592.128540
793.145836	2592.572162
793.468062	2590.152408
793.790241	2592.413365
794.112375	2592.499065
794.434464	2593.938314
794.756507	2593.686257
795.078505	2593.167018
795.400457	2597.910744
795.722364	2601.472319
796.044226	2605.366610
796.366042	2606.699995
796.687812	2609.265943
797.009538	2610.468258
797.331218	2609.283587
797.652852	2608.693772
797.974442	2605.779985
798.295986	2606.634460
798.617484	2601.323605
798.938938	2600.822010
799.260346	2599.589448
799.581709	2597.381422
799.903026	2599.503748
800.224299	2595.090218
800.545526	2591.695001
800.866708	2594.709611
801.187845	2590.298601
801.508936	2592.005032
801.829983	2586.734506
802.150984	2588.453539
802.471940	2587.059660
802.792851	2583.351891
803.113717	2585.885071
803.434538	2586.190061
803.755314	2585.602767
804.076045	2584.418095
804.396731	2584.576892
804.717372	2582.706624
805.037967	2583.344330
805.358518	2585.504464
805.679024	2583.137642
805.999485	2583.709813
806.319901	2587.334403
806.640272	2585.340627
806.960598	2588.564444
807.280879	2586.341296
807.601115	2590.003694
807.921306	2586.706779
808.241453	2587.581419
808.561554	2588.761049
808.881611	2586.207705
809.201623	2589.020669
809.521590	2588.506471
809.841513	2585.476738
810.161390	2585.701069
810.481223	2586.104361
810.801011	2583.372056
811.120755	2584.135791
811.440453	2585.920359
811.760107	2584.803744
812.079716	2580.536407
812.399281	2580.183526
812.718801	2580.801067
813.038276	2575.457444
813.357707	2581.710996
813.677093	2580.440625
813.996434	2579.225707
814.315731	2580.238979
814.634983	2580.753177
814.954191	2579.450038
815.273354	2581.852148
815.592473	2584.284505
815.911547	2584.498754
816.230577	2588.297263
816.549562	2590.812799
816.868502	2589.812130
817.187399	2590.515371
817.506250	2595.415372
817.825058	2594.719693
818.143821	2600.824531
818.462539	2604.358379
818.781213	2609.971704
819.099843	2619.428909
819.418429	2632.656897
819.736970	2648.778507
820.055466	2666.999757
820.373919	2687.277798
820.692327	2721.504712
821.010691	2785.063580
821.329011	2926.319232
821.647286	3141.773106
821.965517	3368.869525
822.283704	3498.323835
822.601847	3538.327911
822.919945	3433.668516
823.237999	3323.816733
823.556010	3211.714074
823.873976	3102.487394
824.191897	3013.188395
824.509775	2942.763475
824.827609	2879.302910
825.145398	2841.910152
825.463144	2826.882472
825.780845	2828.649396
826.098502	2854.626462
826.416116	2905.295099
826.733685	2956.001545
827.051210	2968.087712
827.368692	2941.034360
827.686129	2886.032851
828.003522	2831.177535
828.320872	2775.881118
828.638177	2738.720253
828.955439	2709.368135
829.272656	2682.650019
829.589830	2661.031031
829.906960	2645.174082
830.224046	2630.516927
830.541088	2623.771863
830.858086	2615.353136
831.175041	2611.264760
831.491952	2609.094543
831.808819	2609.666714
832.125642	2617.891357
832.442421	2631.588172
832.759157	2659.001967
833.075849	2701.304809
833.392497	2744.946078
833.709101	2771.553288
834.025662	2767.331322
834.342179	2745.939185
834.658653	2713.111191
834.975083	2689.785772
835.291469	2671.977897
835.607811	2647.417395
835.924110	2632.485497
836.240366	2620.210288
836.556578	2607.758638
836.872746	2597.958635
837.188871	2590.238108
837.504952	2584.377766
837.820990	2579.480285
838.136984	2573.559450
838.452935	2577.000037
838.768842	2576.352249
839.084706	2585.413723
839.400526	2603.861826
839.716303	2628.470218
840.032037	2643.744914
840.347727	2637.645118
840.663373	2625.354785
840.978977	2609.051694
841.294537	2596.370671
841.610054	2587.417582
841.925527	2580.135635
842.240957	2575.583473
842.556344	2571.071641
842.871687	2567.890672
843.186987	2558.667882
843.502244	2558.032696
843.817458	2553.334341
844.132629	2551.103630
844.447756	2548.711603
844.762840	2545.744884
845.077881	2544.444266
845.392879	2543.763710
845.707833	2543.763710
846.022745	2539.433359
846.337613	2544.414019
846.652438	2543.859492
846.967221	2543.962836
847.281960	2540.809594
847.596656	2543.609955
847.911309	2544.366128
848.225919	2539.947557
848.540485	2542.160623
848.855009	2542.369831
849.169490	2540.340767
849.483928	2539.508976
849.798323	2540.796991
850.112675	2538.213400
850.426984	2539.246836
850.741251	2542.049718
851.055474	2541.288504
851.369654	2541.442259
851.683792	2539.640046
851.997887	2540.827238
852.311938	2539.423277
852.625947	2540.050900
852.939914	2539.975283
853.253837	2542.062321
853.567718	2542.828576
853.881555	2540.118956
854.195350	2537.716846
854.509103	2542.216076
854.822812	2538.165509
855.136479	2541.623740
855.450103	2538.379758
855.763685	2541.533000
856.077224	2537.419418
856.390720	2540.751621
856.704173	2542.626930
857.017584	2541.623740
857.330953	2539.813966
857.644278	2543.083154
857.957561	2544.315717
858.270802	2543.819163
858.584000	2542.304296
858.897155	2542.412681
859.210268	2545.321427
859.523339	2540.250026
859.836367	2541.603576
860.149352	2541.167516
860.462295	2543.821683
860.775195	2535.662576
861.088054	2537.187525
861.400869	2536.514531
861.713642	2535.309695
862.026373	2539.032587
862.339062	2542.672300
862.651708	2542.939482
862.964312	2539.556867
863.276873	2541.308668
863.589392	2544.381252
863.901869	2544.230017
864.214303	2543.897301
864.526696	2547.000131
864.839045	2549.215718
865.151353	2547.569781
865.463619	2545.996941
865.775842	2548.265461
866.088023	2545.576005
866.400162	2545.497867
866.712258	2546.440563
867.024313	2548.888043
867.336325	2548.532642
867.648296	2548.371325
867.960224	2548.759494
868.272110	2547.075748
868.583954	2547.295038
868.895755	2549.956768
869.207515	2545.880995
869.519233	2550.977601
869.830909	2548.177240
870.142542	2549.036757
870.454134	2550.218908
870.765684	2554.327448
871.077191	2548.310831
871.388657	2551.532128
871.700081	2551.327962
872.011463	2556.401883
872.322803	2554.019938
872.634101	2554.582026
872.945357	2555.630586
873.256571	2560.326421
873.567744	2558.057902
873.878874	2558.022614
874.189963	2560.311298
874.501010	2561.697615
874.812015	2558.478838
875.122979	2559.232491
875.433900	2560.535629
875.744780	2561.296843
876.055618	2561.778273
876.366415	2564.467729
876.677169	2564.112328
876.987882	2562.433623
877.298554	2562.234498
877.609183	2567.474777
877.919771	2567.202555
878.230317	2570.335632
878.540822	2581.897518
878.851285	2589.686101
879.161707	2596.201792
879.472087	2614.929679
879.782425	2639.946405
880.092722	2686.047757
880.402977	2751.040833
880.713191	2835.339007
881.023363	2916.191553
881.333494	2959.958851
881.643583	2974.943681
881.953631	2969.794142
882.263637	2947.731532
882.573602	2913.857499
882.883526	2878.917262
883.193408	2847.152952
883.503248	2813.218424
883.813048	2784.345216
884.122806	2758.438726
884.432522	2729.754561
884.742197	2704.805890
885.051831	2677.341684
885.361424	2662.238387
885.670975	2644.982518
885.980485	2632.510703
886.289954	2619.870010
886.599382	2612.023454
886.908768	2600.234716
887.218113	2593.189703
887.527417	2590.429671
887.836680	2583.339288
888.145901	2579.192939
888.455082	2577.325192
888.764221	2575.142372
889.073319	2570.814542
889.382376	2569.907134
889.691392	2565.211299
890.000366	2568.505693
890.309300	2567.482339
890.618193	2568.820765
890.927044	2568.624160
891.235855	2567.981413
891.544625	2568.356979
891.853353	2573.262022
892.162041	2569.365210
892.470687	2575.535582
892.779293	2583.626634
893.087858	2589.265165
893.396381	2598.805548
893.704864	2617.626696
894.013306	2638.875160
894.321707	2667.660148
894.630068	2683.912828
894.938387	2684.351409
895.246665	2682.944927
895.554903	2669.290962
895.863100	2653.829743
896.171256	2644.738022
896.479371	2633.040024
896.787446	2626.184055
897.095480	2617.251130
897.403473	2610.979935
897.711425	2603.350149
898.019336	2596.204313
898.327207	2588.365319
898.635038	2587.215936
898.942827	2578.325861
899.250576	2575.550706
899.558284	2571.895869
899.865952	2568.722463
900.173579	2563.976217
900.481165	2563.635939
900.788711	2562.695763
901.096216	2561.488407
901.403681	2560.523026
901.711105	2558.955227
902.018489	2559.580330
902.325832	2563.378840
902.633135	2564.281206
902.940397	2576.165727
903.247619	2596.284972
903.554800	2630.035497
903.861941	2670.271466
904.169041	2701.070395
904.476101	2711.845862
904.783121	2701.514017
905.090100	2685.684794
905.397039	2668.234840
905.703938	2651.871254
906.010796	2637.027577
906.317614	2626.834364
906.624391	2614.291973
906.931129	2606.518514
907.237826	2593.766915
907.544483	2583.941706
907.851099	2576.727815
908.157675	2569.443348
908.464211	2561.304405
908.770707	2553.200750
909.077163	2552.762170
909.383578	2546.153217
909.689954	2543.257074
909.996289	2543.965356
910.302584	2544.202291
910.608839	2542.947043
910.915054	2545.974256
911.221229	2542.906714
911.527363	2547.539534
911.833458	2541.724563
912.139513	2543.856972
912.445527	2544.595501
912.751502	2549.911397
913.057436	2547.050542
913.363331	2553.508261
913.669186	2557.165618
913.975000	2563.106618
914.280775	2576.173288
914.586510	2591.836153
914.892205	2606.931888
915.197859	2632.886269
915.503475	2661.260403
915.809050	2684.379135
916.114585	2699.701722
916.420081	2703.059131
916.725536	2703.187680
917.030952	2692.414734
917.336328	2681.629186
917.641665	2674.223731
917.946961	2661.915753
918.252218	2653.360915
918.557435	2640.420273
918.862612	2633.914664
919.167750	2623.043416
919.472848	2611.776437
919.777906	2601.358893
920.082925	2596.279930
920.387904	2584.221490
920.692843	2580.117991
920.997743	2571.301013
921.302603	2569.009809
921.607423	2564.649211
921.912204	2560.996895
922.216946	2556.371636
922.521647	2553.299053
922.826310	2552.552962
923.130932	2551.980791
923.435516	2548.903167
923.740059	2544.303114
924.044564	2543.085675
924.349028	2544.298072
924.653454	2533.633512
924.957840	2539.085519
925.262186	2536.801877
925.566493	2535.118131
925.870761	2532.035466
926.174989	2534.051927
926.479178	2532.741227
926.783328	2532.615198
927.087438	2531.339787
927.391509	2531.922040
927.695541	2531.304498
927.999533	2533.968748
928.303486	2528.337779
928.607400	2527.901720
928.911275	2526.843077
929.215110	2528.504138
929.518906	2526.863242
929.822663	2527.271575
930.126381	2526.938859
930.430060	2529.587986
930.733699	2525.217305
931.037299	2527.889117
931.340861	2529.673685
931.644383	2528.942718
931.947866	2525.875176
932.251309	2527.667306
932.554714	2526.013808
932.858080	2530.016484
933.161407	2527.697553
933.464694	2526.722090
933.767943	2528.214271
934.071153	2529.532533
934.374323	2526.903571
934.677455	2525.686133
934.980548	2525.078673
935.283602	2526.863242
935.586617	2526.845598
935.889593	2525.088756
936.192530	2526.712007
936.495428	2526.636390
936.798287	2525.993643
937.101108	2525.373581
937.403890	2528.559590
937.706632	2532.864736
938.009336	2532.302647
938.312002	2534.006557
938.614628	2533.454551
938.917216	2536.577545
939.219765	2536.864891
939.522275	2539.130890
939.824747	2539.531662
940.127179	2536.338091
940.429573	2534.291382
940.731929	2536.471681
941.034246	2532.005219
941.336524	2535.637370
941.638763	2537.169881
941.940964	2538.886394
942.243126	2532.186700
942.545250	2534.727442
942.847335	2534.470343
943.149381	2533.928419
943.451389	2533.293234
943.753359	2531.574200
944.055290	2529.950949
944.357182	2528.239477
944.659036	2530.661751
944.960851	2529.608150
945.262628	2528.047913
945.564367	2527.735362
945.866067	2527.972296
946.167729	2532.363141
946.469352	2529.721576
946.770937	2530.742410
947.072484	2526.132275
947.373992	2530.876000
947.675462	2526.684281
947.976893	2529.928263
948.278286	2526.331400
948.579641	2527.649662
948.880958	2525.615556
949.182236	2527.576565
949.483476	2526.969106
949.784678	2525.605474
950.085841	2527.460619
950.386967	2530.364323
950.688054	2529.373737
950.989103	2527.339631
951.290114	2527.498427
951.591087	2530.341638
951.892021	2532.746268
952.192917	2530.026566
952.493776	2531.548994
952.794596	2530.976823
953.095378	2532.589993
953.396122	2532.360620
953.696828	2530.286185
953.997496	2529.262831
954.298126	2528.773839
954.598718	2531.269210
954.899272	2529.411545
955.199788	2529.391381
955.500266	2526.865762
955.800706	2523.571368
956.101108	2524.176307
956.401472	2519.301511
956.701798	2520.188754
957.002087	2520.987777
957.302337	2519.450225
957.602550	2520.975174
957.902724	2518.885616
958.202861	2519.553569
958.502960	2519.823271
958.803022	2516.511233
959.103045	2516.415451
959.403031	2513.776407
959.702979	2516.667508
960.002889	2517.385873
960.302762	2515.742457
960.602596	2515.475275
960.902393	2511.565861
961.202153	2515.591222
961.501875	2515.845800
961.801559	2516.899401
962.101205	2513.541993
962.400814	2513.809174
962.700385	2514.666170
962.999918	2513.894874
963.299414	2513.887312
963.598873	2513.683145
963.898293	2515.760101
964.197677	2512.601818
964.497022	2513.151303
964.796331	2514.056191
965.095601	2512.337157
965.394835	2513.398320
965.694030	2510.870181
965.993189	2510.028309
966.292309	2511.487723
966.591393	2513.874709
966.890439	2510.257681
967.189447	2511.918741
967.488419	2512.977384
967.787353	2512.087620
968.086249	2511.722136
968.385108	2513.655419
968.683930	2510.305572
968.982714	2513.564678
969.281462	2513.206756
969.580172	2514.784637
969.878844	2511.772548
970.177480	2514.961078
970.476078	2511.306241
970.774639	2516.271778
971.073162	2511.969153
971.371649	2513.509225
971.670098	2509.559481
971.968510	2512.571571
972.266885	2509.385562
972.565223	2512.667353
972.863524	2511.674245
973.161788	2513.635254
973.460014	2513.481499
973.758204	2513.728516
974.056356	2512.344719
974.354471	2515.026613
974.652550	2513.156345
974.950591	2516.158352
975.248595	2512.296828
975.546563	2514.424195
975.844493	2510.988648
976.142386	2513.300018
976.440243	2510.345901
976.738062	2514.865296
977.035845	2511.149965
977.333590	2513.385717
977.631299	2513.093330
977.928971	2515.626510
978.226606	2512.392610
978.524204	2510.527383
978.821765	2512.460665
979.119290	2510.608041
979.416777	2511.149965
979.714228	2507.439676
980.011642	2511.848165
980.309020	2514.741788
980.606360	2510.973525
980.903664	2512.316992
981.200931	2513.204236
981.498162	2517.101048
981.795356	2518.678929
982.092513	2522.394259
982.389633	2526.558252
982.686717	2528.708304
982.983764	2528.914992
983.280775	2532.166536
983.577749	2530.490352
983.874686	2531.143182
984.171587	2529.693850
984.468451	2528.597399
984.765279	2525.033303
985.062070	2525.814682
985.358824	2527.851308
985.655543	2522.053981
985.952224	2521.365864
986.248869	2517.411078
986.545478	2511.780110
986.842050	2509.982938
987.138586	2508.442866
987.435086	2510.363545
987.731549	2505.110663
988.027975	2508.999913
988.324366	2510.106447
988.620719	2510.292969
988.917037	2506.819614
989.213318	2507.432114
989.509563	2509.040243
989.805772	2507.013699
990.101944	2507.961436
990.398080	2506.502022
990.694180	2506.076044
990.990244	2508.596621
991.286271	2507.263236
991.582262	2506.781806
991.878217	2503.961280
992.174136	2506.849861
992.470019	2506.625530
992.765865	2506.461692
993.061676	2506.784326
993.357450	2507.762310
993.653188	2506.512104
993.948890	2506.522186
994.244556	2509.151148
994.540186	2510.784482
994.835780	2510.000582
995.131337	2512.995028
995.426859	2515.361849
995.722345	2516.460821
996.017795	2515.613907
996.313208	2520.498785
996.608586	2517.088445
996.903928	2519.072139
997.199234	2517.582478
997.494504	2519.760256
997.789738	2518.444515
998.084936	2514.305728
998.380099	2517.055677
998.675225	2516.014679
998.970316	2515.898732
999.265371	2513.902435
999.560390	2513.640295
999.855373	2510.320696
1000.150320	2512.768176
1000.445232	2508.261384
1000.740108	2509.403206
1001.034948	2506.660818
1001.329752	2506.350787
1001.624521	2505.082937
1001.919254	2500.992040
1002.213951	2504.987155
1002.508613	2503.031187
1002.803239	2506.345746
1003.097829	2502.421207
1003.392384	2505.614778
1003.686903	2504.362052
1003.981386	2504.535972
1004.275834	2504.286434
1004.570246	2506.330622
1004.864623	2504.624192
1005.158964	2503.129490
1005.453270	2503.915910
1005.747540	2501.806187
1006.041775	2503.563029
1006.335974	2507.059069
1006.630138	2501.309633
1006.924266	2502.191835
1007.218359	2501.995230
1007.512416	2502.305261
1007.806438	2502.706033
1008.100425	2504.863647
1008.394376	2501.675117
1008.688292	2505.042608
1008.982172	2502.136382
1009.276017	2504.692247
1009.569827	2503.835251
1009.863602	2501.115549
1010.157341	2503.646208
1010.451045	2503.197545
1010.744714	2499.946001
1011.038347	2500.969355
1011.331945	2500.147647
1011.625508	2502.799294
1011.919036	2502.660662
1012.212528	2502.801815
1012.505986	2501.239057
1012.799408	2501.256701
1013.092795	2502.128821
1013.386147	2501.919613
1013.679464	2501.342401
1013.972745	2498.539519
1014.265992	2500.407267
1014.559204	2500.820641
1014.852380	2500.745024
1015.145521	2501.816269
1015.438628	2500.805518
1015.731699	2502.577483
1016.024736	2500.903820
1016.317737	2503.898266
1016.610703	2501.816269
1016.903635	2501.367606
1017.196531	2495.905516
1017.489393	2500.558501
1017.782219	2496.162615
1018.075011	2498.970538
1018.367768	2501.140754
1018.660490	2502.905158
1018.953177	2502.905158
1019.245829	2502.905158
