Dividing Wavelength (nm)	Counts (n)	Blue Motor Position (mm): 0.000000	Red Motor Position (mm): 9.500000	
326.493990	2147.503812
326.888308	2147.503812
327.282561	2147.503812
327.676750	2121.771242
328.070874	2121.589761
328.464933	2130.994033
328.858929	2136.625002
329.252859	2148.441467
329.646726	2164.399239
330.040528	2174.297545
330.434265	2197.920392
330.827938	2217.049050
331.221547	2234.004971
331.615091	2251.880903
332.008571	2272.315220
332.401986	2297.488221
332.795338	2315.371715
333.188625	2333.381237
333.581847	2355.607684
333.975006	2374.897659
334.368100	2393.076060
334.761129	2409.805129
335.154095	2429.140475
335.546996	2442.083637
335.939833	2455.208281
336.332606	2468.973152
336.725315	2481.505460
337.117960	2489.041985
337.510540	2496.427276
337.903056	2508.384893
338.295508	2513.163906
338.687896	2520.486182
339.080220	2526.686802
339.472480	2534.621578
339.864676	2537.253060
340.256807	2540.917979
340.648875	2544.129194
341.040879	2544.870243
341.432818	2542.533669
341.824694	2545.180274
342.216506	2547.204298
342.608253	2545.308824
342.999937	2544.908052
343.391557	2549.336706
343.783113	2542.248843
344.174605	2542.125335
344.566033	2540.159285
344.957397	2538.672145
345.348697	2536.350693
345.739934	2537.452186
346.131106	2534.258615
346.522215	2529.600588
346.913260	2529.479601
347.304241	2530.666793
347.695159	2526.512882
348.086012	2524.990453
348.476802	2522.028775
348.867528	2523.132788
349.258191	2519.210770
349.648789	2519.140194
350.039324	2517.458969
350.429796	2518.855369
350.820203	2516.725482
351.210548	2516.002076
351.600828	2516.443177
351.991045	2517.537107
352.381198	2513.055522
352.771288	2517.209432
353.161314	2514.131808
353.551276	2512.962260
353.941175	2514.454442
354.331010	2517.184227
354.720782	2514.378824
355.110490	2514.456962
355.500135	2516.359998
355.889717	2517.842097
356.279235	2513.138701
356.668689	2516.803619
357.058080	2517.015348
357.447408	2513.325223
357.836672	2514.005779
358.225873	2513.599966
358.615010	2512.569050
359.004084	2519.682118
359.393095	2518.968795
359.782043	2522.225380
360.170927	2521.169259
360.559748	2519.069618
360.948505	2519.631707
361.337199	2522.845442
361.725830	2520.776049
362.114398	2523.084897
362.502903	2520.367715
362.891344	2524.360309
363.279722	2523.344517
363.668037	2525.398787
364.056289	2522.752181
364.444478	2524.196472
364.832603	2525.504651
365.220665	2526.530526
365.608665	2525.083715
365.996601	2529.000691
366.384474	2527.831143
366.772284	2525.076153
367.160031	2526.606143
367.547715	2526.616225
367.935336	2528.773839
368.322893	2527.828623
368.710388	2528.108407
369.097820	2531.294416
369.485189	2525.867614
369.872495	2531.090249
370.259738	2527.319466
370.646918	2527.432892
371.034035	2531.125537
371.421090	2532.786598
371.808081	2530.545805
372.195010	2533.205013
372.581875	2532.504293
372.968678	2534.077133
373.355418	2535.201310
373.742096	2533.071423
374.128710	2535.922195
374.515262	2538.289017
374.901751	2536.370858
375.288177	2539.443441
375.674540	2538.699871
376.060841	2540.237423
376.447079	2544.025850
376.833254	2545.734801
377.219367	2542.389996
377.605417	2548.711603
377.991404	2545.570964
378.377329	2552.091696
378.763191	2553.770401
379.148991	2560.883469
379.534727	2561.934549
379.920402	2565.702812
380.306013	2571.908472
380.691563	2577.121025
381.077049	2577.839390
381.462474	2583.946747
381.847835	2586.610997
382.233134	2593.207347
382.618371	2597.797318
383.003545	2604.065992
383.388657	2608.542537
383.773706	2618.125771
384.158693	2624.089456
384.543618	2628.855867
384.928480	2635.358955
385.313280	2642.056128
385.698017	2651.727582
386.082692	2661.540187
386.467305	2664.368275
386.851856	2670.684841
387.236344	2683.020544
387.620770	2687.618076
388.005133	2693.349868
388.389435	2707.659183
388.773674	2713.960626
389.157851	2719.100082
389.541965	2725.724158
389.926018	2730.752709
390.310008	2738.059862
390.693936	2747.189391
391.077802	2748.323651
391.461606	2758.320259
391.845348	2763.671444
392.229027	2769.945160
392.612645	2778.275667
392.996200	2785.411420
393.379694	2789.893006
393.763125	2803.345325
394.146494	2803.592341
394.529801	2806.856488
394.913047	2816.482572
395.296230	2813.384782
395.679351	2812.762200
396.062410	2819.406441
396.445408	2812.353867
396.828343	2816.016265
397.211217	2814.448466
397.594028	2802.533699
397.976778	2805.097126
398.359466	2808.552837
398.742092	2801.228040
399.124656	2805.502938
399.507158	2802.586631
399.889598	2802.579069
400.271977	2803.095787
400.654294	2796.282668
401.036549	2793.794859
401.418742	2791.516257
401.800874	2792.582461
402.182944	2787.596760
402.564952	2787.483334
402.946898	2777.973197
403.328783	2771.591097
403.710606	2769.118411
404.092367	2768.820982
404.474067	2768.757968
404.855705	2754.090731
405.237282	2748.056470
405.618797	2747.320461
406.000250	2745.034298
406.381642	2745.372055
406.762972	2734.405025
407.144240	2722.555793
407.525447	2719.705021
407.906593	2706.542568
408.287677	2702.799511
408.668700	2697.776001
409.049661	2687.476924
409.430560	2681.155317
409.811399	2678.359997
410.192176	2668.197031
410.572891	2664.025476
410.953545	2660.766370
411.334138	2649.877478
411.714669	2649.983342
412.095139	2633.987761
412.475547	2632.130096
412.855894	2625.402676
413.236180	2621.667181
413.616405	2613.187960
413.996568	2611.012702
414.376670	2608.739142
414.756711	2600.895107
415.136691	2602.651949
415.516609	2595.276741
415.896466	2591.574013
416.276262	2589.731472
416.655997	2582.804926
417.035670	2581.121181
417.415283	2580.405337
417.794834	2572.523493
418.174324	2577.761252
418.553753	2573.577094
418.933121	2571.240519
419.312428	2570.554922
419.691674	2568.951835
420.070859	2567.164746
420.449983	2566.799263
420.829045	2567.280693
421.208047	2566.234653
421.586988	2562.811710
421.965867	2564.074519
422.344686	2566.267421
422.723444	2562.995712
423.102141	2563.343552
423.480777	2563.454457
423.859352	2561.947152
424.237866	2561.571586
424.616319	2562.438665
424.994712	2561.264076
425.373044	2560.248283
425.751314	2562.065619
426.129524	2560.389436
426.507673	2562.229457
426.885762	2561.115362
427.263789	2564.089642
427.641756	2558.080587
428.019662	2559.476987
428.397508	2561.024621
428.775292	2559.862635
429.153016	2558.660320
429.530679	2561.387584
429.908282	2562.322718
430.285824	2559.913047
430.663305	2559.895402
431.040726	2558.836760
431.418086	2561.737944
431.795385	2561.788356
432.172624	2561.702656
432.549802	2563.928326
432.926920	2563.222564
433.303977	2562.022769
433.680974	2561.811041
434.057910	2562.413459
434.434786	2559.476987
434.811601	2564.742472
435.188355	2562.647873
435.565050	2562.554611
435.941683	2561.606874
436.318257	2559.434137
436.694770	2559.378684
437.071222	2559.855073
437.447614	2558.461194
437.823946	2559.348437
438.200218	2560.765002
438.576429	2564.951680
438.952580	2560.588561
439.328670	2563.036041
439.704700	2564.167780
440.080670	2562.446226
440.456580	2562.597461
440.832429	2562.037893
441.208218	2564.442523
441.583947	2563.081412
441.959616	2563.119220
442.335224	2564.301371
442.710773	2566.113666
443.086261	2564.271124
443.461689	2565.496124
443.837057	2569.700447
444.212365	2565.342369
444.587612	2565.531412
444.962800	2565.685168
445.337927	2564.306412
445.712995	2563.305743
446.088002	2564.591237
446.462949	2562.965465
446.837837	2567.058882
447.212664	2565.775908
447.587431	2567.537792
447.962139	2567.013512
448.336786	2567.966290
448.711374	2567.494942
449.085901	2567.830179
449.460369	2569.511403
449.834776	2567.701629
450.209124	2566.292627
450.583412	2566.637946
450.957640	2565.642318
451.331808	2567.683985
451.705917	2567.106773
452.079965	2568.667010
452.453954	2567.699109
452.827883	2565.821279
453.201752	2567.860426
453.575562	2567.678944
453.949311	2567.436969
454.323001	2568.972000
454.696632	2567.792370
455.070202	2571.671538
455.443713	2570.413770
455.817164	2566.527040
456.190556	2566.849674
456.563888	2564.437482
456.937160	2568.581311
457.310373	2569.163564
457.683526	2569.473595
458.056619	2571.341342
458.429653	2568.861095
458.802628	2569.415622
459.175542	2570.179356
459.548398	2567.570559
459.921194	2570.272618
460.293930	2571.235478
460.666607	2569.708008
461.039224	2571.336301
461.411782	2571.991651
461.784280	2572.450396
462.156719	2570.063410
462.529099	2572.614234
462.901419	2572.745304
463.273680	2573.383010
463.645882	2572.979717
464.018024	2572.037022
464.390106	2571.721949
464.762130	2573.526682
465.134094	2574.625654
465.505999	2576.332085
465.877845	2574.275294
466.249631	2576.979873
466.621358	2576.982393
466.993026	2578.719071
467.364634	2581.194277
467.736184	2573.987948
468.107674	2576.614389
468.479105	2573.647670
468.850477	2575.459965
469.221790	2574.567681
469.593043	2573.498956
469.964238	2572.057186
470.335373	2575.417115
470.706449	2574.398802
471.077467	2575.336457
471.448425	2576.662280
471.819324	2577.756211
472.190164	2577.020202
472.560945	2574.711354
472.931667	2578.043556
473.302330	2574.066086
473.672934	2575.003741
474.043479	2576.974832
474.413965	2576.498443
474.784393	2569.526527
475.154761	2573.229254
475.525070	2571.275807
475.895321	2573.599779
476.265513	2570.103739
476.635645	2577.531879
477.005719	2574.310582
477.375734	2573.922413
477.745691	2572.805797
478.115588	2573.377968
478.485427	2576.863926
478.855207	2576.556416
479.224928	2575.427198
479.594591	2577.325192
479.964194	2578.540110
480.333739	2578.761921
480.703226	2576.266550
481.072653	2578.414081
481.442022	2578.484657
481.811333	2576.387537
482.180584	2574.280335
482.549777	2578.426684
482.918912	2578.270408
483.287988	2574.643298
483.657005	2577.385686
484.025964	2576.589183
484.394864	2579.220666
484.763706	2579.094637
485.132489	2578.303176
485.501213	2580.291911
485.869879	2577.352918
486.238487	2574.350911
486.607036	2579.883577
486.975527	2577.431056
487.343959	2577.448700
487.712333	2578.401478
488.080648	2578.225038
488.448905	2575.583473
488.817104	2579.452559
489.185244	2576.579101
489.553326	2577.990624
489.921350	2579.689493
490.289315	2579.442477
490.657222	2581.804257
491.025070	2582.273084
491.392861	2581.322827
491.760593	2578.966088
492.128267	2579.858372
492.495883	2576.725295
492.863440	2576.236303
493.230939	2578.656057
493.598380	2578.512384
493.965763	2574.353432
494.333088	2575.585994
494.700354	2578.777044
495.067563	2574.620613
495.434713	2573.506518
495.801805	2576.921900
496.168839	2576.117836
496.535815	2578.978690
496.902733	2578.381314
497.269593	2574.847465
497.636395	2579.565985
498.003139	2577.244533
498.369825	2578.403999
498.736453	2577.433577
499.103023	2577.317630
499.469535	2575.661611
499.835989	2576.473237
500.202385	2579.810481
500.568723	2576.195973
500.935003	2578.421643
501.301226	2574.479461
501.667390	2578.194791
502.033497	2576.828638
502.399546	2577.168916
502.765537	2575.906107
503.131470	2575.152455
503.497345	2577.615058
503.863163	2576.080027
504.228923	2576.846282
504.594625	2577.635223
504.960269	2576.435428
505.325856	2576.478278
505.691385	2576.616910
506.056856	2577.438618
506.422270	2580.155800
506.787625	2577.617579
507.152924	2576.067424
507.518164	2577.904925
507.883347	2579.182857
508.248472	2578.340984
508.613540	2576.261508
508.978550	2577.862075
509.343503	2578.769483
509.708398	2579.253433
510.073236	2577.022723
510.438016	2579.087075
510.802738	2578.212435
511.167403	2578.396437
511.532010	2578.724112
511.896561	2577.226889
512.261053	2579.392065
512.625488	2573.413257
512.989866	2575.623802
513.354186	2574.814697
513.718449	2573.776220
514.082655	2575.550706
514.446803	2576.480799
514.810894	2576.884091
515.174927	2579.301324
515.538904	2579.460121
515.902822	2575.316292
516.266684	2577.058011
516.630488	2575.717064
516.994235	2580.566654
517.357925	2576.810994
517.721558	2579.041705
518.085133	2578.013309
518.448651	2580.163362
518.812112	2579.606314
519.175516	2577.710840
519.538863	2578.746797
519.902152	2579.016499
520.265385	2575.896025
520.628560	2577.625141
520.991678	2579.558423
521.354739	2582.104206
521.717743	2578.514904
522.080690	2580.735532
522.443580	2575.971642
522.806413	2578.824935
523.169189	2580.682600
523.531908	2578.146900
523.894569	2579.271077
524.257174	2579.079513
524.619722	2576.092630
524.982213	2578.487178
525.344647	2574.799574
525.707025	2578.104050
526.069345	2574.681107
526.431608	2578.630851
526.793815	2578.993814
527.155964	2577.930130
527.518057	2578.409040
527.880093	2578.252764
528.242072	2579.407188
528.603995	2581.305183
528.965860	2579.409709
529.327669	2577.131107
529.689421	2577.589852
530.051117	2578.845100
530.412755	2577.756211
530.774337	2579.944071
531.135862	2576.435428
531.497331	2577.010120
531.858743	2575.512897
532.220098	2574.618092
532.581396	2574.378638
532.942638	2576.223700
533.303824	2576.579101
533.664953	2579.109760
534.026025	2576.251426
534.387040	2578.766962
534.747999	2578.467013
535.108902	2580.004565
535.469748	2576.397620
535.830537	2577.294945
536.191270	2578.681262
536.551947	2580.690162
536.912567	2577.206725
537.273131	2580.574216
537.633638	2576.377455
537.994089	2577.027764
538.354483	2577.496591
538.714821	2578.605645
539.075103	2577.385686
539.435328	2579.603793
539.795497	2578.272929
540.155609	2579.197981
540.515665	2580.899370
540.875665	2575.868298
541.235609	2579.366859
541.595496	2582.257961
541.955328	2579.838207
542.315102	2576.518607
542.674821	2578.683783
543.034483	2578.950964
543.394090	2578.151941
543.753640	2577.494071
544.113134	2579.419791
544.472571	2578.320820
544.831953	2578.285532
545.191278	2577.085737
545.550548	2577.337795
545.909761	2579.490367
546.268918	2579.823084
546.628019	2580.470872
546.987064	2578.106571
547.346053	2577.763772
547.704986	2578.071283
548.063863	2577.398289
548.422684	2580.244020
548.781449	2576.977352
549.140158	2580.780903
549.498811	2578.668659
549.857408	2576.939544
550.215949	2578.303176
550.574434	2574.204718
550.932864	2578.192270
551.291237	2575.238154
551.649555	2577.572208
552.007817	2579.810481
552.366022	2579.076993
552.724173	2576.049780
553.082267	2576.498443
553.440305	2579.921386
553.798288	2579.316448
554.156215	2579.124884
554.514086	2579.656726
554.871902	2579.329051
555.229661	2577.801581
555.587365	2577.753690
555.945014	2579.681931
556.302606	2579.840728
556.660143	2580.954823
557.017625	2578.892991
557.375050	2578.381314
557.732421	2579.006417
558.089735	2579.102199
558.446994	2579.122363
558.804197	2578.996334
559.161345	2577.305027
559.518437	2578.177147
559.875474	2577.299986
560.232455	2578.245202
560.589381	2576.775706
560.946251	2581.227045
561.303065	2579.802919
561.659825	2579.351736
562.016528	2581.040522
562.373177	2579.152610
562.729770	2579.757549
563.086307	2580.589339
563.442789	2579.676890
563.799216	2580.173444
564.155587	2579.933989
564.511904	2579.356777
564.868164	2579.540779
565.224370	2580.372569
565.580520	2578.774524
565.936615	2580.075141
566.292654	2583.334247
566.648638	2579.508012
567.004567	2578.759400
567.360441	2582.641089
567.716260	2578.950964
568.072023	2580.720409
568.427732	2574.003072
568.783385	2577.022723
569.138982	2576.538772
569.494525	2575.379307
569.850013	2576.604307
570.205445	2579.729822
570.560823	2577.872157
570.916145	2578.759400
571.271412	2577.058011
571.626625	2578.502301
571.981782	2579.704617
572.336884	2578.703947
572.691931	2579.409709
573.046923	2577.582291
573.401860	2578.678742
573.756743	2579.306365
574.111570	2579.989442
574.466342	2580.977508
574.821059	2580.662436
575.175722	2578.552713
575.530330	2578.865264
575.884882	2578.555233
576.239380	2576.732856
576.593823	2579.989442
576.948211	2580.982549
577.302544	2577.209245
577.656823	2577.673032
578.011047	2582.421798
578.365216	2577.736046
578.719330	2580.957343
579.073389	2580.768300
579.427394	2577.289904
579.781344	2578.910635
580.135239	2581.239648
580.489080	2579.235789
580.842866	2581.383321
581.196597	2583.586305
581.550273	2580.831314
581.903895	2578.497260
582.257463	2578.540110
582.610975	2576.765624
582.964434	2577.032805
583.317837	2580.581777
583.671186	2579.200501
584.024481	2580.617065
584.377721	2580.047415
584.730906	2577.887281
585.084037	2578.593042
585.437113	2579.061869
585.790135	2579.954154
586.143103	2581.693352
586.496016	2580.347364
586.848874	2576.216138
587.201679	2574.504666
587.554428	2575.777558
587.907124	2576.863926
588.259765	2572.732701
588.612352	2576.460634
588.964884	2577.620099
589.317362	2579.802919
589.669786	2580.589339
590.022155	2580.400296
590.374470	2579.187898
590.726731	2576.369893
591.078937	2579.855851
591.431090	2577.113463
591.783188	2581.645461
592.135232	2576.211097
592.487222	2577.771334
592.839157	2578.436766
593.191038	2577.423494
593.542866	2577.632702
593.894639	2579.145048
594.246358	2578.449369
594.598022	2578.945923
594.949633	2580.642271
595.301190	2577.539441
595.652692	2579.172775
596.004141	2579.712178
596.355535	2579.747466
596.706876	2575.838052
597.058162	2579.858372
597.409395	2577.904925
597.760573	2577.766293
598.111698	2582.477251
598.462768	2579.699575
598.813785	2580.586818
599.164748	2581.340471
599.515657	2577.947774
599.866511	2578.933320
600.217312	2579.510532
600.568060	2578.961046
600.918753	2579.828125
601.269392	2578.361149
601.619978	2577.594894
601.970510	2580.276787
602.320988	2576.894173
602.671412	2577.693196
603.021783	2575.976683
603.372100	2576.241344
603.722363	2577.857034
604.072572	2578.439287
604.422728	2579.298804
604.772830	2577.501632
605.122878	2575.114646
605.472872	2577.569688
605.822813	2576.707651
606.172701	2576.337126
606.522534	2577.952816
606.872314	2577.509194
607.222041	2578.260326
607.571714	2576.553895
607.921333	2576.387537
608.270899	2575.611200
608.620411	2577.499112
608.969870	2578.106571
609.319276	2579.059349
609.668627	2578.398958
610.017926	2578.625810
610.367171	2580.523804
610.716362	2579.865933
611.065500	2578.930799
611.414585	2579.611355
611.763616	2578.865264
612.112594	2577.569688
612.461518	2579.056828
612.810389	2579.984401
613.159207	2580.460790
613.507971	2575.674214
613.856682	2578.421643
614.205340	2577.249575
614.553945	2578.993814
614.902496	2578.547672
615.250994	2582.207549
615.599439	2578.436766
615.947830	2581.143866
616.296169	2576.248906
616.644454	2580.591860
616.992686	2576.004410
617.340864	2577.857034
617.688990	2580.097827
618.037063	2579.792837
618.385082	2577.103381
618.733048	2581.779051
619.080961	2578.938361
619.428821	2578.880388
619.776628	2577.073134
620.124382	2579.195460
620.472083	2579.326530
620.819731	2578.451890
621.167326	2579.381983
621.514868	2579.477765
621.862357	2577.809143
622.209793	2576.606827
622.557176	2578.051118
622.904506	2575.649008
623.251783	2576.022054
623.599007	2573.967783
623.946179	2577.078175
624.293297	2575.033987
624.640363	2578.708989
624.987376	2577.632702
625.334336	2577.995665
625.681243	2577.751169
626.028097	2576.803432
626.374899	2577.383165
626.721647	2580.448187
627.068343	2579.848289
627.414987	2578.835018
627.761577	2578.898032
628.108115	2576.122877
628.454600	2576.697568
628.801032	2579.881057
629.147412	2579.563464
629.493739	2575.583473
629.840014	2578.204873
630.186236	2578.892991
630.532405	2577.433577
630.878521	2577.935172
631.224585	2581.736202
631.570597	2576.944585
631.916556	2580.612024
632.262462	2579.011458
632.608316	2577.975501
632.954117	2577.443659
633.299866	2578.328382
633.645562	2577.549523
633.991206	2578.683783
634.336797	2576.523648
634.682336	2578.706468
635.027823	2575.989286
635.373257	2576.566498
635.718639	2574.784450
636.063968	2581.050605
636.409245	2575.969122
636.754470	2576.758062
637.099642	2575.091961
637.444762	2576.526169
637.789829	2579.881057
638.134845	2578.746797
638.479808	2577.519276
638.824719	2578.096488
639.169577	2576.231262
639.514383	2578.817373
639.859137	2577.554564
640.203839	2580.125553
640.548489	2577.252095
640.893086	2571.837896
641.237632	2575.149934
641.582125	2573.539285
641.926566	2572.450396
642.270955	2574.000551
642.615292	2579.162692
642.959576	2578.023392
643.303809	2573.690520
643.647990	2577.209245
643.992118	2575.936354
644.336195	2575.573391
644.680219	2576.276632
645.024192	2574.096333
645.368112	2576.798391
645.711981	2576.790830
646.055797	2577.652867
646.399562	2579.230748
646.743274	2575.843093
647.086935	2575.553226
647.430544	2576.984914
647.774101	2578.149421
648.117606	2576.057342
648.461059	2578.459452
648.804460	2579.316448
649.147810	2576.208576
649.491108	2575.638926
649.834354	2576.755542
650.177548	2578.693865
650.520690	2577.347877
650.863781	2580.513722
651.206820	2578.577919
651.549807	2575.580953
651.892742	2578.663618
652.235626	2578.590522
652.578458	2576.034657
652.921238	2575.409553
653.263967	2575.449883
653.606644	2578.204873
653.949269	2576.571539
654.291843	2577.058011
654.634365	2575.165057
654.976836	2577.383165
655.319255	2576.929461
655.661622	2573.105746
656.003938	2575.654049
656.346203	2577.383165
656.688416	2576.019533
657.030577	2576.127918
657.372687	2576.311920
657.714746	2576.322002
658.056753	2576.594225
658.398708	2573.935016
658.740612	2571.537947
659.082465	2571.757237
659.424266	2571.578277
659.766016	2571.807649
660.107715	2571.956363
660.449362	2575.638926
660.790958	2577.058011
661.132503	2576.143041
661.473996	2578.235120
661.815438	2575.903587
662.156829	2573.226734
662.498168	2575.712023
662.839456	2577.221848
663.180693	2578.305696
663.521879	2575.293607
663.863013	2574.149265
664.204097	2576.160685
664.545129	2576.674883
664.886110	2576.188412
665.227040	2574.527352
665.567918	2576.758062
665.908746	2575.129769
666.249522	2573.766137
666.590248	2578.708989
666.930922	2577.897363
667.271545	2577.398289
667.612118	2576.863926
667.952639	2575.356621
668.293109	2576.379976
668.633528	2575.749831
668.973896	2575.661611
669.314213	2576.115315
669.654480	2575.371745
669.994695	2576.092630
670.334859	2578.875347
670.674973	2573.491394
671.015035	2572.450396
671.355047	2577.489029
671.695008	2576.329564
672.034918	2576.261508
672.374777	2577.710840
672.714585	2576.180850
673.054342	2577.569688
673.394049	2578.600604
673.733705	2577.950295
674.073310	2575.797722
674.412864	2577.204204
674.752368	2577.720922
675.091820	2576.795871
675.431223	2575.147413
675.770574	2577.244533
676.109875	2570.116342
676.449125	2573.420818
676.788324	2572.049624
677.127473	2573.826631
677.466571	2571.137176
677.805619	2574.272773
678.144616	2576.518607
678.483562	2577.736046
678.822458	2573.519121
679.161303	2576.417784
679.500098	2574.683627
679.838842	2575.722105
680.177535	2574.711354
680.516179	2574.902917
680.854771	2577.181519
681.193314	2573.922413
681.531805	2574.494584
681.870247	2576.866447
682.208638	2574.338308
682.546978	2576.911817
682.885268	2574.829821
683.223508	2573.299831
683.561697	2574.723957
683.899836	2577.831828
684.237925	2573.929975
684.575963	2574.209759
684.913951	2575.475088
685.251889	2576.160685
685.589776	2574.577763
685.927614	2577.950295
686.265401	2577.110943
686.603137	2574.396282
686.940824	2576.188412
687.278460	2576.402661
687.616046	2575.739749
687.953582	2575.190263
688.291068	2575.321333
688.628504	2576.218659
688.965889	2573.695561
689.303224	2574.000551
689.640510	2576.017013
689.977745	2579.066911
690.314930	2574.789492
690.652065	2578.741756
690.989150	2574.991138
691.326185	2575.175140
691.663170	2574.698751
692.000105	2575.681776
692.336990	2575.512897
692.673825	2577.005079
693.010610	2575.056673
693.347345	2572.647001
693.684030	2570.537278
694.020665	2569.939902
694.357251	2572.180694
694.693786	2573.360324
695.030272	2572.342011
695.366707	2575.177660
695.703093	2573.168761
696.039429	2575.132290
696.375716	2575.023905
696.711952	2571.391754
697.048139	2573.030129
697.384276	2574.398802
697.720363	2570.501990
698.056400	2573.884604
698.392388	2574.655901
698.728326	2574.852506
699.064214	2576.473237
699.400053	2572.490725
699.735842	2575.001220
700.071581	2576.450552
700.407270	2571.422001
700.742910	2574.892835
701.078501	2575.081878
701.414042	2575.959039
701.749533	2574.025757
702.084974	2572.551219
702.420366	2573.496436
702.755709	2573.042732
703.091002	2571.527865
703.426246	2572.563822
703.761440	2572.130283
704.096584	2574.701271
704.431679	2574.053483
704.766725	2573.040211
705.101721	2574.176991
705.436668	2573.002403
705.771565	2577.148752
706.106413	2573.735890
706.441212	2573.798905
706.775961	2573.677917
707.110661	2573.012485
707.445311	2573.501477
707.779913	2573.211610
708.114465	2575.578432
708.448967	2575.477609
708.783421	2574.492063
709.117825	2572.042063
709.452180	2574.764286
709.786485	2574.303020
710.120742	2576.503484
710.454949	2572.299162
710.789107	2570.731363
711.123216	2569.753379
711.457275	2572.059707
711.791286	2570.315467
712.125247	2569.443348
712.459159	2573.282187
712.793023	2574.146744
713.126837	2573.221693
713.460602	2573.047773
713.794318	2572.823442
714.127985	2577.075655
714.461602	2575.149934
714.795171	2573.090623
715.128691	2571.979048
715.462162	2575.787640
715.795584	2572.233627
716.128957	2575.580953
716.462281	2573.143555
716.795556	2572.563822
717.128782	2574.862588
717.461960	2573.221693
717.795088	2571.880746
718.128167	2573.657753
718.461198	2571.951322
718.794180	2571.570715
719.127113	2571.721949
719.459997	2573.314954
719.792833	2573.138514
720.125619	2571.669017
720.458357	2572.790674
720.791046	2572.024419
721.123686	2571.989131
721.456278	2573.415777
721.788821	2573.539285
722.121315	2572.500808
722.453761	2572.863771
722.786158	2570.809501
723.118506	2575.727146
723.450805	2573.763617
723.783056	2572.074830
724.115259	2570.814542
724.447412	2574.247568
724.779518	2574.786971
725.111574	2570.693554
725.443582	2573.186405
725.775542	2572.647001
726.107453	2574.292938
726.439315	2572.682289
726.771129	2575.437280
727.102895	2575.071796
727.434612	2571.721949
727.766281	2573.534244
728.097901	2568.064592
728.429473	2569.070302
728.760996	2567.671382
729.092471	2570.018039
729.423897	2575.291086
729.755276	2573.138514
730.086606	2571.898390
730.417887	2571.386713
730.749120	2574.368555
731.080305	2572.762948
731.411442	2572.195818
731.742530	2573.725808
732.073570	2572.647001
732.404562	2573.771178
732.735506	2569.040056
733.066401	2573.314954
733.397249	2574.925603
733.728048	2574.648339
734.058798	2575.573391
734.389501	2570.224727
734.720156	2573.410736
735.050762	2572.125242
735.381320	2571.623647
735.711831	2571.401836
736.042293	2572.410067
736.372707	2572.654563
736.703073	2573.075499
737.033391	2569.922257
737.363661	2572.712536
737.693883	2571.132134
738.024056	2574.592887
738.354182	2573.687999
738.684260	2570.340673
739.014290	2573.829152
739.344272	2572.052145
739.674207	2572.468040
740.004093	2572.553740
740.333931	2573.960222
740.663722	2573.070458
740.993464	2572.704974
741.323159	2572.742783
741.652806	2573.314954
741.982405	2572.941909
742.311956	2571.951322
742.641460	2573.647670
742.970915	2574.802094
743.300323	2570.491908
743.629683	2570.290262
743.958996	2570.287741
744.288260	2570.164233
744.617477	2570.340673
744.946647	2568.964438
745.275768	2566.761454
745.604842	2567.300857
745.933869	2569.687844
746.262847	2566.000240
746.591778	2572.447876
746.920662	2571.084243
747.249498	2572.631878
747.578286	2571.832855
747.907027	2571.212793
748.235720	2570.771692
748.564365	2573.693041
748.892963	2572.079871
749.221514	2575.747311
749.550017	2571.578277
749.878473	2570.156671
750.206881	2571.774882
750.535242	2573.274625
750.863555	2572.520972
751.191821	2571.575756
751.520039	2571.658935
751.848210	2568.951835
752.176334	2570.290262
752.504411	2571.265725
752.832440	2573.030129
753.160421	2572.533575
753.488356	2569.995354
753.816243	2574.976014
754.144082	2571.195149
754.471875	2573.748493
754.799620	2572.420149
755.127318	2570.703636
755.454969	2571.159861
755.782572	2570.968297
756.110129	2572.727660
756.437638	2572.929306
756.765100	2569.644994
757.092515	2571.651373
757.419882	2569.587021
757.747203	2572.513411
758.074477	2570.186918
758.401703	2567.966290
758.728882	2570.214644
759.056014	2572.707495
759.383099	2572.304203
759.710138	2573.251940
760.037129	2573.972825
760.364073	2571.694223
760.690970	2572.510890
761.017820	2572.742783
761.344623	2571.424521
761.671379	2573.627506
761.998088	2565.549057
762.324751	2566.010322
762.651366	2568.394788
762.977935	2571.028791
763.304456	2567.794891
763.630931	2574.360993
763.957359	2572.982238
764.283740	2575.805284
764.610074	2571.684141
764.936362	2572.072310
765.262602	2571.485015
765.588796	2571.117011
765.914943	2571.240519
766.241044	2572.016857
766.567097	2569.418142
766.893104	2571.248081
767.219064	2568.992165
767.544978	2572.122721
767.870845	2571.507700
768.196665	2572.899059
768.522438	2569.796229
768.848165	2569.599624
769.173846	2571.724470
769.499479	2568.735066
769.825066	2569.571897
770.150607	2567.706670
770.476101	2570.635581
770.801548	2569.821434
771.126949	2568.329253
771.452303	2569.914696
771.777611	2572.626837
772.102872	2572.861250
772.428087	2570.701116
772.753256	2568.389747
773.078378	2567.787329
773.403453	2571.732032
773.728482	2567.822617
774.053465	2568.379664
774.378401	2568.916547
774.703291	2571.933678
775.028135	2571.530386
775.352932	2569.919737
775.677683	2570.955694
776.002388	2567.769685
776.327046	2568.483008
776.651658	2570.562484
776.976224	2570.315467
777.300743	2569.471074
777.625216	2570.302865
777.949643	2570.975859
778.274024	2571.802608
778.598359	2567.953687
778.922647	2564.971844
779.246889	2564.601320
779.571086	2562.413459
779.895236	2567.396639
780.219339	2569.886969
780.543397	2569.866805
780.867409	2572.231106
781.191374	2570.436455
781.515294	2568.304047
781.839167	2565.591906
782.162995	2571.734552
782.486776	2569.536609
782.810511	2569.592062
783.134201	2571.482495
783.457844	2570.151630
783.781441	2566.940415
784.104993	2569.879408
784.428498	2569.340004
784.751958	2568.863615
785.075372	2569.314798
785.398739	2569.559294
785.722061	2570.116342
786.045337	2570.449058
786.368568	2570.184397
786.691752	2570.307906
787.014891	2571.275807
787.337983	2570.355797
787.661030	2569.145920
787.984031	2571.442165
788.306987	2568.286403
788.629897	2568.714901
788.952760	2571.069120
789.275579	2571.979048
789.598351	2567.704150
789.921078	2567.764644
790.243759	2568.735066
790.566395	2567.489901
790.888984	2568.972000
791.211529	2568.089798
791.534027	2571.134655
791.856480	2568.767833
792.178888	2570.020560
792.501249	2570.234809
792.823566	2570.033163
793.145836	2570.484346
793.468062	2568.614078
793.790241	2567.933522
794.112375	2567.252967
794.434464	2572.188256
794.756507	2568.500652
795.078505	2569.178687
795.400457	2564.649211
795.722364	2564.881104
796.044226	2567.878070
796.366042	2564.860939
796.687812	2566.403532
797.009538	2569.337484
797.331218	2566.726166
797.652852	2571.560632
797.974442	2568.077195
798.295986	2569.360169
798.617484	2570.625498
798.938938	2568.122566
799.260346	2568.120045
799.581709	2566.030487
799.903026	2569.874367
800.224299	2570.474264
800.545526	2569.866805
800.866708	2569.675241
801.187845	2569.178687
801.508936	2567.086608
801.829983	2570.542319
802.150984	2568.724983
802.471940	2569.927299
802.792851	2567.212637
803.113717	2569.178687
803.434538	2569.526527
803.755314	2569.077864
804.076045	2567.643656
804.396731	2569.219017
804.717372	2569.960066
805.037967	2569.692885
805.358518	2566.585014
805.679024	2571.752196
805.999485	2568.185580
806.319901	2571.522824
806.640272	2568.762792
806.960598	2567.608368
807.280879	2567.444530
807.601115	2568.498132
807.921306	2570.965776
808.241453	2569.471074
808.561554	2567.366393
808.881611	2570.217165
809.201623	2570.030642
809.521590	2568.707339
809.841513	2570.602813
810.161390	2568.780436
810.481223	2566.600137
810.801011	2569.546692
811.120755	2565.894376
811.440453	2569.405539
811.760107	2567.394119
812.079716	2567.386557
812.399281	2564.492935
812.718801	2565.849005
813.038276	2564.263562
813.357707	2567.477298
813.677093	2568.230950
813.996434	2568.833368
814.315731	2567.016032
814.634983	2568.974521
814.954191	2566.753892
815.273354	2567.898234
815.592473	2567.411763
815.911547	2568.767833
816.230577	2569.360169
816.549562	2569.103070
816.868502	2569.024932
817.187399	2567.590724
817.506250	2568.039387
817.825058	2569.574418
818.143821	2568.798080
818.462539	2569.846640
818.781213	2570.691033
819.099843	2568.382185
819.418429	2570.234809
819.736970	2569.579459
820.055466	2568.112483
820.373919	2573.156158
820.692327	2570.496949
821.010691	2570.643142
821.329011	2574.040880
821.647286	2575.976683
821.965517	2579.702096
822.283704	2581.156469
822.601847	2584.569330
822.919945	2578.976170
823.237999	2578.983732
823.556010	2578.169585
823.873976	2577.501632
824.191897	2575.283525
824.509775	2576.145562
824.827609	2574.068607
825.145398	2571.928637
825.463144	2571.278328
825.780845	2571.212793
826.098502	2572.342011
826.416116	2570.565005
826.733685	2572.473081
827.051210	2572.483164
827.368692	2572.503328
827.686129	2572.606672
828.003522	2571.124573
828.320872	2568.510734
828.638177	2566.335477
828.955439	2568.311609
829.272656	2567.250446
829.589830	2565.864129
829.906960	2570.020560
830.224046	2568.029304
830.541088	2568.782957
830.858086	2570.804459
831.175041	2569.400498
831.491952	2567.467216
831.808819	2568.220868
832.125642	2568.969479
832.442421	2569.861764
832.759157	2568.893862
833.075849	2570.050807
833.392497	2569.287072
833.709101	2569.576938
834.025662	2568.800601
834.342179	2568.636763
834.658653	2568.016701
834.975083	2569.801270
835.291469	2572.747824
835.607811	2571.290931
835.924110	2567.056362
836.240366	2565.775908
836.556578	2570.572566
836.872746	2568.901424
837.188871	2569.609706
837.504952	2569.355128
837.820990	2566.353121
838.136984	2565.412945
838.452935	2564.969324
838.768842	2565.788511
839.084706	2567.250446
839.400526	2565.170970
839.716303	2567.452092
840.032037	2568.762792
840.347727	2570.620457
840.663373	2570.728842
840.978977	2566.527040
841.294537	2569.173646
841.610054	2566.887483
841.925527	2569.276990
842.240957	2567.855384
842.556344	2567.250446
842.871687	2566.378326
843.186987	2570.872515
843.502244	2569.080385
843.817458	2567.066444
844.132629	2566.030487
844.447756	2566.761454
844.762840	2562.879766
845.077881	2561.231308
845.392879	2563.719118
845.707833	2565.377657
846.022745	2561.790876
846.337613	2567.222720
846.652438	2567.575600
846.967221	2570.272618
847.281960	2566.229612
847.596656	2568.951835
847.911309	2563.222564
848.225919	2568.407391
848.540485	2565.977555
848.855009	2567.194993
849.169490	2566.373285
849.483928	2565.377657
849.798323	2568.518296
850.112675	2566.010322
850.426984	2567.772205
850.741251	2566.852195
851.055474	2567.179870
851.369654	2569.158523
851.683792	2568.475446
851.997887	2564.571073
852.311938	2569.040056
852.625947	2569.297154
852.939914	2567.273131
853.253837	2566.491752
853.567718	2568.871177
853.881555	2566.917730
854.195350	2568.024263
854.509103	2566.925292
854.822812	2567.447051
855.136479	2568.356979
855.450103	2568.397308
855.763685	2568.649366
856.077224	2565.092832
856.390720	2563.366237
856.704173	2567.815055
857.017584	2566.426217
857.330953	2566.703481
857.644278	2567.492421
857.957561	2569.103070
858.270802	2565.896896
858.584000	2567.091650
858.897155	2566.791701
859.210268	2564.684499
859.523339	2566.743810
859.836367	2565.488563
860.149352	2567.830179
860.462295	2571.832855
860.775195	2563.338511
861.088054	2563.935887
861.400869	2562.544529
861.713642	2560.583520
862.026373	2563.199879
862.339062	2565.145764
862.651708	2563.691391
862.964312	2567.754561
863.276873	2566.592575
863.589392	2566.418656
863.901869	2566.862277
864.214303	2567.726835
864.526696	2565.977555
864.839045	2563.436813
865.151353	2567.283213
865.463619	2568.863615
865.775842	2565.828841
866.088023	2567.023594
866.400162	2564.117369
866.712258	2566.857236
867.024313	2564.349262
867.336325	2567.018553
867.648296	2568.046948
867.960224	2564.719787
868.272110	2570.113821
868.583954	2564.190466
868.895755	2567.741958
869.207515	2565.922102
869.519233	2566.302709
869.830909	2564.467729
870.142542	2566.280024
870.454134	2565.740620
870.765684	2565.170970
871.077191	2565.866649
871.388657	2568.319171
871.700081	2566.030487
872.011463	2567.131979
872.322803	2566.529561
872.634101	2567.139541
872.945357	2567.794891
873.256571	2567.300857
873.567744	2568.064592
873.878874	2568.016701
874.189963	2564.775239
874.501010	2568.951835
874.812015	2567.633574
875.122979	2568.175498
875.433900	2567.656259
875.744780	2566.564849
876.055618	2567.729356
876.366415	2566.728687
876.677169	2569.569377
876.987882	2563.925805
877.298554	2564.472770
877.609183	2562.557132
877.919771	2561.818603
878.230317	2560.394477
878.540822	2568.414953
878.851285	2567.494942
879.161707	2565.569221
879.472087	2569.501321
879.782425	2568.737586
880.092722	2567.555436
880.402977	2568.929150
880.713191	2568.750189
881.023363	2572.062227
881.333494	2574.920562
881.643583	2574.144224
881.953631	2571.364027
882.263637	2573.937537
882.573602	2572.158009
882.883526	2573.309913
883.193408	2571.774882
883.503248	2571.351425
883.813048	2569.861764
884.122806	2569.897052
884.432522	2568.407391
884.742197	2570.575087
885.051831	2567.978893
885.361424	2569.017370
885.670975	2566.990827
885.980485	2567.043759
886.289954	2564.508058
886.599382	2565.138202
886.908768	2566.774057
887.218113	2566.272462
887.527417	2566.106104
887.836680	2565.972513
888.145901	2568.147771
888.455082	2566.133830
888.764221	2566.050651
889.073319	2563.724159
889.382376	2565.055023
889.691392	2566.950497
890.000366	2568.770354
890.309300	2568.785477
890.618193	2567.439489
890.927044	2567.678944
891.235855	2563.209961
891.544625	2563.756926
891.853353	2566.085939
892.162041	2566.274983
892.470687	2566.461505
892.779293	2568.364541
893.087858	2564.508058
893.396381	2563.605692
893.704864	2563.857749
894.013306	2561.954714
894.321707	2567.540312
894.630068	2566.678275
894.938387	2566.940415
895.246665	2568.863615
895.554903	2568.414952
895.863100	2568.374623
896.171256	2569.450910
896.479371	2570.098698
896.787446	2566.481670
897.095480	2566.577452
897.403473	2565.241546
897.711425	2567.043759
898.019336	2567.489901
898.327207	2568.561146
898.635038	2567.237843
898.942827	2568.034345
899.250576	2565.501166
899.558284	2564.591237
899.865952	2565.823799
900.173579	2563.540157
900.481165	2563.310784
900.788711	2565.097873
901.096216	2565.496124
901.403681	2568.793039
901.711105	2566.043090
902.018489	2564.069478
902.325832	2568.253636
902.633135	2566.060734
902.940397	2563.923284
903.247619	2564.107287
903.554800	2565.213820
903.861941	2566.864798
904.169041	2568.566187
904.476101	2564.553429
904.783121	2570.222206
905.090100	2567.875549
905.397039	2566.741289
905.703938	2565.251628
906.010796	2568.145251
906.317614	2566.521999
906.624391	2567.729356
906.931129	2564.591237
907.237826	2567.893193
907.544483	2565.463357
907.851099	2566.179201
908.157675	2565.617112
908.464211	2566.085939
908.770707	2559.333314
909.077163	2566.713563
909.383578	2562.093346
909.689954	2562.650393
909.996289	2562.098387
910.302584	2566.895045
910.608839	2563.444375
910.915054	2564.462688
911.221229	2567.026115
911.527363	2564.339180
911.833458	2563.628377
912.139513	2570.141548
912.445527	2563.855229
912.751502	2564.114848
913.057436	2564.321536
913.363331	2566.469067
913.669186	2563.739282
913.975000	2567.666341
914.280775	2567.991496
914.586510	2568.321691
914.892205	2567.074006
915.197859	2566.368244
915.503475	2566.648028
915.809050	2570.814542
916.114585	2568.210786
916.420081	2566.753892
916.725536	2566.766495
917.030952	2566.882442
917.336328	2565.697771
917.641665	2568.835889
917.946961	2567.575600
918.252218	2567.048800
918.557435	2564.714746
918.862612	2566.280024
919.167750	2566.340518
919.472848	2564.452606
919.777906	2567.396639
920.082925	2566.222051
920.387904	2564.185424
920.692843	2565.445713
920.997743	2562.877245
921.302603	2563.799776
921.607423	2567.497462
921.912204	2566.411094
922.216946	2564.238357
922.521647	2566.900086
922.826310	2563.630897
923.130932	2568.089798
923.435516	2564.248439
923.740059	2563.555280
924.044564	2563.157029
924.349028	2564.306412
924.653454	2561.785835
924.957840	2561.737944
925.262186	2562.058057
925.566493	2561.869014
925.870761	2559.915567
926.174989	2566.169118
926.479178	2566.358162
926.783328	2562.879766
927.087438	2565.932184
927.391509	2565.029818
927.695541	2564.896227
927.999533	2564.331618
928.303486	2563.814900
928.607400	2567.303378
928.911275	2561.183417
929.215110	2562.925136
929.518906	2561.281720
929.822663	2565.715415
930.126381	2564.056875
930.430060	2563.048644
930.733699	2564.876063
931.037299	2563.716597
931.340861	2564.928995
931.644383	2564.462688
931.947866	2562.539488
932.251309	2561.755588
932.554714	2566.398491
932.858080	2566.438820
933.161407	2563.272976
933.464694	2566.940415
933.767943	2564.898748
934.071153	2565.420507
934.374323	2567.000909
934.677455	2565.027297
934.980548	2565.256670
935.283602	2564.548387
935.586617	2566.408573
935.889593	2564.336659
936.192530	2565.536454
936.495428	2566.521999
936.798287	2563.051165
937.101108	2565.370096
937.403890	2567.063923
937.706632	2562.491597
938.009336	2565.735579
938.312002	2566.839592
938.614628	2563.177194
938.917216	2563.146947
939.219765	2564.495455
939.522275	2565.435631
939.824747	2564.939077
940.127179	2563.081412
940.429573	2561.594271
940.731929	2561.168294
941.034246	2559.156873
941.336524	2561.604354
941.638763	2562.123592
941.940964	2564.795404
942.243126	2563.935887
942.545250	2561.115362
942.847335	2564.404715
943.149381	2562.572255
943.451389	2565.433110
943.753359	2563.890517
944.055290	2563.736762
944.357182	2563.693912
944.659036	2563.353634
944.960851	2562.486556
945.262628	2563.623336
945.564367	2564.840774
945.866067	2565.256670
946.167729	2563.290620
946.469352	2563.797256
946.770937	2563.504869
947.072484	2565.816238
947.373992	2564.802966
947.675462	2564.008984
947.976893	2564.681978
948.278286	2564.331618
948.579641	2565.153326
948.880958	2561.997564
949.182236	2563.880435
949.483476	2566.116186
949.784678	2562.778942
950.085841	2564.059396
950.386967	2562.231977
950.688054	2563.769529
950.989103	2563.693912
951.290114	2562.758778
951.591087	2563.310784
951.892021	2564.792883
952.192917	2562.070660
952.493776	2565.062585
952.794596	2563.018397
953.095378	2562.988150
953.396122	2564.402194
953.696828	2563.769529
953.997496	2563.968655
954.298126	2561.909343
954.598718	2561.934549
954.899272	2563.550239
955.199788	2563.784653
955.500266	2563.620815
955.800706	2560.414641
956.101108	2562.070660
956.401472	2560.593602
956.701798	2561.095197
957.002087	2559.103941
957.302337	2561.322049
957.602550	2565.198696
957.902724	2564.205589
958.202861	2562.352965
958.502960	2564.626525
958.803022	2563.953531
959.103045	2561.619477
959.403031	2562.912533
959.702979	2563.759447
960.002889	2564.122410
960.302762	2559.187120
960.602596	2564.654252
960.902393	2565.717935
961.202153	2562.862122
961.501875	2564.515620
961.801559	2562.489076
962.101205	2563.711556
962.400814	2565.095353
962.700385	2564.087122
962.999918	2563.953531
963.299414	2565.992678
963.598873	2565.763306
963.898293	2563.232646
964.197677	2563.537636
964.497022	2564.112328
964.796331	2561.947152
965.095601	2564.568552
965.394835	2563.280537
965.694030	2561.342214
965.993189	2563.951011
966.292309	2561.246432
966.591393	2560.439847
966.890439	2561.344734
967.189447	2563.025959
967.488419	2562.229457
967.787353	2565.231464
968.086249	2564.094684
968.385108	2564.613922
968.683930	2563.464539
968.982714	2562.141237
969.281462	2562.736093
969.580172	2564.394632
969.878844	2559.751730
970.177480	2563.540157
970.476078	2562.962945
970.774639	2561.990002
971.073162	2564.624005
971.371649	2559.862635
971.670098	2559.774415
971.968510	2558.647717
972.266885	2560.074363
972.565223	2561.075032
972.863524	2562.118551
973.161788	2565.135682
973.460014	2561.470763
973.758204	2563.209961
974.056356	2561.697615
974.354471	2564.470250
974.652550	2564.238357
974.950591	2561.465722
975.248595	2562.910012
975.546563	2561.806000
975.844493	2561.100238
976.142386	2563.419169
976.440243	2562.156360
976.738062	2562.698284
977.035845	2563.285578
977.333590	2564.122410
977.631299	2564.737431
977.928971	2562.100907
978.226606	2562.582337
978.524204	2564.886145
978.821765	2561.364899
979.119290	2564.001422
979.416777	2563.555280
979.714228	2563.280537
980.011642	2564.981927
980.309020	2566.317832
980.606360	2562.846998
980.903664	2563.351113
981.200931	2564.308933
981.498162	2562.126113
981.795356	2562.683161
982.092513	2561.347255
982.389633	2562.012687
982.686717	2563.824982
982.983764	2565.677606
983.280775	2560.069322
983.577749	2565.954869
983.874686	2564.545867
984.171587	2563.867832
984.468451	2565.599468
984.765279	2561.811041
985.062070	2564.160219
985.358824	2563.421690
985.655543	2562.783984
985.952224	2563.209961
986.248869	2564.384550
986.545478	2559.330793
986.842050	2561.838767
987.138586	2559.595454
987.435086	2558.882131
987.731549	2557.833571
988.027975	2564.344221
988.324366	2561.362378
988.620719	2563.192317
988.917037	2562.617626
989.213318	2562.879766
989.509563	2560.069322
989.805772	2563.918243
990.101944	2560.409600
990.398080	2563.192317
990.694180	2561.155691
990.990244	2562.274827
991.286271	2560.086966
991.582262	2560.598643
991.878217	2561.369940
992.174136	2561.798438
992.470019	2562.693243
992.765865	2561.253993
993.061676	2560.749878
993.357450	2564.233315
993.653188	2563.169632
993.948890	2560.245763
994.244556	2561.690053
994.540186	2563.966134
994.835780	2562.781463
995.131337	2563.099056
995.426859	2561.745506
995.722345	2562.882286
996.017795	2561.639642
996.313208	2564.082081
996.608586	2562.358006
996.903928	2563.061247
997.199234	2562.731052
997.494504	2564.192986
997.789738	2561.682492
998.084936	2558.443550
998.380099	2562.869683
998.675225	2562.990671
998.970316	2561.745506
999.265371	2562.726010
999.560390	2561.506051
999.855373	2562.824313
1000.150320	2561.692574
1000.445232	2563.593089
1000.740108	2561.170814
1001.034948	2563.335990
1001.329752	2563.764488
1001.624521	2563.378840
1001.919254	2559.497151
1002.213951	2557.548745
1002.508613	2559.597974
1002.803239	2560.258366
1003.097829	2559.797100
1003.392384	2561.470763
1003.686903	2560.512944
1003.981386	2562.161401
1004.275834	2561.422872
1004.570246	2560.666699
1004.864623	2561.029662
1005.158964	2562.652914
1005.453270	2562.181566
1005.747540	2562.027811
1006.041775	2560.575958
1006.335974	2561.153170
1006.630138	2561.380022
1006.924266	2562.095866
1007.218359	2562.579817
1007.512416	2559.842470
1007.806438	2563.083932
1008.100425	2558.718293
1008.394376	2561.710218
1008.688292	2565.019735
1008.982172	2560.860783
1009.276017	2562.287430
1009.569827	2561.949673
1009.863602	2563.545198
1010.157341	2559.446740
1010.451045	2561.707697
1010.744714	2564.709704
1011.038347	2563.903120
1011.331945	2559.088818
1011.625508	2563.139385
1011.919036	2563.343552
1012.212528	2562.484035
1012.505986	2562.151319
1012.799408	2563.714077
1013.092795	2563.525033
1013.386147	2561.377502
1013.679464	2562.131154
1013.972745	2562.811710
1014.265992	2561.783315
1014.559204	2561.601833
1014.852380	2560.379353
1015.145521	2562.564693
1015.438628	2561.566545
1015.731699	2561.105279
1016.024736	2560.785166
1016.317737	2560.782646
1016.610703	2561.705177
1016.903635	2556.515309
1017.196531	2557.422717
1017.489393	2557.347099
1017.782219	2557.621842
1018.075011	2557.934394
1018.367768	2562.579817
1018.660490	2561.906823
1018.953177	2561.906823
1019.245829	2561.906823
