Dividing Wavelength (nm)	Counts (n)	Blue Motor Position (mm): 0.000000	Red Motor Position (mm): 8.000000	
326.493990	2085.928638
326.888308	2085.928638
327.282561	2085.928638
327.676750	2063.467778
328.070874	2066.862995
328.464933	2072.335167
328.858929	2083.559296
329.252859	2095.219485
329.646726	2109.231372
330.040528	2124.760647
330.434265	2145.701600
330.827938	2163.786739
331.221547	2184.742816
331.615091	2205.083871
332.008571	2225.089690
332.401986	2244.036867
332.795338	2265.560073
333.188625	2286.357354
333.581847	2304.192956
333.975006	2321.337920
334.368100	2339.153358
334.761129	2356.535256
335.154095	2372.717360
335.546996	2386.910729
335.939833	2402.674417
336.332606	2416.948444
336.725315	2427.391194
337.117960	2435.547781
337.510540	2443.827876
337.903056	2451.881120
338.295508	2459.538632
338.687896	2466.475260
339.080220	2473.316106
339.472480	2480.141828
339.864676	2480.361118
340.256807	2484.444453
340.648875	2485.644248
341.040879	2487.632983
341.432818	2487.751450
341.824694	2491.194558
342.216506	2488.590802
342.608253	2489.788076
342.999937	2487.557365
343.391557	2487.501913
343.783113	2487.118785
344.174605	2483.879844
344.566033	2483.416058
344.957397	2480.721561
345.348697	2479.647795
345.739934	2476.618062
346.131106	2475.297279
346.522215	2475.267032
346.913260	2473.573205
347.304241	2472.355766
347.695159	2471.889459
348.086012	2470.785447
348.476802	2465.933336
348.867528	2470.041876
349.258191	2464.723459
349.648789	2464.199179
350.039324	2464.564663
350.429796	2462.381843
350.820203	2462.885958
351.210548	2464.191617
351.600828	2457.323045
351.991045	2461.267748
352.381198	2458.275823
352.771288	2461.633232
353.161314	2458.860597
353.551276	2460.531740
353.941175	2461.461833
354.331010	2460.993005
354.720782	2461.378653
355.110490	2461.963427
355.500135	2460.284723
355.889717	2461.668520
356.279235	2460.516616
356.668689	2462.553242
357.058080	2460.541822
357.447408	2458.341358
357.836672	2461.179528
358.225873	2460.809003
358.615010	2462.696915
359.004084	2465.444344
359.393095	2464.652883
359.782043	2466.288737
360.170927	2467.092801
360.559748	2464.277317
360.948505	2467.511217
361.337199	2467.508697
361.725830	2471.261836
362.114398	2469.033646
362.502903	2471.546661
362.891344	2471.798718
363.279722	2472.025570
363.668037	2469.537761
364.056289	2470.732514
364.444478	2471.589511
364.832603	2472.338122
365.220665	2474.440283
365.608665	2473.863071
365.996601	2475.204018
366.384474	2472.507001
366.772284	2477.737198
367.160031	2473.472382
367.547715	2475.897177
367.935336	2478.238793
368.322893	2476.570171
368.710388	2475.629995
369.097820	2482.599391
369.485189	2476.807105
369.872495	2478.894143
370.259738	2482.483444
370.646918	2483.811788
371.034035	2482.722899
371.421090	2484.671305
371.808081	2490.287150
372.195010	2492.031389
372.581875	2497.304436
372.968678	2501.740652
373.355418	2506.827176
373.742096	2515.588701
374.128710	2524.559435
374.515262	2534.866074
374.901751	2545.200439
375.288177	2560.580999
375.674540	2576.722774
376.060841	2597.900661
376.447079	2615.670729
376.833254	2641.733494
377.219367	2660.781494
377.605417	2693.977492
377.991404	2719.037068
378.377329	2754.095772
378.763191	2785.786986
379.148991	2828.488079
379.534727	2873.450131
379.920402	2916.473858
380.306013	2959.129581
380.691563	3021.670136
381.077049	3069.624112
381.462474	3121.956330
381.847835	3186.195753
382.233134	3251.836618
382.618371	3305.330822
383.003545	3381.701782
383.388657	3451.254582
383.773706	3530.085625
384.158693	3591.867486
384.543618	3671.346317
384.928480	3733.292016
385.313280	3822.036488
385.698017	3898.699835
386.082692	3993.493692
386.467305	4034.513561
386.851856	4126.519660
387.236344	4241.198348
387.620770	4274.275879
388.005133	4350.329247
388.389435	4444.190490
388.773674	4486.652129
389.157851	4557.268612
389.541965	4632.356598
389.926018	4615.778764
390.310008	4714.882807
390.693936	4769.612094
391.077802	4808.255059
391.461606	4859.556361
391.845348	4891.124067
392.229027	4926.659160
392.612645	5014.002192
392.996200	5037.594792
393.379694	5094.738791
393.763125	5173.665616
394.146494	5160.208256
394.529801	5174.081511
394.913047	5247.228654
395.296230	5167.545655
395.679351	5132.280264
396.062410	5186.757493
396.445408	5051.904107
396.828343	5051.967121
397.211217	5036.039596
397.594028	4896.054315
397.976778	4909.025204
398.359466	4893.173296
398.742092	4798.918842
399.124656	4772.641828
399.507158	4766.456332
399.889598	4683.209238
400.271977	4670.961755
400.654294	4594.469807
401.036549	4571.545160
401.418742	4492.177233
401.800874	4495.527080
402.182944	4425.487809
402.564952	4435.930559
402.946898	4297.543325
403.328783	4227.579671
403.710606	4183.595604
404.092367	4155.544103
404.474067	4143.876353
404.855705	4013.688554
405.237282	3923.814864
405.618797	3914.614758
406.000250	3873.831823
406.381642	3855.272815
406.762972	3759.561468
407.144240	3657.611694
407.525447	3610.615537
407.906593	3530.912374
408.287677	3495.304184
408.668700	3440.249743
409.049661	3374.550905
409.430560	3324.356136
409.811399	3264.147115
410.192176	3220.682287
410.572891	3168.173628
410.953545	3147.693941
411.334138	3064.923236
411.714669	3050.490413
412.095139	2969.683237
412.475547	2954.595063
412.855894	2909.073444
413.236180	2886.786503
413.616405	2841.403516
413.996568	2818.085658
414.376670	2789.144394
414.756711	2758.763881
415.136691	2743.358114
415.516609	2724.068139
415.896466	2706.348483
416.276262	2692.190403
416.655997	2681.331757
417.035670	2666.916578
417.415283	2662.092194
417.794834	2644.627116
418.174324	2632.934160
418.553753	2622.929990
418.933121	2617.178034
419.312428	2605.825355
419.691674	2598.621546
420.070859	2596.917636
420.449983	2587.500761
420.829045	2583.074628
421.208047	2577.257136
421.586988	2576.765624
421.965867	2574.746642
422.344686	2570.524675
422.723444	2570.701116
423.102141	2560.664178
423.480777	2567.351269
423.859352	2558.970351
424.237866	2561.523695
424.616319	2560.366750
424.994712	2561.932029
425.373044	2560.180228
425.751314	2558.231822
426.129524	2553.893909
426.507673	2555.219732
426.885762	2555.907850
427.263789	2558.531770
427.641756	2554.062787
428.019662	2553.334341
428.397508	2551.388455
428.775292	2554.463559
429.153016	2551.232180
429.530679	2551.171686
429.908282	2548.497354
430.285824	2547.733619
430.663305	2550.438198
431.040726	2546.619524
431.418086	2549.576161
431.795385	2546.889226
432.172624	2549.235883
432.549802	2546.813608
432.926920	2547.721016
433.303977	2550.297046
433.680974	2549.949206
434.057910	2547.030378
434.434786	2547.015254
434.811601	2550.092879
435.188355	2550.627241
435.565050	2550.793599
435.941683	2548.719164
436.318257	2552.293343
436.694770	2548.061294
437.071222	2549.848383
437.447614	2547.617672
437.823946	2551.272509
438.200218	2551.244782
438.576429	2549.750080
438.952580	2552.091696
439.328670	2549.586243
439.704700	2553.588919
440.080670	2551.191850
440.456580	2553.505740
440.832429	2556.701832
441.208218	2552.255534
441.583947	2554.113199
441.959616	2550.380225
442.335224	2553.364588
442.710773	2551.892571
443.086261	2555.065977
443.461689	2555.761656
443.837057	2554.274516
444.212365	2558.907336
444.587612	2555.917932
444.962800	2556.217881
445.337927	2558.289795
445.712995	2556.033879
446.088002	2558.899775
446.462949	2559.358520
446.837837	2560.850701
447.212664	2559.945814
447.587431	2567.101732
447.962139	2573.385530
448.336786	2581.189236
448.711374	2578.502301
449.085901	2567.905796
449.460369	2564.848336
449.834776	2564.997050
450.209124	2571.588359
450.583412	2572.495767
450.957640	2573.042732
451.331808	2571.328739
451.705917	2566.378326
452.079965	2565.370096
452.453954	2567.530230
452.827883	2567.273131
453.201752	2568.944274
453.575562	2564.578634
453.949311	2568.346897
454.323001	2569.773543
454.696632	2566.693398
455.070202	2573.844275
455.443713	2573.446024
455.817164	2570.842268
456.190556	2567.315981
456.563888	2569.914696
456.937160	2568.661969
457.310373	2570.917885
457.683526	2572.271435
458.056619	2571.301013
458.429653	2568.737586
458.802628	2570.428893
459.175542	2571.870663
459.548398	2574.429049
459.921194	2576.994996
460.293930	2583.132601
460.666607	2582.273084
461.039224	2590.349013
461.411782	2589.146698
461.784280	2586.593353
462.156719	2587.493199
462.529099	2584.294587
462.901419	2579.918866
463.273680	2579.379462
463.645882	2578.593042
464.018024	2577.587332
464.390106	2582.441963
464.762130	2590.404466
465.134094	2595.924529
465.505999	2611.567229
465.877845	2619.673405
466.249631	2626.317646
466.621358	2619.985956
466.993026	2615.973198
467.364634	2612.759462
467.736184	2607.138576
468.107674	2605.099429
468.479105	2599.657503
468.850477	2600.222113
469.221790	2598.079622
469.593043	2589.791965
469.964238	2588.803899
470.335373	2594.054261
470.706449	2597.250352
471.077467	2600.317895
471.448425	2611.879781
471.819324	2618.425719
472.190164	2611.975563
472.560945	2604.091198
472.931667	2594.187852
473.302330	2589.522264
473.672934	2589.527305
474.043479	2590.235587
474.413965	2588.153590
474.784393	2580.954823
475.154761	2585.088569
475.525070	2583.881212
475.895321	2581.597570
476.265513	2583.621593
476.635645	2585.683425
477.005719	2584.665112
477.375734	2584.334916
477.745691	2582.013465
478.115588	2587.568817
478.485427	2593.822368
478.855207	2596.705908
479.224928	2599.864191
479.594591	2603.675303
479.964194	2600.824531
480.333739	2599.191197
480.703226	2601.114397
481.072653	2598.190528
481.442022	2598.054417
481.811333	2598.956783
482.180584	2594.449992
482.549777	2592.753643
482.918912	2595.521237
483.287988	2595.685074
483.657005	2589.991091
484.025964	2588.216605
484.394864	2587.079825
484.763706	2585.882551
485.132489	2586.356419
485.501213	2584.239134
485.869879	2580.657395
486.238487	2582.068918
486.607036	2583.913980
486.975527	2580.125553
487.343959	2578.933320
487.712333	2578.088927
488.080648	2582.416757
488.448905	2579.742425
488.817104	2579.387024
489.185244	2582.525142
489.553326	2583.694690
489.921350	2590.724579
490.289315	2593.910588
490.657222	2595.183479
491.025070	2593.257759
491.392861	2591.692480
491.760593	2589.464290
492.128267	2586.061512
492.495883	2585.587643
492.863440	2579.931468
493.230939	2580.400296
493.598380	2577.090778
493.965763	2575.633885
494.333088	2571.626167
494.700354	2572.256312
495.067563	2571.172464
495.434713	2570.091136
495.801805	2572.720098
496.168839	2574.176991
496.535815	2573.602300
496.902733	2573.304872
497.269593	2572.881415
497.636395	2571.548030
498.003139	2571.311095
498.369825	2568.742628
498.736453	2571.301013
499.103023	2572.221024
499.469535	2570.302865
499.835989	2567.215158
500.202385	2568.692216
500.568723	2571.018708
500.935003	2569.874367
501.301226	2567.283213
501.667390	2568.616599
502.033497	2570.869994
502.399546	2567.870508
502.765537	2566.098542
503.131470	2567.066444
503.497345	2569.771023
503.863163	2567.303378
504.228923	2566.542164
504.594625	2567.361351
504.960269	2566.133830
505.325856	2567.036197
505.691385	2563.504869
506.056856	2568.077195
506.422270	2566.895045
506.787625	2564.253480
507.152924	2567.154664
507.518164	2563.746844
507.883347	2562.158881
508.248472	2562.297512
508.613540	2564.833213
508.978550	2564.195507
509.343503	2565.233984
509.708398	2563.938408
510.073236	2563.162070
510.438016	2564.346741
510.802738	2560.298695
511.167403	2561.478325
511.532010	2564.848336
511.896561	2563.981258
512.261053	2562.776422
512.625488	2559.076215
512.989866	2561.788356
513.354186	2558.047820
513.718449	2556.464897
514.082655	2562.047975
514.446803	2561.380022
514.810894	2562.869683
515.174927	2564.011505
515.538904	2562.254662
515.902822	2562.400856
516.266684	2559.905485
516.630488	2562.657955
516.994235	2561.732903
517.357925	2563.318346
517.721558	2560.792728
518.085133	2558.163766
518.448651	2562.675599
518.812112	2562.000084
519.175516	2557.604198
519.538863	2558.776266
519.902152	2559.865156
520.265385	2558.428427
520.628560	2561.632080
520.991678	2558.415824
521.354739	2561.863973
521.717743	2558.284754
522.080690	2560.293654
522.443580	2561.148129
522.806413	2560.253324
523.169189	2559.557645
523.531908	2559.930691
523.894569	2558.375495
524.257174	2559.073694
524.619722	2560.069322
524.982213	2559.426575
525.344647	2558.753581
525.707025	2559.580330
526.069345	2559.928170
526.431608	2556.921122
526.793815	2556.905998
527.155964	2559.933211
527.518057	2556.537994
527.880093	2557.702501
528.242072	2559.900444
528.603995	2557.057233
528.965860	2559.250135
529.327669	2554.062787
529.689421	2552.724361
530.051117	2555.560010
530.412755	2554.660164
530.774337	2555.449105
531.135862	2554.695452
531.497331	2551.239741
531.858743	2552.968857
532.220098	2551.428785
532.581396	2549.278733
532.942638	2552.036244
533.303824	2553.840977
533.664953	2555.834753
534.026025	2552.384083
534.387040	2554.869372
534.747999	2553.825853
535.108902	2551.232180
535.469748	2552.880637
535.830537	2553.964485
536.191270	2552.565565
536.551947	2552.739485
536.912567	2550.854093
537.273131	2551.453990
537.633638	2549.490461
537.994089	2550.854093
538.354483	2551.577499
538.714821	2550.826367
539.075103	2551.421223
539.435328	2550.458363
539.795497	2553.072201
540.155609	2550.511295
540.515665	2548.520039
540.875665	2549.624052
541.235609	2550.498692
541.595496	2553.331820
541.955328	2551.307797
542.315102	2550.153373
542.674821	2549.182951
543.034483	2552.545400
543.394090	2547.458876
543.753640	2550.302087
544.113134	2551.254865
544.472571	2551.131357
544.831953	2546.382590
545.191278	2549.278732
545.550548	2549.208156
545.909761	2550.279402
546.268918	2549.656819
546.628019	2550.914587
546.987064	2550.947354
547.346053	2549.124977
547.704986	2549.127498
548.063863	2548.280584
548.422684	2546.889226
548.781449	2548.570450
549.140158	2547.584905
549.498811	2551.370811
549.857408	2544.658515
550.215949	2546.445604
550.574434	2545.102137
550.932864	2544.827394
551.291237	2546.420398
551.649555	2547.042981
552.007817	2547.022816
552.366022	2549.233362
552.724173	2550.261757
553.082267	2546.982487
553.440305	2546.092723
553.798288	2548.439380
554.156215	2548.842673
554.514086	2545.477703
554.871902	2547.665563
555.229661	2549.359391
555.587365	2544.020809
555.945014	2547.738660
556.302606	2546.501057
556.660143	2548.038609
557.017625	2547.027857
557.375050	2547.108516
557.732421	2547.703372
558.089735	2548.227652
558.446994	2546.995090
558.804197	2548.346119
559.161345	2544.335881
559.518437	2545.172713
559.875474	2544.746735
560.232455	2547.910059
560.589381	2547.136242
560.946251	2547.920142
561.303065	2547.370656
561.659825	2547.932744
562.016528	2542.924358
562.373177	2544.890408
562.729770	2545.734801
563.086307	2545.301262
563.442789	2544.603062
563.799216	2545.628937
564.155587	2546.090203
564.511904	2545.354194
564.868164	2546.972405
565.224370	2545.669266
565.580520	2546.979966
565.936615	2546.644730
566.292654	2545.099616
566.648638	2545.800336
567.004567	2543.998124
567.360441	2543.889739
567.716260	2542.314378
568.072023	2544.542568
568.427732	2541.878319
568.783385	2540.935623
569.138982	2541.331353
569.494525	2544.582898
569.850013	2539.098122
570.205445	2544.915614
570.560823	2543.292362
570.916145	2547.831921
571.271412	2543.332692
571.626625	2544.910573
571.981782	2545.644061
572.336884	2542.621889
572.691931	2544.172044
573.046923	2542.629451
573.401860	2542.261446
573.756743	2543.468803
574.111570	2543.564585
574.466342	2547.148845
574.821059	2542.369831
575.175722	2543.463762
575.530330	2541.590973
575.884882	2541.119625
576.239380	2542.480737
576.593823	2542.367311
576.948211	2543.811601
577.302544	2543.163813
577.656823	2542.987372
578.011047	2542.853782
578.365216	2539.103163
578.719330	2544.035932
579.073389	2542.631971
579.427394	2542.319420
579.781344	2540.323123
580.135239	2541.482588
580.489080	2543.425953
580.842866	2541.054090
581.196597	2546.264123
581.550273	2540.870088
581.903895	2541.268339
582.257463	2541.903524
582.610975	2541.815304
582.964434	2541.885880
583.317837	2539.372865
583.671186	2541.754810
584.024481	2541.260777
584.377721	2543.357897
584.730906	2539.597197
585.084037	2540.421425
585.437113	2539.259439
585.790135	2541.830428
586.143103	2538.853626
586.496016	2542.984852
586.848874	2537.782381
587.201679	2537.414377
587.554428	2536.196938
587.907124	2537.656352
588.259765	2535.541588
588.612352	2540.655839
588.964884	2538.283976
589.317362	2540.786909
589.669786	2537.613503
590.022155	2539.395550
590.374470	2538.833462
590.726731	2539.720705
591.078937	2539.355221
591.431090	2540.348328
591.783188	2538.841023
592.135232	2537.008564
592.487222	2537.812628
592.839157	2537.411856
593.191038	2537.111908
593.542866	2539.939995
593.894639	2538.170550
594.246358	2536.880015
594.598022	2537.137113
594.949633	2539.135931
595.301190	2537.295910
595.652692	2535.166022
596.004141	2536.524613
596.355535	2540.239944
596.706876	2536.353214
597.058162	2535.748276
597.409395	2538.536034
597.760573	2537.008564
598.111698	2535.551671
598.462768	2536.985879
598.813785	2533.804911
599.164748	2537.830272
599.515657	2535.854140
599.866511	2535.632329
600.217312	2533.835158
600.568060	2534.054448
600.918753	2538.672145
601.269392	2536.849768
601.619978	2536.680889
601.970510	2538.135262
602.320988	2537.661393
602.671412	2534.603934
603.021783	2535.440765
603.372100	2534.394726
603.722363	2536.678368
604.072572	2537.363965
604.422728	2538.757844
604.772830	2533.073943
605.122878	2532.897503
605.472872	2533.814993
605.822813	2531.798532
606.172701	2534.956814
606.522534	2535.637370
606.872314	2536.708615
607.222041	2534.462781
607.571714	2536.569984
607.921333	2534.886238
608.270899	2536.597710
608.620411	2537.701723
608.969870	2537.555529
609.319276	2534.455220
609.668627	2537.099305
610.017926	2537.399253
610.367171	2533.804911
610.716362	2539.438400
611.065500	2534.782895
611.414585	2535.788605
611.763616	2534.649304
612.112594	2536.585107
612.461518	2538.503266
612.810389	2535.781043
613.159207	2535.662576
613.507971	2533.875487
613.856682	2535.702905
614.205340	2534.351876
614.553945	2537.142155
614.902496	2536.264994
615.250994	2536.940508
615.599439	2537.295910
615.947830	2538.737680
616.296169	2537.250539
616.644454	2534.689633
616.992686	2536.234747
617.340864	2535.339942
617.688990	2534.772812
618.037063	2537.298430
618.385082	2535.554191
618.733048	2535.039993
619.080961	2534.669469
619.428821	2534.929088
619.776628	2536.181815
620.124382	2538.208359
620.472083	2536.403626
620.819731	2537.333718
621.167326	2535.554191
621.514868	2535.697864
621.862357	2535.498738
622.209793	2535.297092
622.557176	2537.628626
622.904506	2532.894983
623.251783	2529.850126
623.599007	2531.301978
623.946179	2532.249715
624.293297	2531.223840
624.640363	2533.540250
624.987376	2532.171577
625.334336	2533.746938
625.681243	2530.366844
626.028097	2532.794159
626.374899	2533.300795
626.721647	2532.264838
627.068343	2535.655014
627.414987	2533.338604
627.761577	2533.749458
628.108115	2531.065044
628.454600	2531.498583
628.801032	2532.290044
629.147412	2533.981351
629.493739	2530.870959
629.840014	2531.793490
630.186236	2531.843902
630.532405	2532.849612
630.878521	2530.203006
631.224585	2535.095446
631.570597	2534.636701
631.916556	2530.681916
632.262462	2529.746782
632.608316	2532.824406
632.954117	2533.494880
633.299866	2533.802390
633.645562	2531.861546
633.991206	2531.901875
634.336797	2531.417924
634.682336	2531.211237
635.027823	2532.254756
635.373257	2532.900024
635.718639	2532.456402
636.063968	2532.630322
636.409245	2528.368026
636.754470	2530.787780
637.099642	2532.032945
637.444762	2529.557739
637.789829	2532.458923
638.134845	2530.565969
638.479808	2530.359282
638.824719	2530.568490
639.169577	2528.857018
639.514383	2527.523633
639.859137	2526.394415
640.203839	2526.477594
640.548489	2532.121165
640.893086	2529.930784
641.237632	2524.196472
641.582125	2528.562111
641.926566	2523.712521
642.270955	2529.419107
642.615292	2529.020856
642.959576	2532.312729
643.303809	2528.446164
643.647990	2529.532533
643.992118	2528.239477
644.336195	2529.797193
644.680219	2531.392719
645.024192	2530.346679
645.368112	2528.635207
645.711981	2529.489683
646.055797	2529.333407
646.399562	2528.133613
646.743274	2527.881555
647.086935	2530.414735
647.430544	2529.187214
647.774101	2531.375075
648.117606	2530.684437
648.461059	2531.387678
648.804460	2532.592513
649.147810	2527.674868
649.491108	2530.707122
649.834354	2529.887934
650.177548	2528.400794
650.520690	2529.136802
650.863781	2531.349869
651.206820	2527.848788
651.549807	2528.678057
651.892742	2530.230733
652.235626	2529.282996
652.578458	2528.914992
652.921238	2528.337779
653.263967	2530.797863
653.606644	2524.851822
653.949269	2531.463295
654.291843	2528.662934
654.634365	2528.292409
654.976836	2524.977850
655.319255	2530.387008
655.661622	2529.527492
656.003938	2527.445495
656.346203	2526.759898
656.688416	2527.881555
657.030577	2526.001205
657.372687	2526.074301
657.714746	2528.582275
658.056753	2526.069260
658.398708	2523.223529
658.740612	2524.551873
659.082465	2523.646986
659.424266	2525.355937
659.766016	2522.122037
660.107715	2529.862728
660.449362	2525.076153
660.790958	2529.305681
661.132503	2525.083715
661.473996	2529.847605
661.815438	2527.455578
662.156829	2528.216792
662.498168	2526.275947
662.839456	2532.075795
663.180693	2527.780732
663.521879	2526.442306
663.863013	2525.050947
664.204097	2525.313087
664.545129	2527.586648
664.886110	2526.575896
665.227040	2527.826102
665.567918	2528.141174
665.908746	2526.759898
666.249522	2528.736031
666.590248	2525.645803
666.930922	2526.792666
667.271545	2526.596061
667.612118	2528.778880
667.952639	2526.986750
668.293109	2526.878365
668.633528	2527.417769
668.973896	2524.677902
669.314213	2527.009435
669.654480	2524.945083
669.994695	2526.633869
670.334859	2527.027079
670.674973	2525.560104
671.015035	2529.676206
671.355047	2524.914836
671.695008	2526.028931
672.034918	2527.558921
672.374777	2525.434075
672.714585	2527.148067
673.054342	2528.426000
673.394049	2525.686133
673.733705	2527.143026
674.073310	2527.523633
674.412864	2526.512882
674.752368	2528.942718
675.091820	2528.398273
675.431223	2524.864424
675.770574	2523.954496
676.109875	2520.556758
676.449125	2524.947603
676.788324	2524.110772
677.127473	2523.720083
677.466571	2519.704803
677.805619	2525.938190
678.144616	2526.056657
678.483562	2525.539939
678.822458	2525.890299
679.161303	2525.381143
679.500098	2525.734023
679.838842	2527.085053
680.177535	2523.611698
680.516179	2524.882068
680.854771	2526.848118
681.193314	2524.120854
681.531805	2525.799558
681.870247	2527.826102
682.208638	2524.544311
682.546978	2528.993129
682.885268	2527.569003
683.223508	2526.543129
683.561697	2528.998171
683.899836	2525.423993
684.237925	2525.991122
684.575963	2529.058664
684.913951	2526.646472
685.251889	2525.640762
685.589776	2526.603622
685.927614	2525.958355
686.265401	2524.985412
686.603137	2528.289888
686.940824	2525.423992
687.278460	2526.505320
687.616046	2525.456760
687.953582	2525.799558
688.291068	2523.868797
688.628504	2527.130423
688.965889	2527.221164
689.303224	2528.899868
689.640510	2524.110772
689.977745	2527.768129
690.314930	2525.471883
690.652065	2526.885927
690.989150	2525.204702
691.326185	2524.561955
691.663170	2525.061029
692.000105	2524.645134
692.336990	2522.333765
692.673825	2525.297964
693.010610	2526.505320
693.347345	2522.101872
693.684030	2521.529701
694.020665	2519.440143
694.357251	2517.305214
694.693786	2521.471728
695.030272	2522.492562
695.366707	2521.789321
695.703093	2522.840401
696.039429	2521.121368
696.375716	2522.326203
696.711952	2519.845956
697.048139	2523.702438
697.384276	2520.105575
697.720363	2521.620442
698.056400	2520.201357
698.392388	2520.967613
698.728326	2521.259999
699.064214	2518.212622
699.400053	2521.323014
699.735842	2522.628673
700.071581	2518.041223
700.407270	2522.663961
700.742910	2520.032478
701.078501	2521.093641
701.414042	2519.001563
701.749533	2521.678415
702.084974	2520.725637
702.420366	2520.347551
702.755709	2523.498272
703.091002	2519.142715
703.426246	2523.818385
703.761440	2518.971316
704.096584	2521.630524
704.431679	2518.419309
704.766725	2521.698580
705.101721	2521.176820
705.436668	2519.863600
705.771565	2518.237828
706.106413	2518.189937
706.441212	2521.819568
706.775961	2519.359484
707.110661	2519.193126
707.445311	2522.669002
707.779913	2520.672705
708.114465	2520.103055
708.448967	2520.483662
708.783421	2521.512057
709.117825	2519.737571
709.452180	2521.570030
709.786485	2521.096162
710.120742	2524.156142
710.454949	2521.312932
710.789107	2520.922242
711.123216	2515.873527
711.457275	2520.473579
711.791286	2520.022396
712.125247	2519.820750
712.459159	2523.384846
712.793023	2522.399300
713.126837	2522.353930
713.460602	2521.219670
713.794318	2520.718075
714.127985	2522.343847
714.461602	2520.526512
714.795171	2520.009793
715.128691	2522.822757
715.462162	2519.616583
715.795584	2519.414937
716.128957	2521.335617
716.462281	2521.360822
716.795556	2518.865451
717.128782	2521.743950
717.461960	2518.220184
717.795088	2521.368384
718.128167	2521.234794
718.461198	2519.246058
718.794180	2520.992818
719.127113	2521.254958
719.459997	2519.573733
719.792833	2520.034999
720.125619	2518.991480
720.458357	2517.640451
720.791046	2522.127078
721.123686	2520.261851
721.456278	2522.215298
721.788821	2518.729340
722.121315	2521.678415
722.453761	2518.005935
722.786158	2517.398476
723.118506	2518.182375
723.450805	2519.664474
723.783056	2518.666326
724.115259	2517.118692
724.447412	2517.789165
724.779518	2516.836387
725.111574	2518.260513
725.443582	2519.195647
725.775542	2519.586336
726.107453	2521.285205
726.439315	2518.111799
726.771129	2523.142870
727.102895	2517.365708
727.434612	2517.935358
727.766281	2519.419978
728.097901	2519.568692
728.429473	2515.021572
728.760996	2518.265554
729.092471	2511.971673
729.423897	2519.644310
729.755276	2516.624658
730.086606	2519.598939
730.417887	2516.637261
730.749120	2521.196985
731.080305	2517.630369
731.411442	2522.784948
731.742530	2521.696059
732.073570	2519.704803
732.404562	2517.963085
732.735506	2520.808816
733.066401	2520.282016
733.397249	2520.098013
733.728048	2519.417458
734.058798	2518.401665
734.389501	2520.075328
734.720156	2519.997190
735.050762	2518.537776
735.381320	2515.853362
735.711831	2519.064577
736.042293	2517.794206
736.372707	2518.076511
736.703073	2518.152128
737.033391	2518.431912
737.363661	2517.668177
737.693883	2517.101047
738.024056	2519.296470
738.354182	2517.509381
738.684260	2514.903104
739.014290	2515.712210
739.344272	2516.521315
739.674207	2518.729340
740.004093	2517.607683
740.333931	2516.007117
740.663722	2521.461646
740.993464	2519.286388
741.323159	2517.345543
741.652806	2518.568023
741.982405	2518.741943
742.311956	2518.348733
742.641460	2517.569875
742.970915	2517.784124
743.300323	2517.968126
743.629683	2517.612725
743.958996	2517.758918
744.288260	2518.562982
744.617477	2519.422499
744.946647	2515.548372
745.275768	2514.308248
745.604842	2514.882940
745.933869	2514.083917
746.262847	2514.588032
746.591778	2518.666326
746.920662	2517.713548
747.249498	2518.449556
747.578286	2519.089783
747.907027	2517.199350
748.235720	2516.932169
748.564365	2516.854031
748.892963	2513.635254
749.221514	2519.992149
749.550017	2518.323527
749.878473	2516.609535
750.206881	2518.439474
750.535242	2518.018537
750.863555	2517.368229
751.191821	2517.058198
751.520039	2518.520132
751.848210	2515.455111
752.176334	2517.786644
752.504411	2516.498630
752.832440	2513.839421
753.160421	2518.129443
753.488356	2517.337982
753.816243	2519.082221
754.144082	2518.520132
754.471875	2516.871675
754.799620	2514.935872
755.127318	2515.424864
755.454969	2515.162724
755.782572	2518.154649
756.110129	2517.153980
756.437638	2515.218177
756.765100	2516.506191
757.092515	2516.317148
757.419882	2517.985770
757.747203	2515.039216
758.074477	2513.617610
758.401703	2514.149452
758.728882	2517.887467
759.056014	2517.146418
759.383099	2518.573064
759.710138	2516.105420
760.037129	2517.020389
760.364073	2518.812519
760.690970	2515.997035
761.017820	2517.234638
761.344623	2513.763804
761.671379	2517.242200
761.998088	2511.787671
762.324751	2515.671880
762.651366	2517.380832
762.977935	2519.455266
763.304456	2517.017868
763.630931	2522.023734
763.957359	2521.620442
764.283740	2519.997190
764.610074	2519.563651
764.936362	2520.067767
765.262602	2516.370080
765.588796	2517.027951
765.914943	2516.664988
766.241044	2516.942251
766.567097	2514.827487
766.893104	2515.084586
767.219064	2516.029802
767.544978	2516.465862
767.870845	2516.697755
768.196665	2515.674401
768.522438	2514.983763
768.848165	2515.581140
769.173846	2516.924607
769.499479	2514.893022
769.825066	2516.722961
770.150607	2511.633916
770.476101	2515.636592
770.801548	2513.171468
771.126949	2515.291273
771.452303	2512.833711
771.777611	2515.571057
772.102872	2513.418485
772.428087	2513.279853
772.753256	2512.047291
773.078378	2515.026613
773.403453	2516.939731
773.728482	2514.887981
774.053465	2511.459996
774.378401	2513.423526
774.703291	2513.736077
775.028135	2515.757580
775.352932	2511.681807
775.677683	2514.361180
776.002388	2515.326561
776.327046	2513.670542
776.651658	2513.126098
776.976224	2512.831190
777.300743	2512.548886
777.625216	2515.326561
777.949643	2512.508556
778.274024	2512.816067
778.598359	2509.279697
778.922647	2507.142248
779.246889	2512.916890
779.571086	2510.517301
779.895236	2511.230624
780.219339	2511.205418
780.543397	2510.913031
780.867409	2514.444359
781.191374	2515.750018
781.515294	2511.142404
781.839167	2515.770183
782.162995	2513.955368
782.486776	2514.096520
782.810511	2512.027126
783.134201	2514.646006
783.457844	2510.698782
783.781441	2512.087620
784.104993	2514.507374
784.428498	2514.832528
784.751958	2514.182219
785.075372	2512.813546
785.398739	2514.507374
785.722061	2513.073166
786.045337	2509.493946
786.368568	2513.050480
786.691752	2510.426560
787.014891	2515.208094
787.337983	2510.219872
787.661030	2515.805471
787.984031	2513.133659
788.306987	2515.341685
788.629897	2514.938392
788.952760	2515.419823
789.275579	2515.354288
789.598351	2515.989473
789.921078	2513.904956
790.243759	2513.272291
790.566395	2513.796571
790.888984	2511.941427
791.211529	2510.603000
791.534027	2512.874040
791.856480	2510.718947
792.178888	2511.341529
792.501249	2515.230779
792.823566	2510.928155
793.145836	2513.824297
793.468062	2514.179699
793.790241	2515.137518
794.112375	2515.462673
794.434464	2509.962774
794.756507	2512.763135
795.078505	2513.819256
795.400457	2510.378669
795.722364	2508.054697
796.044226	2510.855058
796.366042	2508.662156
796.687812	2510.749194
797.009538	2510.199708
797.331218	2513.337826
797.652852	2514.976201
797.974442	2513.557116
798.295986	2511.772548
798.617484	2512.430418
798.938938	2513.214318
799.260346	2515.145080
799.581709	2512.080058
799.903026	2513.269771
800.224299	2513.597446
800.545526	2513.557116
800.866708	2510.923113
801.187845	2509.930006
801.508936	2513.284894
801.829983	2510.454286
802.150984	2513.967970
802.471940	2513.632734
802.792851	2511.301200
803.113717	2512.324554
803.434538	2510.910511
803.755314	2513.143742
804.076045	2511.346570
804.396731	2512.785820
804.717372	2511.076869
805.037967	2511.316323
805.358518	2512.306910
805.679024	2515.056860
805.999485	2509.637619
806.319901	2512.521159
806.640272	2511.883453
806.960598	2512.914369
807.280879	2511.220542
807.601115	2509.562002
807.921306	2511.999400
808.241453	2511.606190
808.561554	2512.082579
808.881611	2513.731036
809.201623	2510.479492
809.521590	2515.515605
809.841513	2513.453773
810.161390	2513.423526
810.481223	2512.788340
810.801011	2512.337157
811.120755	2512.561488
811.440453	2510.817249
811.760107	2512.001920
812.079716	2510.141735
812.399281	2508.105108
812.718801	2510.729029
813.038276	2506.870026
813.357707	2511.782630
813.677093	2509.740963
813.996434	2510.398833
814.315731	2513.136180
814.634983	2511.722136
814.954191	2511.722136
815.273354	2510.729029
815.592473	2510.701303
815.911547	2512.553927
816.230577	2511.102074
816.549562	2513.594925
816.868502	2513.110974
817.187399	2515.586181
817.506250	2514.209946
817.825058	2515.039216
818.143821	2515.092148
818.462539	2511.830521
818.781213	2513.073166
819.099843	2510.056035
819.418429	2511.704492
819.736970	2514.877899
820.055466	2513.887312
820.373919	2515.518125
820.692327	2517.153980
821.010691	2518.802437
821.329011	2525.207223
821.647286	2535.755837
821.965517	2542.493339
822.283704	2546.894267
822.601847	2545.180274
822.919945	2539.950077
823.237999	2537.863040
823.556010	2535.624767
823.873976	2528.095804
824.191897	2526.780063
824.509775	2526.364168
824.827609	2524.798889
825.145398	2521.464166
825.463144	2518.585667
825.780845	2519.719927
826.098502	2522.386697
826.416116	2521.363343
826.733685	2524.423323
827.051210	2525.270237
827.368692	2526.714528
827.686129	2522.878210
828.003522	2520.450894
828.320872	2513.670542
828.638177	2516.463342
828.955439	2510.870181
829.272656	2513.811695
829.589830	2508.571415
829.906960	2513.869668
830.224046	2513.027795
830.541088	2514.343536
830.858086	2510.088803
831.175041	2512.740449
831.491952	2513.025275
831.808819	2513.468896
832.125642	2511.943947
832.442421	2514.668691
832.759157	2516.919566
833.075849	2517.436284
833.392497	2515.591222
833.709101	2518.933507
834.025662	2516.896881
834.342179	2515.734895
834.658653	2516.803619
834.975083	2516.110461
835.291469	2522.782428
835.607811	2514.928310
835.924110	2513.567199
836.240366	2512.178361
836.556578	2510.275325
836.872746	2513.927641
837.188871	2510.114008
837.504952	2513.383197
837.820990	2511.588546
838.136984	2510.545027
838.452935	2509.186436
838.768842	2511.344050
839.084706	2510.514780
839.400526	2511.623834
839.716303	2512.211128
840.032037	2514.837569
840.347727	2513.388238
840.663373	2515.271109
840.978977	2515.475275
841.294537	2510.361025
841.610054	2510.401354
841.925527	2510.852537
842.240957	2510.666015
842.556344	2511.795233
842.871687	2510.224914
843.186987	2510.683659
843.502244	2512.264060
843.817458	2510.935716
844.132629	2510.749194
844.447756	2512.634585
844.762840	2506.073523
845.077881	2507.820283
845.392879	2506.232320
845.707833	2509.514111
846.022745	2503.497494
846.337613	2506.761641
846.652438	2509.768689
846.967221	2509.352794
847.281960	2511.689369
847.596656	2509.647702
847.911309	2511.162568
848.225919	2507.159892
848.540485	2510.907990
848.855009	2511.286077
849.169490	2509.080572
849.483928	2508.636950
849.798323	2509.927486
850.112675	2509.231806
850.426984	2510.015706
850.741251	2509.879595
851.055474	2508.825993
851.369654	2510.930675
851.683792	2512.281704
851.997887	2509.214162
852.311938	2507.832886
852.625947	2510.895387
852.939914	2508.974708
853.253837	2509.955212
853.567718	2507.875736
853.881555	2509.403206
854.195350	2509.166271
854.509103	2509.471261
854.822812	2507.832886
855.136479	2509.851868
855.450103	2509.446055
855.763685	2509.372959
856.077224	2509.516632
856.390720	2509.463699
856.704173	2509.524193
857.017584	2511.281035
857.330953	2509.332629
857.644278	2511.061745
857.957561	2514.368742
858.270802	2509.120901
858.584000	2508.878926
858.897155	2509.370438
859.210268	2511.323885
859.523339	2511.412105
859.836367	2509.125942
860.149352	2509.088133
860.462295	2510.061076
860.775195	2505.342556
861.088054	2506.741476
861.400869	2504.346928
861.713642	2503.777278
862.026373	2508.452948
862.339062	2509.572084
862.651708	2510.108967
862.964312	2509.125942
863.276873	2508.102588
863.589392	2510.539986
863.901869	2508.024450
864.214303	2508.463030
864.526696	2508.553771
864.839045	2510.265243
865.151353	2514.754390
865.463619	2508.805829
865.775842	2511.782630
866.088023	2507.500170
866.400162	2511.732219
866.712258	2508.828514
867.024313	2512.316993
867.336325	2510.292969
867.648296	2510.648371
867.960224	2508.122752
868.272110	2510.986128
868.583954	2509.393123
868.895755	2509.655263
869.207515	2508.717609
869.519233	2507.091837
869.830909	2509.418329
870.142542	2509.025119
870.454134	2510.023268
870.765684	2507.422032
871.077191	2508.687362
871.388657	2510.771879
871.700081	2506.338184
872.011463	2511.386900
872.322803	2508.720129
872.634101	2510.383710
872.945357	2510.862620
873.256571	2509.650222
873.567744	2510.101405
873.878874	2511.122239
874.189963	2505.818945
874.501010	2509.370438
874.812015	2509.672907
875.122979	2509.317506
875.433900	2507.439676
875.744780	2512.642147
876.055618	2508.936899
876.366415	2509.211642
876.677169	2508.664677
876.987882	2507.238030
877.298554	2506.358349
877.609183	2507.600993
877.919771	2506.834738
878.230317	2508.677279
878.540822	2512.758093
878.851285	2509.902280
879.161707	2509.269615
879.472087	2512.790861
879.782425	2508.941940
880.092722	2515.709689
880.402977	2516.155831
880.713191	2520.377797
881.023363	2523.430216
881.333494	2524.423323
881.643583	2528.005063
881.953631	2526.787625
882.263637	2523.389887
882.573602	2525.844929
882.883526	2520.403003
883.193408	2519.954341
883.503248	2516.791017
883.813048	2514.910666
884.122806	2514.381345
884.432522	2513.131139
884.742197	2512.546365
885.051831	2514.598115
885.361424	2512.309431
885.670975	2513.632734
885.980485	2509.660304
886.289954	2512.377486
886.599382	2508.788185
886.908768	2511.076869
887.218113	2509.025119
887.527417	2506.751559
887.836680	2511.454955
888.145901	2508.609224
888.455082	2506.764162
888.764221	2508.533607
889.073319	2509.279697
889.382376	2505.687875
889.691392	2509.786333
890.000366	2509.302383
890.309300	2508.326919
890.618193	2508.389934
890.927044	2510.083761
891.235855	2509.718278
891.544625	2510.056035
891.853353	2510.555109
892.162041	2507.490088
892.470687	2511.202898
892.779293	2510.154338
893.087858	2508.757938
893.396381	2506.784326
893.704864	2508.634430
894.013306	2509.627537
894.321707	2512.253978
894.630068	2512.470748
894.938387	2512.881602
895.246665	2514.066273
895.554903	2513.627692
895.863100	2512.919410
896.171256	2514.313289
896.479371	2512.448063
896.787446	2510.522342
897.095480	2508.616786
897.403473	2511.139883
897.711425	2508.614265
898.019336	2510.161899
898.327207	2510.028309
898.635038	2509.700634
898.942827	2509.032681
899.250576	2509.015037
899.558284	2506.887670
899.865952	2509.967815
900.173579	2509.327588
900.481165	2508.616786
900.788711	2508.586539
901.096216	2509.556961
901.403681	2509.612413
901.711105	2509.277177
902.018489	2508.198370
902.325832	2512.090141
902.633135	2507.507732
902.940397	2510.272805
903.247619	2508.331960
903.554800	2511.384379
903.861941	2510.736591
904.169041	2513.869668
904.476101	2515.361849
904.783121	2514.303207
905.090100	2515.452590
905.397039	2510.965963
905.703938	2514.487209
906.010796	2510.877743
906.317614	2511.326406
906.624391	2511.500326
906.931129	2510.182064
907.237826	2506.391116
907.544483	2508.185767
907.851099	2509.050325
908.157675	2506.801970
908.464211	2509.446055
908.770707	2507.175016
909.077163	2507.190139
909.383578	2506.733915
909.689954	2503.076558
909.996289	2504.714932
910.302584	2508.609224
910.608839	2508.629388
910.915054	2509.045284
911.221229	2507.328771
911.527363	2509.498988
911.833458	2507.268277
912.139513	2509.204080
912.445527	2509.332629
912.751502	2508.163082
913.057436	2506.993534
913.363331	2507.043946
913.669186	2509.536796
913.975000	2509.980418
914.280775	2507.739625
914.586510	2510.204749
914.892205	2512.120388
915.197859	2510.600480
915.503475	2509.526714
915.809050	2514.895543
916.114585	2513.337826
916.420081	2514.351098
916.725536	2513.110974
917.030952	2510.650891
917.336328	2514.615759
917.641665	2511.482682
917.946961	2510.565192
918.252218	2510.668535
918.557435	2508.949502
918.862612	2508.216014
919.167750	2509.385562
919.472848	2508.460510
919.777906	2510.093844
920.082925	2511.573422
920.387904	2508.097547
920.692843	2509.690551
920.997743	2507.958915
921.302603	2509.957733
921.607423	2506.706188
921.912204	2511.313803
922.216946	2506.469254
922.521647	2509.640140
922.826310	2511.170130
923.130932	2506.255005
923.435516	2509.950171
923.740059	2508.100067
924.044564	2506.554954
924.349028	2507.469923
924.653454	2506.375993
924.957840	2504.888852
925.262186	2502.259891
925.566493	2507.928668
925.870761	2507.144769
926.174989	2506.461692
926.479178	2507.180057
926.783328	2506.481857
927.087438	2507.338853
927.391509	2509.274656
927.695541	2506.527227
927.999533	2503.714263
928.303486	2505.337515
928.607400	2505.692916
928.911275	2508.095026
929.215110	2506.018071
929.518906	2507.795078
929.822663	2506.534789
930.126381	2504.760303
930.430060	2507.006137
930.733699	2507.124604
931.037299	2507.459841
931.340861	2508.765500
931.644383	2507.154851
931.947866	2505.430776
932.251309	2508.372290
932.554714	2505.506394
932.858080	2511.964112
933.161407	2506.277690
933.464694	2505.178719
933.767943	2509.062928
934.071153	2506.701147
934.374323	2506.295334
934.677455	2505.645025
934.980548	2508.221055
935.283602	2506.640653
935.586617	2504.314161
935.889593	2507.469923
936.192530	2504.858605
936.495428	2504.311640
936.798287	2507.164933
937.101108	2506.721312
937.403890	2504.510766
937.706632	2507.210304
938.009336	2508.321878
938.312002	2507.757269
938.614628	2506.252484
938.917216	2507.646363
939.219765	2505.302227
939.522275	2507.505211
939.824747	2507.406909
940.127179	2505.428256
940.429573	2501.493635
940.731929	2504.863647
941.034246	2503.000940
941.336524	2505.468585
941.638763	2508.803308
941.940964	2506.055879
942.243126	2507.177536
942.545250	2506.980931
942.847335	2508.727691
943.149381	2504.926661
943.451389	2504.684686
943.753359	2507.301044
944.055290	2507.220386
944.357182	2505.755931
944.659036	2510.073679
944.960851	2506.749038
945.262628	2506.633092
945.564367	2505.992865
945.866067	2506.991013
946.167729	2508.072341
946.469352	2507.038904
946.770937	2509.501508
947.072484	2505.360200
947.373992	2505.304748
947.675462	2507.568226
947.976893	2506.433966
948.278286	2505.748369
948.579641	2504.843482
948.880958	2506.406240
949.182236	2503.842813
949.483476	2506.078565
949.784678	2505.924809
950.085841	2506.943123
950.386967	2506.073523
950.688054	2504.535972
950.989103	2504.135200
951.290114	2505.750890
951.591087	2508.142917
951.892021	2507.238030
952.192917	2506.943123
952.493776	2507.742145
952.794596	2505.012361
953.095378	2505.970180
953.396122	2507.359018
953.696828	2507.318688
953.997496	2507.414470
954.298126	2507.250633
954.598718	2508.765500
954.899272	2505.377844
955.199788	2506.454131
955.500266	2508.737773
955.800706	2502.711074
956.101108	2503.119407
956.401472	2503.570591
956.701798	2500.810559
957.002087	2504.757782
957.302337	2504.906496
957.602550	2506.502022
957.902724	2506.693585
958.202861	2505.909686
958.502960	2507.351456
958.803022	2505.612258
959.103045	2504.251146
959.403031	2507.679131
959.702979	2507.832886
960.002889	2505.786178
960.302762	2505.148472
960.602596	2505.672752
960.902393	2502.365755
961.202153	2504.404902
961.501875	2506.749038
961.801559	2505.171157
962.101205	2508.687362
962.400814	2505.403050
962.700385	2504.210817
962.999918	2506.280211
963.299414	2505.256857
963.598873	2506.083606
963.898293	2503.537823
964.197677	2507.263236
964.497022	2505.645025
964.796331	2506.658297
965.095601	2504.684686
965.394835	2508.198370
965.694030	2505.035046
965.993189	2505.715602
966.292309	2505.672752
966.591393	2504.977073
966.890439	2506.184429
967.189447	2505.062772
967.488419	2504.367093
967.787353	2506.312978
968.086249	2506.242402
968.385108	2504.861126
968.683930	2506.272649
968.982714	2503.663852
969.281462	2506.751559
969.580172	2505.950015
969.878844	2505.065293
970.177480	2503.857936
970.476078	2504.898935
970.774639	2507.782475
971.073162	2505.458503
971.371649	2500.503048
971.670098	2501.715446
971.968510	2501.478512
972.266885	2499.651093
972.565223	2506.197032
972.863524	2503.820128
973.161788	2505.052690
973.460014	2504.863647
973.758204	2505.473626
974.056356	2502.494304
974.354471	2505.874398
974.652550	2502.312823
974.950591	2507.505211
975.248595	2503.235354
975.546563	2506.882629
975.844493	2505.085457
976.142386	2503.784840
976.440243	2505.942453
976.738062	2507.127125
977.035845	2503.308451
977.333590	2504.057062
977.631299	2503.762154
977.928971	2506.375993
978.226606	2503.409274
978.524204	2506.428925
978.821765	2505.105622
979.119290	2502.091012
979.416777	2505.103101
979.714228	2502.597648
980.011642	2505.067813
980.309020	2507.757269
980.606360	2505.188801
980.903664	2505.496311
981.200931	2503.764675
981.498162	2505.473626
981.795356	2505.239213
982.092513	2504.220899
982.389633	2503.593276
982.686717	2504.183091
982.983764	2506.726353
983.280775	2506.759120
983.577749	2507.109481
983.874686	2505.387927
984.171587	2509.917403
984.468451	2506.544871
984.765279	2505.884480
985.062070	2504.283914
985.358824	2505.730725
985.655543	2503.862978
985.952224	2503.038749
986.248869	2502.764006
986.545478	2499.764519
986.842050	2503.646208
987.138586	2502.862308
987.435086	2502.252329
987.731549	2499.671258
988.027975	2505.708040
988.324366	2504.752741
988.620719	2503.878101
988.917037	2504.137720
989.213318	2502.895076
989.509563	2505.846672
989.805772	2504.742659
990.101944	2505.077896
990.398080	2506.181908
990.694180	2506.065962
990.990244	2504.712412
991.286271	2506.761641
991.582262	2501.876763
991.878217	2506.680983
992.174136	2504.238543
992.470019	2504.702330
992.765865	2504.815756
993.061676	2502.872391
993.357450	2505.582011
993.653188	2504.392299
993.948890	2506.645694
994.244556	2505.007319
994.540186	2501.332318
994.835780	2504.334325
995.131337	2504.362052
995.426859	2504.563698
995.722345	2501.992709
996.017795	2504.795591
996.313208	2504.566218
996.608586	2505.634943
996.903928	2504.639315
997.199234	2501.972545
997.494504	2506.524707
997.789738	2504.152844
998.084936	2505.534120
998.380099	2506.343225
998.675225	2504.382216
998.970316	2505.929851
999.265371	2505.655108
999.560390	2504.208297
999.855373	2503.126969
1000.150320	2503.552947
1000.445232	2504.830879
1000.740108	2503.774757
1001.034948	2505.176198
1001.329752	2502.380878
1001.624521	2502.706033
1001.919254	2500.503048
1002.213951	2500.450116
1002.508613	2502.897597
1002.803239	2504.654439
1003.097829	2501.997751
1003.392384	2504.732577
1003.686903	2504.941784
1003.981386	2503.747031
1004.275834	2504.452792
1004.570246	2506.413801
1004.864623	2505.398009
1005.158964	2503.948677
1005.453270	2504.089829
1005.747540	2503.227792
1006.041775	2504.442710
1006.335974	2503.033708
1006.630138	2502.736280
1006.924266	2505.244254
1007.218359	2502.275014
1007.512416	2505.463544
1007.806438	2505.019922
1008.100425	2504.223420
1008.394376	2505.115704
1008.688292	2503.406753
1008.982172	2504.616630
1009.276017	2504.074706
1009.569827	2503.351300
1009.863602	2504.581342
1010.157341	2504.888852
1010.451045	2505.634943
1010.744714	2501.402894
1011.038347	2507.696775
1011.331945	2501.387771
1011.625508	2504.818276
1011.919036	2503.810045
1012.212528	2505.733246
1012.505986	2504.520848
1012.799408	2504.089829
1013.092795	2504.079747
1013.386147	2503.341218
1013.679464	2503.323574
1013.972745	2500.805518
1014.265992	2504.906496
1014.559204	2505.864316
1014.852380	2503.956239
1015.145521	2501.909530
1015.438628	2500.815600
1015.731699	2505.889521
1016.024736	2504.006650
1016.317737	2508.407578
1016.610703	2502.718636
1016.903635	2500.578666
1017.196531	2500.813079
1017.489393	2504.687206
1017.782219	2497.395177
1018.075011	2503.142093
1018.367768	2505.040087
1018.660490	2501.662514
1018.953177	2501.662514
1019.245829	2501.662514
