Dividing Wavelength (nm)	Counts (n)	Blue Motor Position (mm): 0.000000	Red Motor Position (mm): 8.300000	
326.493990	2162.655000
326.888308	2162.655000
327.282561	2162.655000
327.676750	2157.613846
328.070874	2071.914231
328.464933	2008.899808
328.858929	2071.914231
329.252859	2099.640577
329.646726	2097.120000
330.040528	2109.722885
330.434265	2142.490385
330.827938	2139.969808
331.221547	2208.025385
331.615091	2182.819615
332.008571	2243.313462
332.401986	2220.628269
332.795338	2208.025385
333.188625	2263.478077
333.581847	2255.916346
333.975006	2296.245577
334.368100	2293.725000
334.761129	2258.436923
335.154095	2366.821731
335.546996	2376.904038
335.939833	2351.698269
336.332606	2321.451346
336.725315	2369.342308
337.117960	2422.274423
337.510540	2482.768269
337.903056	2439.918462
338.295508	2444.959615
338.687896	2399.589231
339.080220	2550.823846
339.472480	2465.124231
339.864676	2434.877308
340.256807	2447.480192
340.648875	2520.576923
341.040879	2444.959615
341.432818	2422.274423
341.824694	2477.727115
342.216506	2482.768269
342.608253	2480.247692
342.999937	2487.809423
343.391557	2480.247692
343.783113	2558.385577
344.174605	2414.712692
344.566033	2434.877308
344.957397	2502.932885
345.348697	2500.412308
345.739934	2477.727115
346.131106	2457.562500
346.522215	2467.644808
346.913260	2439.918462
347.304241	2475.206538
347.695159	2477.727115
348.086012	2417.233269
348.476802	2392.027500
348.867528	2399.589231
349.258191	2381.945192
349.648789	2467.644808
350.039324	2452.521346
350.429796	2439.918462
350.820203	2399.589231
351.210548	2455.041923
351.600828	2437.397885
351.991045	2414.712692
352.381198	2510.494615
352.771288	2374.383462
353.161314	2452.521346
353.551276	2452.521346
353.941175	2402.109808
354.331010	2444.959615
354.720782	2482.768269
355.110490	2460.083077
355.500135	2490.330000
355.889717	2515.535769
356.279235	2457.562500
356.668689	2490.330000
357.058080	2389.506923
357.447408	2480.247692
357.836672	2381.945192
358.225873	2392.027500
358.615010	2465.124231
359.004084	2424.795000
359.393095	2510.494615
359.782043	2470.165385
360.170927	2470.165385
360.559748	2432.356731
360.948505	2472.685962
361.337199	2394.548077
361.725830	2369.342308
362.114398	2384.465769
362.502903	2480.247692
362.891344	2500.412308
363.279722	2598.714808
363.668037	2505.453462
364.056289	2482.768269
364.444478	2429.836154
364.832603	2450.000769
365.220665	2487.809423
365.608665	2452.521346
365.996601	2460.083077
366.384474	2465.124231
366.772284	2444.959615
367.160031	2412.192115
367.547715	2439.918462
367.935336	2515.535769
368.322893	2462.603654
368.710388	2462.603654
369.097820	2535.700385
369.485189	2455.041923
369.872495	2422.274423
370.259738	2465.124231
370.646918	2500.412308
371.034035	2361.780577
371.421090	2457.562500
371.808081	2525.618077
372.195010	2381.945192
372.581875	2444.959615
372.968678	2439.918462
373.355418	2402.109808
373.742096	2593.673654
374.128710	2485.288846
374.515262	2407.150962
374.901751	2535.700385
375.288177	2500.412308
375.674540	2444.959615
376.060841	2462.603654
376.447079	2397.068654
376.833254	2447.480192
377.219367	2505.453462
377.605417	2407.150962
377.991404	2470.165385
378.377329	2538.220962
378.763191	2497.891731
379.148991	2482.768269
379.534727	2487.809423
379.920402	2394.548077
380.306013	2412.192115
380.691563	2598.714808
381.077049	2444.959615
381.462474	2452.521346
381.847835	2366.821731
382.233134	2500.412308
382.618371	2422.274423
383.003545	2573.509038
383.388657	2500.412308
383.773706	2432.356731
384.158693	2354.218846
384.543618	2470.165385
384.928480	2490.330000
385.313280	2475.206538
385.698017	2339.095385
386.082692	2467.644808
386.467305	2480.247692
386.851856	2495.371154
387.236344	2457.562500
387.620770	2465.124231
388.005133	2376.904038
388.389435	2414.712692
388.773674	2457.562500
389.157851	2528.138654
389.541965	2477.727115
389.926018	2487.809423
390.310008	2497.891731
390.693936	2502.932885
391.077802	2507.974038
391.461606	2452.521346
391.845348	2467.644808
392.229027	2447.480192
392.612645	2460.083077
392.996200	2457.562500
393.379694	2465.124231
393.763125	2447.480192
394.146494	2457.562500
394.529801	2460.083077
394.913047	2543.262115
395.296230	2452.521346
395.679351	2507.974038
396.062410	2452.521346
396.445408	2455.041923
396.828343	2394.548077
397.211217	2485.288846
397.594028	2518.056346
397.976778	2374.383462
398.359466	2417.233269
398.742092	2518.056346
399.124656	2452.521346
399.507158	2477.727115
399.889598	2482.768269
400.271977	2502.932885
400.654294	2457.562500
401.036549	2495.371154
401.418742	2437.397885
401.800874	2525.618077
402.182944	2520.576923
402.564952	2427.315577
402.946898	2482.768269
403.328783	2492.850577
403.710606	2533.179808
404.092367	2439.918462
404.474067	2538.220962
404.855705	2399.589231
405.237282	2434.877308
405.618797	2480.247692
406.000250	2475.206538
406.381642	2467.644808
406.762972	2424.795000
407.144240	2477.727115
407.525447	2510.494615
407.906593	2447.480192
408.287677	2492.850577
408.668700	2467.644808
409.049661	2477.727115
409.430560	2520.576923
409.811399	2422.274423
410.192176	2434.877308
410.572891	2513.015192
410.953545	2467.644808
411.334138	2550.823846
411.714669	2434.877308
412.095139	2492.850577
412.475547	2525.618077
412.855894	2482.768269
413.236180	2515.535769
413.616405	2492.850577
413.996568	2520.576923
414.376670	2452.521346
414.756711	2485.288846
415.136691	2593.673654
415.516609	2475.206538
415.896466	2460.083077
416.276262	2414.712692
416.655997	2523.097500
417.035670	2510.494615
417.415283	2497.891731
417.794834	2485.288846
418.174324	2472.685962
418.553753	2485.288846
418.933121	2485.288846
419.312428	2482.768269
419.691674	2492.850577
420.070859	2429.836154
420.449983	2533.179808
420.829045	2523.097500
421.208047	2399.589231
421.586988	2470.165385
421.965867	2611.317692
422.344686	2444.959615
422.723444	2490.330000
423.102141	2570.988462
423.480777	2414.712692
423.859352	2369.342308
424.237866	2553.344423
424.616319	2540.741538
424.994712	2460.083077
425.373044	2427.315577
425.751314	2475.206538
426.129524	2520.576923
426.507673	2424.795000
426.885762	2455.041923
427.263789	2386.986346
427.641756	2417.233269
428.019662	2510.494615
428.397508	2462.603654
428.775292	2548.303269
429.153016	2467.644808
429.530679	2497.891731
429.908282	2414.712692
430.285824	2495.371154
430.663305	2482.768269
431.040726	2507.974038
431.418086	2487.809423
431.795385	2507.974038
432.172624	2507.974038
432.549802	2455.041923
432.926920	2482.768269
433.303977	2548.303269
433.680974	2492.850577
434.057910	2492.850577
434.434786	2518.056346
434.811601	2434.877308
435.188355	2447.480192
435.565050	2480.247692
435.941683	2505.453462
436.318257	2553.344423
436.694770	2442.439038
437.071222	2437.397885
437.447614	2480.247692
437.823946	2502.932885
438.200218	2485.288846
438.576429	2465.124231
438.952580	2462.603654
439.328670	2475.206538
439.704700	2495.371154
440.080670	2553.344423
440.456580	2447.480192
440.832429	2495.371154
441.208218	2472.685962
441.583947	2507.974038
441.959616	2500.412308
442.335224	2487.809423
442.710773	2487.809423
443.086261	2540.741538
443.461689	2442.439038
443.837057	2439.918462
444.212365	2437.397885
444.587612	2553.344423
444.962800	2444.959615
445.337927	2414.712692
445.712995	2525.618077
446.088002	2507.974038
446.462949	2586.111923
446.837837	2402.109808
447.212664	2538.220962
447.587431	2427.315577
447.962139	2467.644808
448.336786	2518.056346
448.711374	2475.206538
449.085901	2477.727115
449.460369	2497.891731
449.834776	2487.809423
450.209124	2472.685962
450.583412	2432.356731
450.957640	2558.385577
451.331808	2538.220962
451.705917	2523.097500
452.079965	2359.260000
452.453954	2490.330000
452.827883	2497.891731
453.201752	2563.426731
453.575562	2525.618077
453.949311	2510.494615
454.323001	2505.453462
454.696632	2528.138654
455.070202	2500.412308
455.443713	2457.562500
455.817164	2475.206538
456.190556	2492.850577
456.563888	2497.891731
456.937160	2495.371154
457.310373	2437.397885
457.683526	2487.809423
458.056619	2455.041923
458.429653	2432.356731
458.802628	2513.015192
459.175542	2477.727115
459.548398	2452.521346
459.921194	2487.809423
460.293930	2429.836154
460.666607	2530.659231
461.039224	2472.685962
461.411782	2505.453462
461.784280	2462.603654
462.156719	2470.165385
462.529099	2470.165385
462.901419	2555.865000
463.273680	2477.727115
463.645882	2485.288846
464.018024	2505.453462
464.390106	2455.041923
464.762130	2528.138654
465.134094	2518.056346
465.505999	2563.426731
465.877845	2548.303269
466.249631	2518.056346
466.621358	2482.768269
466.993026	2492.850577
467.364634	2555.865000
467.736184	2487.809423
468.107674	2492.850577
468.479105	2520.576923
468.850477	2505.453462
469.221790	2402.109808
469.593043	2513.015192
469.964238	2465.124231
470.335373	2525.618077
470.706449	2583.591346
471.077467	2540.741538
471.448425	2389.506923
471.819324	2563.426731
472.190164	2437.397885
472.560945	2505.453462
472.931667	2505.453462
473.302330	2444.959615
473.672934	2530.659231
474.043479	2477.727115
474.413965	2427.315577
474.784393	2407.150962
475.154761	2412.192115
475.525070	2525.618077
475.895321	2553.344423
476.265513	2467.644808
476.635645	2472.685962
477.005719	2525.618077
477.375734	2487.809423
477.745691	2495.371154
478.115588	2417.233269
478.485427	2570.988462
478.855207	2457.562500
479.224928	2603.755962
479.594591	2492.850577
479.964194	2518.056346
480.333739	2470.165385
480.703226	2513.015192
481.072653	2460.083077
481.442022	2475.206538
481.811333	2533.179808
482.180584	2545.782692
482.549777	2424.795000
482.918912	2510.494615
483.287988	2492.850577
483.657005	2465.124231
484.025964	2583.591346
484.394864	2523.097500
484.763706	2510.494615
485.132489	2480.247692
485.501213	2467.644808
485.869879	2510.494615
486.238487	2525.618077
486.607036	2439.918462
486.975527	2565.947308
487.343959	2432.356731
487.712333	2485.288846
488.080648	2427.315577
488.448905	2525.618077
488.817104	2467.644808
489.185244	2540.741538
489.553326	2432.356731
489.921350	2487.809423
490.289315	2543.262115
490.657222	2507.974038
491.025070	2515.535769
491.392861	2601.235385
491.760593	2477.727115
492.128267	2555.865000
492.495883	2467.644808
492.863440	2462.603654
493.230939	2455.041923
493.598380	2432.356731
493.965763	2487.809423
494.333088	2482.768269
494.700354	2460.083077
495.067563	2573.509038
495.434713	2480.247692
495.801805	2402.109808
496.168839	2515.535769
496.535815	2490.330000
496.902733	2586.111923
497.269593	2439.918462
497.636395	2550.823846
498.003139	2518.056346
498.369825	2444.959615
498.736453	2553.344423
499.103023	2475.206538
499.469535	2424.795000
499.835989	2497.891731
500.202385	2467.644808
500.568723	2470.165385
500.935003	2482.768269
501.301226	2558.385577
501.667390	2452.521346
502.033497	2553.344423
502.399546	2480.247692
502.765537	2535.700385
503.131470	2442.439038
503.497345	2535.700385
503.863163	2505.453462
504.228923	2530.659231
504.594625	2477.727115
504.960269	2560.906154
505.325856	2502.932885
505.691385	2477.727115
506.056856	2414.712692
506.422270	2482.768269
506.787625	2424.795000
507.152924	2475.206538
507.518164	2507.974038
507.883347	2543.262115
508.248472	2525.618077
508.613540	2492.850577
508.978550	2502.932885
509.343503	2497.891731
509.708398	2545.782692
510.073236	2538.220962
510.438016	2490.330000
510.802738	2490.330000
511.167403	2437.397885
511.532010	2472.685962
511.896561	2528.138654
512.261053	2515.535769
512.625488	2465.124231
512.989866	2523.097500
513.354186	2444.959615
513.718449	2487.809423
514.082655	2482.768269
514.446803	2447.480192
514.810894	2505.453462
515.174927	2457.562500
515.538904	2513.015192
515.902822	2490.330000
516.266684	2507.974038
516.630488	2462.603654
516.994235	2548.303269
517.357925	2455.041923
517.721558	2530.659231
518.085133	2573.509038
518.448651	2460.083077
518.812112	2513.015192
519.175516	2467.644808
519.538863	2495.371154
519.902152	2530.659231
520.265385	2495.371154
520.628560	2550.823846
520.991678	2533.179808
521.354739	2427.315577
521.717743	2384.465769
522.080690	2528.138654
522.443580	2505.453462
522.806413	2565.947308
523.169189	2573.509038
523.531908	2482.768269
523.894569	2523.097500
524.257174	2518.056346
524.619722	2528.138654
524.982213	2429.836154
525.344647	2525.618077
525.707025	2505.453462
526.069345	2513.015192
526.431608	2422.274423
526.793815	2465.124231
527.155964	2553.344423
527.518057	2513.015192
527.880093	2455.041923
528.242072	2434.877308
528.603995	2402.109808
528.965860	2475.206538
529.327669	2434.877308
529.689421	2482.768269
530.051117	2593.673654
530.412755	2434.877308
530.774337	2548.303269
531.135862	2502.932885
531.497331	2480.247692
531.858743	2601.235385
532.220098	2462.603654
532.581396	2513.015192
532.942638	2485.288846
533.303824	2465.124231
533.664953	2545.782692
534.026025	2475.206538
534.387040	2510.494615
534.747999	2507.974038
535.108902	2518.056346
535.469748	2548.303269
535.830537	2487.809423
536.191270	2490.330000
536.551947	2518.056346
536.912567	2548.303269
537.273131	2467.644808
537.633638	2538.220962
537.994089	2460.083077
538.354483	2487.809423
538.714821	2513.015192
539.075103	2437.397885
539.435328	2472.685962
539.795497	2480.247692
540.155609	2477.727115
540.515665	2444.959615
540.875665	2583.591346
541.235609	2500.412308
541.595496	2439.918462
541.955328	2568.467885
542.315102	2482.768269
542.674821	2535.700385
543.034483	2475.206538
543.394090	2439.918462
543.753640	2477.727115
544.113134	2480.247692
544.472571	2528.138654
544.831953	2447.480192
545.191278	2419.753846
545.550548	2507.974038
545.909761	2530.659231
546.268918	2467.644808
546.628019	2533.179808
546.987064	2570.988462
547.346053	2543.262115
547.704986	2515.535769
548.063863	2497.891731
548.422684	2570.988462
548.781449	2475.206538
549.140158	2490.330000
549.498811	2523.097500
549.857408	2523.097500
550.215949	2485.288846
550.574434	2422.274423
550.932864	2505.453462
551.291237	2485.288846
551.649555	2455.041923
552.007817	2523.097500
552.366022	2389.506923
552.724173	2507.974038
553.082267	2568.467885
553.440305	2447.480192
553.798288	2480.247692
554.156215	2530.659231
554.514086	2513.015192
554.871902	2528.138654
555.229661	2412.192115
555.587365	2480.247692
555.945014	2540.741538
556.302606	2535.700385
556.660143	2497.891731
557.017625	2450.000769
557.375050	2485.288846
557.732421	2490.330000
558.089735	2492.850577
558.446994	2467.644808
558.804197	2450.000769
559.161345	2558.385577
559.518437	2560.906154
559.875474	2480.247692
560.232455	2472.685962
560.589381	2545.782692
560.946251	2553.344423
561.303065	2450.000769
561.659825	2480.247692
562.016528	2439.918462
562.373177	2533.179808
562.729770	2530.659231
563.086307	2434.877308
563.442789	2586.111923
563.799216	2460.083077
564.155587	2490.330000
564.511904	2500.412308
564.868164	2447.480192
565.224370	2487.809423
565.580520	2460.083077
565.936615	2555.865000
566.292654	2495.371154
566.648638	2447.480192
567.004567	2502.932885
567.360441	2480.247692
567.716260	2447.480192
568.072023	2432.356731
568.427732	2573.509038
568.783385	2576.029615
569.138982	2555.865000
569.494525	2502.932885
569.850013	2535.700385
570.205445	2475.206538
570.560823	2518.056346
570.916145	2553.344423
571.271412	2510.494615
571.626625	2467.644808
571.981782	2543.262115
572.336884	2523.097500
572.691931	2450.000769
573.046923	2450.000769
573.401860	2538.220962
573.756743	2485.288846
574.111570	2475.206538
574.466342	2550.823846
574.821059	2550.823846
575.175722	2553.344423
575.530330	2538.220962
575.884882	2487.809423
576.239380	2565.947308
576.593823	2434.877308
576.948211	2510.494615
577.302544	2548.303269
577.656823	2528.138654
578.011047	2528.138654
578.365216	2422.274423
578.719330	2560.906154
579.073389	2402.109808
579.427394	2518.056346
579.781344	2427.315577
580.135239	2475.206538
580.489080	2480.247692
580.842866	2455.041923
581.196597	2533.179808
581.550273	2472.685962
581.903895	2543.262115
582.257463	2470.165385
582.610975	2573.509038
582.964434	2520.576923
583.317837	2460.083077
583.671186	2611.317692
584.024481	2470.165385
584.377721	2576.029615
584.730906	2510.494615
585.084037	2475.206538
585.437113	2424.795000
585.790135	2560.906154
586.143103	2412.192115
586.496016	2460.083077
586.848874	2392.027500
587.201679	2523.097500
587.554428	2419.753846
587.907124	2550.823846
588.259765	2520.576923
588.612352	2444.959615
588.964884	2500.412308
589.317362	2455.041923
589.669786	2530.659231
590.022155	2576.029615
590.374470	2548.303269
590.726731	2535.700385
591.078937	2518.056346
591.431090	2535.700385
591.783188	2487.809423
592.135232	2452.521346
592.487222	2467.644808
592.839157	2472.685962
593.191038	2548.303269
593.542866	2528.138654
593.894639	2570.988462
594.246358	2513.015192
594.598022	2515.535769
594.949633	2548.303269
595.301190	2528.138654
595.652692	2565.947308
596.004141	2465.124231
596.355535	2513.015192
596.706876	2518.056346
597.058162	2432.356731
597.409395	2502.932885
597.760573	2502.932885
598.111698	2555.865000
598.462768	2513.015192
598.813785	2505.453462
599.164748	2555.865000
599.515657	2525.618077
599.866511	2402.109808
600.217312	2505.453462
600.568060	2462.603654
600.918753	2452.521346
601.269392	2528.138654
601.619978	2505.453462
601.970510	2452.521346
602.320988	2444.959615
602.671412	2530.659231
603.021783	2472.685962
603.372100	2518.056346
603.722363	2455.041923
604.072572	2502.932885
604.422728	2545.782692
604.772830	2520.576923
605.122878	2407.150962
605.472872	2482.768269
605.822813	2480.247692
606.172701	2497.891731
606.522534	2500.412308
606.872314	2437.397885
607.222041	2560.906154
607.571714	2480.247692
607.921333	2497.891731
608.270899	2500.412308
608.620411	2558.385577
608.969870	2515.535769
609.319276	2560.906154
609.668627	2447.480192
610.017926	2525.618077
610.367171	2513.015192
610.716362	2407.150962
611.065500	2555.865000
611.414585	2462.603654
611.763616	2507.974038
612.112594	2525.618077
612.461518	2452.521346
612.810389	2553.344423
613.159207	2470.165385
613.507971	2518.056346
613.856682	2427.315577
614.205340	2465.124231
614.553945	2450.000769
614.902496	2570.988462
615.250994	2507.974038
615.599439	2497.891731
615.947830	2477.727115
616.296169	2490.330000
616.644454	2475.206538
616.992686	2507.974038
617.340864	2507.974038
617.688990	2417.233269
618.037063	2485.288846
618.385082	2477.727115
618.733048	2518.056346
619.080961	2477.727115
619.428821	2538.220962
619.776628	2477.727115
620.124382	2528.138654
620.472083	2482.768269
620.819731	2482.768269
621.167326	2513.015192
621.514868	2392.027500
621.862357	2502.932885
622.209793	2550.823846
622.557176	2480.247692
622.904506	2485.288846
623.251783	2470.165385
623.599007	2540.741538
623.946179	2460.083077
624.293297	2525.618077
624.640363	2568.467885
624.987376	2450.000769
625.334336	2475.206538
625.681243	2555.865000
626.028097	2457.562500
626.374899	2487.809423
626.721647	2424.795000
627.068343	2528.138654
627.414987	2447.480192
627.761577	2497.891731
628.108115	2533.179808
628.454600	2422.274423
628.801032	2472.685962
629.147412	2497.891731
629.493739	2518.056346
629.840014	2505.453462
630.186236	2545.782692
630.532405	2510.494615
630.878521	2528.138654
631.224585	2538.220962
631.570597	2603.755962
631.916556	2472.685962
632.262462	2540.741538
632.608316	2457.562500
632.954117	2507.974038
633.299866	2455.041923
633.645562	2429.836154
633.991206	2565.947308
634.336797	2457.562500
634.682336	2497.891731
635.027823	2427.315577
635.373257	2626.441154
635.718639	2533.179808
636.063968	2573.509038
636.409245	2462.603654
636.754470	2513.015192
637.099642	2502.932885
637.444762	2439.918462
637.789829	2434.877308
638.134845	2550.823846
638.479808	2525.618077
638.824719	2485.288846
639.169577	2455.041923
639.514383	2402.109808
639.859137	2510.494615
640.203839	2452.521346
640.548489	2523.097500
640.893086	2492.850577
641.237632	2520.576923
641.582125	2424.795000
641.926566	2666.770385
642.270955	2601.235385
642.615292	2576.029615
642.959576	2555.865000
643.303809	2492.850577
643.647990	2513.015192
643.992118	2480.247692
644.336195	2507.974038
644.680219	2518.056346
645.024192	2455.041923
645.368112	2399.589231
645.711981	2394.548077
646.055797	2482.768269
646.399562	2487.809423
646.743274	2553.344423
647.086935	2500.412308
647.430544	2513.015192
647.774101	2450.000769
648.117606	2518.056346
648.461059	2475.206538
648.804460	2515.535769
649.147810	2490.330000
649.491108	2540.741538
649.834354	2407.150962
650.177548	2477.727115
650.520690	2487.809423
650.863781	2485.288846
651.206820	2500.412308
651.549807	2553.344423
651.892742	2533.179808
652.235626	2492.850577
652.578458	2482.768269
652.921238	2480.247692
653.263967	2535.700385
653.606644	2460.083077
653.949269	2510.494615
654.291843	2470.165385
654.634365	2505.453462
654.976836	2472.685962
655.319255	2525.618077
655.661622	2601.235385
656.003938	2530.659231
656.346203	2543.262115
656.688416	2490.330000
657.030577	2502.932885
657.372687	2525.618077
657.714746	2419.753846
658.056753	2470.165385
658.398708	2444.959615
658.740612	2500.412308
659.082465	2492.850577
659.424266	2490.330000
659.766016	2485.288846
660.107715	2558.385577
660.449362	2505.453462
660.790958	2520.576923
661.132503	2535.700385
661.473996	2487.809423
661.815438	2462.603654
662.156829	2492.850577
662.498168	2455.041923
662.839456	2573.509038
663.180693	2472.685962
663.521879	2404.630385
663.863013	2500.412308
664.204097	2518.056346
664.545129	2545.782692
664.886110	2570.988462
665.227040	2477.727115
665.567918	2535.700385
665.908746	2477.727115
666.249522	2528.138654
666.590248	2444.959615
666.930922	2432.356731
667.271545	2502.932885
667.612118	2583.591346
667.952639	2513.015192
668.293109	2482.768269
668.633528	2475.206538
668.973896	2525.618077
669.314213	2525.618077
669.654480	2460.083077
669.994695	2545.782692
670.334859	2528.138654
670.674973	2447.480192
671.015035	2518.056346
671.355047	2485.288846
671.695008	2513.015192
672.034918	2578.550192
672.374777	2548.303269
672.714585	2457.562500
673.054342	2487.809423
673.394049	2500.412308
673.733705	2477.727115
674.073310	2487.809423
674.412864	2412.192115
674.752368	2502.932885
675.091820	2480.247692
675.431223	2558.385577
675.770574	2457.562500
676.109875	2450.000769
676.449125	2520.576923
676.788324	2621.400000
677.127473	2472.685962
677.466571	2588.632500
677.805619	2505.453462
678.144616	2500.412308
678.483562	2535.700385
678.822458	2505.453462
679.161303	2502.932885
679.500098	2497.891731
679.838842	2394.548077
680.177535	2472.685962
680.516179	2528.138654
680.854771	2429.836154
681.193314	2558.385577
681.531805	2558.385577
681.870247	2515.535769
682.208638	2482.768269
682.546978	2460.083077
682.885268	2533.179808
683.223508	2472.685962
683.561697	2477.727115
683.899836	2419.753846
684.237925	2470.165385
684.575963	2455.041923
684.913951	2540.741538
685.251889	2513.015192
685.589776	2495.371154
685.927614	2495.371154
686.265401	2487.809423
686.603137	2414.712692
686.940824	2525.618077
687.278460	2407.150962
687.616046	2507.974038
687.953582	2558.385577
688.291068	2563.426731
688.628504	2422.274423
688.965889	2457.562500
689.303224	2462.603654
689.640510	2442.439038
689.977745	2500.412308
690.314930	2450.000769
690.652065	2467.644808
690.989150	2520.576923
691.326185	2515.535769
691.663170	2525.618077
692.000105	2475.206538
692.336990	2447.480192
692.673825	2485.288846
693.010610	2497.891731
693.347345	2422.274423
693.684030	2563.426731
694.020665	2487.809423
694.357251	2518.056346
694.693786	2417.233269
695.030272	2596.194231
695.366707	2434.877308
695.703093	2533.179808
696.039429	2412.192115
696.375716	2487.809423
696.711952	2497.891731
697.048139	2548.303269
697.384276	2450.000769
697.720363	2455.041923
698.056400	2462.603654
698.392388	2518.056346
698.728326	2623.920577
699.064214	2444.959615
699.400053	2513.015192
699.735842	2525.618077
700.071581	2507.974038
700.407270	2505.453462
700.742910	2502.932885
701.078501	2520.576923
701.414042	2487.809423
701.749533	2392.027500
702.084974	2462.603654
702.420366	2465.124231
702.755709	2515.535769
703.091002	2502.932885
703.426246	2510.494615
703.761440	2485.288846
704.096584	2472.685962
704.431679	2462.603654
704.766725	2540.741538
705.101721	2545.782692
705.436668	2553.344423
705.771565	2470.165385
706.106413	2460.083077
706.441212	2460.083077
706.775961	2502.932885
707.110661	2450.000769
707.445311	2434.877308
707.779913	2470.165385
708.114465	2389.506923
708.448967	2450.000769
708.783421	2424.795000
709.117825	2487.809423
709.452180	2455.041923
709.786485	2586.111923
710.120742	2429.836154
710.454949	2578.550192
710.789107	2543.262115
711.123216	2437.397885
711.457275	2427.315577
711.791286	2455.041923
712.125247	2452.521346
712.459159	2540.741538
712.793023	2477.727115
713.126837	2507.974038
713.460602	2482.768269
713.794318	2525.618077
714.127985	2545.782692
714.461602	2477.727115
714.795171	2472.685962
715.128691	2535.700385
715.462162	2397.068654
715.795584	2492.850577
716.128957	2603.755962
716.462281	2490.330000
716.795556	2513.015192
717.128782	2538.220962
717.461960	2550.823846
717.795088	2455.041923
718.128167	2480.247692
718.461198	2470.165385
718.794180	2578.550192
719.127113	2500.412308
719.459997	2432.356731
719.792833	2399.589231
720.125619	2535.700385
720.458357	2492.850577
720.791046	2535.700385
721.123686	2455.041923
721.456278	2555.865000
721.788821	2452.521346
722.121315	2480.247692
722.453761	2497.891731
722.786158	2477.727115
723.118506	2538.220962
723.450805	2530.659231
723.783056	2500.412308
724.115259	2518.056346
724.447412	2462.603654
724.779518	2548.303269
725.111574	2480.247692
725.443582	2560.906154
725.775542	2447.480192
726.107453	2485.288846
726.439315	2467.644808
726.771129	2465.124231
727.102895	2490.330000
727.434612	2472.685962
727.766281	2497.891731
728.097901	2513.015192
728.429473	2507.974038
728.760996	2490.330000
729.092471	2520.576923
729.423897	2543.262115
729.755276	2555.865000
730.086606	2462.603654
730.417887	2540.741538
730.749120	2409.671538
731.080305	2480.247692
731.411442	2507.974038
731.742530	2525.618077
732.073570	2490.330000
732.404562	2621.400000
732.735506	2465.124231
733.066401	2457.562500
733.397249	2432.356731
733.728048	2520.576923
734.058798	2485.288846
734.389501	2462.603654
734.720156	2533.179808
735.050762	2424.795000
735.381320	2555.865000
735.711831	2482.768269
736.042293	2439.918462
736.372707	2434.877308
736.703073	2563.426731
737.033391	2462.603654
737.363661	2465.124231
737.693883	2555.865000
738.024056	2442.439038
738.354182	2414.712692
738.684260	2480.247692
739.014290	2472.685962
739.344272	2477.727115
739.674207	2470.165385
740.004093	2497.891731
740.333931	2429.836154
740.663722	2444.959615
740.993464	2502.932885
741.323159	2455.041923
741.652806	2467.644808
741.982405	2505.453462
742.311956	2407.150962
742.641460	2550.823846
742.970915	2518.056346
743.300323	2573.509038
743.629683	2497.891731
743.958996	2528.138654
744.288260	2465.124231
744.617477	2538.220962
744.946647	2490.330000
745.275768	2548.303269
745.604842	2467.644808
745.933869	2502.932885
746.262847	2518.056346
746.591778	2545.782692
746.920662	2427.315577
747.249498	2513.015192
747.578286	2409.671538
747.907027	2533.179808
748.235720	2553.344423
748.564365	2472.685962
748.892963	2485.288846
749.221514	2520.576923
749.550017	2515.535769
749.878473	2500.412308
750.206881	2434.877308
750.535242	2482.768269
750.863555	2530.659231
751.191821	2497.891731
751.520039	2550.823846
751.848210	2608.797115
752.176334	2510.494615
752.504411	2515.535769
752.832440	2487.809423
753.160421	2495.371154
753.488356	2578.550192
753.816243	2515.535769
754.144082	2513.015192
754.471875	2513.015192
754.799620	2513.015192
755.127318	2452.521346
755.454969	2528.138654
755.782572	2475.206538
756.110129	2530.659231
756.437638	2455.041923
756.765100	2570.988462
757.092515	2482.768269
757.419882	2523.097500
757.747203	2570.988462
758.074477	2518.056346
758.401703	2515.535769
758.728882	2424.795000
759.056014	2510.494615
759.383099	2490.330000
759.710138	2472.685962
760.037129	2487.809423
760.364073	2533.179808
760.690970	2565.947308
761.017820	2444.959615
761.344623	2540.741538
761.671379	2452.521346
761.998088	2500.412308
762.324751	2507.974038
762.651366	2462.603654
762.977935	2510.494615
763.304456	2495.371154
763.630931	2465.124231
763.957359	2543.262115
764.283740	2434.877308
764.610074	2550.823846
764.936362	2427.315577
765.262602	2563.426731
765.588796	2450.000769
765.914943	2472.685962
766.241044	2470.165385
766.567097	2563.426731
766.893104	2460.083077
767.219064	2500.412308
767.544978	2505.453462
767.870845	2490.330000
768.196665	2485.288846
768.522438	2495.371154
768.848165	2520.576923
769.173846	2492.850577
769.499479	2500.412308
769.825066	2538.220962
770.150607	2548.303269
770.476101	2495.371154
770.801548	2490.330000
771.126949	2485.288846
771.452303	2538.220962
771.777611	2432.356731
772.102872	2462.603654
772.428087	2490.330000
772.753256	2518.056346
773.078378	2472.685962
773.403453	2535.700385
773.728482	2444.959615
774.053465	2545.782692
774.378401	2467.644808
774.703291	2429.836154
775.028135	2487.809423
775.352932	2472.685962
775.677683	2507.974038
776.002388	2528.138654
776.327046	2460.083077
776.651658	2432.356731
776.976224	2510.494615
777.300743	2381.945192
777.625216	2492.850577
777.949643	2500.412308
778.274024	2565.947308
778.598359	2485.288846
778.922647	2535.700385
779.246889	2490.330000
779.571086	2500.412308
779.895236	2422.274423
780.219339	2518.056346
780.543397	2513.015192
780.867409	2565.947308
781.191374	2490.330000
781.515294	2505.453462
781.839167	2502.932885
782.162995	2525.618077
782.486776	2472.685962
782.810511	2520.576923
783.134201	2477.727115
783.457844	2485.288846
783.781441	2492.850577
784.104993	2520.576923
784.428498	2515.535769
784.751958	2457.562500
785.075372	2588.632500
785.398739	2470.165385
785.722061	2560.906154
786.045337	2442.439038
786.368568	2432.356731
786.691752	2523.097500
787.014891	2439.918462
787.337983	2500.412308
787.661030	2455.041923
787.984031	2500.412308
788.306987	2591.153077
788.629897	2480.247692
788.952760	2510.494615
789.275579	2482.768269
789.598351	2530.659231
789.921078	2515.535769
790.243759	2495.371154
790.566395	2510.494615
790.888984	2555.865000
791.211529	2450.000769
791.534027	2518.056346
791.856480	2472.685962
792.178888	2419.753846
792.501249	2502.932885
792.823566	2520.576923
793.145836	2402.109808
793.468062	2444.959615
793.790241	2505.453462
794.112375	2545.782692
794.434464	2434.877308
794.756507	2470.165385
795.078505	2417.233269
795.400457	2417.233269
795.722364	2523.097500
796.044226	2528.138654
796.366042	2475.206538
796.687812	2518.056346
797.009538	2472.685962
797.331218	2470.165385
797.652852	2528.138654
797.974442	2507.974038
798.295986	2492.850577
798.617484	2560.906154
798.938938	2540.741538
799.260346	2487.809423
799.581709	2462.603654
799.903026	2555.865000
800.224299	2465.124231
800.545526	2470.165385
800.866708	2492.850577
801.187845	2581.070769
801.508936	2467.644808
801.829983	2603.755962
802.150984	2495.371154
802.471940	2515.535769
802.792851	2505.453462
803.113717	2447.480192
803.434538	2455.041923
803.755314	2452.521346
804.076045	2523.097500
804.396731	2502.932885
804.717372	2538.220962
805.037967	2492.850577
805.358518	2525.618077
805.679024	2439.918462
805.999485	2450.000769
806.319901	2553.344423
806.640272	2505.453462
806.960598	2462.603654
807.280879	2525.618077
807.601115	2465.124231
807.921306	2540.741538
808.241453	2502.932885
808.561554	2540.741538
808.881611	2538.220962
809.201623	2422.274423
809.521590	2505.453462
809.841513	2450.000769
810.161390	2444.959615
810.481223	2558.385577
810.801011	2520.576923
811.120755	2442.439038
811.440453	2540.741538
811.760107	2492.850577
812.079716	2639.044038
812.399281	2540.741538
812.718801	2480.247692
813.038276	2495.371154
813.357707	2560.906154
813.677093	2462.603654
813.996434	2545.782692
814.315731	2439.918462
814.634983	2427.315577
814.954191	2434.877308
815.273354	2470.165385
815.592473	2472.685962
815.911547	2500.412308
816.230577	2477.727115
816.549562	2472.685962
816.868502	2500.412308
817.187399	2490.330000
817.506250	2475.206538
817.825058	2467.644808
818.143821	2520.576923
818.462539	2520.576923
818.781213	2444.959615
819.099843	2412.192115
819.418429	2477.727115
819.736970	2475.206538
820.055466	2475.206538
820.373919	2568.467885
820.692327	2576.029615
821.010691	2548.303269
821.329011	2528.138654
821.647286	2523.097500
821.965517	2507.974038
822.283704	2548.303269
822.601847	2513.015192
822.919945	2573.509038
823.237999	2490.330000
823.556010	2548.303269
823.873976	2528.138654
824.191897	2470.165385
824.509775	2419.753846
824.827609	2470.165385
825.145398	2467.644808
825.463144	2533.179808
825.780845	2515.535769
826.098502	2475.206538
826.416116	2470.165385
826.733685	2477.727115
827.051210	2621.400000
827.368692	2497.891731
827.686129	2487.809423
828.003522	2515.535769
828.320872	2538.220962
828.638177	2490.330000
828.955439	2558.385577
829.272656	2467.644808
829.589830	2518.056346
829.906960	2593.673654
830.224046	2540.741538
830.541088	2442.439038
830.858086	2462.603654
831.175041	2477.727115
831.491952	2480.247692
831.808819	2389.506923
832.125642	2500.412308
832.442421	2465.124231
832.759157	2462.603654
833.075849	2515.535769
833.392497	2455.041923
833.709101	2485.288846
834.025662	2553.344423
834.342179	2510.494615
834.658653	2437.397885
834.975083	2513.015192
835.291469	2417.233269
835.607811	2550.823846
835.924110	2444.959615
836.240366	2507.974038
836.556578	2520.576923
836.872746	2462.603654
837.188871	2540.741538
837.504952	2442.439038
837.820990	2487.809423
838.136984	2450.000769
838.452935	2515.535769
838.768842	2485.288846
839.084706	2540.741538
839.400526	2533.179808
839.716303	2485.288846
840.032037	2593.673654
840.347727	2578.550192
840.663373	2550.823846
840.978977	2490.330000
841.294537	2573.509038
841.610054	2555.865000
841.925527	2528.138654
842.240957	2429.836154
842.556344	2530.659231
842.871687	2510.494615
843.186987	2528.138654
843.502244	2477.727115
843.817458	2520.576923
844.132629	2490.330000
844.447756	2505.453462
844.762840	2462.603654
845.077881	2477.727115
845.392879	2510.494615
845.707833	2515.535769
846.022745	2518.056346
846.337613	2470.165385
846.652438	2518.056346
846.967221	2485.288846
847.281960	2492.850577
847.596656	2502.932885
847.911309	2465.124231
848.225919	2452.521346
848.540485	2462.603654
848.855009	2530.659231
849.169490	2525.618077
849.483928	2502.932885
849.798323	2570.988462
850.112675	2581.070769
850.426984	2490.330000
850.741251	2386.986346
851.055474	2510.494615
851.369654	2535.700385
851.683792	2475.206538
851.997887	2570.988462
852.311938	2402.109808
852.625947	2460.083077
852.939914	2407.150962
853.253837	2477.727115
853.567718	2455.041923
853.881555	2545.782692
854.195350	2505.453462
854.509103	2452.521346
854.822812	2538.220962
855.136479	2427.315577
855.450103	2386.986346
855.763685	2412.192115
856.077224	2480.247692
856.390720	2598.714808
856.704173	2447.480192
857.017584	2492.850577
857.330953	2586.111923
857.644278	2520.576923
857.957561	2467.644808
858.270802	2482.768269
858.584000	2505.453462
858.897155	2417.233269
859.210268	2500.412308
859.523339	2533.179808
859.836367	2550.823846
860.149352	2442.439038
860.462295	2442.439038
860.775195	2495.371154
861.088054	2545.782692
861.400869	2429.836154
861.713642	2565.947308
862.026373	2565.947308
862.339062	2513.015192
862.651708	2432.356731
862.964312	2510.494615
863.276873	2507.974038
863.589392	2533.179808
863.901869	2414.712692
864.214303	2525.618077
864.526696	2520.576923
864.839045	2412.192115
865.151353	2520.576923
865.463619	2402.109808
865.775842	2427.315577
866.088023	2485.288846
866.400162	2470.165385
866.712258	2490.330000
867.024313	2545.782692
867.336325	2568.467885
867.648296	2462.603654
867.960224	2450.000769
868.272110	2485.288846
868.583954	2467.644808
868.895755	2548.303269
869.207515	2495.371154
869.519233	2550.823846
869.830909	2472.685962
870.142542	2513.015192
870.454134	2548.303269
870.765684	2482.768269
871.077191	2525.618077
871.388657	2444.959615
871.700081	2439.918462
872.011463	2462.603654
872.322803	2444.959615
872.634101	2462.603654
872.945357	2543.262115
873.256571	2394.548077
873.567744	2581.070769
873.878874	2447.480192
874.189963	2520.576923
874.501010	2555.865000
874.812015	2553.344423
875.122979	2444.959615
875.433900	2492.850577
875.744780	2520.576923
876.055618	2447.480192
876.366415	2530.659231
876.677169	2523.097500
876.987882	2450.000769
877.298554	2480.247692
877.609183	2497.891731
877.919771	2450.000769
878.230317	2455.041923
878.540822	2555.865000
878.851285	2510.494615
879.161707	2417.233269
879.472087	2485.288846
879.782425	2467.644808
880.092722	2457.562500
880.402977	2495.371154
880.713191	2573.509038
881.023363	2432.356731
881.333494	2502.932885
881.643583	2472.685962
881.953631	2472.685962
882.263637	2450.000769
882.573602	2525.618077
882.883526	2505.453462
883.193408	2515.535769
883.503248	2545.782692
883.813048	2470.165385
884.122806	2528.138654
884.432522	2432.356731
884.742197	2467.644808
885.051831	2502.932885
885.361424	2444.959615
885.670975	2467.644808
885.980485	2455.041923
886.289954	2407.150962
886.599382	2500.412308
886.908768	2518.056346
887.218113	2497.891731
887.527417	2462.603654
887.836680	2553.344423
888.145901	2450.000769
888.455082	2578.550192
888.764221	2497.891731
889.073319	2525.618077
889.382376	2510.494615
889.691392	2480.247692
890.000366	2573.509038
890.309300	2558.385577
890.618193	2502.932885
890.927044	2525.618077
891.235855	2540.741538
891.544625	2520.576923
891.853353	2523.097500
892.162041	2429.836154
892.470687	2528.138654
892.779293	2450.000769
893.087858	2485.288846
893.396381	2419.753846
893.704864	2535.700385
894.013306	2538.220962
894.321707	2434.877308
894.630068	2472.685962
894.938387	2429.836154
895.246665	2482.768269
895.554903	2523.097500
895.863100	2523.097500
896.171256	2439.918462
896.479371	2450.000769
896.787446	2500.412308
897.095480	2500.412308
897.403473	2465.124231
897.711425	2540.741538
898.019336	2611.317692
898.327207	2535.700385
898.635038	2490.330000
898.942827	2497.891731
899.250576	2399.589231
899.558284	2535.700385
899.865952	2472.685962
900.173579	2500.412308
900.481165	2523.097500
900.788711	2465.124231
901.096216	2563.426731
901.403681	2409.671538
901.711105	2460.083077
902.018489	2500.412308
902.325832	2467.644808
902.633135	2495.371154
902.940397	2535.700385
903.247619	2485.288846
903.554800	2424.795000
903.861941	2528.138654
904.169041	2472.685962
904.476101	2518.056346
904.783121	2407.150962
905.090100	2497.891731
905.397039	2447.480192
905.703938	2550.823846
906.010796	2482.768269
906.317614	2543.262115
906.624391	2513.015192
906.931129	2578.550192
907.237826	2480.247692
907.544483	2530.659231
907.851099	2485.288846
908.157675	2465.124231
908.464211	2492.850577
908.770707	2525.618077
909.077163	2460.083077
909.383578	2482.768269
909.689954	2603.755962
909.996289	2576.029615
910.302584	2588.632500
910.608839	2485.288846
910.915054	2510.494615
911.221229	2475.206538
911.527363	2608.797115
911.833458	2472.685962
912.139513	2487.809423
912.445527	2510.494615
912.751502	2482.768269
913.057436	2392.027500
913.363331	2535.700385
913.669186	2563.426731
913.975000	2414.712692
914.280775	2475.206538
914.586510	2485.288846
914.892205	2513.015192
915.197859	2434.877308
915.503475	2427.315577
915.809050	2543.262115
916.114585	2538.220962
916.420081	2409.671538
916.725536	2452.521346
917.030952	2513.015192
917.336328	2540.741538
917.641665	2482.768269
917.946961	2565.947308
918.252218	2495.371154
918.557435	2525.618077
918.862612	2485.288846
919.167750	2450.000769
919.472848	2477.727115
919.777906	2543.262115
920.082925	2573.509038
920.387904	2487.809423
920.692843	2490.330000
920.997743	2467.644808
921.302603	2550.823846
921.607423	2480.247692
921.912204	2427.315577
922.216946	2485.288846
922.521647	2487.809423
922.826310	2465.124231
923.130932	2460.083077
923.435516	2487.809423
923.740059	2563.426731
924.044564	2487.809423
924.349028	2477.727115
924.653454	2480.247692
924.957840	2523.097500
925.262186	2460.083077
925.566493	2437.397885
925.870761	2462.603654
926.174989	2475.206538
926.479178	2470.165385
926.783328	2434.877308
927.087438	2477.727115
927.391509	2444.959615
927.695541	2502.932885
927.999533	2470.165385
928.303486	2437.397885
928.607400	2447.480192
928.911275	2613.838269
929.215110	2450.000769
929.518906	2475.206538
929.822663	2482.768269
930.126381	2467.644808
930.430060	2460.083077
930.733699	2500.412308
931.037299	2447.480192
931.340861	2515.535769
931.644383	2543.262115
931.947866	2530.659231
932.251309	2470.165385
932.554714	2558.385577
932.858080	2422.274423
933.161407	2520.576923
933.464694	2419.753846
933.767943	2505.453462
934.071153	2573.509038
934.374323	2560.906154
934.677455	2550.823846
934.980548	2505.453462
935.283602	2533.179808
935.586617	2505.453462
935.889593	2560.906154
936.192530	2465.124231
936.495428	2568.467885
936.798287	2480.247692
937.101108	2502.932885
937.403890	2495.371154
937.706632	2558.385577
938.009336	2533.179808
938.312002	2535.700385
938.614628	2490.330000
938.917216	2563.426731
939.219765	2452.521346
939.522275	2515.535769
939.824747	2447.480192
940.127179	2510.494615
940.429573	2540.741538
940.731929	2555.865000
941.034246	2437.397885
941.336524	2452.521346
941.638763	2450.000769
941.940964	2535.700385
942.243126	2452.521346
942.545250	2543.262115
942.847335	2429.836154
943.149381	2465.124231
943.451389	2437.397885
943.753359	2510.494615
944.055290	2495.371154
944.357182	2540.741538
944.659036	2497.891731
944.960851	2487.809423
945.262628	2480.247692
945.564367	2497.891731
945.866067	2480.247692
946.167729	2492.850577
946.469352	2422.274423
946.770937	2495.371154
947.072484	2452.521346
947.373992	2455.041923
947.675462	2480.247692
947.976893	2475.206538
948.278286	2452.521346
948.579641	2515.535769
948.880958	2477.727115
949.182236	2515.535769
949.483476	2502.932885
949.784678	2490.330000
950.085841	2432.356731
950.386967	2477.727115
950.688054	2568.467885
950.989103	2429.836154
951.290114	2510.494615
951.591087	2424.795000
951.892021	2497.891731
952.192917	2417.233269
952.493776	2581.070769
952.794596	2444.959615
953.095378	2452.521346
953.396122	2482.768269
953.696828	2427.315577
953.997496	2530.659231
954.298126	2442.439038
954.598718	2439.918462
954.899272	2470.165385
955.199788	2452.521346
955.500266	2515.535769
955.800706	2419.753846
956.101108	2480.247692
956.401472	2450.000769
956.701798	2520.576923
957.002087	2412.192115
957.302337	2540.741538
957.602550	2555.865000
957.902724	2490.330000
958.202861	2404.630385
958.502960	2510.494615
958.803022	2460.083077
959.103045	2472.685962
959.403031	2444.959615
959.702979	2502.932885
960.002889	2565.947308
960.302762	2434.877308
960.602596	2475.206538
960.902393	2467.644808
961.202153	2581.070769
961.501875	2497.891731
961.801559	2548.303269
962.101205	2462.603654
962.400814	2407.150962
962.700385	2475.206538
962.999918	2523.097500
963.299414	2528.138654
963.598873	2444.959615
963.898293	2437.397885
964.197677	2543.262115
964.497022	2515.535769
964.796331	2482.768269
965.095601	2563.426731
965.394835	2497.891731
965.694030	2460.083077
965.993189	2533.179808
966.292309	2475.206538
966.591393	2490.330000
966.890439	2578.550192
967.189447	2520.576923
967.488419	2475.206538
967.787353	2543.262115
968.086249	2505.453462
968.385108	2518.056346
968.683930	2495.371154
968.982714	2507.974038
969.281462	2525.618077
969.580172	2437.397885
969.878844	2548.303269
970.177480	2447.480192
970.476078	2492.850577
970.774639	2553.344423
971.073162	2447.480192
971.371649	2472.685962
971.670098	2507.974038
971.968510	2495.371154
972.266885	2434.877308
972.565223	2487.809423
972.863524	2465.124231
973.161788	2497.891731
973.460014	2533.179808
973.758204	2432.356731
974.056356	2502.932885
974.354471	2462.603654
974.652550	2472.685962
974.950591	2475.206538
975.248595	2510.494615
975.546563	2424.795000
975.844493	2505.453462
976.142386	2495.371154
976.440243	2427.315577
976.738062	2485.288846
977.035845	2442.439038
977.333590	2442.439038
977.631299	2538.220962
977.928971	2507.974038
978.226606	2513.015192
978.524204	2465.124231
978.821765	2540.741538
979.119290	2548.303269
979.416777	2528.138654
979.714228	2424.795000
980.011642	2513.015192
980.309020	2490.330000
980.606360	2402.109808
980.903664	2528.138654
981.200931	2548.303269
981.498162	2581.070769
981.795356	2434.877308
982.092513	2490.330000
982.389633	2487.809423
982.686717	2502.932885
982.983764	2555.865000
983.280775	2538.220962
983.577749	2510.494615
983.874686	2452.521346
984.171587	2455.041923
984.468451	2442.439038
984.765279	2447.480192
985.062070	2515.535769
985.358824	2439.918462
985.655543	2492.850577
985.952224	2465.124231
986.248869	2533.179808
986.545478	2553.344423
986.842050	2510.494615
987.138586	2560.906154
987.435086	2462.603654
987.731549	2450.000769
988.027975	2606.276538
988.324366	2525.618077
988.620719	2490.330000
988.917037	2500.412308
989.213318	2490.330000
989.509563	2513.015192
989.805772	2507.974038
990.101944	2525.618077
990.398080	2419.753846
990.694180	2434.877308
990.990244	2384.465769
991.286271	2472.685962
991.582262	2437.397885
991.878217	2565.947308
992.174136	2492.850577
992.470019	2407.150962
992.765865	2535.700385
993.061676	2538.220962
993.357450	2492.850577
993.653188	2515.535769
993.948890	2548.303269
994.244556	2507.974038
994.540186	2482.768269
994.835780	2460.083077
995.131337	2538.220962
995.426859	2563.426731
995.722345	2502.932885
996.017795	2535.700385
996.313208	2470.165385
996.608586	2452.521346
996.903928	2495.371154
997.199234	2525.618077
997.494504	2487.809423
997.789738	2555.865000
998.084936	2434.877308
998.380099	2507.974038
998.675225	2518.056346
998.970316	2467.644808
999.265371	2578.550192
999.560390	2432.356731
999.855373	2513.015192
1000.150320	2447.480192
1000.445232	2518.056346
1000.740108	2432.356731
1001.034948	2500.412308
1001.329752	2530.659231
1001.624521	2417.233269
1001.919254	2417.233269
1002.213951	2475.206538
1002.508613	2475.206538
1002.803239	2465.124231
1003.097829	2518.056346
1003.392384	2467.644808
1003.686903	2482.768269
1003.981386	2502.932885
1004.275834	2417.233269
1004.570246	2528.138654
1004.864623	2477.727115
1005.158964	2465.124231
1005.453270	2576.029615
1005.747540	2437.397885
1006.041775	2412.192115
1006.335974	2482.768269
1006.630138	2538.220962
1006.924266	2492.850577
1007.218359	2528.138654
1007.512416	2550.823846
1007.806438	2510.494615
1008.100425	2412.192115
1008.394376	2470.165385
1008.688292	2543.262115
1008.982172	2455.041923
1009.276017	2495.371154
1009.569827	2505.453462
1009.863602	2525.618077
1010.157341	2480.247692
1010.451045	2442.439038
1010.744714	2497.891731
1011.038347	2563.426731
1011.331945	2482.768269
1011.625508	2545.782692
1011.919036	2434.877308
1012.212528	2477.727115
1012.505986	2510.494615
1012.799408	2500.412308
1013.092795	2427.315577
1013.386147	2457.562500
1013.679464	2492.850577
1013.972745	2530.659231
1014.265992	2475.206538
1014.559204	2513.015192
1014.852380	2467.644808
1015.145521	2444.959615
1015.438628	2490.330000
1015.731699	2523.097500
1016.024736	2409.671538
1016.317737	2528.138654
1016.610703	2452.521346
1016.903635	2500.412308
1017.196531	2465.124231
1017.489393	2495.371154
1017.782219	2497.891731
1018.075011	2455.041923
1018.367768	2540.741538
1018.660490	2482.768269
1018.953177	2482.768269
1019.245829	2482.768269
