Dividing Wavelength (nm)	Counts (n)	Blue Motor Position (mm): 0.000000	Red Motor Position (mm): 48.800000	
326.493990	2125.317694
326.888308	2125.317694
327.282561	2125.317694
327.676750	2094.027252
328.070874	2093.225709
328.464933	2097.619074
328.858929	2102.503952
329.252859	2111.139449
329.646726	2124.604371
330.040528	2136.110804
330.434265	2153.379277
330.827938	2170.241937
331.221547	2190.149453
331.615091	2211.642413
332.008571	2230.206462
332.401986	2249.761097
332.795338	2264.919847
333.188625	2286.145625
333.581847	2304.387040
333.975006	2324.942345
334.368100	2340.605210
334.761129	2360.800073
335.154095	2374.562422
335.546996	2396.098232
335.939833	2424.200144
336.332606	2440.629264
336.725315	2451.636624
337.117960	2461.028293
337.510540	2466.770168
337.903056	2481.313896
338.295508	2485.853455
338.687896	2494.884683
339.080220	2504.944305
339.472480	2510.671056
339.864676	2515.316479
340.256807	2517.862262
340.648875	2519.845956
341.040879	2523.964578
341.432818	2526.154960
341.824694	2529.487163
342.216506	2527.327028
342.608253	2527.919364
342.999937	2527.614374
343.391557	2525.902902
343.783113	2526.802748
344.174605	2524.660258
344.566033	2525.817203
344.957397	2522.767304
345.348697	2519.533404
345.739934	2518.169772
346.131106	2518.073990
346.522215	2514.739267
346.913260	2514.504853
347.304241	2513.337826
347.695159	2510.653412
348.086012	2508.538648
348.476802	2507.389265
348.867528	2505.904645
349.258191	2504.167967
349.648789	2504.684686
350.039324	2502.252329
350.429796	2501.387771
350.820203	2500.770230
351.210548	2497.377533
351.600828	2498.292503
351.991045	2496.578510
352.381198	2494.995588
352.771288	2495.083808
353.161314	2496.671772
353.551276	2500.061947
353.941175	2496.737307
354.331010	2497.947183
354.720782	2496.928870
355.110490	2496.288644
355.500135	2495.774446
355.889717	2496.553304
356.279235	2498.811741
356.668689	2498.826865
357.058080	2494.720845
357.447408	2495.350989
357.836672	2493.299240
358.225873	2496.649086
358.615010	2493.145484
359.004084	2498.383243
359.393095	2500.883656
359.782043	2500.906341
360.170927	2501.743172
360.559748	2500.722339
360.948505	2503.247957
361.337199	2507.961436
361.725830	2504.891373
362.114398	2507.232989
362.502903	2503.583193
362.891344	2506.174347
363.279722	2504.987155
363.668037	2508.216014
364.056289	2509.390603
364.444478	2510.008144
364.832603	2507.149810
365.220665	2510.361025
365.608665	2510.406395
365.996601	2511.278515
366.384474	2513.854544
366.772284	2516.904443
367.160031	2515.321520
367.547715	2518.079031
367.935336	2517.612725
368.322893	2522.101872
368.710388	2525.015659
369.097820	2534.056968
369.485189	2535.294572
369.872495	2541.485109
370.259738	2550.788558
370.646918	2556.689229
371.034035	2565.062585
371.421090	2571.651373
371.808081	2584.773497
372.195010	2589.232397
372.581875	2606.775613
372.968678	2619.312962
373.355418	2630.335445
373.742096	2647.581233
374.128710	2661.149498
374.515262	2675.980573
374.901751	2692.409693
375.288177	2705.360417
375.674540	2727.188613
376.060841	2744.701582
376.447079	2766.144130
376.833254	2786.633900
377.219367	2799.927422
377.605417	2832.952021
377.991404	2844.229082
378.377329	2867.630118
378.763191	2883.842469
379.148991	2919.251534
379.534727	2948.676749
379.920402	2974.757158
380.306013	2988.849704
380.691563	3037.942981
381.077049	3059.171279
381.462474	3077.440421
381.847835	3114.709671
382.233134	3135.786736
382.618371	3134.110552
383.003545	3204.931202
383.388657	3213.864126
383.773706	3245.635998
384.158693	3258.879110
384.543618	3284.094961
384.928480	3324.038544
385.313280	3369.779453
385.698017	3369.587889
386.082692	3421.927669
386.467305	3426.260541
386.851856	3456.124336
387.236344	3482.086278
387.620770	3511.869415
388.005133	3538.910165
388.389435	3566.835636
388.773674	3577.086823
389.157851	3618.240282
389.541965	3635.886841
389.926018	3599.361161
390.310008	3671.371523
390.693936	3687.296528
391.077802	3728.979309
391.461606	3720.099316
391.845348	3779.221968
392.229027	3781.011578
392.612645	3793.243938
392.996200	3872.107749
393.379694	3909.109818
393.763125	3978.100529
394.146494	3942.575518
394.529801	4004.874097
394.913047	4055.094072
395.296230	4019.528731
395.679351	4074.510076
396.062410	4096.602932
396.445408	4079.866302
396.828343	4114.738483
397.211217	4133.393273
397.594028	4056.976942
397.976778	4123.676449
398.359466	4148.907424
398.742092	4180.555788
399.124656	4095.095627
399.507158	4180.255839
399.889598	4205.627967
400.271977	4269.156587
400.654294	4240.273296
401.036549	4246.816714
401.418742	4218.324113
401.800874	4323.260771
402.182944	4341.076209
402.564952	4404.866969
402.946898	4390.756780
403.328783	4386.509608
403.710606	4303.118841
404.092367	4492.467100
404.474067	4461.214467
404.855705	4465.317966
405.237282	4397.826998
405.618797	4505.314480
406.000250	4537.943349
406.381642	4619.466368
406.762972	4582.285338
407.144240	4591.840845
407.525447	4592.569292
407.906593	4648.445441
408.287677	4693.730126
408.668700	4622.213797
409.049661	4674.054502
409.430560	4712.105132
409.811399	4639.678874
410.192176	4805.147188
410.572891	4742.026900
410.953545	4846.812324
411.334138	4723.873705
411.714669	4792.929951
412.095139	4690.644940
412.475547	4829.818595
412.855894	4812.527437
413.236180	4820.416843
413.616405	4771.076549
413.996568	4857.620558
414.376670	4799.680056
414.756711	4756.086678
415.136691	4789.864930
415.516609	4867.700345
415.896466	4905.922374
416.276262	4936.212147
416.655997	4917.582562
417.035670	5100.883958
417.415283	5187.337225
417.794834	5131.945027
418.174324	5088.074386
418.553753	5000.111292
418.933121	5184.269683
419.312428	5247.894086
419.691674	5187.836300
420.070859	5312.012522
420.449983	5225.390375
420.829045	5344.863201
421.208047	5248.685547
421.586988	5321.842772
421.965867	5329.419626
422.344686	5465.094720
422.723444	5318.243388
423.102141	5134.982322
423.480777	5432.601963
423.859352	5204.250297
424.237866	5460.908042
424.616319	5454.117607
424.994712	5563.543413
425.373044	5441.572696
425.751314	5579.428089
426.129524	5386.319129
426.507673	5578.797945
426.885762	5666.577036
427.263789	5596.167241
427.641756	5476.961596
428.019662	5599.479279
428.397508	5601.825936
428.775292	5552.881373
429.153016	5655.846940
429.530679	5577.986319
429.908282	5664.119474
430.285824	5533.172982
430.663305	5810.607843
431.040726	5539.602974
431.418086	5543.020876
431.795385	5646.679602
432.172624	5660.053783
432.549802	5651.476260
432.926920	5667.088713
433.303977	5678.718655
433.680974	5716.786929
434.057910	5732.444752
434.434786	5737.586729
434.811601	5708.169076
435.188355	5940.533501
435.565050	5813.130940
435.941683	5795.774248
436.318257	6011.979254
436.694770	5994.836810
437.071222	6031.261667
437.447614	5962.165092
437.823946	5869.622110
438.200218	6024.965266
438.576429	5893.121449
438.952580	5985.913968
439.328670	6037.185023
439.704700	5946.396363
440.080670	5927.131593
440.456580	6200.556216
440.832429	6083.235963
441.208218	5927.839876
441.583947	6087.548671
441.959616	6088.098156
442.335224	6015.954204
442.710773	6156.330174
443.086261	6175.743657
443.461689	5977.568338
443.837057	6125.019567
444.212365	6278.868021
444.587612	6170.147976
444.962800	6327.845351
445.337927	6304.572864
445.712995	5914.218678
446.088002	6494.697461
446.462949	6327.187480
446.837837	6251.923053
447.212664	6427.791267
447.587431	6570.332413
447.962139	7109.458611
448.336786	8035.153089
448.711374	7782.016589
449.085901	6856.062492
449.460369	6772.999400
449.834776	6705.974739
450.209124	7099.197342
450.583412	7248.765856
450.957640	7399.425780
451.331808	7158.544326
451.705917	6713.362550
452.079965	6637.117619
452.453954	6846.963209
452.827883	6722.245063
453.201752	6815.317366
453.575562	6616.559793
453.949311	6820.897923
454.323001	6711.025975
454.696632	6782.943076
455.070202	6919.465084
455.443713	7075.173723
455.817164	7173.491347
456.190556	7261.827486
456.563888	7333.462282
456.937160	7372.947119
457.310373	7033.692589
457.683526	7058.280817
458.056619	6949.570855
458.429653	6942.848476
458.802628	6876.751388
459.175542	6984.987481
459.548398	7335.193918
459.921194	7495.910944
460.293930	7500.349680
460.666607	8033.469343
461.039224	8339.041404
461.411782	8463.986402
461.784280	8483.578847
462.156719	8375.582208
462.529099	8250.579237
462.901419	7841.776948
463.273680	7729.734783
463.645882	7750.411075
464.018024	7612.696835
464.390106	7773.653315
464.762130	8165.247625
465.134094	8633.079305
465.505999	9656.685594
465.877845	10876.833868
466.249631	11534.815350
466.621358	11142.923612
466.993026	10518.627119
467.364634	10256.421584
467.736184	9893.861800
468.107674	9561.611953
468.479105	9592.604967
468.850477	9355.040592
469.221790	9133.010532
469.593043	8799.117269
469.964238	8664.674737
470.335373	8672.879215
470.706449	8734.807269
471.077467	8717.140546
471.448425	10024.016830
471.819324	11096.960892
472.190164	11127.510284
472.560945	9880.172547
472.931667	9085.893388
473.302330	8953.999159
473.672934	8595.086649
474.043479	8954.904046
474.413965	8892.577741
474.784393	8770.372610
475.154761	8934.414276
475.525070	9020.764201
475.895321	8845.511008
476.265513	9026.329634
476.635645	9190.726703
477.005719	9189.395838
477.375734	9297.659658
477.745691	9543.100836
478.115588	9669.497686
478.485427	9923.723075
478.855207	10453.392068
479.224928	11266.855338
479.594591	11895.961091
479.964194	11716.246477
480.333739	11653.431179
480.703226	11566.609907
481.072653	11659.523414
481.442022	11895.784651
481.811333	12082.496386
482.180584	11893.876574
482.549777	11599.997469
482.918912	11425.654205
483.287988	11445.070209
483.657005	11456.677465
484.025964	11146.586010
484.394864	11276.521750
484.763706	11243.446740
485.132489	10996.553710
485.501213	10955.269180
485.869879	11036.358661
486.238487	10875.697087
486.607036	10992.747639
486.975527	10774.584144
487.343959	10957.716661
487.712333	11007.019145
488.080648	10934.575244
488.448905	10986.932668
488.817104	10922.549571
489.185244	11180.991885
489.553326	11333.174237
489.921350	11874.175745
490.289315	12940.783075
490.657222	13282.364098
491.025070	13190.421014
491.392861	13068.064648
491.760593	12686.703880
492.128267	12340.784945
492.495883	12006.750529
492.863440	11670.548417
493.230939	11337.557521
493.598380	11273.426482
493.965763	11138.714248
494.333088	11039.179186
494.700354	10958.452669
495.067563	11024.310303
495.434713	10851.960815
495.801805	10974.778446
496.168839	10902.392518
496.535815	10839.723414
496.902733	10838.193423
497.269593	10767.743298
497.636395	10870.930677
498.003139	10859.247803
498.369825	10724.883408
498.736453	10887.236289
499.103023	10805.935080
499.469535	10836.103865
499.835989	10826.364356
500.202385	10794.330344
500.568723	10644.986161
500.935003	10859.991373
501.301226	10673.113279
501.667390	10928.180540
502.033497	11026.583863
502.399546	10879.916533
502.765537	10786.947574
503.131470	10861.665036
503.497345	11043.534743
503.863163	10650.327264
504.228923	10963.554317
504.594625	11023.735611
504.960269	10776.277972
505.325856	10996.258802
505.691385	10785.430187
506.056856	10942.411718
506.422270	10962.941817
506.787625	10859.283091
507.152924	10974.836419
507.518164	10952.856988
507.883347	10873.778928
508.248472	10797.874275
508.613540	11025.086641
508.978550	10910.274362
509.343503	10882.452234
509.708398	11007.104845
510.073236	11119.109201
510.438016	11121.460899
510.802738	11065.811602
511.167403	11126.524738
511.532010	11021.139417
511.896561	11250.937895
512.261053	11317.297123
512.625488	11181.075064
512.989866	11176.129692
513.354186	11160.895325
513.718449	11062.948227
514.082655	11265.035481
514.446803	11155.302165
514.810894	11274.893458
515.174927	11145.194652
515.538904	11171.350678
515.902822	11312.472739
516.266684	11211.271576
516.630488	11148.597430
516.994235	11202.051305
517.357925	11268.816347
517.721558	11354.689882
518.085133	11367.640606
518.448651	11389.042825
518.812112	11260.579101
519.175516	11280.836978
519.538863	11404.241904
519.902152	11309.742954
520.265385	11483.229223
520.628560	11385.456044
520.991678	11369.271419
521.354739	11429.651840
521.717743	11363.428722
522.080690	11340.206647
522.443580	11475.448202
522.806413	11426.112950
523.169189	11463.198198
523.531908	11516.145437
523.894569	11336.009886
524.257174	11340.002480
524.619722	11460.682662
524.982213	11410.334138
525.344647	11455.255860
525.707025	11401.996070
526.069345	11507.474652
526.431608	11421.364183
526.793815	11538.412213
527.155964	11324.014461
527.518057	11378.383305
527.880093	11323.321302
528.242072	11387.447300
528.603995	11306.267079
528.965860	11219.206352
529.327669	11271.001687
529.689421	11217.487318
530.051117	11192.498319
530.412755	11296.179730
530.774337	11184.613954
531.135862	11159.035139
531.497331	11191.759790
531.858743	11042.826461
532.220098	11206.802593
532.581396	11080.738458
532.942638	11062.199615
533.303824	11030.405058
533.664953	11033.772549
534.026025	10958.886208
534.387040	11052.623943
534.747999	11053.599407
535.108902	11112.878335
535.469748	10870.522343
535.830537	10974.234001
536.191270	10952.461258
536.551947	10976.086625
536.912567	10976.734413
537.273131	10895.692824
537.633638	10880.201358
537.994089	10870.940759
538.354483	10815.788015
538.714821	10957.719181
539.075103	10964.575150
539.435328	10933.166241
539.795497	10766.321693
540.155609	10918.683006
540.515665	11006.542756
540.875665	10743.213044
541.235609	10805.332662
541.595496	10804.410131
541.955328	10961.525252
542.315102	10845.460247
542.674821	10791.557709
543.034483	10785.972111
543.394090	10799.981477
543.753640	10728.439942
544.113134	10956.471496
544.472571	10812.773405
544.831953	10948.655187
545.191278	10752.640002
545.550548	10786.786257
545.909761	10922.421022
546.268918	10892.378266
546.628019	10970.059926
546.987064	10840.577889
547.346053	10754.283418
547.704986	10863.227793
548.063863	10850.052738
548.422684	10838.155615
548.781449	10755.135373
549.140158	10861.987670
549.498811	10743.533157
549.857408	10594.993038
550.215949	10821.129118
550.574434	10668.132619
550.932864	10773.827971
551.291237	10832.827115
551.649555	10776.618250
552.007817	10790.209201
552.366022	10754.563202
552.724173	10748.544064
553.082267	10728.878523
553.440305	10878.164732
553.798288	10668.235963
554.156215	10822.376803
554.514086	10803.099431
554.871902	10647.295010
555.229661	10682.177274
555.587365	10659.792030
555.945014	10561.865096
556.302606	10687.112563
556.660143	10569.363812
557.017625	10731.938503
557.375050	10629.887905
557.732421	10765.464697
558.089735	10679.371872
558.446994	10684.735659
558.804197	10720.164888
559.161345	10715.297654
559.518437	10558.989118
559.875474	10658.740949
560.232455	10689.126504
560.589381	10631.743050
560.946251	10624.604776
561.303065	10739.399411
561.659825	10665.748153
562.016528	10603.668864
562.373177	10482.315688
562.729770	10593.037071
563.086307	10514.122848
563.442789	10610.285379
563.799216	10477.793773
564.155587	10533.702690
564.511904	10485.156378
564.868164	10474.433844
565.224370	10490.497481
565.580520	10414.670965
565.936615	10419.936451
566.292654	10288.763107
566.648638	10419.465103
567.004567	10378.281396
567.360441	10356.470844
567.716260	10267.260065
568.072023	10361.771618
568.427732	10317.074227
568.783385	10223.255833
569.138982	10299.896495
569.494525	10315.962653
569.850013	10187.466162
570.205445	10268.890878
570.560823	10167.480507
570.916145	10087.111912
571.271412	10156.689917
571.626625	10100.135733
571.981782	10074.932484
572.336884	10044.234378
572.691931	10059.025123
573.046923	9999.221915
573.401860	9957.811357
573.756743	9892.374659
574.111570	9939.519530
574.466342	9925.351367
574.821059	9951.646026
575.175722	9836.596813
575.530330	9854.404689
575.884882	9840.468419
576.239380	9764.281461
576.593823	9749.268905
576.948211	9766.091235
577.302544	9644.889294
577.656823	9652.158637
578.011047	9663.803703
578.365216	9632.157860
578.719330	9553.304131
579.073389	9568.851050
579.427394	9511.533130
579.781344	9488.671498
580.135239	9437.218961
580.489080	9447.616341
580.842866	9349.018933
581.196597	9354.145787
581.550273	9388.922187
581.903895	9368.313950
582.257463	9424.618597
582.610975	9306.748858
582.964434	9340.242284
583.317837	9251.462524
583.671186	9238.761337
584.024481	9228.986540
584.377721	9157.525663
584.730906	9128.118092
585.084037	9161.608998
585.437113	9097.374616
585.790135	9113.869271
586.143103	9018.762863
586.496016	8990.048450
586.848874	9044.407212
587.201679	9033.530923
587.554428	8921.365250
587.907124	8969.167991
588.259765	8940.561963
588.612352	8938.729504
588.964884	8817.426740
589.317362	8829.535591
589.669786	8829.170107
590.022155	8879.944609
590.374470	8900.310871
590.726731	8840.255605
591.078937	8686.424795
591.431090	8801.499214
591.783188	8665.075509
592.135232	8670.028442
592.487222	8663.177514
592.839157	8714.866985
593.191038	8650.796440
593.542866	8596.924150
593.894639	8489.600505
594.246358	8547.326758
594.598022	8558.291267
594.949633	8462.017832
595.301190	8437.094367
595.652692	8459.368705
596.004141	8579.111233
596.355535	8352.594546
596.706876	8327.998757
597.058162	8265.233871
597.409395	8339.676590
597.760573	8403.701764
598.111698	8310.858834
598.462768	8290.742109
598.813785	8258.640042
599.164748	8227.037048
599.515657	8214.353505
599.866511	8131.539950
600.217312	8254.085359
600.568060	8114.115202
600.918753	8219.722334
601.269392	8189.104886
601.619978	8101.398891
601.970510	8164.425917
602.320988	8162.306112
602.671412	8216.070018
603.021783	8156.110534
603.372100	8129.576421
603.722363	8133.672358
604.072572	8107.183615
604.422728	8114.566385
604.772830	8045.696662
605.122878	8050.034575
605.472872	8047.587095
605.822813	8073.092812
606.172701	8023.172787
606.522534	8100.219261
606.872314	8095.989733
607.222041	8063.159219
607.571714	8115.216694
607.921333	8074.695899
608.270899	8086.393897
608.620411	8178.891508
608.969870	8081.307373
609.319276	8072.195487
609.668627	8086.560255
610.017926	8125.750185
610.367171	8169.688882
610.716362	8147.560737
611.065500	8138.879870
611.414585	8163.957090
611.763616	8150.146849
612.112594	8138.179150
612.461518	8149.804051
612.810389	8213.972898
613.159207	8156.120616
613.507971	8100.370496
613.856682	8216.513639
614.205340	8172.690889
614.553945	8252.383970
614.902496	8148.546283
615.250994	8203.520065
615.599439	8184.025923
615.947830	8199.214920
616.296169	8170.041763
616.644454	8181.906118
616.992686	8178.755397
617.340864	8242.823421
617.688990	8143.570664
618.037063	8237.812514
618.385082	8180.842435
618.733048	8265.669931
619.080961	8207.270684
619.428821	8223.936738
619.776628	8228.539312
620.124382	8180.141714
620.472083	8172.501846
620.819731	8191.315432
621.167326	8086.656037
621.514868	8091.097293
621.862357	7980.811971
622.209793	7998.755958
622.557176	7932.515196
622.904506	7905.262719
623.251783	7842.346598
623.599007	7791.103269
623.946179	7802.516442
624.293297	7759.568331
624.640363	7673.253695
624.987376	7655.569328
625.334336	7604.426822
625.681243	7549.334572
626.028097	7538.284363
626.374899	7513.786876
626.721647	7510.147163
627.068343	7438.835000
627.414987	7409.021616
627.761577	7367.754731
628.108115	7404.275370
628.454600	7295.472147
628.801032	7346.748243
629.147412	7302.156717
629.493739	7298.632950
629.840014	7232.273721
630.186236	7289.556353
630.532405	7174.527304
630.878521	7225.508493
631.224585	7183.646751
631.570597	7102.625327
631.916556	7139.602190
632.262462	7134.903835
632.608316	7096.641477
632.954117	7068.050573
633.299866	7059.422638
633.645562	7050.454426
633.991206	6972.016592
634.336797	6915.422079
634.682336	6868.988011
635.027823	6839.101530
635.373257	6829.931671
635.718639	6759.146309
636.063968	6774.748681
636.409245	6668.438308
636.754470	6661.773902
637.099642	6626.879035
637.444762	6573.573875
637.789829	6577.609318
638.134845	6523.366503
638.479808	6503.204408
638.824719	6511.764287
639.169577	6438.717968
639.514383	6459.961390
639.859137	6388.659310
640.203839	6395.908490
640.548489	6381.074894
640.893086	6360.917841
641.237632	6330.791905
641.582125	6350.487693
641.926566	6314.483773
642.270955	6330.136555
642.615292	6330.776782
642.959576	6345.151632
643.303809	6333.267112
643.647990	6340.675087
643.992118	6328.775444
644.336195	6278.280726
644.680219	6303.526825
645.024192	6290.503004
645.368112	6387.860287
645.711981	6409.804430
646.055797	6485.943497
646.399562	6445.934380
646.743274	6569.840900
647.086935	6619.473580
647.430544	6618.666996
647.774101	6636.694162
648.117606	6643.658516
648.461059	6639.103833
648.804460	6599.087154
649.147810	6504.633575
649.491108	6476.259441
649.834354	6456.488035
650.177548	6368.529983
650.520690	6286.810359
650.863781	6263.195073
651.206820	6280.579493
651.549807	6201.665270
651.892742	6140.914325
652.235626	6151.215923
652.578458	6137.176310
652.921238	6045.694491
653.263967	6083.019194
653.606644	6024.163723
653.949269	6027.132962
654.291843	5966.487882
654.634365	6017.050655
654.976836	5972.912832
655.319255	5971.299663
655.661622	5947.107166
656.003938	5943.162463
656.346203	5905.701648
656.688416	5933.493530
657.030577	5890.663887
657.372687	5858.823959
657.714746	5840.592626
658.056753	5887.248505
658.398708	5827.664587
658.740612	5817.771323
659.082465	5864.046594
659.424266	5863.010637
659.766016	5856.714236
660.107715	5833.383776
660.449362	5854.173494
660.790958	5845.132185
661.132503	5835.327141
661.473996	5872.818202
661.815438	5856.525193
662.156829	5851.095870
662.498168	5842.064643
662.839456	5824.344987
663.180693	5855.393454
663.521879	5858.786150
663.863013	5849.187793
664.204097	5859.315471
664.545129	5910.052164
664.886110	5901.552779
665.227040	5935.295742
665.567918	5904.247276
665.908746	5932.197953
666.249522	5937.889416
666.590248	5920.333598
666.930922	5945.912412
667.271545	5959.495801
667.612118	5962.739784
667.952639	5940.218429
668.293109	5958.197704
668.633528	5915.972999
668.973896	5920.373927
669.314213	5905.404220
669.654480	5890.285800
669.994695	5885.847064
670.334859	5872.714858
670.674973	5865.914342
671.015035	5869.485999
671.355047	5869.884250
671.695008	5858.728177
672.034918	5824.592004
672.374777	5840.411144
672.714585	5823.838351
673.054342	5825.580070
673.394049	5821.635367
673.733705	5856.683989
674.073310	5846.185786
674.412864	5801.372449
674.752368	5790.702847
675.091820	5793.656963
675.431223	5729.198249
675.770574	5725.377055
676.109875	5679.520199
676.449125	5687.810376
676.788324	5657.901211
677.127473	5599.842242
677.466571	5588.991158
677.805619	5579.102935
678.144616	5565.638013
678.483562	5541.924425
678.822458	5511.369992
679.161303	5509.610629
679.500098	5499.528321
679.838842	5485.518955
680.177535	5487.492567
680.516179	5502.656357
680.854771	5511.359909
681.193314	5595.572384
681.531805	5701.885278
681.870247	5852.751889
682.208638	5962.306244
682.546978	5970.546010
682.885268	5947.230674
683.223508	5860.873188
683.561697	5808.291433
683.899836	5775.629797
684.237925	5731.272684
684.575963	5694.489905
684.913951	5656.247712
685.251889	5718.992433
685.589776	5687.167629
685.927614	5657.553371
686.265401	5730.904680
686.603137	5706.949117
686.940824	5789.089678
687.278460	5813.781249
687.616046	5821.597558
687.953582	5893.499536
688.291068	5873.856680
688.628504	5934.811791
688.965889	5899.226286
689.303224	5848.852557
689.640510	5794.519000
689.977745	5720.708946
690.314930	5619.084326
690.652065	5566.754628
690.989150	5470.776100
691.326185	5396.207353
691.663170	5342.627449
692.000105	5265.260861
692.336990	5187.561557
692.673825	5163.114481
693.010610	5096.195684
693.347345	5023.847565
693.684030	5009.122355
694.020665	4970.698680
694.357251	4878.594279
694.693786	4887.333119
695.030272	4858.187688
695.366707	4820.197552
695.703093	4784.246564
696.039429	4805.444616
696.375716	4789.801915
696.711952	4763.547586
697.048139	4756.895784
697.384276	4731.395107
697.720363	4740.587651
698.056400	4756.202625
698.392388	4704.679512
698.728326	4687.867264
699.064214	4660.140918
699.400053	4655.911390
699.735842	4623.199343
700.071581	4598.432154
700.407270	4569.589192
700.742910	4551.861974
701.078501	4502.572093
701.414042	4496.999097
701.749533	4469.217298
702.084974	4402.253131
702.420366	4457.864620
702.755709	4402.318666
703.091002	4345.933360
703.426246	4397.365733
703.761440	4354.873847
704.096584	4315.046211
704.431679	4336.070343
704.766725	4317.123166
705.101721	4306.055313
705.436668	4337.996064
705.771565	4283.324750
706.106413	4313.120490
706.441212	4343.279193
706.775961	4353.525338
707.110661	4336.234180
707.445311	4359.413406
707.779913	4379.162126
708.114465	4397.464035
708.448967	4416.280142
708.783421	4479.914627
709.117825	4523.518087
709.452180	4531.659550
709.786485	4575.678906
710.120742	4660.478675
710.454949	4640.750120
710.789107	4707.676478
711.123216	4783.941574
711.457275	4775.631232
711.791286	4850.346173
712.125247	4870.039441
712.459159	4767.366260
712.793023	4845.627653
713.126837	4801.636024
713.460602	4797.698883
713.794318	4718.056214
714.127985	4724.657605
714.461602	4641.208865
714.795171	4608.670737
715.128691	4541.451992
715.462162	4485.981655
715.795584	4437.644552
716.128957	4419.448507
716.462281	4365.982029
716.795556	4342.336497
717.128782	4300.414262
717.461960	4230.327100
717.795088	4240.976537
718.128167	4200.899364
718.461198	4142.437103
718.794180	4138.192452
719.127113	4118.320223
719.459997	4100.091411
719.792833	4055.504926
720.125619	4046.932443
720.458357	4009.159078
720.791046	4014.094367
721.123686	3987.991273
721.456278	3944.677679
721.788821	3961.159731
722.121315	3935.943880
722.453761	3908.361207
722.786158	3922.264709
723.118506	3947.198256
723.450805	3895.957447
723.783056	3918.670366
724.115259	3934.328190
724.447412	3941.302626
724.779518	3932.515895
725.111574	3937.133592
725.443582	3968.056030
725.775542	3953.310655
726.107453	4003.402080
726.439315	4004.173377
726.771129	4018.434801
727.102895	4056.104823
727.434612	4100.212398
727.766281	4112.538020
728.097901	4118.347949
728.429473	4123.235348
728.760996	4129.345227
729.092471	4122.824494
729.423897	4107.045682
729.755276	4114.110860
730.086606	4112.354018
730.417887	4148.851971
730.749120	4217.683886
731.080305	4279.904327
731.411442	4308.361641
731.742530	4276.037762
732.073570	4282.256026
732.404562	4334.351309
732.735506	4328.445598
733.066401	4290.440339
733.397249	4227.791399
733.728048	4148.146210
734.058798	4063.611101
734.389501	3991.739371
734.720156	3928.309052
735.050762	3886.956467
735.381320	3879.636712
735.711831	3828.892457
736.042293	3802.804486
736.372707	3822.102023
736.703073	3796.545894
737.033391	3785.538534
737.363661	3803.686688
737.693883	3829.033610
738.024056	3839.874611
738.354182	3831.092921
738.684260	3893.915780
739.014290	3915.446548
739.344272	3912.436979
739.674207	3954.112198
740.004093	3956.337868
740.333931	3954.263433
740.663722	3954.538176
740.993464	3950.306127
741.323159	3927.076490
741.652806	3901.626225
741.982405	3869.370402
742.311956	3841.134899
742.641460	3830.069567
742.970915	3808.092657
743.300323	3763.105400
743.629683	3733.317222
743.958996	3717.677042
744.288260	3693.920604
744.617477	3664.076973
744.946647	3647.635250
745.275768	3624.440901
745.604842	3623.689769
745.933869	3573.651276
746.262847	3562.648958
746.591778	3602.141357
746.920662	3570.911409
747.249498	3540.949311
747.578286	3584.648553
747.907027	3605.254270
748.235720	3604.830813
748.564365	3626.752270
748.892963	3624.468628
749.221514	3611.124693
749.550017	3586.160900
749.878473	3587.564861
750.206881	3557.186868
750.535242	3551.051784
750.863555	3552.201167
751.191821	3549.892318
751.520039	3532.638969
751.848210	3506.490504
752.176334	3541.350083
752.504411	3547.124725
752.832440	3510.808253
753.160421	3492.072804
753.488356	3500.584792
753.816243	3511.367821
754.144082	3468.946511
754.471875	3454.216259
754.799620	3473.082778
755.127318	3464.555666
755.454969	3468.076912
755.782572	3470.592448
756.110129	3447.819035
756.437638	3436.632715
756.765100	3452.903039
757.092515	3461.707414
757.419882	3465.931901
757.747203	3440.811831
758.074477	3444.469188
758.401703	3459.577527
758.728882	3479.684169
759.056014	3490.315962
759.383099	3492.624811
759.710138	3487.795385
760.037129	3505.656193
760.364073	3529.790717
760.690970	3519.673122
761.017820	3496.040192
761.344623	3512.733973
761.671379	3561.499575
761.998088	3611.525465
762.324751	3740.495825
762.651366	3990.574864
762.977935	4457.907470
763.304456	4904.911622
763.630931	5008.343496
763.957359	4645.307323
764.283740	4298.259168
764.610074	4102.158284
764.936362	3905.974220
765.262602	3751.639295
765.588796	3636.660658
765.914943	3545.035167
766.241044	3458.087866
766.567097	3429.257507
766.893104	3380.990979
767.219064	3350.602904
767.544978	3320.958399
767.870845	3265.672064
768.196665	3249.963829
768.522438	3257.349119
768.848165	3249.593304
769.173846	3215.351267
769.499479	3203.938094
769.825066	3184.529652
770.150607	3164.390242
770.476101	3183.055115
770.801548	3173.124042
771.126949	3132.285654
771.452303	3112.751183
771.777611	3119.856689
772.102872	3124.010600
772.428087	3100.226436
772.753256	3091.863162
773.078378	3084.361925
773.403453	3051.813715
773.728482	3034.855274
774.053465	3059.103224
774.378401	3046.790206
774.703291	3013.359794
775.028135	3015.938344
775.352932	3011.224865
775.677683	3000.046107
776.002388	2995.814058
776.327046	2997.333966
776.651658	2985.840135
776.976224	2975.876294
777.300743	2973.751448
777.625216	2963.611167
777.949643	2960.828450
778.274024	2961.135961
778.598359	2952.427367
778.922647	2956.810651
779.246889	2955.328551
779.571086	2939.206941
779.895236	2934.763164
780.219339	2944.316151
780.543397	2957.092955
780.867409	2961.700570
781.191374	2953.614559
781.515294	2953.322172
781.839167	2951.005762
782.162995	2941.218362
782.486776	2954.408541
782.810511	2949.558951
783.134201	2934.697629
783.457844	2939.060748
783.781441	2933.457505
784.104993	2910.343815
784.428498	2912.047725
784.751958	2927.214036
785.075372	2920.768921
785.398739	2905.521951
785.722061	2921.290681
786.045337	2934.727876
786.368568	2921.696493
786.691752	2909.156623
787.014891	2957.254272
787.337983	2988.917759
787.661030	3016.087058
787.984031	3084.482913
788.306987	3131.905047
788.629897	3124.391207
788.952760	3107.334463
789.275579	3091.679160
789.598351	3033.481559
789.921078	2987.554127
790.243759	2973.879998
790.566395	2959.558079
790.888984	2935.720983
791.211529	2920.768921
791.534027	2912.146028
791.856480	2901.317629
792.178888	2887.527553
792.501249	2875.431304
792.823566	2874.561705
793.145836	2871.461395
793.468062	2870.415356
793.790241	2865.417052
794.112375	2871.121118
794.434464	2885.644682
794.756507	2890.907646
795.078505	2892.876217
795.400457	2908.851633
795.722364	2948.021399
796.044226	2970.106694
796.366042	2972.085347
796.687812	2963.540591
797.009538	2982.419712
797.331218	2967.941518
797.652852	2954.287553
797.974442	2932.857608
798.295986	2930.783173
798.617484	2925.996598
798.938938	2912.282139
799.260346	2894.156670
799.581709	2889.150804
799.903026	2885.246431
800.224299	2876.487426
800.545526	2869.172712
800.866708	2852.552027
801.187845	2846.656398
801.508936	2843.558609
801.829983	2851.405165
802.150984	2838.015860
802.471940	2826.184272
802.792851	2826.824499
803.113717	2826.201916
803.434538	2832.803307
803.755314	2822.731082
804.076045	2816.606080
804.396731	2816.326296
804.717372	2817.347129
805.037967	2811.791778
805.358518	2820.742347
805.679024	2831.999243
805.999485	2824.828202
806.319901	2830.837257
806.640272	2823.419199
806.960598	2831.217864
807.280879	2835.170129
807.601115	2846.689165
807.921306	2831.946311
808.241453	2825.922132
808.561554	2835.775067
808.881611	2838.766992
809.201623	2829.458502
809.521590	2828.261227
809.841513	2826.388439
810.161390	2828.609067
810.481223	2822.899960
810.801011	2813.593990
811.120755	2810.748259
811.440453	2814.634989
811.760107	2811.960657
812.079716	2812.429484
812.399281	2800.149233
812.718801	2795.332411
813.038276	2788.756225
813.357707	2796.159160
813.677093	2804.691313
813.996434	2794.470373
814.315731	2791.591874
814.634983	2788.917542
814.954191	2791.823767
815.273354	2803.720891
815.592473	2812.192550
815.911547	2813.936789
816.230577	2819.494661
816.549562	2831.200220
816.868502	2827.605877
817.187399	2840.375120
817.506250	2855.543952
817.825058	2850.228055
818.143821	2863.168697
818.462539	2876.288300
818.781213	2904.274266
819.099843	2943.078548
819.418429	3000.134327
819.736970	3062.266548
820.055466	3136.116931
820.373919	3242.633991
820.692327	3384.229921
821.010691	3554.489851
821.329011	4000.831092
821.647286	4906.459257
821.965517	6301.321320
822.283704	7067.642240
822.601847	7057.055817
822.919945	6410.686632
823.237999	5895.805863
823.556010	5306.996574
823.873976	4745.517899
824.191897	4327.477696
824.509775	4028.370915
824.827609	3754.351436
825.145398	3629.436685
825.463144	3619.190540
825.780845	3708.328222
826.098502	3811.618944
826.416116	4100.953448
826.733685	4422.329526
827.051210	4492.043643
827.368692	4372.727093
827.686129	4105.883697
828.003522	3774.637039
828.320872	3511.120804
828.638177	3313.835248
828.955439	3175.117818
829.272656	3092.198399
829.589830	3023.124509
829.906960	2972.554174
830.224046	2928.370981
830.541088	2891.860424
830.858086	2878.821480
831.175041	2860.078470
831.491952	2857.918336
831.808819	2872.283103
832.125642	2897.859398
832.442421	2943.796912
832.759157	3026.716331
833.075849	3203.870039
833.392497	3489.350581
833.709101	3695.697611
834.025662	3647.829335
834.342179	3488.281857
834.658653	3307.251501
834.975083	3155.520332
835.291469	3056.771690
835.607811	2970.351190
835.924110	2910.036305
836.240366	2858.709797
836.556578	2814.125832
836.872746	2790.142543
837.188871	2770.512290
837.504952	2751.771800
837.820990	2745.682086
838.136984	2731.937380
838.452935	2722.943962
838.768842	2723.594271
839.084706	2737.505335
839.400526	2819.439208
839.716303	2950.988118
840.032037	3038.184956
840.347727	3022.464118
840.663373	2961.254428
840.978977	2886.690721
841.294537	2808.028557
841.610054	2762.819489
841.925527	2738.148082
842.240957	2718.757284
842.556344	2694.547142
842.871687	2677.513083
843.186987	2665.802483
843.502244	2664.083450
843.817458	2661.457008
844.132629	2647.798002
844.447756	2640.470685
844.762840	2633.415590
845.077881	2635.464819
845.392879	2633.879376
845.707833	2631.464664
846.022745	2619.733899
846.337613	2624.649024
846.652438	2624.638941
846.967221	2623.895371
847.281960	2622.143570
847.596656	2619.456635
847.911309	2618.796244
848.225919	2615.537138
848.540485	2613.208125
848.855009	2614.271808
849.169490	2615.746346
849.483928	2614.297014
849.798323	2611.574791
850.112675	2610.795933
850.426984	2610.642178
850.741251	2610.440532
851.055474	2610.034719
851.369654	2613.041767
851.683792	2613.760131
851.997887	2611.123608
852.311938	2611.521859
852.625947	2613.142590
852.939914	2614.576798
853.253837	2614.624689
853.567718	2610.133021
853.881555	2612.076386
854.195350	2612.058742
854.509103	2613.883640
854.822812	2612.494802
855.136479	2611.652929
855.450103	2614.465893
855.763685	2614.012189
856.077224	2612.963629
856.390720	2606.952053
856.704173	2612.482199
857.017584	2615.577467
857.330953	2616.938579
857.644278	2621.510905
857.957561	2617.840945
858.270802	2615.048146
858.584000	2614.344905
858.897155	2620.038888
859.210268	2620.192644
859.523339	2615.186778
859.836367	2607.577156
860.149352	2607.262084
860.462295	2612.910697
860.775195	2607.607403
861.088054	2605.167485
861.400869	2608.948350
861.713642	2602.969542
862.026373	2603.017433
862.339062	2609.873402
862.651708	2612.436828
862.964312	2614.649895
863.276873	2612.293156
863.589392	2615.126284
863.901869	2619.622993
864.214303	2625.443005
864.526696	2627.948459
864.839045	2628.543315
865.151353	2631.764612
865.463619	2631.389046
865.775842	2632.732514
866.088023	2630.279993
866.400162	2631.704118
866.712258	2630.690847
867.024313	2631.194962
867.336325	2625.117851
867.648296	2629.223871
867.960224	2634.786784
868.272110	2632.964407
868.583954	2627.499796
868.895755	2628.540794
869.207515	2632.412401
869.519233	2636.911630
869.830909	2637.463637
870.142542	2630.963069
870.454134	2633.975158
870.765684	2638.416415
871.077191	2642.156951
871.388657	2645.857158
871.700081	2642.615696
872.011463	2640.400109
872.322803	2641.572177
872.634101	2648.234062
872.945357	2652.536687
873.256571	2657.436688
873.567744	2656.814106
873.878874	2654.800165
874.189963	2656.932573
874.501010	2661.698984
874.812015	2667.438337
875.122979	2667.730724
875.433900	2656.501554
875.744780	2657.156904
876.055618	2662.089673
876.366415	2667.289623
876.677169	2667.435817
876.987882	2660.007677
877.298554	2658.601195
877.609183	2669.769871
877.919771	2677.152641
878.230317	2684.711851
878.540822	2696.946732
878.851285	2710.126828
879.161707	2734.957032
879.472087	2775.213166
879.782425	2823.406596
880.092722	2940.011005
880.402977	3132.734317
880.713191	3398.201478
881.023363	3701.386553
881.333494	3898.808220
881.643583	4076.367741
881.953631	4076.458482
882.263637	3897.169845
882.573602	3669.912109
882.883526	3534.358003
883.193408	3413.244282
883.503248	3307.490956
883.813048	3192.719007
884.122806	3078.161306
884.432522	2990.956906
884.742197	2922.805547
885.051831	2880.840462
885.361424	2844.859227
885.670975	2808.013433
885.980485	2777.660646
886.289954	2758.905033
886.599382	2744.772158
886.908768	2733.061558
887.218113	2712.894422
887.527417	2697.715507
887.836680	2691.587985
888.145901	2685.820905
888.455082	2676.504853
888.764221	2668.343225
889.073319	2660.221926
889.382376	2659.463232
889.691392	2657.237563
890.000366	2658.044147
890.309300	2656.423416
890.618193	2661.567914
890.927044	2663.087822
891.235855	2661.537667
891.544625	2659.122954
891.853353	2658.820485
892.162041	2666.604027
892.470687	2689.571523
892.779293	2701.899665
893.087858	2712.521376
893.396381	2735.269583
893.704864	2775.719802
894.013306	2847.808302
894.321707	2946.476285
894.630068	2996.855056
894.938387	3018.665608
895.246665	3011.986079
895.554903	2966.895479
895.863100	2921.686411
896.171256	2863.075436
896.479371	2799.004891
896.787446	2759.199940
897.095480	2741.344173
897.403473	2732.501990
897.711425	2718.439691
898.019336	2697.896989
898.327207	2683.386028
898.635038	2681.019206
898.942827	2678.823783
899.250576	2668.514624
899.558284	2657.018272
899.865952	2655.379897
900.173579	2652.534166
900.481165	2649.486789
900.788711	2641.955305
901.096216	2635.583286
901.403681	2632.394757
901.711105	2631.787297
902.018489	2633.100518
902.325832	2633.493728
902.633135	2636.218472
902.940397	2651.011738
903.247619	2691.225022
903.554800	2758.675660
903.861941	2891.527708
904.169041	3022.338089
904.476101	3089.009869
904.783121	3080.903694
905.090100	3023.270702
905.397039	2945.657098
905.703938	2869.250849
906.010796	2803.839358
906.317614	2752.399424
906.624391	2712.450800
906.931129	2686.093127
907.237826	2663.407935
907.544483	2644.851448
907.851099	2628.530712
908.157675	2619.411265
908.464211	2609.830552
908.770707	2599.221444
909.077163	2595.448140
909.383578	2594.591144
909.689954	2593.971082
909.996289	2588.854311
910.302584	2590.374219
910.608839	2584.672674
910.915054	2584.614700
911.221229	2587.505802
911.527363	2589.761718
911.833458	2588.279619
912.139513	2589.986050
912.445527	2592.247007
912.751502	2596.733634
913.057436	2604.582711
913.363331	2608.358535
913.669186	2618.990328
913.975000	2632.727473
914.280775	2650.847900
914.586510	2671.178874
914.892205	2712.869216
915.197859	2778.255502
915.503475	2865.396887
915.809050	2936.303237
916.114585	2954.665640
916.420081	2967.744913
916.725536	2976.231696
917.030952	2947.555092
917.336328	2898.887793
917.641665	2851.054805
917.946961	2799.125879
918.252218	2764.596496
918.557435	2736.000550
918.862612	2711.591283
919.167750	2692.192923
919.472848	2677.190450
919.777906	2659.165804
920.082925	2646.000831
920.387904	2634.587658
920.692843	2629.526340
920.997743	2626.594909
921.302603	2617.475462
921.607423	2612.646036
921.912204	2604.756631
922.216946	2601.565580
922.521647	2598.795466
922.826310	2594.223140
923.130932	2590.459918
923.435516	2584.355081
923.740059	2584.773497
924.044564	2582.048753
924.349028	2579.901222
924.653454	2573.642629
924.957840	2569.823955
925.262186	2567.389078
925.566493	2569.914696
925.870761	2564.286247
926.174989	2564.928995
926.479178	2562.718449
926.783328	2562.216854
927.087438	2561.460681
927.391509	2559.552604
927.695541	2557.773077
927.999533	2554.652603
928.303486	2554.531615
928.607400	2554.614794
928.911275	2555.980947
929.215110	2552.968857
929.518906	2555.680998
929.822663	2554.781152
930.126381	2554.692932
930.430060	2552.908363
930.733699	2550.780996
931.037299	2556.517829
931.340861	2556.585885
931.644383	2558.234342
931.947866	2557.483210
932.251309	2555.948179
932.554714	2551.456511
932.858080	2555.723848
933.161407	2553.452808
933.464694	2556.028838
933.767943	2552.729402
934.071153	2551.126315
934.374323	2553.059598
934.677455	2552.621018
934.980548	2550.349978
935.283602	2551.703527
935.586617	2551.133877
935.889593	2550.748229
936.192530	2552.489947
936.495428	2552.779814
936.798287	2552.492468
937.101108	2555.582695
937.403890	2557.284085
937.706632	2559.035886
938.009336	2562.113510
938.312002	2568.147771
938.614628	2572.301682
938.917216	2574.035839
939.219765	2576.299317
939.522275	2575.827969
939.824747	2574.794533
940.127179	2569.632391
940.429573	2567.076526
940.731929	2568.636763
941.034246	2564.868501
941.336524	2567.210117
941.638763	2564.455126
941.940964	2565.690209
942.243126	2563.497307
942.545250	2563.189797
942.847335	2562.872204
943.149381	2560.434806
943.451389	2558.309960
943.753359	2559.441699
944.055290	2555.771739
944.357182	2555.875082
944.659036	2552.711758
944.960851	2552.699155
945.262628	2555.489434
945.564367	2555.078580
945.866067	2553.656975
946.167729	2555.978426
946.469352	2555.877603
946.770937	2553.825853
947.072484	2554.826522
947.373992	2554.909701
947.675462	2552.663867
947.976893	2554.133364
948.278286	2550.599515
948.579641	2552.210163
948.880958	2551.411141
949.182236	2553.808209
949.483476	2550.163455
949.784678	2550.912066
950.085841	2550.959957
950.386967	2550.876778
950.688054	2550.249155
950.989103	2553.772921
951.290114	2552.638662
951.591087	2556.820299
951.892021	2555.519681
952.192917	2557.132850
952.493776	2558.773746
952.794596	2558.083108
953.095378	2562.068140
953.396122	2560.465053
953.696828	2560.500341
953.997496	2556.182593
954.298126	2554.466080
954.598718	2554.425751
954.899272	2551.685883
955.199788	2551.343085
955.500266	2548.464586
955.800706	2547.806716
956.101108	2544.078782
956.401472	2541.487629
956.701798	2540.257588
957.002087	2541.525438
957.302337	2540.759183
957.602550	2542.884029
957.902724	2540.386137
958.202861	2537.815149
958.502960	2542.342105
958.803022	2540.693647
959.103045	2540.744059
959.403031	2537.442103
959.702979	2534.813142
960.002889	2539.771116
960.302762	2538.788091
960.602596	2538.989737
960.902393	2534.414890
961.202153	2535.806249
961.501875	2537.308513
961.801559	2536.504449
962.101205	2537.260622
962.400814	2534.563604
962.700385	2536.169212
962.999918	2536.577545
963.299414	2536.423790
963.598873	2536.101156
963.898293	2537.174922
964.197677	2532.670651
964.497022	2536.653163
964.796331	2536.038142
965.095601	2535.833975
965.394835	2533.421783
965.694030	2535.655014
965.993189	2537.585776
966.292309	2536.267514
966.591393	2534.228368
966.890439	2535.226516
967.189447	2532.905065
967.488419	2534.997144
967.787353	2535.264325
968.086249	2535.153419
968.385108	2538.742721
968.683930	2533.510003
968.982714	2532.753830
969.281462	2534.059489
969.580172	2535.919675
969.878844	2534.908923
970.177480	2537.769778
970.476078	2533.812473
970.774639	2535.975127
971.073162	2534.629139
971.371649	2534.160312
971.670098	2531.226361
971.968510	2534.268697
972.266885	2532.474046
972.565223	2536.207021
972.863524	2536.312885
973.161788	2537.268183
973.460014	2535.377751
973.758204	2535.730632
974.056356	2533.207534
974.354471	2533.751979
974.652550	2535.770961
974.950591	2539.219110
975.248595	2535.776002
975.546563	2534.349355
975.844493	2534.868594
976.142386	2536.728780
976.440243	2535.864222
976.738062	2533.320960
977.035845	2536.587628
977.333590	2533.545291
977.631299	2531.324663
977.928971	2532.539581
978.226606	2533.900693
978.524204	2534.119983
978.821765	2534.926567
979.119290	2533.920857
979.416777	2534.427493
979.714228	2534.157792
980.011642	2536.766589
980.309020	2536.272556
980.606360	2534.664427
980.903664	2536.035621
981.200931	2534.056968
981.498162	2538.183153
981.795356	2538.924203
982.092513	2543.735984
982.389633	2542.526107
982.686717	2546.846376
982.983764	2548.462066
983.280775	2553.001625
983.577749	2550.586912
983.874686	2550.849052
984.171587	2546.110367
984.468451	2546.881664
984.765279	2540.975952
985.062070	2537.053934
985.358824	2538.919161
985.655543	2538.921682
985.952224	2532.801721
986.248869	2534.765251
986.545478	2530.818027
986.842050	2531.460774
987.138586	2528.967924
987.435086	2529.676206
987.731549	2530.525640
988.027975	2532.388347
988.324366	2529.136802
988.620719	2530.760054
988.917037	2531.669982
989.213318	2533.167205
989.509563	2531.922040
989.805772	2531.173428
990.101944	2529.595547
990.398080	2530.555887
990.694180	2533.346166
990.990244	2532.978162
991.286271	2531.876669
991.582262	2529.169570
991.878217	2530.858356
992.174136	2533.575538
992.470019	2527.102697
992.765865	2531.077647
993.061676	2532.572349
993.357450	2529.721576
993.653188	2531.672503
993.948890	2531.543953
994.244556	2532.496731
994.540186	2532.300126
994.835780	2532.615198
995.131337	2533.832637
995.426859	2534.835827
995.722345	2532.022863
996.017795	2536.065868
996.313208	2535.954963
996.608586	2537.023687
996.903928	2535.801208
997.199234	2532.897503
997.494504	2537.585776
997.789738	2535.498738
998.084936	2535.229037
998.380099	2531.533871
998.675225	2533.270548
998.970316	2534.167874
999.265371	2532.547143
999.560390	2529.711494
999.855373	2531.675023
1000.150320	2530.558408
1000.445232	2529.227543
1000.740108	2529.885414
1001.034948	2533.620909
1001.329752	2529.557739
1001.624521	2531.843902
1001.919254	2526.510361
1002.213951	2529.169570
1002.508613	2523.888961
1002.803239	2528.239477
1003.097829	2526.701925
1003.392384	2528.655372
1003.686903	2530.797863
1003.981386	2530.676875
1004.275834	2529.918181
1004.570246	2531.100332
1004.864623	2527.258973
1005.158964	2528.768798
1005.453270	2529.351051
1005.747540	2528.526823
1006.041775	2528.456247
1006.335974	2530.228212
1006.630138	2528.489014
1006.924266	2528.526823
1007.218359	2530.442461
1007.512416	2528.665454
1007.806438	2525.721421
1008.100425	2529.441792
1008.394376	2530.137471
1008.688292	2529.207378
1008.982172	2526.051616
1009.276017	2529.842564
1009.569827	2529.209899
1009.863602	2530.344159
1010.157341	2528.252080
1010.451045	2528.710825
1010.744714	2528.786442
1011.038347	2529.615712
1011.331945	2526.964065
1011.625508	2531.601927
1011.919036	2527.473222
1012.212528	2526.391894
1012.505986	2527.906761
1012.799408	2531.929602
1013.092795	2527.415248
1013.386147	2527.780732
1013.679464	2529.179652
1013.972745	2529.721576
1014.265992	2525.751667
1014.559204	2527.944569
1014.852380	2529.681247
1015.145521	2529.426669
1015.438628	2528.983047
1015.731699	2529.754344
1016.024736	2528.231915
1016.317737	2527.511030
1016.610703	2530.641587
1016.903635	2526.757378
1017.196531	2524.453570
1017.489393	2522.913498
1017.782219	2525.575227
1018.075011	2525.726462
1018.367768	2529.892975
1018.660490	2528.846936
1018.953177	2528.846936
1019.245829	2528.846936
