Dividing Wavelength (nm)	Counts (n)	Blue Motor Position (mm): 0.000000	Red Motor Position (mm): 4.500000	
326.493990	2085.285891
326.888308	2085.285891
327.282561	2085.285891
327.676750	2066.618499
328.070874	2064.675134
328.464933	2072.264591
328.858929	2079.977556
329.252859	2093.331573
329.646726	2108.341608
330.040528	2123.339041
330.434265	2144.869809
330.827938	2163.864877
331.221547	2184.170645
331.615091	2204.191587
332.008571	2221.664226
332.401986	2245.239182
332.795338	2264.534199
333.188625	2285.845677
333.581847	2303.245219
333.975006	2317.829277
334.368100	2340.375838
334.761129	2358.927284
335.154095	2371.409181
335.546996	2388.395349
335.939833	2400.610064
336.332606	2415.816705
336.725315	2427.310536
337.117960	2435.552822
337.510540	2440.856116
337.903056	2452.024792
338.295508	2456.818930
338.687896	2467.848974
339.080220	2471.483646
339.472480	2478.609317
339.864676	2479.400778
340.256807	2480.895481
340.648875	2485.427478
341.040879	2486.649958
341.432818	2487.340596
341.824694	2488.129536
342.216506	2485.634165
342.608253	2487.643065
342.999937	2487.391007
343.391557	2486.597026
343.783113	2486.002169
344.174605	2483.466469
344.566033	2482.160810
344.957397	2480.933289
345.348697	2477.800212
345.739934	2475.259471
346.131106	2474.107567
346.522215	2473.550519
346.913260	2469.981383
347.304241	2471.463482
347.695159	2467.775878
348.086012	2466.966772
348.476802	2463.301854
348.867528	2464.126082
349.258191	2464.163891
349.648789	2460.728345
350.039324	2461.008129
350.429796	2460.209106
350.820203	2457.383539
351.210548	2459.210957
351.600828	2456.067798
351.991045	2460.123406
352.381198	2456.148456
352.771288	2454.893209
353.161314	2458.691718
353.551276	2457.156687
353.941175	2457.628035
354.331010	2456.156018
354.720782	2459.881431
355.110490	2457.784311
355.500135	2458.802624
355.889717	2461.310598
356.279235	2458.089301
356.668689	2462.502831
357.058080	2461.857563
357.447408	2456.680298
357.836672	2456.342541
358.225873	2457.489403
358.615010	2456.778601
359.004084	2462.379323
359.393095	2462.923767
359.782043	2465.721608
360.170927	2465.580455
360.559748	2459.697429
360.948505	2462.994343
361.337199	2466.258490
361.725830	2465.935857
362.114398	2465.043572
362.502903	2466.215641
362.891344	2466.147585
363.279722	2470.087247
363.668037	2467.564149
364.056289	2467.811166
364.444478	2469.447020
364.832603	2467.032307
365.220665	2467.906948
365.608665	2470.082206
365.996601	2469.401650
366.384474	2469.510035
366.772284	2469.568008
367.160031	2471.745786
367.547715	2470.475416
367.935336	2472.539768
368.322893	2473.966415
368.710388	2472.973307
369.097820	2476.446662
369.485189	2474.667135
369.872495	2475.914821
370.259738	2474.357104
370.646918	2477.407002
371.034035	2476.963381
371.421090	2479.597383
371.808081	2482.856489
372.195010	2486.148363
372.581875	2488.968888
372.968678	2497.039776
373.355418	2497.581700
373.742096	2510.197187
374.128710	2512.894205
374.515262	2525.819723
374.901751	2534.490508
375.288177	2550.244113
375.674540	2560.694425
376.060841	2577.070614
376.447079	2595.722883
376.833254	2619.053343
377.219367	2635.578245
377.605417	2659.914415
377.991404	2677.482837
378.377329	2702.524768
378.763191	2725.013356
379.148991	2756.626431
379.534727	2784.546862
379.920402	2809.215748
380.306013	2835.286075
380.691563	2871.506766
381.077049	2897.438461
381.462474	2922.263623
381.847835	2953.264199
382.233134	2982.845690
382.618371	3003.292610
383.003545	3038.048845
383.388657	3065.802917
383.773706	3098.772063
384.158693	3118.271247
384.543618	3145.117911
384.928480	3164.813699
385.313280	3191.582226
385.698017	3217.042574
386.082692	3243.954774
386.467305	3246.964342
386.851856	3274.466357
387.236344	3309.903148
387.620770	3306.933909
388.005133	3321.608708
388.389435	3346.166688
388.773674	3341.758199
389.157851	3354.928214
389.541965	3362.542877
389.926018	3337.488342
390.310008	3359.858462
390.693936	3361.668237
391.077802	3357.400900
391.461606	3354.371166
391.845348	3348.697348
392.229027	3340.777695
392.612645	3351.860672
392.996200	3343.517562
393.379694	3339.792149
393.763125	3342.393385
394.146494	3319.849345
394.529801	3303.609268
394.913047	3302.762354
395.296230	3260.386415
395.679351	3223.752350
396.062410	3219.744632
396.445408	3161.909995
396.828343	3141.820997
397.211217	3112.630195
397.594028	3061.434758
397.976778	3037.872404
398.359466	3019.746936
398.742092	2979.826038
399.124656	2957.839046
399.507158	2937.429935
399.889598	2901.620098
400.271977	2885.440515
400.654294	2852.504136
401.036549	2829.554283
401.418742	2803.741055
401.800874	2787.422840
402.182944	2763.888213
402.564952	2750.594691
402.946898	2721.459342
403.328783	2699.585776
403.710606	2685.284022
404.092367	2670.904131
404.474067	2659.954745
404.855705	2636.803246
405.237282	2622.430916
405.618797	2615.522015
406.000250	2606.846189
406.381642	2593.270362
406.762972	2584.508836
407.144240	2571.525344
407.525447	2566.814386
407.906593	2557.992367
408.287677	2553.543549
408.668700	2550.483568
409.049661	2545.366797
409.430560	2537.860519
409.811399	2536.499408
410.192176	2533.441948
410.572891	2530.770136
410.953545	2529.698891
411.334138	2524.544311
411.714669	2526.175124
412.095139	2521.471728
412.475547	2521.965761
412.855894	2521.567510
413.236180	2522.240504
413.616405	2518.658764
413.996568	2515.651716
414.376670	2515.477796
414.756711	2514.388907
415.136691	2512.677435
415.516609	2512.972342
415.896466	2514.149452
416.276262	2513.801612
416.655997	2510.953360
417.035670	2509.176354
417.415283	2513.617610
417.794834	2507.414470
418.174324	2511.573422
418.553753	2510.461848
418.933121	2513.108454
419.312428	2508.851199
419.691674	2511.235665
420.070859	2509.383041
420.449983	2508.347084
420.829045	2513.053001
421.208047	2509.612413
421.586988	2512.367404
421.965867	2511.860768
422.344686	2513.148783
422.723444	2511.601149
423.102141	2512.737929
423.480777	2512.536283
423.859352	2513.287415
424.237866	2514.111643
424.616319	2513.594925
424.994712	2512.090141
425.373044	2513.577281
425.751314	2516.012158
426.129524	2511.170130
426.507673	2516.596932
426.885762	2514.260357
427.263789	2517.282529
427.641756	2516.881757
428.019662	2517.857221
428.397508	2516.488547
428.775292	2516.634741
429.153016	2517.983249
429.530679	2519.525843
429.908282	2516.607014
430.285824	2517.428723
430.663305	2515.538290
431.040726	2516.730523
431.418086	2515.495440
431.795385	2516.823784
432.172624	2520.322345
432.549802	2518.497447
432.926920	2518.812519
433.303977	2517.978208
433.680974	2518.767149
434.057910	2521.249917
434.434786	2517.927797
434.811601	2520.012314
435.188355	2518.920904
435.565050	2519.409896
435.941683	2521.133971
436.318257	2520.861748
436.694770	2517.640451
437.071222	2521.116327
437.447614	2516.821263
437.823946	2518.265554
438.200218	2521.718744
438.576429	2520.949968
438.952580	2517.083403
439.328670	2522.081707
439.704700	2522.787469
440.080670	2522.789990
440.456580	2521.854856
440.832429	2524.435926
441.208218	2522.111954
441.583947	2524.478776
441.959616	2522.726975
442.335224	2525.232429
442.710773	2526.142357
443.086261	2526.888448
443.461689	2524.992974
443.837057	2524.110772
444.212365	2523.407531
444.587612	2525.592871
444.962800	2521.474248
445.337927	2525.923067
445.712995	2522.127078
446.088002	2525.875176
446.462949	2525.272758
446.837837	2525.108920
447.212664	2525.217305
447.587431	2528.970444
447.962139	2531.241484
448.336786	2536.683410
448.711374	2528.698222
449.085901	2528.315094
449.460369	2527.647141
449.834776	2526.986750
450.209124	2532.494211
450.583412	2531.087729
450.957640	2531.309540
451.331808	2528.463808
451.705917	2526.578417
452.079965	2530.492873
452.453954	2527.606812
452.827883	2528.481452
453.201752	2524.932480
453.575562	2527.014477
453.949311	2525.040865
454.323001	2528.788963
454.696632	2526.550690
455.070202	2528.983047
455.443713	2531.599406
455.817164	2526.810310
456.190556	2526.396935
456.563888	2524.072963
456.937160	2525.038344
457.310373	2528.191586
457.683526	2528.418438
458.056619	2528.312574
458.429653	2528.622605
458.802628	2527.753006
459.175542	2531.256607
459.548398	2531.019673
459.921194	2530.409694
460.293930	2533.567977
460.666607	2534.399767
461.039224	2536.791794
461.411782	2535.261804
461.784280	2535.229037
462.156719	2532.179139
462.529099	2534.974458
462.901419	2530.644107
463.273680	2531.969931
463.645882	2532.138809
464.018024	2531.932122
464.390106	2533.709129
464.762130	2534.752648
465.134094	2537.290869
465.505999	2544.502239
465.877845	2549.371994
466.249631	2550.100441
466.621358	2549.162786
466.993026	2547.985677
467.364634	2546.075079
467.736184	2541.596014
468.107674	2539.657690
468.479105	2539.897145
468.850477	2540.537372
469.221790	2535.544109
469.593043	2535.075282
469.964238	2533.081505
470.335373	2531.138140
470.706449	2536.275076
471.077467	2537.079140
471.448425	2539.846734
471.819324	2540.844882
472.190164	2539.992927
472.560945	2539.037628
472.931667	2537.038811
473.302330	2532.237112
473.672934	2532.272400
474.043479	2534.455220
474.413965	2533.048738
474.784393	2527.889117
475.154761	2530.573531
475.525070	2527.939528
475.895321	2526.490197
476.265513	2526.459950
476.635645	2531.473377
477.005719	2530.704601
477.375734	2532.428676
477.745691	2531.065044
478.115588	2535.110570
478.485427	2533.557894
478.855207	2539.067875
479.224928	2537.686599
479.594591	2539.579552
479.964194	2538.036959
480.333739	2537.842875
480.703226	2537.996630
481.072653	2537.520241
481.442022	2540.643236
481.811333	2539.521579
482.180584	2538.238606
482.549777	2538.195756
482.918912	2537.099305
483.287988	2539.647608
483.657005	2537.280786
484.025964	2535.183666
484.394864	2535.831455
484.763706	2536.023018
485.132489	2535.463450
485.501213	2533.245343
485.869879	2533.315919
486.238487	2532.428676
486.607036	2534.868594
486.975527	2536.459078
487.343959	2533.613347
487.712333	2535.622247
488.080648	2538.253729
488.448905	2535.014788
488.817104	2535.281969
489.185244	2533.504962
489.553326	2535.203831
489.921350	2539.882022
490.289315	2537.754655
490.657222	2540.401261
491.025070	2539.332536
491.392861	2541.026364
491.760593	2538.611651
492.128267	2539.168698
492.495883	2537.232895
492.863440	2535.072761
493.230939	2534.125024
493.598380	2534.127545
493.965763	2528.693181
494.333088	2528.587317
494.700354	2528.365506
495.067563	2532.330373
495.434713	2528.799045
495.801805	2532.526978
496.168839	2532.292565
496.535815	2533.149561
496.902733	2530.389529
497.269593	2531.899355
497.636395	2527.949611
498.003139	2532.405991
498.369825	2534.374561
498.736453	2532.509334
499.103023	2529.474560
499.469535	2529.721576
499.835989	2530.200486
500.202385	2531.730476
500.568723	2529.109076
500.935003	2529.661082
501.301226	2529.416586
501.667390	2528.975485
502.033497	2532.153933
502.399546	2531.554036
502.765537	2529.277955
503.131470	2529.209899
503.497345	2532.736186
503.863163	2532.350538
504.228923	2527.632018
504.594625	2524.766122
504.960269	2526.535567
505.325856	2531.390198
505.691385	2529.391381
506.056856	2532.600075
506.422270	2530.266021
506.787625	2531.301978
507.152924	2528.473891
507.518164	2531.566638
507.883347	2529.771988
508.248472	2527.561442
508.613540	2528.771319
508.978550	2527.014477
509.343503	2526.621267
509.708398	2531.473377
510.073236	2527.974816
510.438016	2529.313243
510.802738	2530.266021
511.167403	2532.282482
511.532010	2527.637059
511.896561	2530.283665
512.261053	2533.038655
512.625488	2526.999353
512.989866	2527.611853
513.354186	2528.857018
513.718449	2527.092614
514.082655	2529.197296
514.446803	2526.127233
514.810894	2531.168387
515.174927	2527.637059
515.538904	2532.660569
515.902822	2529.724097
516.266684	2528.899868
516.630488	2531.160826
516.994235	2526.172604
517.357925	2531.554036
517.721558	2528.390712
518.085133	2528.403314
518.448651	2530.628984
518.812112	2527.022038
519.175516	2530.313912
519.538863	2527.803417
519.902152	2529.008253
520.265385	2526.959024
520.628560	2527.979857
520.991678	2529.842564
521.354739	2528.357944
521.717743	2527.616894
522.080690	2530.475229
522.443580	2530.288706
522.806413	2531.140661
523.169189	2528.791483
523.531908	2528.980527
523.894569	2525.650844
524.257174	2530.182842
524.619722	2529.381298
524.982213	2530.611340
525.344647	2527.788294
525.707025	2530.621422
526.069345	2526.023890
526.431608	2529.774508
526.793815	2526.003725
527.155964	2526.903571
527.518057	2524.859383
527.880093	2531.778367
528.242072	2528.060516
528.603995	2529.656041
528.965860	2527.969775
529.327669	2526.472552
529.689421	2526.419620
530.051117	2530.323994
530.412755	2525.784435
530.774337	2526.560773
531.135862	2529.530012
531.497331	2525.534898
531.858743	2522.522808
532.220098	2523.636903
532.581396	2523.281502
532.942638	2523.984743
533.303824	2525.441637
533.664953	2528.602440
534.026025	2526.016328
534.387040	2529.030938
534.747999	2526.354085
535.108902	2526.195289
535.469748	2527.367357
535.830537	2526.966586
536.191270	2528.287368
536.551947	2525.131606
536.912567	2525.842408
537.273131	2525.229908
537.633638	2529.222502
537.994089	2526.273427
538.354483	2526.669158
538.714821	2525.330731
539.075103	2529.396422
539.435328	2525.459281
539.795497	2526.233098
540.155609	2524.065402
540.515665	2526.525485
540.875665	2524.171266
541.235609	2526.732172
541.595496	2525.519774
541.955328	2527.563962
542.315102	2524.125895
542.674821	2525.517254
543.034483	2526.497758
543.394090	2528.441123
543.753640	2525.761750
544.113134	2526.671678
544.472571	2526.124713
544.831953	2527.321987
545.191278	2525.912984
545.550548	2524.420803
545.909761	2524.027593
546.268918	2527.465660
546.628019	2525.668488
546.987064	2524.839219
547.346053	2526.157480
547.704986	2524.614887
548.063863	2529.043541
548.422684	2524.476256
548.781449	2522.240504
549.140158	2526.480114
549.498811	2527.077491
549.857408	2523.425175
550.215949	2523.006759
550.574434	2521.375946
550.932864	2523.634383
551.291237	2521.857376
551.649555	2526.694363
552.007817	2522.732016
552.366022	2525.620597
552.724173	2525.020700
553.082267	2524.768643
553.440305	2521.786800
553.798288	2527.974816
554.156215	2523.082377
554.514086	2525.292922
554.871902	2527.080012
555.229661	2524.188910
555.587365	2523.873838
555.945014	2524.040196
556.302606	2526.654034
556.660143	2526.006246
557.017625	2524.627490
557.375050	2524.856863
557.732421	2524.871986
558.089735	2525.880217
558.446994	2524.312418
558.804197	2527.047244
559.161345	2525.446678
559.518437	2524.050278
559.875474	2521.922911
560.232455	2526.820392
560.589381	2522.482479
560.946251	2526.308715
561.303065	2524.198992
561.659825	2522.936183
562.016528	2523.871317
562.373177	2525.207223
562.729770	2524.163704
563.086307	2525.182017
563.442789	2525.978519
563.799216	2527.750485
564.155587	2524.438447
564.511904	2523.384846
564.868164	2527.016997
565.224370	2523.710000
565.580520	2524.761081
565.936615	2523.780576
566.292654	2526.454908
566.648638	2527.148067
567.004567	2523.243693
567.360441	2524.186389
567.716260	2524.088087
568.072023	2523.775535
568.427732	2521.126409
568.783385	2522.124557
569.138982	2521.126409
569.494525	2520.924763
569.850013	2520.624814
570.205445	2521.922911
570.560823	2524.093128
570.916145	2523.914167
571.271412	2523.747809
571.626625	2526.275947
571.981782	2522.374094
572.336884	2525.797038
572.691931	2523.251255
573.046923	2525.761750
573.401860	2525.371060
573.756743	2526.878365
574.111570	2523.478107
574.466342	2524.425844
574.821059	2524.728313
575.175722	2522.507685
575.530330	2523.767973
575.884882	2524.647655
576.239380	2524.650175
576.593823	2527.269055
576.948211	2523.815864
577.302544	2525.577748
577.656823	2523.291584
578.011047	2523.682274
578.365216	2523.442819
578.719330	2523.881399
579.073389	2527.357275
579.427394	2521.680936
579.781344	2523.644465
580.135239	2524.425844
580.489080	2520.828981
580.842866	2526.555732
581.196597	2527.546318
581.550273	2522.308559
581.903895	2522.517767
582.257463	2525.025741
582.610975	2523.483148
582.964434	2522.157325
583.317837	2522.837881
583.671186	2526.626308
584.024481	2523.369722
584.377721	2521.169259
584.730906	2522.946265
585.084037	2522.699249
585.437113	2524.161183
585.790135	2521.653209
586.143103	2524.128416
586.496016	2524.125895
586.848874	2519.472910
587.201679	2519.727489
587.554428	2520.702952
587.907124	2520.337468
588.259765	2519.992149
588.612352	2523.604136
588.964884	2521.716224
589.317362	2524.002387
589.669786	2522.648837
590.022155	2523.405010
590.374470	2522.800072
590.726731	2520.085411
591.078937	2523.193282
591.431090	2521.673374
591.783188	2520.367715
592.135232	2524.851822
592.487222	2522.492562
592.839157	2524.619928
593.191038	2523.266379
593.542866	2521.436440
593.894639	2524.476256
594.246358	2521.474248
594.598022	2524.244363
594.949633	2523.757891
595.301190	2520.531553
595.652692	2522.903416
596.004141	2519.843435
596.355535	2522.313601
596.706876	2523.619259
597.058162	2521.154135
597.409395	2524.057840
597.760573	2524.211595
598.111698	2521.713703
598.462768	2520.952489
598.813785	2522.190092
599.164748	2521.723786
599.515657	2520.884433
599.866511	2523.445340
600.217312	2521.199506
600.568060	2523.684794
600.918753	2525.267717
601.269392	2520.705473
601.619978	2522.953827
601.970510	2521.789321
602.320988	2521.958199
602.671412	2522.989115
603.021783	2522.341327
603.372100	2524.342665
603.722363	2522.046419
604.072572	2522.016173
604.422728	2522.744619
604.772830	2517.224556
605.122878	2520.753363
605.472872	2519.172962
605.822813	2518.172293
606.172701	2519.941738
606.522534	2521.912829
606.872314	2520.576923
607.222041	2522.444671
607.571714	2522.916018
607.921333	2520.859228
608.270899	2519.702283
608.620411	2521.295287
608.969870	2524.710669
609.319276	2522.245545
609.668627	2521.998528
610.017926	2522.827798
610.367171	2520.627335
610.716362	2524.667819
611.065500	2522.779907
611.414585	2525.360978
611.763616	2521.849814
612.112594	2521.252438
612.461518	2522.384177
612.810389	2521.431399
613.159207	2520.559279
613.507971	2523.072294
613.856682	2522.033817
614.205340	2521.239835
614.553945	2522.820237
614.902496	2522.091790
615.250994	2521.479290
615.599439	2523.001718
615.947830	2524.705628
616.296169	2523.735206
616.644454	2523.788138
616.992686	2519.661954
617.340864	2521.128929
617.688990	2521.764115
618.037063	2522.563138
618.385082	2522.389218
618.733048	2521.849814
619.080961	2519.447705
619.428821	2522.285874
619.776628	2520.440812
620.124382	2522.716893
620.472083	2521.459125
620.819731	2521.375946
621.167326	2521.970802
621.514868	2523.034486
621.862357	2523.263858
622.209793	2522.028775
622.557176	2521.688498
622.904506	2521.023065
623.251783	2518.999042
623.599007	2520.866789
623.946179	2515.553413
624.293297	2518.716737
624.640363	2519.919052
624.987376	2521.297808
625.334336	2522.379136
625.681243	2522.550535
626.028097	2518.631038
626.374899	2520.400483
626.721647	2520.929804
627.068343	2522.066584
627.414987	2521.144053
627.761577	2520.397962
628.108115	2520.294618
628.454600	2521.688498
628.801032	2522.134640
629.147412	2520.423168
629.493739	2522.197654
629.840014	2520.715555
630.186236	2521.040709
630.532405	2519.908970
630.878521	2519.341840
631.224585	2522.527850
631.570597	2517.622807
631.916556	2521.186903
632.262462	2521.489372
632.608316	2520.256810
632.954117	2520.105575
633.299866	2518.913342
633.645562	2518.449556
633.991206	2518.643641
634.336797	2519.495596
634.682336	2520.932324
635.027823	2520.029958
635.373257	2517.610204
635.718639	2521.799403
636.063968	2520.017355
636.409245	2520.297139
636.754470	2519.939217
637.099642	2518.978877
637.444762	2523.089938
637.789829	2521.451563
638.134845	2517.859741
638.479808	2517.660616
638.824719	2518.338651
639.169577	2519.661954
639.514383	2520.430730
639.859137	2518.212622
640.203839	2519.117509
640.548489	2518.552900
640.893086	2518.888137
641.237632	2516.395286
641.582125	2516.261695
641.926566	2516.249092
642.270955	2517.892509
642.615292	2520.234125
642.959576	2520.370236
643.303809	2517.723630
643.647990	2520.171110
643.992118	2518.212622
644.336195	2517.950482
644.680219	2520.425688
645.024192	2518.913342
645.368112	2517.340502
645.711981	2517.572395
646.055797	2520.879392
646.399562	2519.334279
646.743274	2521.759074
647.086935	2518.260513
647.430544	2520.193795
647.774101	2521.015503
648.117606	2516.526356
648.461059	2521.161697
648.804460	2523.006759
649.147810	2520.886954
649.491108	2518.250431
649.834354	2519.185565
650.177548	2520.713034
650.520690	2518.704134
650.863781	2520.060205
651.206820	2519.974505
651.549807	2516.604494
651.892742	2518.061387
652.235626	2519.722447
652.578458	2518.378980
652.921238	2517.769000
653.263967	2517.476613
653.606644	2517.345543
653.949269	2518.820081
654.291843	2520.957530
654.634365	2516.143228
654.976836	2516.612056
655.319255	2517.101047
655.661622	2518.424350
656.003938	2519.644310
656.346203	2519.235976
656.688416	2517.698424
657.030577	2518.961233
657.372687	2521.010462
657.714746	2518.326048
658.056753	2521.776718
658.398708	2513.814215
658.740612	2516.516274
659.082465	2512.397651
659.424266	2514.439318
659.766016	2514.199863
660.107715	2517.446367
660.449362	2518.222704
660.790958	2519.919052
661.132503	2518.414268
661.473996	2520.644979
661.815438	2517.670698
662.156829	2518.895698
662.498168	2515.384535
662.839456	2518.696573
663.180693	2516.773372
663.521879	2516.491068
663.863013	2517.917714
664.204097	2515.591222
664.545129	2519.747653
664.886110	2516.977539
665.227040	2518.804958
665.567918	2515.104751
665.908746	2517.700945
666.249522	2520.415606
666.590248	2516.133146
666.930922	2517.446367
667.271545	2513.410923
667.612118	2519.974505
667.952639	2516.168434
668.293109	2519.319155
668.633528	2516.256654
668.973896	2515.815553
669.314213	2518.137005
669.654480	2519.767818
669.994695	2518.845287
670.334859	2517.141377
670.674973	2517.481655
671.015035	2520.675226
671.355047	2517.584998
671.695008	2518.759587
672.034918	2515.293794
672.374777	2519.888806
672.714585	2515.860924
673.054342	2516.337313
673.394049	2516.062570
673.733705	2517.907632
674.073310	2519.346882
674.412864	2519.661954
674.752368	2519.349402
675.091820	2518.257992
675.431223	2519.228414
675.770574	2517.400996
676.109875	2511.989318
676.449125	2513.408402
676.788324	2513.310100
677.127473	2514.560306
677.466571	2509.355315
677.805619	2516.617097
678.144616	2514.338495
678.483562	2518.459638
678.822458	2517.653054
679.161303	2519.309073
679.500098	2518.179854
679.838842	2519.982067
680.177535	2518.212622
680.516179	2517.980729
680.854771	2516.559123
681.193314	2518.404186
681.531805	2516.846469
681.870247	2516.019720
682.208638	2515.520646
682.546978	2521.867458
682.885268	2517.280008
683.223508	2518.280678
683.561697	2514.686335
683.899836	2518.124402
684.237925	2516.521315
684.575963	2517.748836
684.913951	2515.077024
685.251889	2518.318486
685.589776	2515.404699
685.927614	2517.607683
686.265401	2517.559793
686.603137	2521.620442
686.940824	2518.522653
687.278460	2519.246058
687.616046	2515.336644
687.953582	2518.557941
688.291068	2518.575585
688.628504	2518.328568
688.965889	2514.991325
689.303224	2520.314783
689.640510	2518.565503
689.977745	2518.878054
690.314930	2517.164062
690.652065	2517.716068
690.989150	2518.084073
691.326185	2515.704648
691.663170	2516.987622
692.000105	2516.869154
692.336990	2515.855882
692.673825	2515.618948
693.010610	2517.829494
693.347345	2511.996879
693.684030	2515.346726
694.020665	2512.500995
694.357251	2512.387569
694.693786	2516.818743
695.030272	2516.773373
695.366707	2517.199350
695.703093	2515.046777
696.039429	2514.111643
696.375716	2514.131808
696.711952	2514.875378
697.048139	2514.310769
697.384276	2514.139370
697.720363	2514.406551
698.056400	2513.950326
698.392388	2514.802281
698.728326	2515.255985
699.064214	2515.417302
699.400053	2513.685666
699.735842	2517.416120
700.071581	2514.610718
700.407270	2515.316479
700.742910	2512.160717
701.078501	2513.625172
701.414042	2516.997704
701.749533	2516.480986
702.084974	2514.774555
702.420366	2514.358660
702.755709	2515.876047
703.091002	2514.162055
703.426246	2515.334123
703.761440	2515.059380
704.096584	2516.619617
704.431679	2511.308762
704.766725	2516.748167
705.101721	2513.625172
705.436668	2515.155162
705.771565	2516.087776
706.106413	2513.678104
706.441212	2515.374452
706.775961	2517.045595
707.110661	2515.518125
707.445311	2517.214473
707.779913	2517.413599
708.114465	2516.612056
708.448967	2515.074504
708.783421	2513.093330
709.117825	2515.162724
709.452180	2517.930317
709.786485	2515.780265
710.120742	2514.285563
710.454949	2514.519977
710.789107	2515.780265
711.123216	2510.242558
711.457275	2514.288084
711.791286	2510.986128
712.125247	2513.448732
712.459159	2515.364370
712.793023	2516.957375
713.126837	2515.349247
713.460602	2515.971829
713.794318	2515.750018
714.127985	2516.564165
714.461602	2513.282373
714.795171	2516.438136
715.128691	2514.693897
715.462162	2512.995028
715.795584	2514.066273
716.128957	2514.114164
716.462281	2515.568537
716.795556	2515.225738
717.128782	2515.213135
717.461960	2514.618279
717.795088	2514.918228
718.128167	2515.394617
718.461198	2513.584843
718.794180	2515.782786
719.127113	2512.601818
719.459997	2515.097189
719.792833	2514.419154
720.125619	2514.187261
720.458357	2510.862620
720.791046	2512.846314
721.123686	2514.746829
721.456278	2513.569719
721.788821	2513.310100
722.121315	2514.207425
722.453761	2516.634741
722.786158	2513.181550
723.118506	2512.821108
723.450805	2513.478978
723.783056	2512.412774
724.115259	2516.226407
724.447412	2513.176509
724.779518	2516.566685
725.111574	2513.504184
725.443582	2515.233300
725.775542	2515.011489
726.107453	2516.007117
726.439315	2512.742970
726.771129	2518.444515
727.102895	2513.809174
727.434612	2513.355470
727.766281	2513.322703
728.097901	2513.231962
728.429473	2509.924965
728.760996	2513.463855
729.092471	2511.074348
729.423897	2512.112826
729.755276	2514.204905
730.086606	2513.713392
730.417887	2513.035357
730.749120	2515.913856
731.080305	2510.532424
731.411442	2513.884791
731.742530	2514.270440
732.073570	2517.844618
732.404562	2514.043588
732.735506	2516.538959
733.066401	2511.999400
733.397249	2511.833042
733.728048	2515.656757
734.058798	2517.264885
734.389501	2518.389062
734.720156	2514.005779
735.050762	2513.700789
735.381320	2513.607528
735.711831	2513.965450
736.042293	2516.135667
736.372707	2512.395130
736.703073	2515.888650
737.033391	2511.336488
737.363661	2513.385717
737.693883	2513.670542
738.024056	2513.186592
738.354182	2514.068793
738.684260	2515.558454
739.014290	2514.976201
739.344272	2512.140552
739.674207	2513.768845
740.004093	2513.952847
740.333931	2511.560819
740.663722	2514.827487
740.993464	2514.814884
741.323159	2515.634072
741.652806	2515.961747
741.982405	2513.617610
742.311956	2513.589884
742.641460	2514.792199
742.970915	2511.578463
743.300323	2513.605007
743.629683	2511.974194
743.958996	2513.229441
744.288260	2513.015192
744.617477	2513.768845
744.946647	2510.101405
745.275768	2512.637106
745.604842	2511.031498
745.933869	2508.747856
746.262847	2507.994203
746.591778	2513.794051
746.920662	2512.092661
747.249498	2514.416633
747.578286	2512.526200
747.907027	2515.737415
748.235720	2513.736077
748.564365	2509.708195
748.892963	2513.005110
749.221514	2512.997548
749.550017	2512.594256
749.878473	2515.666839
750.206881	2511.817918
750.535242	2512.506036
750.863555	2511.734739
751.191821	2513.310100
751.520039	2509.793895
751.848210	2515.364370
752.176334	2513.007631
752.504411	2513.292456
752.832440	2512.662312
753.160421	2514.560306
753.488356	2513.993176
753.816243	2510.247599
754.144082	2511.858247
754.471875	2511.366735
754.799620	2512.690038
755.127318	2510.761797
755.454969	2512.959740
755.782572	2509.930006
756.110129	2513.131139
756.437638	2512.301869
756.765100	2514.146931
757.092515	2512.677435
757.419882	2512.576612
757.747203	2512.372445
758.074477	2512.248937
758.401703	2514.008300
758.728882	2513.983094
759.056014	2510.877743
759.383099	2510.227434
759.710138	2514.149452
760.037129	2510.494615
760.364073	2513.665501
760.690970	2513.846983
761.017820	2513.756242
761.344623	2511.714575
761.671379	2511.240706
761.998088	2509.120901
762.324751	2511.202897
762.651366	2510.590397
762.977935	2513.300018
763.304456	2512.006962
763.630931	2515.855882
763.957359	2513.864627
764.283740	2515.142559
764.610074	2509.982938
764.936362	2514.386386
765.262602	2512.929493
765.588796	2511.991838
765.914943	2514.081396
766.241044	2512.440501
766.567097	2511.205418
766.893104	2513.327744
767.219064	2510.797085
767.544978	2513.615090
767.870845	2512.823628
768.196665	2511.911180
768.522438	2514.315810
768.848165	2514.956037
769.173846	2510.265243
769.499479	2512.387569
769.825066	2512.954698
770.150607	2509.682990
770.476101	2509.468741
770.801548	2514.499812
771.126949	2511.533093
771.452303	2511.084430
771.777611	2509.415808
772.102872	2512.997548
772.428087	2510.161899
772.753256	2510.275325
773.078378	2511.757424
773.403453	2512.995028
773.728482	2508.231137
774.053465	2510.431601
774.378401	2511.296159
774.703291	2511.165089
775.028135	2510.429080
775.352932	2510.686179
775.677683	2512.052332
776.002388	2510.217352
776.327046	2510.250119
776.651658	2515.281191
776.976224	2509.803977
777.300743	2511.883453
777.625216	2509.340191
777.949643	2510.759276
778.274024	2509.380520
778.598359	2508.026971
778.922647	2505.597134
779.246889	2509.776251
779.571086	2507.686693
779.895236	2509.196518
780.219339	2509.904800
780.543397	2511.543175
780.867409	2508.505880
781.191374	2512.012003
781.515294	2513.539472
781.839167	2508.851199
782.162995	2511.182733
782.486776	2511.996879
782.810511	2511.800274
783.134201	2510.126611
783.457844	2512.397651
783.781441	2510.139214
784.104993	2511.815398
784.428498	2513.121057
784.751958	2510.900428
785.075372	2509.851868
785.398739	2509.110819
785.722061	2510.552589
786.045337	2511.528052
786.368568	2512.982425
786.691752	2510.547547
787.014891	2510.232475
787.337983	2512.690038
787.661030	2510.958402
787.984031	2511.694410
788.306987	2513.720954
788.629897	2510.812208
788.952760	2510.088803
789.275579	2511.591066
789.598351	2511.139883
789.921078	2511.689369
790.243759	2509.902280
790.566395	2513.431088
790.888984	2508.460510
791.211529	2512.692558
791.534027	2510.996210
791.856480	2511.034019
792.178888	2511.233144
792.501249	2509.932527
792.823566	2511.966632
793.145836	2508.863802
793.468062	2512.158196
793.790241	2512.773217
794.112375	2512.173320
794.434464	2510.313134
794.756507	2510.754235
795.078505	2513.907477
795.400457	2510.023268
795.722364	2506.950684
796.044226	2507.200221
796.366042	2508.193329
796.687812	2508.866323
797.009538	2512.246416
797.331218	2508.770541
797.652852	2512.342198
797.974442	2511.026457
798.295986	2510.799605
798.617484	2510.923113
798.938938	2509.730881
799.260346	2512.190964
799.581709	2511.946468
799.903026	2514.245234
800.224299	2510.479492
800.545526	2510.265243
800.866708	2510.842455
801.187845	2510.476971
801.508936	2509.219203
801.829983	2511.278515
802.150984	2511.210459
802.471940	2507.653925
802.792851	2509.751045
803.113717	2512.866478
803.434538	2509.067969
803.755314	2511.754904
804.076045	2508.730212
804.396731	2511.787671
804.717372	2509.060407
805.037967	2510.040912
805.358518	2510.910511
805.679024	2513.078207
805.999485	2508.982269
806.319901	2511.361694
806.640272	2508.508401
806.960598	2511.444873
807.280879	2509.786333
807.601115	2508.556292
807.921306	2509.017557
808.241453	2509.917403
808.561554	2509.715757
808.881611	2513.920079
809.201623	2513.521828
809.521590	2507.124604
809.841513	2512.339678
810.161390	2508.339522
810.481223	2512.362363
810.801011	2510.068638
811.120755	2507.472444
811.440453	2509.897239
811.760107	2510.139214
812.079716	2506.320540
812.399281	2507.303565
812.718801	2506.431445
813.038276	2506.123935
813.357707	2510.683659
813.677093	2509.972856
813.996434	2510.300531
814.315731	2510.648371
814.634983	2510.739111
814.954191	2511.127280
815.273354	2510.020747
815.592473	2509.582167
815.911547	2508.026971
816.230577	2510.938237
816.549562	2510.166940
816.868502	2511.293638
817.187399	2510.373628
817.506250	2507.691734
817.825058	2509.771210
818.143821	2509.627537
818.462539	2509.617455
818.781213	2510.353463
819.099843	2511.344050
819.418429	2506.197032
819.736970	2510.088802
820.055466	2510.671056
820.373919	2509.418329
820.692327	2510.240037
821.010691	2511.701972
821.329011	2514.245234
821.647286	2514.159534
821.965517	2517.169103
822.283704	2519.838394
822.601847	2520.559279
822.919945	2518.494927
823.237999	2515.833197
823.556010	2516.917045
823.873976	2513.816736
824.191897	2514.073835
824.509775	2512.924452
824.827609	2513.700789
825.145398	2510.378669
825.463144	2512.894205
825.780845	2514.283042
826.098502	2511.938906
826.416116	2513.249606
826.733685	2512.130470
827.051210	2513.930162
827.368692	2513.347908
827.686129	2512.944616
828.003522	2515.114833
828.320872	2509.735922
828.638177	2507.674090
828.955439	2507.774913
829.272656	2509.161230
829.589830	2507.033863
829.906960	2510.192146
830.224046	2509.690551
830.541088	2510.668535
830.858086	2508.382372
831.175041	2508.820952
831.491952	2511.533093
831.808819	2507.848010
832.125642	2510.852537
832.442421	2509.995541
832.759157	2508.682321
833.075849	2511.943947
833.392497	2511.424708
833.709101	2510.650891
834.025662	2511.875892
834.342179	2512.816067
834.658653	2509.700634
834.975083	2510.595438
835.291469	2515.160203
835.607811	2510.930675
835.924110	2510.504698
836.240366	2509.400685
836.556578	2509.420850
836.872746	2508.929337
837.188871	2505.690396
837.504952	2511.417147
837.820990	2509.279697
838.136984	2508.475633
838.452935	2509.357835
838.768842	2509.199039
839.084706	2509.098216
839.400526	2509.350273
839.716303	2507.154851
840.032037	2510.426560
840.347727	2510.008144
840.663373	2509.110819
840.978977	2506.827176
841.294537	2507.056548
841.610054	2508.505880
841.925527	2507.827845
842.240957	2509.138545
842.556344	2507.495129
842.871687	2508.110150
843.186987	2507.270798
843.502244	2507.301044
843.817458	2511.404544
844.132629	2507.348935
844.447756	2510.267763
844.762840	2504.089829
845.077881	2505.753410
845.392879	2503.227792
845.707833	2506.834738
846.022745	2503.147134
846.337613	2507.210304
846.652438	2507.537979
846.967221	2508.687362
847.281960	2509.599811
847.596656	2508.422701
847.911309	2507.656446
848.225919	2506.917917
848.540485	2509.975377
848.855009	2508.268946
849.169490	2507.782475
849.483928	2509.836745
849.798323	2504.742659
850.112675	2509.922444
850.426984	2507.104439
850.741251	2507.714419
851.055474	2506.086126
851.369654	2506.892711
851.683792	2507.167454
851.997887	2509.725839
852.311938	2509.317506
852.625947	2506.000427
852.939914	2508.503360
853.253837	2509.562002
853.567718	2508.657115
853.881555	2508.528565
854.195350	2506.900273
854.509103	2508.147958
854.822812	2506.156703
855.136479	2509.057887
855.450103	2506.996055
855.763685	2507.532938
856.077224	2506.363390
856.390720	2510.955881
856.704173	2507.598473
857.017584	2509.372959
857.330953	2509.713237
857.644278	2509.831704
857.957561	2511.638957
858.270802	2511.830521
858.584000	2507.921106
858.897155	2509.335150
859.210268	2506.350787
859.523339	2508.768020
859.836367	2507.800119
860.149352	2508.268946
860.462295	2505.821466
860.775195	2505.256857
861.088054	2503.321053
861.400869	2505.130828
861.713642	2503.126969
862.026373	2506.335663
862.339062	2507.981600
862.651708	2506.940602
862.964312	2506.897752
863.276873	2510.613083
863.589392	2508.422701
863.901869	2505.992865
864.214303	2509.357835
864.526696	2508.936899
864.839045	2507.860612
865.151353	2506.960767
865.463619	2504.687206
865.775842	2510.822290
866.088023	2505.317350
866.400162	2508.271467
866.712258	2506.852382
867.024313	2510.164420
867.336325	2507.744666
867.648296	2508.768020
867.960224	2508.611744
868.272110	2511.568381
868.583954	2505.198883
868.895755	2507.938750
869.207515	2505.350118
869.519233	2509.761128
869.830909	2506.736435
870.142542	2509.007475
870.454134	2505.740807
870.765684	2510.033350
871.077191	2505.796260
871.388657	2509.022598
871.700081	2504.427587
872.011463	2507.442197
872.322803	2506.320540
872.634101	2509.125942
872.945357	2507.631240
873.256571	2508.130314
873.567744	2510.083761
873.878874	2505.914727
874.189963	2504.593945
874.501010	2510.837414
874.812015	2507.071672
875.122979	2507.754748
875.433900	2508.538648
875.744780	2508.294152
876.055618	2505.758451
876.366415	2509.677948
876.677169	2507.739625
876.987882	2506.993534
877.298554	2501.901969
877.609183	2505.377844
877.919771	2502.196876
878.230317	2504.979593
878.540822	2509.047804
878.851285	2509.065448
879.161707	2507.071672
879.472087	2507.535458
879.782425	2508.606703
880.092722	2507.414470
880.402977	2510.988648
880.713191	2507.245592
881.023363	2510.129132
881.333494	2514.449401
881.643583	2511.117198
881.953631	2515.807992
882.263637	2512.107785
882.573602	2509.534276
882.883526	2513.685666
883.193408	2508.957063
883.503248	2509.027640
883.813048	2510.484533
884.122806	2508.596621
884.432522	2510.340860
884.742197	2509.141066
885.051831	2508.389934
885.361424	2510.686179
885.670975	2508.838596
885.980485	2509.128463
886.289954	2508.170643
886.599382	2507.490088
886.908768	2508.941940
887.218113	2505.856754
887.527417	2508.674759
887.836680	2507.517814
888.145901	2506.892711
888.455082	2507.434635
888.764221	2507.406909
889.073319	2508.042094
889.382376	2506.980931
889.691392	2507.999244
890.000366	2508.473113
890.309300	2508.515962
890.618193	2510.182064
890.927044	2506.691065
891.235855	2507.427073
891.544625	2506.912876
891.853353	2507.716940
892.162041	2508.944461
892.470687	2509.556961
892.779293	2506.731394
893.087858	2506.784326
893.396381	2502.980776
893.704864	2504.193173
894.013306	2504.314161
894.321707	2507.666528
894.630068	2510.028309
894.938387	2509.075531
895.246665	2507.787516
895.554903	2506.930520
895.863100	2506.688544
896.171256	2509.708195
896.479371	2509.483864
896.787446	2505.259377
897.095480	2505.980262
897.403473	2506.093688
897.711425	2509.362876
898.019336	2508.463030
898.327207	2508.218534
898.635038	2504.785509
898.942827	2506.577639
899.250576	2508.581498
899.558284	2507.613596
899.865952	2510.098885
900.173579	2506.781806
900.481165	2507.976559
900.788711	2508.140397
901.096216	2507.669049
901.403681	2507.416991
901.711105	2508.773061
902.018489	2509.471261
902.325832	2507.074193
902.633135	2508.218534
902.940397	2506.013030
903.247619	2505.929851
903.554800	2508.904131
903.861941	2507.825324
904.169041	2508.238699
904.476101	2507.202742
904.783121	2509.645181
905.090100	2507.346415
905.397039	2508.447907
905.703938	2506.572598
906.010796	2507.671569
906.317614	2508.352125
906.624391	2505.541682
906.931129	2508.740294
907.237826	2506.623009
907.544483	2506.645694
907.851099	2506.043277
908.157675	2505.161075
908.464211	2506.801970
908.770707	2502.048162
909.077163	2504.208297
909.383578	2502.423728
909.689954	2505.045128
909.996289	2503.885663
910.302584	2505.720643
910.608839	2508.062259
910.915054	2504.510766
911.221229	2506.121414
911.527363	2507.338853
911.833458	2503.608399
912.139513	2507.076713
912.445527	2507.900942
912.751502	2506.247443
913.057436	2504.903976
913.363331	2506.958246
913.669186	2507.580828
913.975000	2508.604183
914.280775	2505.760972
914.586510	2506.875067
914.892205	2506.496980
915.197859	2506.965808
915.503475	2510.159379
915.809050	2507.696775
916.114585	2510.653412
916.420081	2507.608555
916.725536	2509.551920
917.030952	2506.265087
917.336328	2509.947650
917.641665	2506.043277
917.946961	2506.121414
918.252218	2505.723163
918.557435	2508.039573
918.862612	2508.914214
919.167750	2509.110819
919.472848	2507.502691
919.777906	2505.145951
920.082925	2506.295334
920.387904	2505.077896
920.692843	2506.849861
920.997743	2507.709378
921.302603	2509.294821
921.607423	2502.902638
921.912204	2508.160561
922.216946	2506.126456
922.521647	2507.898421
922.826310	2505.965139
923.130932	2505.428256
923.435516	2508.236178
923.740059	2505.829027
924.044564	2507.575787
924.349028	2504.430107
924.653454	2499.275528
924.957840	2504.450272
925.262186	2502.988337
925.566493	2506.033194
925.870761	2504.102432
926.174989	2505.763492
926.479178	2504.452792
926.783328	2505.002278
927.087438	2506.864985
927.391509	2504.903976
927.695541	2504.452792
927.999533	2506.378513
928.303486	2505.367762
928.607400	2506.524707
928.911275	2506.040756
929.215110	2506.290293
929.518906	2507.442197
929.822663	2505.410612
930.126381	2505.186280
930.430060	2507.293483
930.733699	2504.929182
931.037299	2506.980931
931.340861	2505.564367
931.644383	2508.059738
931.947866	2503.734428
932.251309	2505.022443
932.554714	2505.992865
932.858080	2507.951353
933.161407	2507.290962
933.464694	2504.694768
933.767943	2503.510097
934.071153	2503.142092
934.374323	2507.968997
934.677455	2506.776764
934.980548	2504.485560
935.283602	2506.219717
935.586617	2506.491939
935.889593	2505.972700
936.192530	2506.723832
936.495428	2502.690909
936.798287	2507.480005
937.101108	2506.010509
937.403890	2507.013699
937.706632	2504.939264
938.009336	2504.157885
938.312002	2506.875067
938.614628	2504.535972
938.917216	2505.430776
939.219765	2505.045128
939.522275	2507.517814
939.824747	2507.268277
940.127179	2501.831393
940.429573	2501.460868
940.731929	2504.762823
941.034246	2498.000116
941.336524	2504.621671
941.638763	2507.553102
941.940964	2505.156033
942.243126	2505.425735
942.545250	2508.684841
942.847335	2505.357680
943.149381	2505.821466
943.451389	2503.285765
943.753359	2507.159892
944.055290	2505.062772
944.357182	2508.503360
944.659036	2504.815756
944.960851	2508.616786
945.262628	2504.364572
945.564367	2505.450941
945.866067	2506.895232
946.167729	2506.020591
946.469352	2506.307937
946.770937	2503.051352
947.072484	2505.334994
947.373992	2505.639984
947.675462	2507.570746
947.976893	2506.139058
948.278286	2505.214007
948.579641	2505.909686
948.880958	2503.953718
949.182236	2504.972031
949.483476	2505.695437
949.784678	2507.492608
950.085841	2502.332987
950.386967	2507.296003
950.688054	2503.928513
950.989103	2507.575787
951.290114	2504.803153
951.591087	2506.335663
951.892021	2502.060765
952.192917	2504.228461
952.493776	2506.882629
952.794596	2504.770385
953.095378	2507.056548
953.396122	2506.459172
953.696828	2505.992865
953.997496	2506.433966
954.298126	2507.477485
954.598718	2507.185098
954.899272	2507.845489
955.199788	2505.239213
955.500266	2507.991683
955.800706	2501.284427
956.101108	2501.503717
956.401472	2502.267452
956.701798	2502.033039
957.002087	2502.164109
957.302337	2502.978255
957.602550	2505.917248
957.902724	2502.985817
958.202861	2506.181908
958.502960	2504.218379
958.803022	2504.843482
959.103045	2504.805673
959.403031	2503.711743
959.702979	2505.776095
960.002889	2506.804491
960.302762	2503.802484
960.602596	2503.515138
960.902393	2504.707371
961.202153	2504.719974
961.501875	2506.466733
961.801559	2503.527741
962.101205	2504.798112
962.400814	2507.195180
962.700385	2505.786178
962.999918	2505.239213
963.299414	2502.436331
963.598873	2502.479181
963.898293	2501.773419
964.197677	2503.726866
964.497022	2503.769716
964.796331	2502.905158
965.095601	2505.140910
965.394835	2508.213493
965.694030	2503.184942
965.993189	2507.679131
966.292309	2502.559839
966.591393	2504.447751
966.890439	2503.346259
967.189447	2505.123266
967.488419	2502.721156
967.787353	2508.538648
968.086249	2504.225941
968.385108	2503.855416
968.683930	2509.075531
968.982714	2500.440034
969.281462	2505.246774
969.580172	2502.522031
969.878844	2504.238543
970.177480	2505.735766
970.476078	2504.503204
970.774639	2508.589059
971.073162	2503.850375
971.371649	2505.284583
971.670098	2501.024808
971.968510	2504.483039
972.266885	2500.490446
972.565223	2500.112359
972.863524	2504.200735
973.161788	2503.741990
973.460014	2503.661331
973.758204	2504.977073
974.056356	2503.736949
974.354471	2504.460354
974.652550	2504.969511
974.950591	2503.810045
975.248595	2505.647546
975.546563	2503.643687
975.844493	2503.931033
976.142386	2505.125787
976.440243	2507.406909
976.738062	2504.707371
977.035845	2504.601507
977.333590	2504.137720
977.631299	2504.646877
977.928971	2502.085971
978.226606	2504.079747
978.524204	2503.177381
978.821765	2504.712412
979.119290	2505.433297
979.416777	2504.707371
979.714228	2503.336177
980.011642	2503.396671
980.309020	2507.495129
980.606360	2503.628564
980.903664	2502.970693
981.200931	2504.341887
981.498162	2504.709891
981.795356	2504.725015
982.092513	2506.149141
982.389633	2504.046980
982.686717	2503.585714
982.983764	2506.514624
983.280775	2502.731238
983.577749	2503.462206
983.874686	2506.212155
984.171587	2503.406753
984.468451	2501.944818
984.765279	2504.538492
985.062070	2504.155364
985.358824	2504.994717
985.655543	2501.690240
985.952224	2503.908348
986.248869	2502.711074
986.545478	2501.188645
986.842050	2504.238543
987.138586	2497.266628
987.435086	2502.083450
987.731549	2498.352996
988.027975	2504.634274
988.324366	2503.568070
988.620719	2505.390447
988.917037	2504.573780
989.213318	2501.808707
989.509563	2502.920282
989.805772	2504.011692
990.101944	2503.258039
990.398080	2507.515293
990.694180	2502.544716
990.990244	2506.310458
991.286271	2503.240395
991.582262	2504.896414
991.878217	2505.498832
992.174136	2504.379696
992.470019	2503.815087
992.765865	2506.814573
993.061676	2503.726866
993.357450	2504.730056
993.653188	2501.627226
993.948890	2503.399191
994.244556	2504.427587
994.540186	2503.888183
994.835780	2504.523369
995.131337	2504.813235
995.426859	2506.794408
995.722345	2504.606548
996.017795	2507.469923
996.313208	2505.511435
996.608586	2504.099912
996.903928	2503.943636
997.199234	2502.842144
997.494504	2501.549088
997.789738	2505.115704
998.084936	2503.923471
998.380099	2503.270642
998.675225	2504.263749
998.970316	2504.109994
999.265371	2506.290293
999.560390	2502.743841
999.855373	2501.090343
1000.150320	2505.261898
1000.445232	2505.100581
1000.740108	2502.685868
1001.034948	2507.245592
1001.329752	2505.498832
1001.624521	2503.318533
1001.919254	2497.969869
1002.213951	2500.409787
1002.508613	2499.015908
1002.803239	2503.016064
1003.097829	2498.519354
1003.392384	2502.890035
1003.686903	2502.506907
1003.981386	2504.626712
1004.275834	2503.837772
1004.570246	2504.109994
1004.864623	2503.051352
1005.158964	2504.349449
1005.453270	2503.285765
1005.747540	2502.620333
1006.041775	2503.661331
1006.335974	2504.107473
1006.630138	2504.026815
1006.924266	2503.908348
1007.218359	2502.668224
1007.512416	2501.433141
1007.806438	2503.825169
1008.100425	2503.338697
1008.394376	2501.763337
1008.688292	2502.138903
1008.982172	2502.179232
1009.276017	2503.124448
1009.569827	2503.326095
1009.863602	2505.682834
1010.157341	2502.030518
1010.451045	2502.910199
1010.744714	2502.827020
1011.038347	2504.586383
1011.331945	2501.659993
1011.625508	2500.903820
1011.919036	2504.856085
1012.212528	2502.184273
1012.505986	2502.713594
1012.799408	2502.443893
1013.092795	2500.331649
1013.386147	2503.603358
1013.679464	2503.041269
1013.972745	2501.665034
1014.265992	2500.969355
1014.559204	2502.937926
1014.852380	2504.185611
1015.145521	2502.012874
1015.438628	2502.620333
1015.731699	2504.999758
1016.024736	2501.907010
1016.317737	2503.532782
1016.610703	2500.250991
1016.903635	2500.661845
1017.196531	2500.167812
1017.489393	2501.975065
1017.782219	2499.399036
1018.075011	2503.656290
1018.367768	2503.812566
1018.660490	2502.978255
1018.953177	2502.978255
1019.245829	2502.978255
