Dividing Wavelength (nm)	Counts (n)	Blue Motor Position (mm): 0.000000	Red Motor Position (mm): 32.700000	
326.493990	2126.842643
326.888308	2126.842643
327.282561	2126.842643
327.676750	2095.889958
328.070874	2095.317788
328.464933	2096.217633
328.858929	2102.604775
329.252859	2114.317896
329.646726	2125.010184
330.040528	2136.877060
330.434265	2152.219812
330.827938	2170.488953
331.221547	2188.674916
331.615091	2207.496063
332.008571	2226.269320
332.401986	2246.640623
332.795338	2268.310023
333.188625	2285.787703
333.581847	2304.863429
333.975006	2322.893116
334.368100	2341.905828
334.761129	2360.868128
335.154095	2373.876826
335.546996	2392.405587
335.939833	2412.424008
336.332606	2428.439754
336.725315	2440.835952
337.117960	2450.751901
337.510540	2460.062912
337.903056	2471.249233
338.295508	2477.467496
338.687896	2482.836325
339.080220	2493.337048
339.472480	2501.044973
339.864676	2504.379696
340.256807	2508.513442
340.648875	2512.248937
341.040879	2515.568537
341.432818	2515.346726
341.824694	2518.250431
342.216506	2518.941069
342.608253	2520.105575
342.999937	2518.000893
343.391557	2518.189937
343.783113	2518.678929
344.174605	2513.158865
344.566033	2513.040398
344.957397	2514.217508
345.348697	2509.551920
345.739934	2511.094513
346.131106	2504.914058
346.522215	2505.312309
346.913260	2504.346928
347.304241	2503.772237
347.695159	2498.746206
348.086012	2501.294510
348.476802	2495.479539
348.867528	2499.991371
349.258191	2495.116576
349.648789	2492.112048
350.039324	2493.226143
350.429796	2490.589619
350.820203	2489.397387
351.210548	2489.856132
351.600828	2488.890751
351.991045	2487.244814
352.381198	2486.312200
352.771288	2487.393528
353.161314	2487.675832
353.551276	2485.016624
353.941175	2485.719865
354.331010	2487.002838
354.720782	2489.929228
355.110490	2485.732468
355.500135	2486.486120
355.889717	2488.452170
356.279235	2486.965030
356.668689	2489.077273
357.058080	2487.426295
357.447408	2485.339258
357.836672	2484.893116
358.225873	2488.212715
358.615010	2482.712817
359.004084	2492.341420
359.393095	2488.542911
359.782043	2488.926039
360.170927	2489.689773
360.559748	2491.655823
360.948505	2492.240597
361.337199	2495.204796
361.725830	2496.200424
362.114398	2494.564569
362.502903	2497.649755
362.891344	2498.630260
363.279722	2495.166987
363.668037	2496.084477
364.056289	2496.628922
364.444478	2499.938439
364.832603	2501.135713
365.220665	2500.533295
365.608665	2499.598161
365.996601	2504.190653
366.384474	2503.376506
366.772284	2507.101919
367.160031	2507.681652
367.547715	2507.744666
367.935336	2509.282218
368.322893	2514.272960
368.710388	2515.994514
369.097820	2524.083046
369.485189	2522.490041
369.872495	2531.536392
370.259738	2539.261960
370.646918	2546.543907
371.034035	2553.354505
371.421090	2564.737431
371.808081	2573.763617
372.195010	2581.355594
372.581875	2595.695157
372.968678	2609.565891
373.355418	2616.862962
373.742096	2636.102525
374.128710	2650.479896
374.515262	2666.099911
374.901751	2682.942406
375.288177	2698.385981
375.674540	2717.698641
376.060841	2736.648339
376.447079	2754.030237
376.833254	2775.026643
377.219367	2789.822429
377.605417	2828.641835
377.991404	2833.456137
378.377329	2855.405320
378.763191	2873.528268
379.148991	2910.674011
379.534727	2936.875408
379.920402	2962.693677
380.306013	2978.815287
380.691563	3027.412010
381.077049	3049.459497
381.462474	3065.923905
381.847835	3107.566356
382.233134	3126.626959
382.618371	3125.475055
383.003545	3195.063143
383.388657	3203.902806
383.773706	3234.938670
384.158693	3252.590270
384.543618	3278.153961
384.928480	3314.659477
385.313280	3359.339223
385.698017	3359.374512
386.082692	3412.828386
386.467305	3416.432811
386.851856	3451.937658
387.236344	3470.622695
387.620770	3503.614526
388.005133	3527.577651
388.389435	3555.508164
388.773674	3569.847726
389.157851	3609.791308
389.541965	3625.756642
389.926018	3593.624328
390.310008	3660.648989
390.693936	3679.908717
391.077802	3720.064028
391.461606	3708.527347
391.845348	3772.139147
392.229027	3769.048920
392.612645	3785.188174
392.996200	3865.874362
393.379694	3901.404414
393.763125	3968.086277
394.146494	3932.218467
394.529801	3994.753981
394.913047	4043.249881
395.296230	4013.325591
395.679351	4063.802665
396.062410	4091.390379
396.445408	4068.788366
396.828343	4101.565948
397.211217	4126.559989
397.594028	4047.242474
397.976778	4115.139255
398.359466	4141.859891
398.742092	4166.717821
399.124656	4090.291408
399.507158	4172.474818
399.889598	4199.565979
400.271977	4258.734002
400.654294	4225.812747
401.036549	4239.312957
401.418742	4208.249367
401.800874	4307.126558
402.182944	4332.402903
402.564952	4390.711409
402.946898	4382.166654
403.328783	4376.518041
403.710606	4293.641472
404.092367	4481.187518
404.474067	4452.147951
404.855705	4452.624340
405.237282	4388.284094
405.618797	4493.566071
406.000250	4528.034961
406.381642	4610.334318
406.762972	4570.173966
407.144240	4582.398764
407.525447	4581.319957
407.906593	4638.174090
408.287677	4682.581614
408.668700	4613.686685
409.049661	4662.757277
409.430560	4706.272517
409.811399	4631.451711
410.192176	4792.141011
410.572891	4733.376280
410.953545	4832.820602
411.334138	4717.418508
411.714669	4781.685658
412.095139	4676.504503
412.475547	4820.222758
412.855894	4797.068739
413.236180	4808.106345
413.616405	4763.305611
413.996568	4849.620247
414.376670	4791.157986
414.756711	4746.924381
415.136691	4779.591058
415.516609	4855.624261
415.896466	4893.077514
416.276262	4927.858955
416.655997	4908.455553
417.035670	5088.901135
417.415283	5178.235422
417.794834	5127.097958
418.174324	5083.474333
418.553753	4986.369107
418.933121	5174.328528
419.312428	5239.785390
419.691674	5178.744579
420.070859	5301.922652
420.449983	5219.353593
420.829045	5329.442311
421.208047	5236.193568
421.586988	5309.764167
421.965867	5321.227751
422.344686	5455.231703
422.723444	5308.829033
423.102141	5125.101661
423.480777	5422.383544
423.859352	5192.580025
424.237866	5454.397392
424.616319	5442.916164
424.994712	5551.439603
425.373044	5430.426705
425.751314	5570.694290
426.129524	5375.878900
426.507673	5576.426082
426.885762	5652.398791
427.263789	5586.480663
427.641756	5467.035564
428.019662	5587.635088
428.397508	5596.636068
428.775292	5542.718407
429.153016	5641.814889
429.530679	5567.326799
429.908282	5650.339480
430.285824	5523.645201
430.663305	5797.921779
431.040726	5532.457138
431.418086	5533.765318
431.795385	5638.142408
432.172624	5650.916692
432.549802	5643.448222
432.926920	5656.290562
433.303977	5664.553013
433.680974	5702.850659
434.057910	5719.597372
434.434786	5729.178085
434.811601	5696.597107
435.188355	5932.215597
435.565050	5807.441998
435.941683	5790.886849
436.318257	6001.140773
436.694770	5980.474563
437.071222	6020.564339
437.447614	5950.041117
437.823946	5862.695565
438.200218	6017.269945
438.576429	5877.526640
438.952580	5979.133616
439.328670	6023.831007
439.704700	5934.660557
440.080670	5921.924082
440.456580	6190.347880
440.832429	6071.729530
441.208218	5918.501138
441.583947	6074.484520
441.959616	6078.066260
442.335224	6004.800651
442.710773	6146.031096
443.086261	6169.658984
443.461689	5960.738446
443.837057	6113.382063
444.212365	6264.122646
444.587612	6160.705895
444.962800	6314.060316
445.337927	6292.360669
445.712995	5902.775259
446.088002	6483.420400
446.462949	6313.004194
446.837837	6243.325366
447.212664	6415.571510
447.587431	6558.251287
447.962139	7103.018537
448.336786	8029.280144
448.711374	7768.833972
449.085901	6840.024061
449.460369	6760.313337
449.834776	6694.755651
450.209124	7088.583193
450.583412	7236.717498
450.957640	7387.984881
451.331808	7147.468911
451.705917	6701.762855
452.079965	6627.083202
452.453954	6837.974832
452.827883	6716.772891
453.201752	6803.566437
453.575562	6604.418174
453.949311	6814.505740
454.323001	6696.086516
454.696632	6772.018896
455.070202	6911.094248
455.443713	7065.645943
455.817164	7162.365520
456.190556	7245.473983
456.563888	7322.039027
456.937160	7366.441510
457.310373	7029.135386
457.683526	7044.369753
458.056619	6937.701458
458.429653	6924.382730
458.802628	6861.060796
459.175542	6971.714123
459.548398	7322.558266
459.921194	7484.986764
460.293930	7494.275090
460.666607	8021.930142
461.039224	8328.346596
461.411782	8451.370915
461.784280	8469.264490
462.156719	8358.535546
462.529099	8239.763441
462.901419	7826.156933
463.273680	7719.246662
463.645882	7732.018426
464.018024	7598.753003
464.390106	7763.452540
464.762130	8152.473342
465.134094	8623.619580
465.505999	9645.267380
465.877845	10869.975378
466.249631	11517.589727
466.621358	11129.267126
466.993026	10504.098514
467.364634	10233.532225
467.736184	9883.282938
468.107674	9546.738028
468.479105	9578.766999
468.850477	9347.436011
469.221790	9113.191236
469.593043	8790.862379
469.964238	8652.417171
470.335373	8661.728183
470.706449	8722.194302
471.077467	8702.334677
471.448425	10007.567545
471.819324	11082.896072
472.190164	11104.620925
472.560945	9858.183033
472.931667	9072.582221
473.302330	8934.033669
473.672934	8576.310872
474.043479	8935.982075
474.413965	8878.908652
474.784393	8757.159745
475.154761	8917.503726
475.525070	9002.885748
475.895321	8824.436464
476.265513	9002.971448
476.635645	9169.011932
477.005719	9172.260956
477.375734	9284.391341
477.745691	9525.328248
478.115588	9654.056632
478.485427	9893.685359
478.855207	10432.025138
479.224928	11250.428738
479.594591	11871.340096
479.964194	11688.126921
480.333739	11620.071344
480.703226	11530.187571
481.072653	11620.179729
481.442022	11854.779905
481.811333	12046.404245
482.180584	11846.827485
482.549777	11554.143134
482.918912	11368.343847
483.287988	11394.149514
483.657005	11404.289795
484.025964	11083.957235
484.394864	11209.766791
484.763706	11173.989722
485.132489	10933.390573
485.501213	10887.785774
485.869879	10957.343615
486.238487	10798.113730
486.607036	10898.193237
486.975527	10675.076808
487.343959	10858.025323
487.712333	10899.282126
488.080648	10820.718264
488.448905	10858.882319
488.817104	10791.086361
489.185244	11041.798066
489.553326	11186.721156
489.921350	11698.685617
490.289315	12714.604146
490.657222	13055.597875
491.025070	12950.315897
491.392861	12806.267447
491.760593	12429.741145
492.128267	12078.992784
492.495883	11756.618558
492.863440	11410.233315
493.230939	11070.567931
493.598380	10986.063069
493.965763	10839.325162
494.333088	10733.581919
494.700354	10638.803186
495.067563	10683.583756
495.434713	10499.143060
495.801805	10611.659093
496.168839	10508.499441
496.535815	10422.005844
496.902733	10413.473691
497.269593	10320.497170
497.636395	10403.199820
498.003139	10362.288336
498.369825	10218.605369
498.736453	10338.085756
499.103023	10248.365821
499.469535	10248.484288
499.835989	10217.473630
500.202385	10149.531479
500.568723	9985.295728
500.935003	10159.598663
501.301226	9943.577659
501.667390	10167.029324
502.033497	10212.689575
502.399546	10059.415813
502.765537	9933.966699
503.131470	9970.041196
503.497345	10093.478889
503.863163	9712.980159
504.228923	9944.487587
504.594625	9969.877359
504.960269	9709.355569
505.325856	9865.787614
505.691385	9636.258838
506.056856	9734.364733
506.422270	9703.727121
506.787625	9569.060257
507.152924	9618.413154
507.518164	9573.388088
507.883347	9450.023492
508.248472	9339.370165
508.613540	9483.272422
508.978550	9339.092901
509.343503	9268.083208
509.708398	9314.308068
510.073236	9351.100930
510.438016	9305.604516
510.802738	9212.557419
511.167403	9197.179379
511.532010	9051.618583
511.896561	9187.046660
512.261053	9182.421402
512.625488	9016.010393
512.989866	8954.324313
513.354186	8882.676914
513.718449	8748.236903
514.082655	8837.334256
514.446803	8691.576854
514.810894	8720.994508
515.174927	8558.220691
515.538904	8520.094445
515.902822	8558.704642
516.266684	8425.517357
516.630488	8310.372362
516.994235	8294.840567
517.357925	8254.914629
517.721558	8256.028724
518.085133	8189.873662
518.448651	8140.440107
518.812112	8000.124631
519.175516	7935.799508
519.538863	7942.552134
519.902152	7845.182247
520.265385	7854.493258
520.628560	7745.332113
520.991678	7650.235787
521.354739	7630.565204
521.717743	7517.794593
522.080690	7443.465300
522.443580	7433.544309
522.806413	7342.642223
523.169189	7297.690254
523.531908	7260.428566
523.894569	7094.098215
524.257174	7026.854264
524.619722	7011.549321
524.982213	6929.116373
525.344647	6879.808847
525.707025	6795.182998
526.069345	6767.088647
526.431608	6654.166801
526.793815	6637.843545
527.155964	6475.911601
527.518057	6439.693431
527.880093	6349.376119
528.242072	6316.235574
528.603995	6208.402772
528.965860	6113.361899
529.327669	6071.464869
529.689421	5989.954453
530.051117	5915.116003
530.412755	5880.024531
530.774337	5795.751563
531.135862	5711.778542
531.497331	5669.652140
531.858743	5547.169746
532.220098	5554.212238
532.581396	5451.712977
532.942638	5389.472371
533.303824	5321.578111
533.664953	5263.040233
534.026025	5185.613151
534.387040	5160.805633
534.747999	5107.989464
535.108902	5069.969082
535.469748	4946.503662
535.830537	4925.603038
536.191270	4863.924521
536.551947	4816.633457
536.912567	4773.778608
537.273131	4706.766550
537.633638	4654.391482
537.994089	4595.881330
538.354483	4539.793452
538.714821	4530.921021
539.075103	4485.495184
539.435328	4427.161472
539.795497	4351.823949
540.155609	4333.698480
540.515665	4314.486643
540.875665	4216.274883
541.235609	4184.419832
541.595496	4141.955673
541.955328	4125.665184
542.315102	4072.102925
542.674821	4021.575440
543.034483	3985.833659
543.394090	3948.859316
543.753640	3900.287799
544.113134	3895.700349
544.472571	3840.129189
544.831953	3821.814677
545.191278	3764.642952
545.550548	3737.907192
545.909761	3719.907752
546.268918	3683.056918
546.628019	3662.431037
546.987064	3611.175105
547.346053	3577.411977
547.704986	3555.157803
548.063863	3526.829039
548.422684	3497.310563
548.781449	3458.118112
549.140158	3441.126903
549.498811	3403.461923
549.857408	3367.374823
550.215949	3356.974922
550.574434	3320.766835
550.932864	3302.268321
551.291237	3290.787093
551.649555	3260.494799
552.007817	3241.136769
552.366022	3218.214642
552.724173	3197.823175
553.082267	3181.116791
553.440305	3165.484173
553.798288	3137.130203
554.156215	3122.914149
554.514086	3106.197683
554.871902	3082.655495
555.229661	3067.151426
555.587365	3048.287428
555.945014	3029.720859
556.302606	3018.106040
556.660143	2999.201713
557.017625	2990.793069
557.375050	2973.259936
557.732421	2962.441619
558.089735	2947.184567
558.446994	2934.349790
558.804197	2925.396700
559.161345	2911.480595
559.518437	2891.510064
559.875474	2885.332130
560.232455	2875.222096
560.589381	2863.879500
560.946251	2852.057994
561.303065	2847.531038
561.659825	2834.139213
562.016528	2823.114209
562.373177	2812.023671
562.729770	2805.850778
563.086307	2796.617905
563.442789	2792.857204
563.799216	2780.360184
564.155587	2772.906838
564.511904	2767.205293
564.868164	2756.689446
565.224370	2754.592326
565.580520	2744.373907
565.936615	2743.605131
566.292654	2730.538460
566.648638	2732.277658
567.004567	2722.921277
567.360441	2719.193343
567.716260	2714.144628
568.072023	2712.949874
568.427732	2702.093750
568.783385	2700.795652
569.138982	2696.694674
569.494525	2693.632173
569.850013	2687.915504
570.205445	2689.185875
570.560823	2684.295956
570.916145	2677.523166
571.271412	2678.601973
571.626625	2675.993176
571.981782	2671.753565
572.336884	2669.172494
572.691931	2667.045127
573.046923	2664.411125
573.401860	2661.542708
573.756743	2659.185969
574.111570	2659.024652
574.466342	2656.998108
574.821059	2658.941473
575.175722	2651.805719
575.530330	2650.915956
575.884882	2650.966367
576.239380	2649.060811
576.593823	2644.276756
576.948211	2643.991931
577.302544	2644.198618
577.656823	2639.654018
578.011047	2641.153761
578.365216	2641.635192
578.719330	2638.376086
579.073389	2635.038842
579.427394	2632.823255
579.781344	2633.304685
580.135239	2629.775877
580.489080	2630.615229
580.842866	2629.407873
581.196597	2629.851494
581.550273	2629.370064
581.903895	2626.514251
582.257463	2629.508696
582.610975	2624.170114
582.964434	2626.365537
583.317837	2623.227418
583.671186	2624.137347
584.024481	2623.111472
584.377721	2621.490741
584.730906	2618.271964
585.084037	2620.051491
585.437113	2620.326234
585.790135	2617.256172
586.143103	2616.169803
586.496016	2617.283898
586.848874	2614.851541
587.201679	2614.327261
587.554428	2610.027157
587.907124	2612.446911
588.259765	2609.437342
588.612352	2611.957919
588.964884	2612.754421
589.317362	2610.858947
589.669786	2610.077568
590.022155	2611.811725
590.374470	2610.644698
590.726731	2613.195522
591.078937	2608.267794
591.431090	2609.344081
591.783188	2607.151179
592.135232	2610.483381
592.487222	2607.967846
592.839157	2608.237547
593.191038	2610.349791
593.542866	2607.846858
593.894639	2606.765530
594.246358	2606.455499
594.598022	2604.804522
594.949633	2603.163626
595.301190	2604.096239
595.652692	2603.508945
596.004141	2605.595983
596.355535	2606.720160
596.706876	2601.890735
597.058162	2601.013574
597.409395	2603.791250
597.760573	2604.350818
598.111698	2599.644901
598.462768	2601.192535
598.813785	2600.338059
599.164748	2602.001640
599.515657	2601.850405
599.866511	2598.586258
600.217312	2602.510797
600.568060	2599.604571
600.918753	2601.273193
601.269392	2599.153388
601.619978	2599.481063
601.970510	2601.051383
602.320988	2598.591299
602.671412	2601.363934
603.021783	2598.487956
603.372100	2597.600713
603.722363	2598.813110
604.072572	2598.349324
604.422728	2600.690940
604.772830	2593.517378
605.122878	2592.181472
605.472872	2597.267997
605.822813	2592.047882
606.172701	2594.260948
606.522534	2598.699684
606.872314	2599.554160
607.222041	2595.858994
607.571714	2599.599530
607.921333	2598.765219
608.270899	2596.085846
608.620411	2601.215220
608.969870	2596.244642
609.319276	2598.203131
609.668627	2600.610282
610.017926	2602.750251
610.367171	2604.796960
610.716362	2603.299737
611.065500	2603.778647
611.414585	2601.487442
611.763616	2601.863008
612.112594	2596.612647
612.461518	2599.216403
612.810389	2599.029880
613.159207	2601.437031
613.507971	2597.073912
613.856682	2599.327308
614.205340	2598.210692
614.553945	2597.605754
614.902496	2598.603902
615.250994	2599.009715
615.599439	2596.721031
615.947830	2598.195569
616.296169	2594.533171
616.644454	2597.872935
616.992686	2597.756988
617.340864	2600.398553
617.688990	2597.245311
618.037063	2597.968717
618.385082	2598.515682
618.733048	2599.798656
619.080961	2598.349324
619.428821	2597.343614
619.776628	2597.204982
620.124382	2599.670106
620.472083	2598.790425
620.819731	2596.017790
621.167326	2596.073243
621.514868	2597.283120
621.862357	2593.643407
622.209793	2594.981833
622.557176	2595.264138
622.904506	2592.083170
623.251783	2587.833477
623.599007	2590.225505
623.946179	2589.403797
624.293297	2592.063005
624.640363	2590.548138
624.987376	2593.393870
625.334336	2588.750967
625.681243	2590.774990
626.028097	2591.740371
626.374899	2589.008066
626.721647	2588.957654
627.068343	2588.524115
627.414987	2587.379773
627.761577	2590.991760
628.108115	2588.309866
628.454600	2588.756008
628.801032	2590.848087
629.147412	2588.395566
629.493739	2588.703076
629.840014	2586.840370
630.186236	2589.723910
630.532405	2586.724423
630.878521	2586.520257
631.224585	2585.438929
631.570597	2585.953127
631.916556	2586.414392
632.262462	2587.261306
632.608316	2587.117633
632.954117	2586.656368
633.299866	2585.905236
633.645562	2587.987232
633.991206	2585.396079
634.336797	2585.201995
634.682336	2584.150914
635.027823	2582.149576
635.373257	2581.305183
635.718639	2582.862899
636.063968	2581.670667
636.409245	2579.571026
636.754470	2583.127560
637.099642	2581.824422
637.444762	2582.144535
637.789829	2580.382652
638.134845	2581.234607
638.479808	2580.301993
638.824719	2577.920048
639.169577	2581.837025
639.514383	2578.182188
639.859137	2577.030284
640.203839	2580.143197
640.548489	2576.790830
640.893086	2577.854513
641.237632	2573.849316
641.582125	2577.839390
641.926566	2572.044583
642.270955	2576.715212
642.615292	2576.674883
642.959576	2578.913155
643.303809	2578.779565
643.647990	2578.696386
643.992118	2577.794019
644.336195	2580.145717
644.680219	2578.779565
645.024192	2578.527507
645.368112	2578.557754
645.711981	2577.103381
646.055797	2579.651684
646.399562	2580.574216
646.743274	2580.549010
647.086935	2578.361149
647.430544	2580.629668
647.774101	2579.639082
648.117606	2579.694534
648.461059	2581.627817
648.804460	2582.837694
649.147810	2578.898032
649.491108	2577.332754
649.834354	2577.463824
650.177548	2579.991962
650.520690	2576.334605
650.863781	2578.068762
651.206820	2581.403485
651.549807	2575.253278
651.892742	2575.550706
652.235626	2578.149421
652.578458	2578.628330
652.921238	2573.619944
653.263967	2578.653536
653.606644	2573.977866
653.949269	2575.858216
654.291843	2575.245716
654.634365	2576.130438
654.976836	2572.702454
655.319255	2575.795202
655.661622	2571.197669
656.003938	2573.665314
656.346203	2574.655901
656.688416	2575.404512
657.030577	2576.291755
657.372687	2573.892166
657.714746	2572.626837
658.056753	2573.710685
658.398708	2569.677762
658.740612	2572.228585
659.082465	2568.601475
659.424266	2570.522155
659.766016	2566.947977
660.107715	2571.550550
660.449362	2573.191446
660.790958	2575.046590
661.132503	2573.027608
661.473996	2574.164388
661.815438	2572.415108
662.156829	2574.396282
662.498168	2572.536096
662.839456	2573.115828
663.180693	2569.987792
663.521879	2575.202866
663.863013	2576.337126
664.204097	2574.297979
664.545129	2572.697413
664.886110	2572.331929
665.227040	2574.149265
665.567918	2574.718915
665.908746	2574.113977
666.249522	2574.628175
666.590248	2573.370407
666.930922	2572.140365
667.271545	2573.935016
667.612118	2574.754203
667.952639	2574.408884
668.293109	2572.513411
668.633528	2574.093812
668.973896	2572.107598
669.314213	2573.519121
669.654480	2573.793864
669.994695	2573.478792
670.334859	2574.043401
670.674973	2573.929975
671.015035	2573.947619
671.355047	2575.596076
671.695008	2572.460478
672.034918	2572.727660
672.374777	2571.646332
672.714585	2571.777402
673.054342	2575.147413
673.394049	2571.883266
673.733705	2574.673545
674.073310	2573.067938
674.412864	2571.853019
674.752368	2573.914851
675.091820	2574.756724
675.431223	2574.265212
675.770574	2574.280335
676.109875	2566.884962
676.449125	2568.777916
676.788324	2567.673903
677.127473	2568.566187
677.466571	2562.489076
677.805619	2570.706157
678.144616	2571.487536
678.483562	2568.735066
678.822458	2570.575087
679.161303	2569.967628
679.500098	2571.623647
679.838842	2573.224213
680.177535	2572.210941
680.516179	2568.755230
680.854771	2572.037022
681.193314	2571.847978
681.531805	2574.378637
681.870247	2574.592887
682.208638	2574.101374
682.546978	2573.115828
682.885268	2572.957032
683.223508	2571.888308
683.561697	2572.659604
683.899836	2572.372258
684.237925	2571.661456
684.575963	2571.061558
684.913951	2572.831003
685.251889	2575.039029
685.589776	2572.301682
685.927614	2569.768502
686.265401	2575.318813
686.603137	2574.166909
686.940824	2572.228585
687.278460	2572.362176
687.616046	2577.849472
687.953582	2574.078689
688.291068	2573.778740
688.628504	2577.002558
688.965889	2574.328226
689.303224	2572.798236
689.640510	2574.865109
689.977745	2571.762279
690.314930	2573.229254
690.652065	2572.188256
690.989150	2570.295303
691.326185	2569.692885
691.663170	2568.553584
692.000105	2569.092988
692.336990	2566.038048
692.673825	2568.301527
693.010610	2565.801114
693.347345	2564.190466
693.684030	2561.574107
694.020665	2562.680640
694.357251	2559.202244
694.693786	2565.239026
695.030272	2561.216185
695.366707	2562.610064
695.703093	2563.174673
696.039429	2563.179714
696.375716	2561.201061
696.711952	2563.479663
697.048139	2562.534447
697.384276	2563.542677
697.720363	2560.893551
698.056400	2563.709035
698.392388	2562.242060
698.728326	2562.899930
699.064214	2562.867163
699.400053	2560.596123
699.735842	2561.546380
700.071581	2563.320867
700.407270	2560.911195
700.742910	2561.826164
701.078501	2561.125444
701.414042	2560.694425
701.749533	2560.238201
702.084974	2562.408418
702.420366	2560.318859
702.755709	2559.484548
703.091002	2557.011863
703.426246	2558.105793
703.761440	2559.623180
704.096584	2559.114024
704.431679	2556.550597
704.766725	2557.541184
705.101721	2557.826009
705.436668	2558.370453
705.771565	2559.630742
706.106413	2558.158725
706.441212	2556.767367
706.775961	2558.362892
707.110661	2558.453632
707.445311	2555.900288
707.779913	2561.145609
708.114465	2560.147460
708.448967	2559.759291
708.783421	2562.196689
709.117825	2560.840619
709.452180	2562.647873
709.786485	2561.866494
710.120742	2563.827502
710.454949	2562.274827
710.789107	2561.248952
711.123216	2561.034703
711.457275	2561.969837
711.791286	2561.619477
712.125247	2560.835578
712.459159	2565.022256
712.793023	2566.103583
713.126837	2562.884807
713.460602	2563.754406
713.794318	2564.460167
714.127985	2563.388922
714.461602	2561.196020
714.795171	2562.287430
715.128691	2562.307595
715.462162	2561.299364
715.795584	2557.642007
716.128957	2559.819785
716.462281	2563.076371
716.795556	2559.439178
717.128782	2557.843653
717.461960	2558.241904
717.795088	2557.266441
718.128167	2557.531101
718.461198	2556.928683
718.794180	2557.097562
719.127113	2556.028838
719.459997	2557.959599
719.792833	2557.032027
720.125619	2558.015052
720.458357	2556.452294
720.791046	2554.183775
721.123686	2556.661502
721.456278	2555.300391
721.788821	2555.418858
722.121315	2555.557490
722.453761	2553.437684
722.786158	2554.602191
723.118506	2551.925338
723.450805	2556.795093
723.783056	2554.561862
724.115259	2555.570092
724.447412	2553.425082
724.779518	2556.167469
725.111574	2555.764177
725.443582	2555.950700
725.775542	2555.842315
726.107453	2556.759805
726.439315	2557.775597
726.771129	2561.558983
727.102895	2555.305432
727.434612	2560.865825
727.766281	2557.770556
728.097901	2554.166131
728.429473	2555.418858
728.760996	2554.491286
729.092471	2552.089176
729.423897	2556.580844
729.755276	2557.969682
730.086606	2558.022614
730.417887	2562.345403
730.749120	2561.586710
731.080305	2557.342058
731.411442	2558.798952
731.742530	2557.334496
732.073570	2562.219374
732.404562	2558.030176
732.735506	2561.667368
733.066401	2560.712069
733.397249	2559.865156
733.728048	2558.410783
734.058798	2558.400700
734.389501	2554.587067
734.720156	2555.996070
735.050762	2553.523384
735.381320	2555.638148
735.711831	2554.536656
736.042293	2555.126471
736.372707	2553.263765
736.703073	2554.566903
737.033391	2556.147305
737.363661	2554.806358
737.693883	2553.387273
738.024056	2557.228632
738.354182	2554.897098
738.684260	2556.981616
739.014290	2558.761143
739.344272	2556.724517
739.674207	2556.159907
740.004093	2557.561348
740.333931	2555.209650
740.663722	2558.047820
740.993464	2557.594116
741.323159	2554.219063
741.652806	2554.750905
741.982405	2555.673436
742.311956	2555.363405
742.641460	2556.704352
742.970915	2553.533466
743.300323	2554.428271
743.629683	2553.828374
743.958996	2554.902140
744.288260	2553.351985
744.617477	2550.526418
744.946647	2548.479710
745.275768	2550.125646
745.604842	2546.236396
745.933869	2550.279402
746.262847	2546.160779
746.591778	2552.232849
746.920662	2550.254196
747.249498	2550.334854
747.578286	2550.755791
747.907027	2550.559186
748.235720	2552.152190
748.564365	2551.380894
748.892963	2550.723023
749.221514	2553.334341
749.550017	2551.887530
749.878473	2552.666388
750.206881	2552.968857
750.535242	2552.757129
750.863555	2552.913404
751.191821	2549.868547
751.520039	2548.472148
751.848210	2550.390307
752.176334	2552.265616
752.504411	2552.195040
752.832440	2551.569937
753.160421	2548.983825
753.488356	2548.129349
753.816243	2550.044988
754.144082	2548.499874
754.471875	2549.624052
754.799620	2549.659340
755.127318	2549.051881
755.454969	2548.699000
755.782572	2551.005328
756.110129	2548.799823
756.437638	2552.021120
756.765100	2548.129349
757.092515	2549.450132
757.419882	2550.125646
757.747203	2551.063301
758.074477	2551.882488
758.401703	2550.309648
758.728882	2550.758311
759.056014	2550.735626
759.383099	2550.150852
759.710138	2552.343754
760.037129	2552.104299
760.364073	2551.963147
760.690970	2553.261244
761.017820	2553.049516
761.344623	2550.536500
761.671379	2555.116389
761.998088	2546.586756
762.324751	2554.672767
762.651366	2557.929352
762.977935	2567.605847
763.304456	2569.551733
763.630931	2574.310582
763.957359	2569.040056
764.283740	2566.153995
764.610074	2562.952862
764.936362	2558.728375
765.262602	2555.242417
765.588796	2554.133364
765.914943	2554.017417
766.241044	2550.977601
766.567097	2550.654968
766.893104	2553.079763
767.219064	2548.567930
767.544978	2548.744370
767.870845	2548.303269
768.196665	2549.339226
768.522438	2546.498536
768.848165	2548.802343
769.173846	2546.387631
769.499479	2548.633465
769.825066	2548.152035
770.150607	2545.825542
770.476101	2547.771428
770.801548	2545.311344
771.126949	2544.509801
771.452303	2547.310162
771.777611	2546.145655
772.102872	2546.445604
772.428087	2542.669780
772.753256	2546.501057
773.078378	2543.945192
773.403453	2544.058618
773.728482	2544.240099
774.053465	2542.808412
774.378401	2545.913762
774.703291	2542.057280
775.028135	2543.441076
775.352932	2542.521066
775.677683	2544.661036
776.002388	2542.500901
776.327046	2544.242620
776.651658	2541.913607
776.976224	2542.420243
777.300743	2544.862682
777.625216	2542.037115
777.949643	2541.621220
778.274024	2542.445448
778.598359	2537.230375
778.922647	2537.447144
779.246889	2542.727753
779.571086	2538.909079
779.895236	2540.552495
780.219339	2541.507794
780.543397	2543.264636
780.867409	2542.256405
781.191374	2544.489636
781.515294	2544.779503
781.839167	2541.351518
782.162995	2543.229348
782.486776	2542.284132
782.810511	2542.649615
783.134201	2539.982845
783.457844	2541.429656
783.781441	2545.253371
784.104993	2541.119625
784.428498	2542.848741
784.751958	2543.012578
785.075372	2541.192722
785.398739	2542.155582
785.722061	2542.120294
786.045337	2540.509645
786.368568	2542.420243
786.691752	2541.356559
787.014891	2544.769420
787.337983	2543.509132
787.661030	2545.616334
787.984031	2546.216232
788.306987	2545.628937
788.629897	2544.857641
788.952760	2546.531304
789.275579	2545.848227
789.598351	2548.167158
789.921078	2543.425953
790.243759	2543.786395
790.566395	2542.579039
790.888984	2542.261446
791.211529	2543.103319
791.534027	2542.599204
791.856480	2543.778834
792.178888	2540.315561
792.501249	2542.851261
792.823566	2542.238761
793.145836	2539.640046
793.468062	2541.268339
793.790241	2542.987373
794.112375	2542.163144
794.434464	2541.175078
794.756507	2543.549461
795.078505	2541.951415
795.400457	2542.140459
795.722364	2539.766075
796.044226	2543.073072
796.366042	2540.229861
796.687812	2539.871939
797.009538	2545.202960
797.331218	2542.662218
797.652852	2543.158772
797.974442	2544.688762
798.295986	2540.900335
798.617484	2541.956457
798.938938	2543.010058
799.260346	2541.265818
799.581709	2541.175078
799.903026	2544.227496
800.224299	2540.454193
800.545526	2540.187012
800.866708	2541.555685
801.187845	2539.690458
801.508936	2539.937474
801.829983	2541.464944
802.150984	2538.851106
802.471940	2540.169367
802.792851	2543.325130
803.113717	2542.347146
803.434538	2542.793288
803.755314	2539.546785
804.076045	2541.021323
804.396731	2538.883873
804.717372	2539.284645
805.037967	2540.555016
805.358518	2539.105684
805.679024	2540.209697
805.999485	2541.961498
806.319901	2541.091899
806.640272	2541.442259
806.960598	2539.750952
807.280879	2540.297917
807.601115	2543.499050
807.921306	2539.304810
808.241453	2539.871939
808.561554	2541.696837
808.881611	2541.074255
809.201623	2542.866385
809.521590	2540.852444
809.841513	2542.848741
810.161390	2539.695499
810.481223	2540.597866
810.801011	2539.060314
811.120755	2541.175078
811.440453	2539.861857
811.760107	2541.371683
812.079716	2536.655683
812.399281	2535.896990
812.718801	2542.573998
813.038276	2536.023018
813.357707	2540.963349
813.677093	2538.823379
813.996434	2538.339429
814.315731	2540.194573
814.634983	2539.466127
814.954191	2540.870088
815.273354	2540.481919
815.592473	2540.562578
815.911547	2542.142979
816.230577	2540.449152
816.549562	2540.018133
816.868502	2542.405119
817.187399	2538.659542
817.506250	2543.496529
817.825058	2541.036446
818.143821	2541.908566
818.462539	2541.225489
818.781213	2541.898483
819.099843	2548.567930
819.418429	2547.650440
819.736970	2551.123795
820.055466	2551.184289
820.373919	2556.666543
820.692327	2557.019424
821.010691	2566.590055
821.329011	2581.728640
821.647286	2613.316510
821.965517	2648.153403
822.283704	2668.287772
822.601847	2678.261695
822.919945	2663.768377
823.237999	2641.909934
823.556010	2621.127778
823.873976	2603.907196
824.191897	2592.393201
824.509775	2581.947930
824.827609	2572.382341
825.145398	2571.076682
825.463144	2567.784808
825.780845	2567.646177
826.098502	2575.419636
826.416116	2586.341296
826.733685	2595.251535
827.051210	2597.152050
827.368692	2593.499734
827.686129	2582.257961
828.003522	2571.679100
828.320872	2562.017728
828.638177	2560.056719
828.955439	2551.885009
829.272656	2550.100441
829.589830	2546.080120
829.906960	2550.150852
830.224046	2547.025337
830.541088	2544.978628
830.858086	2541.737166
831.175041	2543.299924
831.491952	2544.391334
831.808819	2545.976777
832.125642	2544.514842
832.442421	2546.606921
832.759157	2549.359391
833.075849	2557.183262
833.392497	2565.816238
833.709101	2570.403688
834.025662	2565.856567
834.342179	2565.302040
834.658653	2559.456822
834.975083	2554.403065
835.291469	2555.401214
835.607811	2547.678166
835.924110	2544.267826
836.240366	2546.780841
836.556578	2541.777496
836.872746	2542.823535
837.188871	2540.202135
837.504952	2541.066693
837.820990	2539.773637
838.136984	2539.965201
838.452935	2538.813297
838.768842	2539.516538
839.084706	2538.014274
839.400526	2542.337064
839.716303	2547.537014
840.032037	2549.498023
840.347727	2551.426264
840.663373	2549.702189
840.978977	2546.601880
841.294537	2543.579708
841.610054	2542.453010
841.925527	2538.180632
842.240957	2541.538041
842.556344	2537.769778
842.871687	2535.244160
843.186987	2538.639377
843.502244	2533.620909
843.817458	2536.116280
844.132629	2535.866743
844.447756	2537.908410
844.762840	2532.922709
845.077881	2533.769623
845.392879	2531.228881
845.707833	2534.142668
846.022745	2529.983716
846.337613	2534.394726
846.652438	2536.723739
846.967221	2535.987730
847.281960	2534.359438
847.596656	2534.009077
847.911309	2534.185518
848.225919	2534.901362
848.540485	2535.231557
848.855009	2535.455889
849.169490	2533.941022
849.483928	2534.611495
849.798323	2534.472864
850.112675	2532.146371
850.426984	2535.130734
850.741251	2534.359438
851.055474	2535.014788
851.369654	2533.479756
851.683792	2534.543440
851.997887	2533.396577
852.311938	2535.312216
852.625947	2534.278779
852.939914	2536.219623
853.253837	2533.668800
853.567718	2531.596885
853.881555	2533.769623
854.195350	2533.971269
854.509103	2533.792308
854.822812	2532.068233
855.136479	2533.217616
855.450103	2535.360107
855.763685	2535.886907
856.077224	2533.237781
856.390720	2536.804397
856.704173	2535.050076
857.017584	2534.954294
857.330953	2535.841537
857.644278	2533.686444
857.957561	2538.987217
858.270802	2535.637370
858.584000	2534.941691
858.897155	2535.468492
859.210268	2534.291382
859.523339	2534.583769
859.836367	2535.639891
860.149352	2533.825075
860.462295	2538.145344
860.775195	2532.902544
861.088054	2529.232584
861.400869	2532.511855
861.713642	2528.428520
862.026373	2531.760723
862.339062	2534.939170
862.651708	2534.185518
862.964312	2531.798532
863.276873	2535.208872
863.589392	2533.129396
863.901869	2535.380271
864.214303	2534.455220
864.526696	2534.654345
864.839045	2535.060158
865.151353	2536.080992
865.463619	2537.106867
865.775842	2533.981351
866.088023	2535.145858
866.400162	2533.809952
866.712258	2535.982689
867.024313	2537.210210
867.336325	2534.528316
867.648296	2535.362627
867.960224	2535.513862
868.272110	2533.837678
868.583954	2532.925229
868.895755	2537.658873
869.207515	2534.543440
869.519233	2535.110570
869.830909	2537.104346
870.142542	2537.033770
870.454134	2535.082843
870.765684	2536.746424
871.077191	2534.891279
871.388657	2536.292720
871.700081	2536.307844
872.011463	2536.186856
872.322803	2536.075951
872.634101	2538.725077
872.945357	2535.823893
873.256571	2539.128369
873.567744	2538.205838
873.878874	2538.944367
874.189963	2539.604758
874.501010	2537.671476
874.812015	2535.617206
875.122979	2538.785571
875.433900	2537.411856
875.744780	2536.015457
876.055618	2537.242978
876.366415	2539.705581
876.677169	2534.309026
876.987882	2535.644932
877.298554	2532.552184
877.609183	2537.777340
877.919771	2537.202648
878.230317	2537.787422
878.540822	2544.764379
878.851285	2545.011396
879.161707	2541.739687
879.472087	2548.527601
879.782425	2550.647406
880.092722	2557.279044
880.402977	2567.152143
880.713191	2584.589495
881.023363	2601.313522
881.333494	2612.784668
881.643583	2618.208950
881.953631	2619.139042
882.263637	2613.094699
882.573602	2606.856271
882.883526	2596.083325
883.193408	2589.101327
883.503248	2575.593556
883.813048	2569.909655
884.122806	2565.448233
884.432522	2560.694425
884.742197	2554.816440
885.051831	2554.526574
885.361424	2549.679504
885.670975	2550.279402
885.980485	2547.446273
886.289954	2546.153217
886.599382	2542.863864
886.908768	2540.774306
887.218113	2541.273380
887.527417	2541.512835
887.836680	2540.716333
888.145901	2540.665921
888.455082	2538.508307
888.764221	2541.159954
889.073319	2539.468647
889.382376	2538.215920
889.691392	2538.394881
890.000366	2539.750952
890.309300	2538.621733
890.618193	2539.456044
890.927044	2538.291538
891.235855	2539.811446
891.544625	2539.082999
891.853353	2539.715664
892.162041	2537.742052
892.470687	2540.353370
892.779293	2539.055272
893.087858	2541.338915
893.396381	2542.359749
893.704864	2546.465769
894.013306	2546.392672
894.321707	2554.050185
894.630068	2559.194682
894.938387	2565.133161
895.246665	2564.717266
895.554903	2560.044117
895.863100	2556.169990
896.171256	2555.244938
896.479371	2553.004145
896.787446	2545.389482
897.095480	2545.810419
897.403473	2543.728422
897.711425	2541.979142
898.019336	2542.657177
898.327207	2539.380427
898.635038	2540.562577
898.942827	2538.011754
899.250576	2537.842875
899.558284	2536.935467
899.865952	2540.013092
900.173579	2537.207690
900.481165	2538.987217
900.788711	2536.454037
901.096216	2537.263142
901.403681	2537.500077
901.711105	2538.137783
902.018489	2535.105528
902.325832	2540.910417
902.633135	2537.555529
902.940397	2540.726415
903.247619	2541.550644
903.554800	2545.946530
903.861941	2557.132850
904.169041	2569.178687
904.476101	2575.235634
904.783121	2575.210428
905.090100	2567.699109
905.397039	2564.792883
905.703938	2554.995401
906.010796	2551.801830
906.317614	2549.833259
906.624391	2542.677342
906.931129	2541.260777
907.237826	2542.067362
907.544483	2540.539892
907.851099	2539.824048
908.157675	2534.470343
908.464211	2535.206352
908.770707	2533.008408
909.077163	2535.632329
909.383578	2530.606299
909.689954	2531.596885
909.996289	2527.841226
910.302584	2532.123686
910.608839	2533.247863
910.915054	2535.017308
911.221229	2534.213244
911.527363	2534.324150
911.833458	2533.686444
912.139513	2536.958152
912.445527	2534.677030
912.751502	2534.240971
913.057436	2535.274407
913.363331	2538.243647
913.669186	2540.207176
913.975000	2537.905889
914.280775	2539.632485
914.586510	2541.659028
914.892205	2544.905532
915.197859	2553.299053
915.503475	2556.142263
915.809050	2563.852708
916.114585	2570.622978
916.420081	2571.971487
916.725536	2570.925447
917.030952	2566.920250
917.336328	2564.946639
917.641665	2561.059909
917.946961	2557.757953
918.252218	2552.943651
918.557435	2549.583722
918.862612	2545.296221
919.167750	2543.801519
919.472848	2542.949564
919.777906	2538.231044
920.082925	2538.717515
920.387904	2539.952598
920.692843	2536.325488
920.997743	2535.395395
921.302603	2536.602751
921.607423	2537.220293
921.912204	2536.370858
922.216946	2534.606454
922.521647	2537.573173
922.826310	2535.249201
923.130932	2538.745242
923.435516	2530.296268
923.740059	2535.712988
924.044564	2533.126876
924.349028	2534.354397
924.653454	2525.353416
924.957840	2531.077647
925.262186	2529.381298
925.566493	2530.719725
925.870761	2529.900537
926.174989	2531.934643
926.479178	2531.024714
926.783328	2534.810621
927.087438	2531.836340
927.391509	2532.917668
927.695541	2529.736700
927.999533	2531.745599
928.303486	2530.727286
928.607400	2529.719056
928.911275	2529.096473
929.215110	2529.847605
929.518906	2531.342307
929.822663	2530.437420
930.126381	2531.216278
930.430060	2530.946577
930.733699	2532.496731
931.037299	2532.126207
931.340861	2530.780218
931.644383	2530.888603
931.947866	2528.887265
932.251309	2530.021525
932.554714	2530.747451
932.858080	2531.806093
933.161407	2528.705784
933.464694	2531.632173
933.767943	2529.618232
934.071153	2531.054961
934.374323	2529.703932
934.677455	2531.677544
934.980548	2529.739220
935.283602	2532.809283
935.586617	2528.998171
935.889593	2531.150743
936.192530	2529.111597
936.495428	2529.645959
936.798287	2530.757533
937.101108	2530.913809
937.403890	2531.957328
937.706632	2532.375744
938.009336	2530.523120
938.312002	2531.294416
938.614628	2533.948584
938.917216	2533.499921
939.219765	2533.683923
939.522275	2532.831968
939.824747	2532.201824
940.127179	2528.872142
940.429573	2531.596885
940.731929	2530.170239
941.034246	2527.390042
941.336524	2530.323994
941.638763	2530.412214
941.940964	2533.215096
942.243126	2531.675023
942.545250	2528.920033
942.847335	2531.337266
943.149381	2530.767616
943.451389	2532.811803
943.753359	2534.664428
944.055290	2530.092101
944.357182	2530.346679
944.659036	2532.093439
944.960851	2531.896834
945.262628	2528.546987
945.564367	2531.992616
945.866067	2529.887934
946.167729	2529.991278
946.469352	2528.972965
946.770937	2530.243336
947.072484	2530.850795
947.373992	2529.298119
947.675462	2530.971782
947.976893	2531.186031
948.278286	2529.640918
948.579641	2527.642100
948.880958	2530.145033
949.182236	2531.536392
949.483476	2531.155784
949.784678	2533.497400
950.085841	2530.064375
950.386967	2530.719725
950.688054	2529.706453
950.989103	2529.550177
951.290114	2530.079498
951.591087	2530.210568
951.892021	2527.195958
952.192917	2531.864067
952.493776	2528.897348
952.794596	2534.286341
953.095378	2530.946577
953.396122	2533.429345
953.696828	2530.626463
953.997496	2531.160826
954.298126	2529.542615
954.598718	2532.143851
954.899272	2530.266021
955.199788	2531.160826
955.500266	2529.678726
955.800706	2527.624456
956.101108	2526.686802
956.401472	2523.919208
956.701798	2524.811492
957.002087	2524.748478
957.302337	2525.164373
957.602550	2528.728469
957.902724	2527.160670
958.202861	2529.988757
958.502960	2527.185876
958.803022	2529.978675
959.103045	2527.511030
959.403031	2525.786956
959.702979	2527.937008
960.002889	2527.947090
960.302762	2526.470032
960.602596	2529.638397
960.902393	2528.052954
961.202153	2528.098325
961.501875	2528.458767
961.801559	2527.911802
962.101205	2526.893489
962.400814	2526.661596
962.700385	2527.914323
962.999918	2530.318953
963.299414	2528.748633
963.598873	2525.953314
963.898293	2529.630835
964.197677	2526.863242
964.497022	2528.589837
964.796331	2527.740403
965.095601	2528.673016
965.394835	2525.814682
965.694030	2526.154960
965.993189	2525.131606
966.292309	2526.984230
966.591393	2527.420289
966.890439	2526.865763
967.189447	2528.544467
967.488419	2528.330218
967.787353	2525.557583
968.086249	2526.202851
968.385108	2527.599250
968.683930	2529.499765
968.982714	2524.884589
969.281462	2525.373581
969.580172	2529.003212
969.878844	2527.236287
970.177480	2527.659744
970.476078	2529.063706
970.774639	2524.559435
971.073162	2525.098838
971.371649	2526.404497
971.670098	2522.174969
971.968510	2524.370391
972.266885	2520.594567
972.565223	2527.621936
972.863524	2525.421472
973.161788	2526.374250
973.460014	2526.369209
973.758204	2527.511030
974.056356	2528.549508
974.354471	2527.127903
974.652550	2527.052285
974.950591	2527.523633
975.248595	2523.833508
975.546563	2528.156298
975.844493	2525.368540
976.142386	2529.789632
976.440243	2525.338293
976.738062	2527.097656
977.035845	2525.849970
977.333590	2527.730320
977.631299	2528.869621
977.928971	2526.800228
978.226606	2529.046062
978.524204	2528.766277
978.821765	2528.478932
979.119290	2527.732841
979.416777	2526.941380
979.714228	2526.296112
980.011642	2528.151257
980.309020	2529.134282
980.606360	2528.710825
980.903664	2529.472039
981.200931	2527.221164
981.498162	2528.030269
981.795356	2528.831812
982.092513	2527.901720
982.389633	2528.509179
982.686717	2527.919364
982.983764	2531.309540
983.280775	2530.734848
983.577749	2527.415248
983.874686	2531.690147
984.171587	2527.863911
984.468451	2530.681916
984.765279	2530.013963
985.062070	2528.418438
985.358824	2527.931967
985.655543	2526.946421
985.952224	2530.563449
986.248869	2525.824764
986.545478	2521.277643
986.842050	2525.698735
987.138586	2523.258817
987.435086	2522.411903
987.731549	2519.798065
988.027975	2528.199148
988.324366	2525.038344
988.620719	2526.258303
988.917037	2527.926925
989.213318	2527.306863
989.509563	2524.388035
989.805772	2527.989940
990.101944	2525.355937
990.398080	2525.403828
990.694180	2522.832839
990.990244	2525.572707
991.286271	2524.758560
991.582262	2526.580937
991.878217	2526.528005
992.174136	2527.727800
992.470019	2526.805269
992.765865	2527.226205
993.061676	2524.577079
993.357450	2527.609333
993.653188	2524.211595
993.948890	2527.543798
994.244556	2526.084384
994.540186	2526.091945
994.835780	2525.920546
995.131337	2528.050434
995.426859	2525.456760
995.722345	2526.313756
996.017795	2528.148736
996.313208	2526.608664
996.608586	2526.500279
996.903928	2527.899199
997.199234	2529.197296
997.494504	2525.613036
997.789738	2527.518592
998.084936	2524.435926
998.380099	2525.363499
998.675225	2529.081350
998.970316	2529.593027
999.265371	2526.911133
999.560390	2524.902233
999.855373	2526.286030
1000.150320	2526.288550
1000.445232	2525.852491
1000.740108	2523.992305
1001.034948	2526.046575
1001.329752	2524.791328
1001.624521	2526.853160
1001.919254	2522.003570
1002.213951	2522.855525
1002.508613	2523.125226
1002.803239	2525.171935
1003.097829	2518.439474
1003.392384	2526.104548
1003.686903	2525.000536
1003.981386	2527.402645
1004.275834	2525.096317
1004.570246	2527.016997
1004.864623	2526.351565
1005.158964	2523.238652
1005.453270	2526.475073
1005.747540	2526.197810
1006.041775	2525.456760
1006.335974	2524.216636
1006.630138	2524.380474
1006.924266	2523.825947
1007.218359	2525.174455
1007.512416	2521.620442
1007.806438	2524.083046
1008.100425	2525.020700
1008.394376	2525.063550
1008.688292	2522.921060
1008.982172	2526.003725
1009.276017	2524.259486
1009.569827	2522.421985
1009.863602	2525.658406
1010.157341	2527.266534
1010.451045	2525.940711
1010.744714	2522.916018
1011.038347	2525.018180
1011.331945	2526.966586
1011.625508	2528.206709
1011.919036	2526.936339
1012.212528	2526.548170
1012.505986	2524.342665
1012.799408	2527.080012
1013.092795	2526.986750
1013.386147	2526.386853
1013.679464	2524.085566
1013.972745	2526.769981
1014.265992	2525.265196
1014.559204	2524.657737
1014.852380	2525.774353
1015.145521	2524.894671
1015.438628	2524.307377
1015.731699	2527.415248
1016.024736	2525.527336
1016.317737	2525.797038
1016.610703	2525.489528
1016.903635	2521.151615
1017.196531	2521.333096
1017.489393	2522.487520
1017.782219	2521.396111
1018.075011	2522.621111
1018.367768	2523.659589
1018.660490	2526.606143
1018.953177	2526.606143
1019.245829	2526.606143
